Data from 1983.PennyLincolnUp.Lamp.En5.5.200Scan.071819.P1_HRD10591_16-53-31-965.txt Node
Date: Thu Jul 18 16:53:31 EDT 2019
User: cochatt
Spectrometer: HR+D1059
Trigger mode: 1
Integration Time (sec): 1.000000E-1
Scans to average: 1
Electric dark correction enabled: true
Nonlinearity correction enabled: false
Boxcar width: 0
XAxis mode: Wavelengths
Number of Pixels in Spectrum: 2048
>>>>>Begin Spectral Data<<<<<
223.165	-20.38
223.4	-20.38
223.635	-20.38
223.869	-18.38
224.104	-35.38
224.338	-16.38
224.573	-29.38
224.808	-25.38
225.042	-4.38
225.277	3.62
225.511	0.62
225.746	11.62
225.98	24.62
226.215	4.62
226.449	16.62
226.683	29.62
226.918	26.62
227.152	31.62
227.387	36.62
227.621	41.62
227.856	39.62
228.09	41.62
228.324	44.62
228.559	60.62
228.793	56.62
229.027	94.62
229.262	98.62
229.496	113.62
229.73	105.62
229.964	138.62
230.199	114.62
230.433	116.62
230.667	102.62
230.901	91.62
231.136	118.62
231.37	92.62
231.604	113.62
231.838	112.62
232.072	109.62
232.306	103.62
232.541	110.62
232.775	116.62
233.009	122.62
233.243	107.62
233.477	107.62
233.711	122.62
233.945	106.62
234.179	118.62
234.413	110.62
234.647	110.62
234.881	121.62
235.115	123.62
235.349	106.62
235.583	106.62
235.817	103.62
236.051	125.62
236.285	107.62
236.519	121.62
236.753	121.62
236.987	127.62
237.221	160.62
237.455	196.62
237.689	166.62
237.922	128.62
238.156	124.62
238.39	126.62
238.624	109.62
238.858	105.62
239.091	99.62
239.325	118.62
239.559	109.62
239.793	116.62
240.027	121.62
240.26	146.62
240.494	124.62
240.728	139.62
240.961	145.62
241.195	136.62
241.429	146.62
241.662	122.62
241.896	127.62
242.13	127.62
242.363	124.62
242.597	109.62
242.83	127.62
243.064	124.62
243.298	117.62
243.531	118.62
243.765	137.62
243.998	133.62
244.232	142.62
244.465	133.62
244.699	133.62
244.932	126.62
245.166	143.62
245.399	132.62
245.633	140.62
245.866	130.62
246.099	130.62
246.333	136.62
246.566	139.62
246.8	152.62
247.033	142.62
247.266	141.62
247.5	149.62
247.733	170.62
247.966	160.62
248.2	151.62
248.433	160.62
248.666	162.62
248.899	169.62
249.133	177.62
249.366	180.62
249.599	166.62
249.832	165.62
250.066	178.62
250.299	174.62
250.532	166.62
250.765	174.62
250.998	194.62
251.231	200.62
251.465	185.62
251.698	187.62
251.931	184.62
252.164	187.62
252.397	182.62
252.63	169.62
252.863	186.62
253.096	202.62
253.329	214.62
253.562	204.62
253.795	189.62
254.028	179.62
254.261	196.62
254.494	185.62
254.727	220.62
254.96	252.62
255.193	267.62
255.426	223.62
255.659	202.62
255.892	196.62
256.124	198.62
256.357	206.62
256.59	196.62
256.823	189.62
257.056	176.62
257.289	188.62
257.521	209.62
257.754	184.62
257.987	178.62
258.22	206.62
258.452	196.62
258.685	197.62
258.918	187.62
259.151	201.62
259.383	208.62
259.616	192.62
259.849	212.62
260.081	220.62
260.314	224.62
260.547	211.62
260.779	212.62
261.012	202.62
261.244	200.62
261.477	194.62
261.71	209.62
261.942	203.62
262.175	212.62
262.407	203.62
262.64	210.62
262.872	192.62
263.105	196.62
263.337	213.62
263.57	186.62
263.802	193.62
264.035	196.62
264.267	190.62
264.499	186.62
264.732	194.62
264.964	190.62
265.197	204.62
265.429	197.62
265.661	186.62
265.894	189.62
266.126	194.62
266.358	204.62
266.591	190.62
266.823	196.62
267.055	199.62
267.287	217.62
267.52	210.62
267.752	200.62
267.984	217.62
268.216	222.62
268.448	197.62
268.681	212.62
268.913	229.62
269.145	244.62
269.377	244.62
269.609	246.62
269.841	249.62
270.073	241.62
270.306	260.62
270.538	277.62
270.77	282.62
271.002	264.62
271.234	269.62
271.466	296.62
271.698	264.62
271.93	280.62
272.162	278.62
272.394	284.62
272.626	284.62
272.858	244.62
273.09	248.62
273.322	240.62
273.553	248.62
273.785	237.62
274.017	236.62
274.249	242.62
274.481	245.62
274.713	253.62
274.945	218.62
275.176	235.62
275.408	241.62
275.64	225.62
275.872	243.62
276.104	238.62
276.335	240.62
276.567	253.62
276.799	242.62
277.031	284.62
277.262	294.62
277.494	271.62
277.726	272.62
277.957	255.62
278.189	234.62
278.421	263.62
278.652	238.62
278.884	252.62
279.115	250.62
279.347	243.62
279.579	264.62
279.81	232.62
280.042	227.62
280.273	242.62
280.505	247.62
280.736	243.62
280.968	260.62
281.199	238.62
281.431	254.62
281.662	229.62
281.894	223.62
282.125	226.62
282.356	235.62
282.588	276.62
282.819	274.62
283.051	250.62
283.282	246.62
283.513	251.62
283.745	243.62
283.976	256.62
284.207	231.62
284.439	249.62
284.67	245.62
284.901	246.62
285.132	241.62
285.364	252.62
285.595	235.62
285.826	251.62
286.057	248.62
286.288	239.62
286.52	231.62
286.751	240.62
286.982	266.62
287.213	261.62
287.444	276.62
287.675	258.62
287.906	256.62
288.138	265.62
288.369	268.62
288.6	262.62
288.831	259.62
289.062	260.62
289.293	262.62
289.524	256.62
289.755	252.62
289.986	263.62
290.217	245.62
290.448	262.62
290.679	255.62
290.91	253.62
291.141	265.62
291.371	257.62
291.602	237.62
291.833	263.62
292.064	271.62
292.295	258.62
292.526	267.62
292.757	265.62
292.987	257.62
293.218	256.62
293.449	263.62
293.68	256.62
293.91	264.62
294.141	257.62
294.372	256.62
294.603	270.62
294.833	281.62
295.064	266.62
295.295	256.62
295.525	261.62
295.756	270.62
295.987	273.62
296.217	311.62
296.448	305.62
296.679	273.62
296.909	270.62
297.14	256.62
297.37	273.62
297.601	254.62
297.831	245.62
298.062	281.62
298.292	279.62
298.523	272.62
298.753	257.62
298.984	269.62
299.214	266.62
299.445	278.62
299.675	276.62
299.905	282.62
300.136	275.62
300.366	280.62
300.597	283.62
300.827	288.62
301.057	282.62
301.288	287.62
301.518	281.62
301.748	293.62
301.979	304.62
302.209	282.62
302.439	299.62
302.669	288.62
302.9	296.62
303.13	288.62
303.36	289.62
303.59	284.62
303.82	302.62
304.051	298.62
304.281	276.62
304.511	283.62
304.741	284.62
304.971	288.62
305.201	295.62
305.431	290.62
305.661	291.62
305.891	304.62
306.121	284.62
306.352	304.62
306.582	302.62
306.812	294.62
307.042	279.62
307.272	288.62
307.502	301.62
307.731	314.62
307.961	282.62
308.191	304.62
308.421	327.62
308.651	313.62
308.881	298.62
309.111	320.62
309.341	318.62
309.571	295.62
309.8	337.62
310.03	339.62
310.26	329.62
310.49	351.62
310.72	349.62
310.949	346.62
311.179	353.62
311.409	344.62
311.639	337.62
311.868	344.62
312.098	340.62
312.328	331.62
312.557	347.62
312.787	360.62
313.017	363.62
313.246	360.62
313.476	331.62
313.706	314.62
313.935	336.62
314.165	347.62
314.394	351.62
314.624	370.62
314.853	376.62
315.083	341.62
315.312	333.62
315.542	334.62
315.771	337.62
316.001	344.62
316.23	332.62
316.46	336.62
316.689	333.62
316.919	345.62
317.148	348.62
317.377	348.62
317.607	342.62
317.836	329.62
318.065	349.62
318.295	349.62
318.524	336.62
318.753	349.62
318.983	342.62
319.212	355.62
319.441	343.62
319.67	345.62
319.9	340.62
320.129	331.62
320.358	351.62
320.587	349.62
320.816	368.62
321.046	342.62
321.275	361.62
321.504	353.62
321.733	370.62
321.962	384.62
322.191	376.62
322.42	388.62
322.649	400.62
322.878	414.62
323.108	413.62
323.337	452.62
323.566	467.62
323.795	508.62
324.024	558.62
324.253	660.62
324.482	970.62
324.71	1448.62
324.939	1935.62
325.168	1611.62
325.397	861.62
325.626	593.62
325.855	496.62
326.084	489.62
326.313	467.62
326.542	463.62
326.77	508.62
326.999	588.62
327.228	860.62
327.457	1252.62
327.686	1424.62
327.914	952.62
328.143	652.62
328.372	572.62
328.6	538.62
328.829	520.62
329.058	534.62
329.287	532.62
329.515	496.62
329.744	468.62
329.972	446.62
330.201	457.62
330.43	472.62
330.658	510.62
330.887	549.62
331.115	546.62
331.344	458.62
331.572	427.62
331.801	435.62
332.03	450.62
332.258	402.62
332.486	400.62
332.715	393.62
332.943	386.62
333.172	397.62
333.4	387.62
333.629	417.62
333.857	405.62
334.085	416.62
334.314	432.62
334.542	413.62
334.771	420.62
334.999	414.62
335.227	406.62
335.455	392.62
335.684	409.62
335.912	409.62
336.14	378.62
336.369	360.62
336.597	391.62
336.825	429.62
337.053	381.62
337.281	379.62
337.51	398.62
337.738	387.62
337.966	380.62
338.194	370.62
338.422	373.62
338.65	367.62
338.878	375.62
339.106	369.62
339.334	350.62
339.562	384.62
339.79	400.62
340.018	398.62
340.246	380.62
340.474	391.62
340.702	403.62
340.93	356.62
341.158	378.62
341.386	369.62
341.614	393.62
341.842	371.62
342.07	365.62
342.298	388.62
342.526	342.62
342.754	354.62
342.981	356.62
343.209	383.62
343.437	361.62
343.665	376.62
343.893	356.62
344.12	383.62
344.348	370.62
344.576	388.62
344.804	378.62
345.031	386.62
345.259	382.62
345.487	390.62
345.714	378.62
345.942	370.62
346.17	389.62
346.397	369.62
346.625	368.62
346.853	382.62
347.08	381.62
347.308	379.62
347.535	373.62
347.763	392.62
347.99	382.62
348.218	383.62
348.445	392.62
348.673	383.62
348.9	374.62
349.128	339.62
349.355	351.62
349.583	348.62
349.81	362.62
350.037	357.62
350.265	356.62
350.492	355.62
350.72	366.62
350.947	359.62
351.174	366.62
351.402	389.62
351.629	384.62
351.856	376.62
352.083	376.62
352.311	375.62
352.538	381.62
352.765	379.62
352.992	381.62
353.22	397.62
353.447	380.62
353.674	359.62
353.901	361.62
354.128	341.62
354.355	361.62
354.583	353.62
354.81	341.62
355.037	348.62
355.264	345.62
355.491	326.62
355.718	356.62
355.945	342.62
356.172	334.62
356.399	329.62
356.626	321.62
356.853	340.62
357.08	347.62
357.307	340.62
357.534	328.62
357.761	347.62
357.988	362.62
358.215	354.62
358.441	342.62
358.668	320.62
358.895	342.62
359.122	330.62
359.349	348.62
359.576	384.62
359.802	409.62
360.029	424.62
360.256	434.62
360.483	422.62
360.709	366.62
360.936	370.62
361.163	372.62
361.39	389.62
361.616	354.62
361.843	350.62
362.07	341.62
362.296	370.62
362.523	353.62
362.749	368.62
362.976	384.62
363.203	343.62
363.429	369.62
363.656	362.62
363.882	360.62
364.109	346.62
364.335	356.62
364.562	353.62
364.788	349.62
365.015	340.62
365.241	359.62
365.468	361.62
365.694	361.62
365.92	384.62
366.147	350.62
366.373	345.62
366.599	359.62
366.826	369.62
367.052	350.62
367.278	348.62
367.505	339.62
367.731	337.62
367.957	353.62
368.184	370.62
368.41	352.62
368.636	360.62
368.862	365.62
369.089	357.62
369.315	362.62
369.541	342.62
369.767	356.62
369.993	342.62
370.219	354.62
370.445	352.62
370.672	337.62
370.898	357.62
371.124	331.62
371.35	337.62
371.576	330.62
371.802	353.62
372.028	358.62
372.254	341.62
372.48	352.62
372.706	357.62
372.932	356.62
373.158	334.62
373.384	333.62
373.61	338.62
373.835	339.62
374.061	358.62
374.287	352.62
374.513	358.62
374.739	356.62
374.965	356.62
375.191	340.62
375.416	345.62
375.642	341.62
375.868	355.62
376.094	348.62
376.319	335.62
376.545	330.62
376.771	343.62
376.997	359.62
377.222	342.62
377.448	340.62
377.674	345.62
377.899	334.62
378.125	329.62
378.35	332.62
378.576	340.62
378.802	340.62
379.027	341.62
379.253	339.62
379.478	339.62
379.704	341.62
379.929	342.62
380.155	365.62
380.38	349.62
380.606	350.62
380.831	337.62
381.057	349.62
381.282	341.62
381.507	357.62
381.733	358.62
381.958	338.62
382.184	353.62
382.409	355.62
382.634	337.62
382.86	340.62
383.085	351.62
383.31	340.62
383.535	354.62
383.761	350.62
383.986	355.62
384.211	365.62
384.436	353.62
384.662	351.62
384.887	361.62
385.112	333.62
385.337	340.62
385.562	347.62
385.787	344.62
386.013	370.62
386.238	370.62
386.463	381.62
386.688	372.62
386.913	352.62
387.138	357.62
387.363	371.62
387.588	341.62
387.813	354.62
388.038	352.62
388.263	364.62
388.488	361.62
388.713	349.62
388.938	357.62
389.163	361.62
389.387	370.62
389.612	383.62
389.837	371.62
390.062	361.62
390.287	376.62
390.512	368.62
390.736	350.62
390.961	356.62
391.186	372.62
391.411	382.62
391.636	376.62
391.86	380.62
392.085	390.62
392.31	364.62
392.534	366.62
392.759	378.62
392.984	360.62
393.208	363.62
393.433	352.62
393.658	361.62
393.882	359.62
394.107	365.62
394.331	377.62
394.556	365.62
394.78	359.62
395.005	368.62
395.229	356.62
395.454	376.62
395.678	386.62
395.903	412.62
396.127	403.62
396.352	401.62
396.576	377.62
396.801	370.62
397.025	363.62
397.249	392.62
397.474	366.62
397.698	410.62
397.922	406.62
398.147	386.62
398.371	436.62
398.595	416.62
398.82	413.62
399.044	415.62
399.268	436.62
399.492	432.62
399.717	438.62
399.941	489.62
400.165	502.62
400.389	484.62
400.613	468.62
400.837	426.62
401.062	421.62
401.286	413.62
401.51	430.62
401.734	387.62
401.958	418.62
402.182	430.62
402.406	441.62
402.63	424.62
402.854	444.62
403.078	410.62
403.302	415.62
403.526	421.62
403.75	433.62
403.974	420.62
404.198	429.62
404.422	431.62
404.645	421.62
404.869	459.62
405.093	442.62
405.317	467.62
405.541	467.62
405.765	462.62
405.988	462.62
406.212	458.62
406.436	503.62
406.66	501.62
406.883	484.62
407.107	500.62
407.331	511.62
407.555	555.62
407.778	556.62
408.002	532.62
408.226	479.62
408.449	474.62
408.673	470.62
408.896	497.62
409.12	520.62
409.344	491.62
409.567	455.62
409.791	457.62
410.014	450.62
410.238	422.62
410.461	442.62
410.685	440.62
410.908	442.62
411.132	460.62
411.355	506.62
411.578	456.62
411.802	443.62
412.025	408.62
412.249	420.62
412.472	450.62
412.695	445.62
412.919	439.62
413.142	422.62
413.365	416.62
413.589	418.62
413.812	405.62
414.035	427.62
414.258	414.62
414.482	383.62
414.705	409.62
414.928	399.62
415.151	409.62
415.374	380.62
415.597	397.62
415.821	386.62
416.044	406.62
416.267	406.62
416.49	420.62
416.713	387.62
416.936	396.62
417.159	382.62
417.382	397.62
417.605	399.62
417.828	423.62
418.051	423.62
418.274	435.62
418.497	408.62
418.72	398.62
418.943	400.62
419.166	418.62
419.389	433.62
419.611	413.62
419.834	402.62
420.057	433.62
420.28	426.62
420.503	398.62
420.726	442.62
420.948	447.62
421.171	445.62
421.394	483.62
421.617	440.62
421.839	431.62
422.062	413.62
422.285	459.62
422.507	486.62
422.73	516.62
422.953	489.62
423.175	483.62
423.398	456.62
423.621	428.62
423.843	457.62
424.066	448.62
424.288	453.62
424.511	484.62
424.733	520.62
424.956	572.62
425.178	546.62
425.401	553.62
425.623	547.62
425.846	486.62
426.068	444.62
426.291	438.62
426.513	458.62
426.735	466.62
426.958	530.62
427.18	576.62
427.402	645.62
427.625	732.62
427.847	610.62
428.069	520.62
428.292	480.62
428.514	485.62
428.736	445.62
428.958	440.62
429.181	436.62
429.403	422.62
429.625	436.62
429.847	445.62
430.069	510.62
430.292	503.62
430.514	433.62
430.736	438.62
430.958	406.62
431.18	400.62
431.402	397.62
431.624	387.62
431.846	411.62
432.068	396.62
432.29	376.62
432.512	402.62
432.734	413.62
432.956	430.62
433.178	412.62
433.4	404.62
433.622	392.62
433.844	382.62
434.066	412.62
434.287	397.62
434.509	403.62
434.731	428.62
434.953	420.62
435.175	423.62
435.397	451.62
435.618	464.62
435.84	506.62
436.062	550.62
436.284	606.62
436.505	509.62
436.727	460.62
436.949	437.62
437.17	437.62
437.392	443.62
437.614	430.62
437.835	466.62
438.057	544.62
438.278	619.62
438.5	611.62
438.721	654.62
438.943	619.62
439.165	516.62
439.386	481.62
439.608	459.62
439.829	484.62
440.05	508.62
440.272	521.62
440.493	487.62
440.715	467.62
440.936	441.62
441.158	434.62
441.379	447.62
441.6	446.62
441.822	477.62
442.043	520.62
442.264	550.62
442.486	587.62
442.707	497.62
442.928	472.62
443.149	483.62
443.371	486.62
443.592	548.62
443.813	592.62
444.034	613.62
444.255	527.62
444.476	489.62
444.698	474.62
444.919	465.62
445.14	578.62
445.361	526.62
445.582	512.62
445.803	548.62
446.024	601.62
446.245	624.62
446.466	566.62
446.687	502.62
446.908	465.62
447.129	448.62
447.35	429.62
447.571	432.62
447.792	413.62
448.013	419.62
448.234	451.62
448.455	482.62
448.675	589.62
448.896	661.62
449.117	560.62
449.338	568.62
449.559	640.62
449.779	666.62
450	553.62
450.221	468.62
450.442	438.62
450.662	440.62
450.883	450.62
451.104	459.62
451.324	450.62
451.545	405.62
451.766	381.62
451.986	394.62
452.207	400.62
452.428	400.62
452.648	387.62
452.869	375.62
453.089	395.62
453.31	390.62
453.53	386.62
453.751	395.62
453.971	406.62
454.192	421.62
454.412	401.62
454.633	374.62
454.853	375.62
455.073	380.62
455.294	407.62
455.514	470.62
455.734	431.62
455.955	372.62
456.175	378.62
456.395	376.62
456.616	360.62
456.836	376.62
457.056	346.62
457.276	358.62
457.497	368.62
457.717	368.62
457.937	357.62
458.157	392.62
458.377	386.62
458.598	401.62
458.818	447.62
459.038	513.62
459.258	508.62
459.478	425.62
459.698	422.62
459.918	387.62
460.138	397.62
460.358	394.62
460.578	384.62
460.798	408.62
461.018	407.62
461.238	399.62
461.458	404.62
461.678	396.62
461.898	394.62
462.118	413.62
462.338	416.62
462.558	403.62
462.777	429.62
462.997	421.62
463.217	456.62
463.437	458.62
463.657	413.62
463.876	422.62
464.096	414.62
464.316	444.62
464.536	423.62
464.755	458.62
464.975	455.62
465.195	477.62
465.414	555.62
465.634	485.62
465.854	432.62
466.073	416.62
466.293	406.62
466.512	409.62
466.732	415.62
466.951	381.62
467.171	388.62
467.391	391.62
467.61	408.62
467.829	409.62
468.049	395.62
468.268	402.62
468.488	389.62
468.707	398.62
468.927	378.62
469.146	358.62
469.365	382.62
469.585	370.62
469.804	381.62
470.023	417.62
470.243	382.62
470.462	410.62
470.681	435.62
470.901	394.62
471.12	408.62
471.339	402.62
471.558	388.62
471.777	396.62
471.997	395.62
472.216	391.62
472.435	389.62
472.654	396.62
472.873	404.62
473.092	395.62
473.311	392.62
473.53	388.62
473.749	404.62
473.968	425.62
474.187	519.62
474.406	546.62
474.625	444.62
474.844	405.62
475.063	401.62
475.282	395.62
475.501	399.62
475.72	412.62
475.939	394.62
476.158	406.62
476.377	399.62
476.596	406.62
476.814	412.62
477.033	417.62
477.252	434.62
477.471	414.62
477.69	416.62
477.908	414.62
478.127	434.62
478.346	454.62
478.564	436.62
478.783	466.62
479.002	433.62
479.22	445.62
479.439	461.62
479.658	483.62
479.876	485.62
480.095	467.62
480.313	497.62
480.532	491.62
480.751	481.62
480.969	467.62
481.188	492.62
481.406	502.62
481.624	472.62
481.843	466.62
482.061	454.62
482.28	466.62
482.498	454.62
482.717	461.62
482.935	457.62
483.153	461.62
483.372	471.62
483.59	475.62
483.808	452.62
484.027	466.62
484.245	476.62
484.463	457.62
484.681	472.62
484.9	455.62
485.118	500.62
485.336	461.62
485.554	469.62
485.772	489.62
485.99	487.62
486.209	469.62
486.427	467.62
486.645	478.62
486.863	490.62
487.081	514.62
487.299	529.62
487.517	492.62
487.735	482.62
487.953	500.62
488.171	496.62
488.389	500.62
488.607	505.62
488.825	510.62
489.043	488.62
489.261	506.62
489.479	478.62
489.696	504.62
489.914	508.62
490.132	526.62
490.35	506.62
490.568	530.62
490.786	510.62
491.003	527.62
491.221	545.62
491.439	564.62
491.657	546.62
491.874	552.62
492.092	560.62
492.31	551.62
492.527	571.62
492.745	578.62
492.963	567.62
493.18	565.62
493.398	554.62
493.615	586.62
493.833	571.62
494.05	566.62
494.268	567.62
494.485	574.62
494.703	589.62
494.92	596.62
495.138	584.62
495.355	582.62
495.573	588.62
495.79	603.62
496.008	595.62
496.225	589.62
496.442	565.62
496.66	588.62
496.877	576.62
497.094	581.62
497.312	602.62
497.529	591.62
497.746	597.62
497.963	631.62
498.181	633.62
498.398	637.62
498.615	653.62
498.832	636.62
499.049	653.62
499.267	660.62
499.484	692.62
499.701	692.62
499.918	729.62
500.135	749.62
500.352	791.62
500.569	770.62
500.786	790.62
501.003	778.62
501.22	753.62
501.437	772.62
501.654	731.62
501.871	736.62
502.088	729.62
