Data from 1983.PennyLincolnUp.Lamp.En5.5.200Scan.071819.P1_HRD10591_16-53-17-966.txt Node
Date: Thu Jul 18 16:53:17 EDT 2019
User: cochatt
Spectrometer: HR+D1059
Trigger mode: 1
Integration Time (sec): 1.000000E-1
Scans to average: 1
Electric dark correction enabled: true
Nonlinearity correction enabled: false
Boxcar width: 0
XAxis mode: Wavelengths
Number of Pixels in Spectrum: 2048
>>>>>Begin Spectral Data<<<<<
223.165	-22.69
223.4	-22.69
223.635	-22.69
223.869	-19.69
224.104	-13.69
224.338	-20.69
224.573	-15.69
224.808	-3.69
225.042	-12.69
225.277	-8.69
225.511	0.31
225.746	12.31
225.98	14.31
226.215	16.31
226.449	22.31
226.683	11.31
226.918	14.31
227.152	26.31
227.387	37.31
227.621	41.31
227.856	50.31
228.09	46.31
228.324	50.31
228.559	61.31
228.793	73.31
229.027	90.31
229.262	102.31
229.496	107.31
229.73	119.31
229.964	140.31
230.199	122.31
230.433	102.31
230.667	114.31
230.901	109.31
231.136	96.31
231.37	103.31
231.604	114.31
231.838	112.31
232.072	101.31
232.306	88.31
232.541	112.31
232.775	118.31
233.009	124.31
233.243	115.31
233.477	122.31
233.711	114.31
233.945	117.31
234.179	102.31
234.413	113.31
234.647	110.31
234.881	109.31
235.115	116.31
235.349	112.31
235.583	131.31
235.817	118.31
236.051	124.31
236.285	134.31
236.519	125.31
236.753	108.31
236.987	134.31
237.221	164.31
237.455	208.31
237.689	171.31
237.922	143.31
238.156	120.31
238.39	124.31
238.624	109.31
238.858	103.31
239.091	117.31
239.325	131.31
239.559	126.31
239.793	116.31
240.027	105.31
240.26	126.31
240.494	154.31
240.728	156.31
240.961	142.31
241.195	129.31
241.429	133.31
241.662	121.31
241.896	134.31
242.13	120.31
242.363	109.31
242.597	130.31
242.83	128.31
243.064	126.31
243.298	123.31
243.531	125.31
243.765	142.31
243.998	124.31
244.232	133.31
244.465	142.31
244.699	139.31
244.932	136.31
245.166	142.31
245.399	135.31
245.633	132.31
245.866	130.31
246.099	149.31
246.333	138.31
246.566	132.31
246.8	142.31
247.033	137.31
247.266	160.31
247.5	148.31
247.733	133.31
247.966	152.31
248.2	164.31
248.433	167.31
248.666	153.31
248.899	165.31
249.133	181.31
249.366	185.31
249.599	160.31
249.832	162.31
250.066	160.31
250.299	169.31
250.532	167.31
250.765	174.31
250.998	193.31
251.231	205.31
251.465	183.31
251.698	187.31
251.931	178.31
252.164	174.31
252.397	183.31
252.63	169.31
252.863	194.31
253.096	201.31
253.329	202.31
253.562	205.31
253.795	225.31
254.028	194.31
254.261	207.31
254.494	226.31
254.727	243.31
254.96	254.31
255.193	237.31
255.426	241.31
255.659	192.31
255.892	200.31
256.124	194.31
256.357	209.31
256.59	203.31
256.823	201.31
257.056	203.31
257.289	173.31
257.521	185.31
257.754	182.31
257.987	187.31
258.22	192.31
258.452	205.31
258.685	192.31
258.918	192.31
259.151	190.31
259.383	196.31
259.616	201.31
259.849	212.31
260.081	197.31
260.314	227.31
260.547	238.31
260.779	209.31
261.012	215.31
261.244	202.31
261.477	210.31
261.71	204.31
261.942	202.31
262.175	212.31
262.407	208.31
262.64	210.31
262.872	193.31
263.105	194.31
263.337	197.31
263.57	204.31
263.802	188.31
264.035	198.31
264.267	198.31
264.499	190.31
264.732	203.31
264.964	187.31
265.197	184.31
265.429	197.31
265.661	192.31
265.894	197.31
266.126	192.31
266.358	164.31
266.591	204.31
266.823	201.31
267.055	199.31
267.287	195.31
267.52	195.31
267.752	212.31
267.984	208.31
268.216	210.31
268.448	220.31
268.681	230.31
268.913	224.31
269.145	241.31
269.377	267.31
269.609	246.31
269.841	243.31
270.073	234.31
270.306	274.31
270.538	286.31
270.77	270.31
271.002	287.31
271.234	266.31
271.466	278.31
271.698	279.31
271.93	294.31
272.162	294.31
272.394	291.31
272.626	267.31
272.858	260.31
273.09	256.31
273.322	241.31
273.553	255.31
273.785	225.31
274.017	237.31
274.249	244.31
274.481	232.31
274.713	229.31
274.945	219.31
275.176	222.31
275.408	235.31
275.64	241.31
275.872	219.31
276.104	246.31
276.335	234.31
276.567	255.31
276.799	234.31
277.031	247.31
277.262	297.31
277.494	287.31
277.726	270.31
277.957	252.31
278.189	263.31
278.421	258.31
278.652	238.31
278.884	264.31
279.115	247.31
279.347	245.31
279.579	241.31
279.81	249.31
280.042	245.31
280.273	256.31
280.505	244.31
280.736	254.31
280.968	240.31
281.199	235.31
281.431	230.31
281.662	235.31
281.894	243.31
282.125	245.31
282.356	251.31
282.588	238.31
282.819	286.31
283.051	244.31
283.282	248.31
283.513	249.31
283.745	249.31
283.976	271.31
284.207	242.31
284.439	256.31
284.67	244.31
284.901	270.31
285.132	256.31
285.364	259.31
285.595	253.31
285.826	252.31
286.057	263.31
286.288	273.31
286.52	253.31
286.751	268.31
286.982	251.31
287.213	259.31
287.444	253.31
287.675	252.31
287.906	255.31
288.138	266.31
288.369	284.31
288.6	283.31
288.831	274.31
289.062	282.31
289.293	267.31
289.524	258.31
289.755	262.31
289.986	265.31
290.217	263.31
290.448	248.31
290.679	270.31
290.91	255.31
291.141	252.31
291.371	246.31
291.602	241.31
291.833	246.31
292.064	241.31
292.295	250.31
292.526	248.31
292.757	258.31
292.987	264.31
293.218	253.31
293.449	275.31
293.68	266.31
293.91	271.31
294.141	268.31
294.372	288.31
294.603	264.31
294.833	258.31
295.064	270.31
295.295	258.31
295.525	270.31
295.756	272.31
295.987	274.31
296.217	301.31
296.448	290.31
296.679	290.31
296.909	265.31
297.14	259.31
297.37	270.31
297.601	275.31
297.831	270.31
298.062	277.31
298.292	280.31
298.523	257.31
298.753	281.31
298.984	256.31
299.214	264.31
299.445	267.31
299.675	283.31
299.905	279.31
300.136	280.31
300.366	279.31
300.597	264.31
300.827	289.31
301.057	277.31
301.288	279.31
301.518	293.31
301.748	268.31
301.979	291.31
302.209	283.31
302.439	318.31
302.669	296.31
302.9	286.31
303.13	283.31
303.36	298.31
303.59	312.31
303.82	292.31
304.051	295.31
304.281	284.31
304.511	289.31
304.741	303.31
304.971	296.31
305.201	288.31
305.431	293.31
305.661	284.31
305.891	314.31
306.121	298.31
306.352	300.31
306.582	279.31
306.812	286.31
307.042	302.31
307.272	305.31
307.502	299.31
307.731	292.31
307.961	293.31
308.191	292.31
308.421	298.31
308.651	312.31
308.881	308.31
309.111	312.31
309.341	301.31
309.571	305.31
309.8	324.31
310.03	324.31
310.26	331.31
310.49	312.31
310.72	337.31
310.949	342.31
311.179	352.31
311.409	331.31
311.639	320.31
311.868	350.31
312.098	338.31
312.328	316.31
312.557	359.31
312.787	362.31
313.017	375.31
313.246	363.31
313.476	335.31
313.706	331.31
313.935	317.31
314.165	358.31
314.394	361.31
314.624	347.31
314.853	342.31
315.083	350.31
315.312	341.31
315.542	344.31
315.771	330.31
316.001	322.31
316.23	339.31
316.46	352.31
316.689	340.31
316.919	344.31
317.148	338.31
317.377	343.31
317.607	345.31
317.836	356.31
318.065	333.31
318.295	352.31
318.524	325.31
318.753	329.31
318.983	341.31
319.212	346.31
319.441	344.31
319.67	350.31
319.9	331.31
320.129	338.31
320.358	326.31
320.587	354.31
320.816	347.31
321.046	349.31
321.275	376.31
321.504	356.31
321.733	370.31
321.962	394.31
322.191	391.31
322.42	412.31
322.649	408.31
322.878	416.31
323.108	406.31
323.337	438.31
323.566	457.31
323.795	489.31
324.024	547.31
324.253	676.31
324.482	947.31
324.71	1407.31
324.939	1901.31
325.168	1546.31
325.397	836.31
325.626	596.31
325.855	499.31
326.084	449.31
326.313	455.31
326.542	474.31
326.77	504.31
326.999	610.31
327.228	826.31
327.457	1236.31
327.686	1388.31
327.914	945.31
328.143	626.31
328.372	563.31
328.6	538.31
328.829	496.31
329.058	535.31
329.287	536.31
329.515	478.31
329.744	429.31
329.972	446.31
330.201	440.31
330.43	465.31
330.658	517.31
330.887	555.31
331.115	521.31
331.344	458.31
331.572	443.31
331.801	449.31
332.03	435.31
332.258	413.31
332.486	409.31
332.715	399.31
332.943	379.31
333.172	397.31
333.4	375.31
333.629	404.31
333.857	410.31
334.085	416.31
334.314	401.31
334.542	421.31
334.771	413.31
334.999	395.31
335.227	420.31
335.455	410.31
335.684	395.31
335.912	403.31
336.14	394.31
336.369	383.31
336.597	384.31
336.825	389.31
337.053	379.31
337.281	397.31
337.51	376.31
337.738	397.31
337.966	386.31
338.194	421.31
338.422	414.31
338.65	393.31
338.878	377.31
339.106	388.31
339.334	370.31
339.562	382.31
339.79	375.31
340.018	394.31
340.246	393.31
340.474	382.31
340.702	374.31
340.93	395.31
341.158	380.31
341.386	390.31
341.614	384.31
341.842	368.31
342.07	382.31
342.298	377.31
342.526	364.31
342.754	373.31
342.981	368.31
343.209	371.31
343.437	374.31
343.665	364.31
343.893	388.31
344.12	398.31
344.348	389.31
344.576	361.31
344.804	406.31
345.031	380.31
345.259	398.31
345.487	389.31
345.714	361.31
345.942	376.31
346.17	359.31
346.397	353.31
346.625	356.31
346.853	363.31
347.08	356.31
347.308	377.31
347.535	386.31
347.763	373.31
347.99	366.31
348.218	376.31
348.445	381.31
348.673	386.31
348.9	364.31
349.128	350.31
349.355	346.31
349.583	356.31
349.81	364.31
350.037	350.31
350.265	364.31
350.492	352.31
350.72	336.31
350.947	368.31
351.174	388.31
351.402	387.31
351.629	354.31
351.856	372.31
352.083	374.31
352.311	375.31
352.538	382.31
352.765	374.31
352.992	377.31
353.22	385.31
353.447	367.31
353.674	351.31
353.901	347.31
354.128	361.31
354.355	344.31
354.583	356.31
354.81	353.31
355.037	356.31
355.264	359.31
355.491	337.31
355.718	344.31
355.945	348.31
356.172	344.31
356.399	316.31
356.626	345.31
356.853	355.31
357.08	343.31
357.307	346.31
357.534	346.31
357.761	330.31
357.988	346.31
358.215	332.31
358.441	325.31
358.668	348.31
358.895	346.31
359.122	355.31
359.349	363.31
359.576	377.31
359.802	392.31
360.029	422.31
360.256	428.31
360.483	414.31
360.709	377.31
360.936	381.31
361.163	378.31
361.39	387.31
361.616	364.31
361.843	384.31
362.07	363.31
362.296	358.31
362.523	372.31
362.749	372.31
362.976	365.31
363.203	397.31
363.429	348.31
363.656	342.31
363.882	361.31
364.109	345.31
364.335	340.31
364.562	353.31
364.788	352.31
365.015	362.31
365.241	358.31
365.468	343.31
365.694	369.31
365.92	382.31
366.147	351.31
366.373	353.31
366.599	325.31
366.826	358.31
367.052	328.31
367.278	360.31
367.505	346.31
367.731	367.31
367.957	336.31
368.184	354.31
368.41	366.31
368.636	364.31
368.862	364.31
369.089	353.31
369.315	378.31
369.541	374.31
369.767	365.31
369.993	353.31
370.219	331.31
370.445	347.31
370.672	354.31
370.898	354.31
371.124	344.31
371.35	343.31
371.576	325.31
371.802	345.31
372.028	344.31
372.254	356.31
372.48	335.31
372.706	339.31
372.932	341.31
373.158	343.31
373.384	358.31
373.61	322.31
373.835	357.31
374.061	360.31
374.287	361.31
374.513	367.31
374.739	341.31
374.965	356.31
375.191	348.31
375.416	352.31
375.642	329.31
375.868	345.31
376.094	349.31
376.319	357.31
376.545	345.31
376.771	353.31
376.997	337.31
377.222	363.31
377.448	356.31
377.674	340.31
377.899	349.31
378.125	360.31
378.35	338.31
378.576	339.31
378.802	333.31
379.027	337.31
379.253	345.31
379.478	338.31
379.704	329.31
379.929	336.31
380.155	343.31
380.38	346.31
380.606	347.31
380.831	356.31
381.057	359.31
381.282	352.31
381.507	346.31
381.733	368.31
381.958	339.31
382.184	351.31
382.409	344.31
382.634	354.31
382.86	355.31
383.085	358.31
383.31	348.31
383.535	359.31
383.761	365.31
383.986	348.31
384.211	361.31
384.436	363.31
384.662	361.31
384.887	367.31
385.112	368.31
385.337	370.31
385.562	349.31
385.787	359.31
386.013	371.31
386.238	363.31
386.463	379.31
386.688	377.31
386.913	377.31
387.138	362.31
387.363	374.31
387.588	367.31
387.813	388.31
388.038	363.31
388.263	371.31
388.488	384.31
388.713	362.31
388.938	373.31
389.163	359.31
389.387	370.31
389.612	356.31
389.837	354.31
390.062	380.31
390.287	376.31
390.512	366.31
390.736	376.31
390.961	380.31
391.186	378.31
391.411	368.31
391.636	375.31
391.86	369.31
392.085	368.31
392.31	379.31
392.534	379.31
392.759	379.31
392.984	393.31
393.208	376.31
393.433	374.31
393.658	380.31
393.882	364.31
394.107	368.31
394.331	381.31
394.556	377.31
394.78	373.31
395.005	391.31
395.229	376.31
395.454	386.31
395.678	365.31
395.903	383.31
396.127	402.31
396.352	387.31
396.576	387.31
396.801	388.31
397.025	387.31
397.249	407.31
397.474	396.31
397.698	401.31
397.922	408.31
398.147	427.31
398.371	438.31
398.595	395.31
398.82	418.31
399.044	414.31
399.268	434.31
399.492	440.31
399.717	470.31
399.941	490.31
400.165	490.31
400.389	485.31
400.613	459.31
400.837	450.31
401.062	445.31
401.286	427.31
401.51	412.31
401.734	424.31
401.958	433.31
402.182	417.31
402.406	434.31
402.63	443.31
402.854	432.31
403.078	439.31
403.302	439.31
403.526	447.31
403.75	447.31
403.974	432.31
404.198	423.31
404.422	434.31
404.645	445.31
404.869	430.31
405.093	463.31
405.317	460.31
405.541	481.31
405.765	456.31
405.988	452.31
406.212	473.31
406.436	480.31
406.66	500.31
406.883	480.31
407.107	482.31
407.331	524.31
407.555	564.31
407.778	548.31
408.002	523.31
408.226	476.31
408.449	484.31
408.673	496.31
408.896	493.31
409.12	511.31
409.344	506.31
409.567	451.31
409.791	454.31
410.014	435.31
410.238	426.31
410.461	427.31
410.685	426.31
410.908	454.31
411.132	452.31
411.355	483.31
411.578	451.31
411.802	429.31
412.025	417.31
412.249	443.31
412.472	439.31
412.695	466.31
412.919	443.31
413.142	417.31
413.365	422.31
413.589	429.31
413.812	396.31
414.035	417.31
414.258	418.31
414.482	405.31
414.705	418.31
414.928	414.31
415.151	407.31
415.374	390.31
415.597	422.31
415.821	390.31
416.044	400.31
416.267	397.31
416.49	402.31
416.713	392.31
416.936	422.31
417.159	423.31
417.382	408.31
417.605	400.31
417.828	437.31
418.051	446.31
418.274	406.31
418.497	398.31
418.72	406.31
418.943	400.31
419.166	417.31
419.389	434.31
419.611	428.31
419.834	417.31
420.057	417.31
420.28	432.31
420.503	408.31
420.726	420.31
420.948	445.31
421.171	487.31
421.394	481.31
421.617	442.31
421.839	453.31
422.062	421.31
422.285	433.31
422.507	489.31
422.73	541.31
422.953	522.31
423.175	477.31
423.398	457.31
423.621	456.31
423.843	454.31
424.066	462.31
424.288	467.31
424.511	481.31
424.733	514.31
424.956	582.31
425.178	549.31
425.401	560.31
425.623	572.31
425.846	496.31
426.068	476.31
426.291	466.31
426.513	458.31
426.735	464.31
426.958	506.31
427.18	572.31
427.402	662.31
427.625	728.31
427.847	655.31
428.069	542.31
428.292	474.31
428.514	453.31
428.736	452.31
428.958	443.31
429.181	441.31
429.403	439.31
429.625	449.31
429.847	467.31
430.069	523.31
430.292	509.31
430.514	437.31
430.736	432.31
430.958	428.31
431.18	405.31
431.402	404.31
431.624	405.31
431.846	387.31
432.068	389.31
432.29	395.31
432.512	401.31
432.734	428.31
432.956	414.31
433.178	392.31
433.4	409.31
433.622	404.31
433.844	416.31
434.066	387.31
434.287	420.31
434.509	404.31
434.731	411.31
434.953	433.31
435.175	425.31
435.397	447.31
435.618	448.31
435.84	493.31
436.062	569.31
436.284	621.31
436.505	504.31
436.727	485.31
436.949	457.31
437.17	442.31
437.392	441.31
437.614	448.31
437.835	482.31
438.057	558.31
438.278	613.31
438.5	641.31
438.721	686.31
438.943	644.31
439.165	518.31
439.386	478.31
439.608	462.31
439.829	445.31
440.05	497.31
440.272	521.31
440.493	496.31
440.715	478.31
440.936	438.31
441.158	444.31
441.379	452.31
441.6	449.31
441.822	456.31
442.043	502.31
442.264	572.31
442.486	569.31
442.707	496.31
442.928	476.31
443.149	473.31
443.371	503.31
443.592	519.31
443.813	614.31
444.034	635.31
444.255	539.31
444.476	480.31
444.698	470.31
444.919	465.31
445.14	597.31
445.361	548.31
445.582	494.31
445.803	564.31
446.024	646.31
446.245	648.31
446.466	562.31
446.687	491.31
446.908	478.31
447.129	452.31
447.35	429.31
447.571	413.31
447.792	427.31
448.013	435.31
448.234	448.31
448.455	482.31
448.675	573.31
448.896	642.31
449.117	561.31
449.338	533.31
449.559	606.31
449.779	673.31
450	548.31
450.221	487.31
450.442	437.31
450.662	428.31
450.883	417.31
451.104	455.31
451.324	442.31
451.545	426.31
451.766	407.31
451.986	402.31
452.207	402.31
452.428	411.31
452.648	384.31
452.869	399.31
453.089	390.31
453.31	407.31
453.53	393.31
453.751	388.31
453.971	406.31
454.192	425.31
454.412	390.31
454.633	377.31
454.853	382.31
455.073	377.31
455.294	396.31
455.514	466.31
455.734	446.31
455.955	403.31
456.175	361.31
456.395	365.31
456.616	363.31
456.836	357.31
457.056	354.31
457.276	342.31
457.497	353.31
457.717	368.31
457.937	375.31
458.157	375.31
458.377	372.31
458.598	413.31
458.818	425.31
459.038	531.31
459.258	522.31
459.478	446.31
459.698	399.31
459.918	397.31
460.138	399.31
460.358	389.31
460.578	377.31
460.798	411.31
461.018	405.31
461.238	390.31
461.458	399.31
461.678	396.31
461.898	417.31
462.118	412.31
462.338	404.31
462.558	427.31
462.777	410.31
462.997	439.31
463.217	429.31
463.437	453.31
463.657	425.31
463.876	423.31
464.096	425.31
464.316	427.31
464.536	463.31
464.755	453.31
464.975	427.31
465.195	484.31
465.414	538.31
465.634	480.31
465.854	436.31
466.073	443.31
466.293	404.31
466.512	402.31
466.732	417.31
466.951	410.31
467.171	389.31
467.391	389.31
467.61	398.31
467.829	402.31
468.049	419.31
468.268	401.31
468.488	410.31
468.707	401.31
468.927	386.31
469.146	402.31
469.365	381.31
469.585	397.31
469.804	396.31
470.023	392.31
470.243	401.31
470.462	406.31
470.681	413.31
470.901	408.31
471.12	414.31
471.339	396.31
471.558	401.31
471.777	401.31
471.997	387.31
472.216	406.31
472.435	406.31
472.654	390.31
472.873	384.31
473.092	384.31
473.311	399.31
473.53	410.31
473.749	404.31
473.968	433.31
474.187	530.31
474.406	530.31
474.625	449.31
474.844	412.31
475.063	386.31
475.282	397.31
475.501	416.31
475.72	408.31
475.939	416.31
476.158	400.31
476.377	422.31
476.596	410.31
476.814	414.31
477.033	425.31
477.252	417.31
477.471	420.31
477.69	427.31
477.908	439.31
478.127	426.31
478.346	422.31
478.564	428.31
478.783	451.31
479.002	435.31
479.22	445.31
479.439	458.31
479.658	473.31
479.876	501.31
480.095	480.31
480.313	493.31
480.532	499.31
480.751	481.31
480.969	460.31
481.188	483.31
481.406	495.31
481.624	473.31
481.843	453.31
482.061	454.31
482.28	472.31
482.498	457.31
482.717	475.31
482.935	459.31
483.153	464.31
483.372	477.31
483.59	448.31
483.808	478.31
484.027	454.31
484.245	445.31
484.463	456.31
484.681	470.31
484.9	455.31
485.118	470.31
485.336	464.31
485.554	480.31
485.772	478.31
485.99	489.31
486.209	474.31
486.427	471.31
486.645	493.31
486.863	517.31
487.081	500.31
487.299	496.31
487.517	510.31
487.735	481.31
487.953	498.31
488.171	502.31
488.389	500.31
488.607	501.31
488.825	506.31
489.043	520.31
489.261	512.31
489.479	492.31
489.696	517.31
489.914	509.31
490.132	510.31
490.35	517.31
490.568	502.31
490.786	504.31
491.003	521.31
491.221	562.31
491.439	552.31
491.657	575.31
491.874	556.31
492.092	550.31
492.31	573.31
492.527	564.31
492.745	581.31
492.963	556.31
493.18	551.31
493.398	595.31
493.615	579.31
493.833	588.31
494.05	562.31
494.268	568.31
494.485	547.31
494.703	585.31
494.92	582.31
495.138	570.31
495.355	576.31
495.573	606.31
495.79	586.31
496.008	602.31
496.225	577.31
496.442	564.31
496.66	608.31
496.877	591.31
497.094	608.31
497.312	605.31
497.529	625.31
497.746	617.31
497.963	634.31
498.181	636.31
498.398	636.31
498.615	645.31
498.832	643.31
499.049	667.31
499.267	646.31
499.484	691.31
499.701	714.31
499.918	750.31
500.135	740.31
500.352	773.31
500.569	775.31
500.786	764.31
501.003	764.31
501.22	744.31
501.437	734.31
501.654	728.31
501.871	740.31
