Data from 1983.PennyLincolnUp.Lamp.En5.5.200Scan.071819.P1_HRD10591_16-54-34-966.txt Node
Date: Thu Jul 18 16:54:34 EDT 2019
User: cochatt
Spectrometer: HR+D1059
Trigger mode: 1
Integration Time (sec): 1.000000E-1
Scans to average: 1
Electric dark correction enabled: true
Nonlinearity correction enabled: false
Boxcar width: 0
XAxis mode: Wavelengths
Number of Pixels in Spectrum: 2048
>>>>>Begin Spectral Data<<<<<
223.165	-10.06
223.4	-10.06
223.635	-10.06
223.869	-29.06
224.104	-20.06
224.338	-15.06
224.573	-18.06
224.808	-0.06
225.042	-4.06
225.277	-7.06
225.511	-5.06
225.746	6.94
225.98	14.94
226.215	1.94
226.449	10.94
226.683	2.94
226.918	38.94
227.152	31.94
227.387	21.94
227.621	38.94
227.856	35.94
228.09	35.94
228.324	43.94
228.559	58.94
228.793	68.94
229.027	98.94
229.262	94.94
229.496	107.94
229.73	118.94
229.964	135.94
230.199	116.94
230.433	116.94
230.667	125.94
230.901	125.94
231.136	111.94
231.37	106.94
231.604	110.94
231.838	102.94
232.072	108.94
232.306	103.94
232.541	117.94
232.775	115.94
233.009	116.94
233.243	117.94
233.477	119.94
233.711	106.94
233.945	109.94
234.179	115.94
234.413	105.94
234.647	111.94
234.881	115.94
235.115	96.94
235.349	103.94
235.583	119.94
235.817	106.94
236.051	116.94
236.285	120.94
236.519	119.94
236.753	118.94
236.987	132.94
237.221	151.94
237.455	206.94
237.689	174.94
237.922	141.94
238.156	130.94
238.39	121.94
238.624	120.94
238.858	124.94
239.091	111.94
239.325	136.94
239.559	130.94
239.793	113.94
240.027	140.94
240.26	138.94
240.494	156.94
240.728	135.94
240.961	135.94
241.195	127.94
241.429	136.94
241.662	123.94
241.896	139.94
242.13	130.94
242.363	123.94
242.597	108.94
242.83	127.94
243.064	125.94
243.298	134.94
243.531	114.94
243.765	133.94
243.998	128.94
244.232	138.94
244.465	127.94
244.699	130.94
244.932	131.94
245.166	141.94
245.399	116.94
245.633	136.94
245.866	122.94
246.099	134.94
246.333	133.94
246.566	129.94
246.8	148.94
247.033	138.94
247.266	150.94
247.5	146.94
247.733	153.94
247.966	151.94
248.2	151.94
248.433	158.94
248.666	160.94
248.899	174.94
249.133	188.94
249.366	198.94
249.599	177.94
249.832	166.94
250.066	168.94
250.299	170.94
250.532	194.94
250.765	206.94
250.998	207.94
251.231	217.94
251.465	201.94
251.698	178.94
251.931	205.94
252.164	195.94
252.397	187.94
252.63	198.94
252.863	184.94
253.096	206.94
253.329	204.94
253.562	211.94
253.795	200.94
254.028	204.94
254.261	199.94
254.494	233.94
254.727	249.94
254.96	252.94
255.193	247.94
255.426	225.94
255.659	208.94
255.892	199.94
256.124	221.94
256.357	212.94
256.59	217.94
256.823	204.94
257.056	194.94
257.289	192.94
257.521	184.94
257.754	199.94
257.987	209.94
258.22	213.94
258.452	198.94
258.685	185.94
258.918	196.94
259.151	192.94
259.383	214.94
259.616	204.94
259.849	194.94
260.081	224.94
260.314	247.94
260.547	244.94
260.779	205.94
261.012	222.94
261.244	203.94
261.477	215.94
261.71	209.94
261.942	212.94
262.175	203.94
262.407	226.94
262.64	193.94
262.872	187.94
263.105	206.94
263.337	215.94
263.57	195.94
263.802	192.94
264.035	201.94
264.267	222.94
264.499	200.94
264.732	195.94
264.964	188.94
265.197	207.94
265.429	200.94
265.661	200.94
265.894	200.94
266.126	216.94
266.358	182.94
266.591	201.94
266.823	201.94
267.055	203.94
267.287	224.94
267.52	217.94
267.752	210.94
267.984	212.94
268.216	215.94
268.448	199.94
268.681	235.94
268.913	217.94
269.145	234.94
269.377	254.94
269.609	254.94
269.841	238.94
270.073	237.94
270.306	262.94
270.538	290.94
270.77	282.94
271.002	291.94
271.234	254.94
271.466	278.94
271.698	279.94
271.93	290.94
272.162	278.94
272.394	299.94
272.626	275.94
272.858	256.94
273.09	269.94
273.322	247.94
273.553	250.94
273.785	248.94
274.017	223.94
274.249	246.94
274.481	263.94
274.713	241.94
274.945	257.94
275.176	225.94
275.408	247.94
275.64	235.94
275.872	231.94
276.104	232.94
276.335	227.94
276.567	260.94
276.799	284.94
277.031	294.94
277.262	292.94
277.494	303.94
277.726	290.94
277.957	266.94
278.189	258.94
278.421	247.94
278.652	256.94
278.884	247.94
279.115	230.94
279.347	237.94
279.579	244.94
279.81	246.94
280.042	240.94
280.273	254.94
280.505	242.94
280.736	250.94
280.968	227.94
281.199	253.94
281.431	249.94
281.662	247.94
281.894	235.94
282.125	256.94
282.356	267.94
282.588	300.94
282.819	288.94
283.051	262.94
283.282	228.94
283.513	254.94
283.745	269.94
283.976	262.94
284.207	243.94
284.439	252.94
284.67	257.94
284.901	261.94
285.132	266.94
285.364	237.94
285.595	251.94
285.826	244.94
286.057	255.94
286.288	267.94
286.52	254.94
286.751	255.94
286.982	267.94
287.213	261.94
287.444	261.94
287.675	255.94
287.906	251.94
288.138	258.94
288.369	265.94
288.6	267.94
288.831	273.94
289.062	275.94
289.293	286.94
289.524	274.94
289.755	265.94
289.986	267.94
290.217	265.94
290.448	260.94
290.679	263.94
290.91	268.94
291.141	261.94
291.371	264.94
291.602	252.94
291.833	260.94
292.064	261.94
292.295	250.94
292.526	269.94
292.757	286.94
292.987	260.94
293.218	264.94
293.449	272.94
293.68	258.94
293.91	264.94
294.141	262.94
294.372	243.94
294.603	258.94
294.833	268.94
295.064	268.94
295.295	257.94
295.525	247.94
295.756	268.94
295.987	277.94
296.217	302.94
296.448	316.94
296.679	296.94
296.909	251.94
297.14	263.94
297.37	264.94
297.601	277.94
297.831	278.94
298.062	272.94
298.292	273.94
298.523	267.94
298.753	273.94
298.984	255.94
299.214	267.94
299.445	263.94
299.675	300.94
299.905	288.94
300.136	283.94
300.366	287.94
300.597	285.94
300.827	310.94
301.057	291.94
301.288	290.94
301.518	284.94
301.748	297.94
301.979	298.94
302.209	305.94
302.439	291.94
302.669	297.94
302.9	311.94
303.13	307.94
303.36	290.94
303.59	298.94
303.82	318.94
304.051	309.94
304.281	306.94
304.511	305.94
304.741	305.94
304.971	287.94
305.201	306.94
305.431	316.94
305.661	293.94
305.891	283.94
306.121	295.94
306.352	299.94
306.582	314.94
306.812	297.94
307.042	305.94
307.272	312.94
307.502	300.94
307.731	312.94
307.961	320.94
308.191	298.94
308.421	304.94
308.651	318.94
308.881	304.94
309.111	318.94
309.341	316.94
309.571	329.94
309.8	328.94
310.03	331.94
310.26	346.94
310.49	345.94
310.72	344.94
310.949	351.94
311.179	379.94
311.409	344.94
311.639	351.94
311.868	351.94
312.098	339.94
312.328	355.94
312.557	372.94
312.787	372.94
313.017	379.94
313.246	359.94
313.476	339.94
313.706	346.94
313.935	358.94
314.165	361.94
314.394	371.94
314.624	371.94
314.853	354.94
315.083	341.94
315.312	338.94
315.542	341.94
315.771	331.94
316.001	332.94
316.23	348.94
316.46	323.94
316.689	342.94
316.919	346.94
317.148	361.94
317.377	339.94
317.607	360.94
317.836	335.94
318.065	340.94
318.295	331.94
318.524	342.94
318.753	333.94
318.983	350.94
319.212	347.94
319.441	350.94
319.67	376.94
319.9	352.94
320.129	355.94
320.358	368.94
320.587	357.94
320.816	355.94
321.046	351.94
321.275	360.94
321.504	370.94
321.733	361.94
321.962	376.94
322.191	386.94
322.42	394.94
322.649	408.94
322.878	408.94
323.108	416.94
323.337	456.94
323.566	459.94
323.795	525.94
324.024	566.94
324.253	699.94
324.482	1015.94
324.71	1512.94
324.939	2066.94
325.168	1710.94
325.397	926.94
325.626	640.94
325.855	519.94
326.084	478.94
326.313	473.94
326.542	475.94
326.77	534.94
326.999	642.94
327.228	903.94
327.457	1326.94
327.686	1522.94
327.914	1002.94
328.143	688.94
328.372	610.94
328.6	574.94
328.829	545.94
329.058	568.94
329.287	566.94
329.515	551.94
329.744	493.94
329.972	482.94
330.201	499.94
330.43	548.94
330.658	575.94
330.887	596.94
331.115	571.94
331.344	480.94
331.572	445.94
331.801	456.94
332.03	459.94
332.258	441.94
332.486	402.94
332.715	424.94
332.943	426.94
333.172	409.94
333.4	424.94
333.629	454.94
333.857	452.94
334.085	446.94
334.314	482.94
334.542	481.94
334.771	522.94
334.999	457.94
335.227	435.94
335.455	414.94
335.684	419.94
335.912	418.94
336.14	407.94
336.369	405.94
336.597	404.94
336.825	407.94
337.053	404.94
337.281	398.94
337.51	388.94
337.738	378.94
337.966	391.94
338.194	420.94
338.422	406.94
338.65	404.94
338.878	396.94
339.106	387.94
339.334	394.94
339.562	373.94
339.79	366.94
340.018	382.94
340.246	403.94
340.474	400.94
340.702	384.94
340.93	388.94
341.158	384.94
341.386	382.94
341.614	378.94
341.842	378.94
342.07	368.94
342.298	379.94
342.526	403.94
342.754	373.94
342.981	370.94
343.209	378.94
343.437	366.94
343.665	380.94
343.893	383.94
344.12	394.94
344.348	405.94
344.576	384.94
344.804	384.94
345.031	400.94
345.259	408.94
345.487	394.94
345.714	375.94
345.942	375.94
346.17	370.94
346.397	384.94
346.625	388.94
346.853	366.94
347.08	373.94
347.308	376.94
347.535	398.94
347.763	397.94
347.99	383.94
348.218	370.94
348.445	382.94
348.673	404.94
348.9	393.94
349.128	384.94
349.355	366.94
349.583	368.94
349.81	375.94
350.037	365.94
350.265	355.94
350.492	368.94
350.72	358.94
350.947	370.94
351.174	366.94
351.402	383.94
351.629	376.94
351.856	355.94
352.083	394.94
352.311	382.94
352.538	402.94
352.765	414.94
352.992	374.94
353.22	377.94
353.447	374.94
353.674	359.94
353.901	377.94
354.128	351.94
354.355	349.94
354.583	346.94
354.81	366.94
355.037	346.94
355.264	336.94
355.491	342.94
355.718	359.94
355.945	347.94
356.172	344.94
356.399	340.94
356.626	356.94
356.853	359.94
357.08	358.94
357.307	346.94
357.534	339.94
357.761	354.94
357.988	361.94
358.215	356.94
358.441	336.94
358.668	336.94
358.895	369.94
359.122	352.94
359.349	355.94
359.576	370.94
359.802	408.94
360.029	421.94
360.256	431.94
360.483	402.94
360.709	371.94
360.936	366.94
361.163	385.94
361.39	385.94
361.616	366.94
361.843	374.94
362.07	380.94
362.296	380.94
362.523	372.94
362.749	364.94
362.976	358.94
363.203	367.94
363.429	375.94
363.656	370.94
363.882	352.94
364.109	351.94
364.335	357.94
364.562	369.94
364.788	352.94
365.015	369.94
365.241	354.94
365.468	359.94
365.694	372.94
365.92	356.94
366.147	366.94
366.373	351.94
366.599	354.94
366.826	362.94
367.052	344.94
367.278	343.94
367.505	352.94
367.731	354.94
367.957	348.94
368.184	373.94
368.41	364.94
368.636	380.94
368.862	375.94
369.089	369.94
369.315	369.94
369.541	368.94
369.767	366.94
369.993	349.94
370.219	362.94
370.445	354.94
370.672	354.94
370.898	347.94
371.124	326.94
371.35	345.94
371.576	338.94
371.802	366.94
372.028	324.94
372.254	346.94
372.48	349.94
372.706	351.94
372.932	358.94
373.158	359.94
373.384	347.94
373.61	352.94
373.835	344.94
374.061	358.94
374.287	357.94
374.513	358.94
374.739	364.94
374.965	351.94
375.191	359.94
375.416	359.94
375.642	350.94
375.868	357.94
376.094	334.94
376.319	347.94
376.545	348.94
376.771	323.94
376.997	339.94
377.222	331.94
377.448	350.94
377.674	359.94
377.899	357.94
378.125	307.94
378.35	337.94
378.576	335.94
378.802	336.94
379.027	325.94
379.253	331.94
379.478	327.94
379.704	332.94
379.929	347.94
380.155	345.94
380.38	331.94
380.606	342.94
380.831	353.94
381.057	351.94
381.282	346.94
381.507	335.94
381.733	351.94
381.958	352.94
382.184	343.94
382.409	329.94
382.634	336.94
382.86	353.94
383.085	341.94
383.31	340.94
383.535	358.94
383.761	357.94
383.986	376.94
384.211	330.94
384.436	360.94
384.662	346.94
384.887	382.94
385.112	372.94
385.337	354.94
385.562	358.94
385.787	353.94
386.013	367.94
386.238	374.94
386.463	392.94
386.688	366.94
386.913	366.94
387.138	374.94
387.363	370.94
387.588	367.94
387.813	360.94
388.038	372.94
388.263	371.94
388.488	356.94
388.713	357.94
388.938	382.94
389.163	366.94
389.387	361.94
389.612	354.94
389.837	375.94
390.062	382.94
390.287	364.94
390.512	372.94
390.736	372.94
390.961	359.94
391.186	365.94
391.411	378.94
391.636	377.94
391.86	373.94
392.085	373.94
392.31	362.94
392.534	382.94
392.759	386.94
392.984	386.94
393.208	368.94
393.433	379.94
393.658	367.94
393.882	367.94
394.107	379.94
394.331	371.94
394.556	361.94
394.78	378.94
395.005	372.94
395.229	368.94
395.454	383.94
395.678	373.94
395.903	388.94
396.127	396.94
396.352	412.94
396.576	386.94
396.801	388.94
397.025	393.94
397.249	387.94
397.474	400.94
397.698	391.94
397.922	408.94
398.147	401.94
398.371	419.94
398.595	414.94
398.82	409.94
399.044	423.94
399.268	433.94
399.492	440.94
399.717	490.94
399.941	493.94
400.165	522.94
400.389	516.94
400.613	482.94
400.837	433.94
401.062	437.94
401.286	432.94
401.51	428.94
401.734	416.94
401.958	423.94
402.182	426.94
402.406	415.94
402.63	442.94
402.854	422.94
403.078	420.94
403.302	436.94
403.526	447.94
403.75	450.94
403.974	440.94
404.198	429.94
404.422	436.94
404.645	435.94
404.869	451.94
405.093	467.94
405.317	503.94
405.541	524.94
405.765	492.94
405.988	473.94
406.212	461.94
406.436	468.94
406.66	512.94
406.883	471.94
407.107	488.94
407.331	532.94
407.555	563.94
407.778	545.94
408.002	534.94
408.226	518.94
408.449	482.94
408.673	479.94
408.896	487.94
409.12	514.94
409.344	496.94
409.567	445.94
409.791	436.94
410.014	427.94
410.238	423.94
410.461	438.94
410.685	423.94
410.908	430.94
411.132	476.94
411.355	497.94
411.578	469.94
411.802	434.94
412.025	441.94
412.249	442.94
412.472	452.94
412.695	497.94
412.919	468.94
413.142	434.94
413.365	429.94
413.589	411.94
413.812	407.94
414.035	405.94
414.258	393.94
414.482	431.94
414.705	417.94
414.928	418.94
415.151	407.94
415.374	416.94
415.597	394.94
415.821	408.94
416.044	415.94
416.267	405.94
416.49	423.94
416.713	414.94
416.936	404.94
417.159	407.94
417.382	411.94
417.605	410.94
417.828	419.94
418.051	443.94
418.274	415.94
418.497	419.94
418.72	418.94
418.943	414.94
419.166	401.94
419.389	435.94
419.611	445.94
419.834	440.94
420.057	446.94
420.28	430.94
420.503	443.94
420.726	447.94
420.948	447.94
421.171	463.94
421.394	484.94
421.617	434.94
421.839	444.94
422.062	430.94
422.285	434.94
422.507	490.94
422.73	524.94
422.953	510.94
423.175	466.94
423.398	446.94
423.621	446.94
423.843	460.94
424.066	471.94
424.288	479.94
424.511	494.94
424.733	520.94
424.956	572.94
425.178	582.94
425.401	550.94
425.623	562.94
425.846	486.94
426.068	464.94
426.291	458.94
426.513	454.94
426.735	483.94
426.958	519.94
427.18	591.94
427.402	684.94
427.625	748.94
427.847	672.94
428.069	568.94
428.292	487.94
428.514	486.94
428.736	452.94
428.958	450.94
429.181	419.94
429.403	426.94
429.625	426.94
429.847	467.94
430.069	500.94
430.292	496.94
430.514	476.94
430.736	437.94
430.958	414.94
431.18	405.94
431.402	413.94
431.624	406.94
431.846	391.94
432.068	413.94
432.29	403.94
432.512	417.94
432.734	420.94
432.956	435.94
433.178	435.94
433.4	418.94
433.622	396.94
433.844	412.94
434.066	392.94
434.287	414.94
434.509	418.94
434.731	424.94
434.953	419.94
435.175	436.94
435.397	466.94
435.618	468.94
435.84	495.94
436.062	576.94
436.284	608.94
436.505	528.94
436.727	477.94
436.949	454.94
437.17	428.94
437.392	430.94
437.614	456.94
437.835	499.94
438.057	561.94
438.278	627.94
438.5	658.94
438.721	666.94
438.943	634.94
439.165	503.94
439.386	488.94
439.608	464.94
439.829	468.94
440.05	494.94
440.272	533.94
440.493	521.94
440.715	453.94
440.936	457.94
441.158	440.94
441.379	456.94
441.6	453.94
441.822	454.94
442.043	500.94
442.264	557.94
442.486	586.94
442.707	504.94
442.928	493.94
443.149	501.94
443.371	509.94
443.592	550.94
443.813	596.94
444.034	647.94
444.255	515.94
444.476	475.94
444.698	474.94
444.919	458.94
445.14	598.94
445.361	530.94
445.582	504.94
445.803	547.94
446.024	639.94
446.245	652.94
446.466	594.94
446.687	486.94
446.908	468.94
447.129	450.94
447.35	448.94
447.571	430.94
447.792	440.94
448.013	438.94
448.234	465.94
448.455	496.94
448.675	567.94
448.896	656.94
449.117	565.94
449.338	536.94
449.559	636.94
449.779	702.94
450	560.94
450.221	471.94
450.442	440.94
450.662	424.94
450.883	432.94
451.104	471.94
451.324	453.94
451.545	438.94
451.766	399.94
451.986	387.94
452.207	389.94
452.428	389.94
452.648	369.94
452.869	391.94
453.089	406.94
453.31	418.94
453.53	386.94
453.751	382.94
453.971	390.94
454.192	397.94
454.412	409.94
454.633	391.94
454.853	378.94
455.073	386.94
455.294	414.94
455.514	466.94
455.734	455.94
455.955	396.94
456.175	379.94
456.395	364.94
456.616	345.94
456.836	372.94
457.056	361.94
457.276	368.94
457.497	372.94
457.717	347.94
457.937	363.94
458.157	376.94
458.377	385.94
458.598	415.94
458.818	464.94
459.038	532.94
459.258	535.94
459.478	448.94
459.698	416.94
459.918	407.94
460.138	400.94
460.358	396.94
460.578	383.94
460.798	409.94
461.018	405.94
461.238	391.94
461.458	379.94
461.678	399.94
461.898	414.94
462.118	406.94
462.338	411.94
462.558	425.94
462.777	424.94
462.997	417.94
463.217	436.94
463.437	441.94
463.657	427.94
463.876	416.94
464.096	443.94
464.316	449.94
464.536	435.94
464.755	454.94
464.975	440.94
465.195	487.94
465.414	584.94
465.634	495.94
465.854	446.94
466.073	438.94
466.293	428.94
466.512	408.94
466.732	381.94
466.951	388.94
467.171	395.94
467.391	399.94
467.61	391.94
467.829	415.94
468.049	422.94
468.268	413.94
468.488	407.94
468.707	399.94
468.927	380.94
469.146	376.94
469.365	384.94
469.585	375.94
469.804	377.94
470.023	403.94
470.243	396.94
470.462	410.94
470.681	436.94
470.901	425.94
471.12	422.94
471.339	415.94
471.558	413.94
471.777	404.94
471.997	402.94
472.216	407.94
472.435	448.94
472.654	425.94
472.873	431.94
473.092	402.94
473.311	374.94
473.53	390.94
473.749	403.94
473.968	438.94
474.187	535.94
474.406	523.94
474.625	453.94
474.844	430.94
475.063	392.94
475.282	404.94
475.501	430.94
475.72	417.94
475.939	411.94
476.158	421.94
476.377	377.94
476.596	414.94
476.814	413.94
477.033	434.94
477.252	432.94
477.471	432.94
477.69	458.94
477.908	437.94
478.127	451.94
478.346	433.94
478.564	441.94
478.783	434.94
479.002	440.94
479.22	446.94
479.439	464.94
479.658	471.94
479.876	487.94
480.095	500.94
480.313	512.94
480.532	513.94
480.751	495.94
480.969	519.94
481.188	546.94
481.406	592.94
481.624	511.94
481.843	497.94
482.061	516.94
482.28	487.94
482.498	477.94
482.717	468.94
482.935	461.94
483.153	487.94
483.372	471.94
483.59	492.94
483.808	458.94
484.027	450.94
484.245	459.94
484.463	460.94
484.681	484.94
484.9	455.94
485.118	468.94
485.336	476.94
485.554	488.94
485.772	494.94
485.99	480.94
486.209	494.94
486.427	509.94
486.645	494.94
486.863	509.94
487.081	505.94
487.299	503.94
487.517	513.94
487.735	495.94
487.953	520.94
488.171	546.94
488.389	507.94
488.607	503.94
488.825	508.94
489.043	514.94
489.261	529.94
489.479	517.94
489.696	511.94
489.914	519.94
490.132	517.94
490.35	534.94
490.568	531.94
490.786	534.94
491.003	525.94
491.221	564.94
491.439	554.94
491.657	573.94
491.874	583.94
492.092	577.94
492.31	584.94
492.527	587.94
492.745	576.94
492.963	580.94
493.18	591.94
493.398	601.94
493.615	598.94
493.833	608.94
494.05	599.94
494.268	628.94
494.485	607.94
494.703	612.94
494.92	607.94
495.138	610.94
495.355	596.94
495.573	605.94
495.79	615.94
496.008	602.94
496.225	596.94
496.442	610.94
496.66	596.94
496.877	613.94
497.094	625.94
497.312	620.94
497.529	634.94
497.746	613.94
497.963	629.94
498.181	607.94
498.398	654.94
498.615	642.94
498.832	658.94
499.049	664.94
499.267	685.94
499.484	696.94
499.701	724.94
499.918	732.94
500.135	749.94
500.352	777.94
500.569	754.94
500.786	796.94
501.003	794.94
501.22	771.94
501.437	752.94
501.654	763.94
501.871	729.94
