Data from 1983.PennyLincolnUp.Lamp.En5.5.200Scan.071819.P1_HRD10591_16-52-53-965.txt Node
Date: Thu Jul 18 16:52:53 EDT 2019
User: cochatt
Spectrometer: HR+D1059
Trigger mode: 1
Integration Time (sec): 1.000000E-1
Scans to average: 1
Electric dark correction enabled: true
Nonlinearity correction enabled: false
Boxcar width: 0
XAxis mode: Wavelengths
Number of Pixels in Spectrum: 2048
>>>>>Begin Spectral Data<<<<<
223.165	-24.06
223.4	-24.06
223.635	-24.06
223.869	-34.06
224.104	-21.06
224.338	-6.06
224.573	-23.06
224.808	-14.06
225.042	1.94
225.277	1.94
225.511	1.94
225.746	11.94
225.98	-7.06
226.215	14.94
226.449	5.94
226.683	23.94
226.918	23.94
227.152	42.94
227.387	22.94
227.621	36.94
227.856	56.94
228.09	55.94
228.324	55.94
228.559	59.94
228.793	76.94
229.027	90.94
229.262	88.94
229.496	105.94
229.73	115.94
229.964	151.94
230.199	116.94
230.433	120.94
230.667	109.94
230.901	115.94
231.136	109.94
231.37	115.94
231.604	120.94
231.838	107.94
232.072	111.94
232.306	121.94
232.541	113.94
232.775	110.94
233.009	116.94
233.243	106.94
233.477	113.94
233.711	120.94
233.945	113.94
234.179	101.94
234.413	111.94
234.647	98.94
234.881	103.94
235.115	107.94
235.349	100.94
235.583	123.94
235.817	119.94
236.051	116.94
236.285	102.94
236.519	121.94
236.753	126.94
236.987	128.94
237.221	167.94
237.455	190.94
237.689	174.94
237.922	127.94
238.156	124.94
238.39	139.94
238.624	118.94
238.858	118.94
239.091	121.94
239.325	117.94
239.559	113.94
239.793	125.94
240.027	129.94
240.26	128.94
240.494	158.94
240.728	131.94
240.961	131.94
241.195	139.94
241.429	139.94
241.662	138.94
241.896	133.94
242.13	105.94
242.363	115.94
242.597	125.94
242.83	106.94
243.064	133.94
243.298	127.94
243.531	135.94
243.765	130.94
243.998	124.94
244.232	138.94
244.465	128.94
244.699	129.94
244.932	136.94
245.166	135.94
245.399	134.94
245.633	129.94
245.866	130.94
246.099	139.94
246.333	137.94
246.566	131.94
246.8	143.94
247.033	155.94
247.266	146.94
247.5	146.94
247.733	146.94
247.966	157.94
248.2	148.94
248.433	151.94
248.666	169.94
248.899	167.94
249.133	167.94
249.366	176.94
249.599	197.94
249.832	164.94
250.066	172.94
250.299	173.94
250.532	173.94
250.765	180.94
250.998	187.94
251.231	189.94
251.465	192.94
251.698	194.94
251.931	173.94
252.164	173.94
252.397	177.94
252.63	175.94
252.863	183.94
253.096	188.94
253.329	188.94
253.562	195.94
253.795	184.94
254.028	198.94
254.261	205.94
254.494	202.94
254.727	217.94
254.96	229.94
255.193	247.94
255.426	216.94
255.659	218.94
255.892	200.94
256.124	206.94
256.357	196.94
256.59	204.94
256.823	194.94
257.056	186.94
257.289	197.94
257.521	176.94
257.754	173.94
257.987	185.94
258.22	195.94
258.452	203.94
258.685	197.94
258.918	182.94
259.151	197.94
259.383	203.94
259.616	199.94
259.849	190.94
260.081	202.94
260.314	219.94
260.547	224.94
260.779	214.94
261.012	206.94
261.244	205.94
261.477	201.94
261.71	198.94
261.942	184.94
262.175	200.94
262.407	187.94
262.64	190.94
262.872	174.94
263.105	196.94
263.337	198.94
263.57	195.94
263.802	192.94
264.035	191.94
264.267	188.94
264.499	211.94
264.732	189.94
264.964	199.94
265.197	192.94
265.429	183.94
265.661	197.94
265.894	195.94
266.126	189.94
266.358	177.94
266.591	189.94
266.823	179.94
267.055	219.94
267.287	203.94
267.52	187.94
267.752	216.94
267.984	203.94
268.216	192.94
268.448	204.94
268.681	212.94
268.913	211.94
269.145	229.94
269.377	257.94
269.609	246.94
269.841	232.94
270.073	241.94
270.306	263.94
270.538	277.94
270.77	284.94
271.002	262.94
271.234	257.94
271.466	268.94
271.698	284.94
271.93	275.94
272.162	279.94
272.394	284.94
272.626	276.94
272.858	258.94
273.09	263.94
273.322	247.94
273.553	242.94
273.785	247.94
274.017	244.94
274.249	229.94
274.481	234.94
274.713	221.94
274.945	245.94
275.176	245.94
275.408	232.94
275.64	219.94
275.872	234.94
276.104	236.94
276.335	240.94
276.567	235.94
276.799	249.94
277.031	257.94
277.262	270.94
277.494	275.94
277.726	268.94
277.957	259.94
278.189	238.94
278.421	247.94
278.652	236.94
278.884	255.94
279.115	261.94
279.347	224.94
279.579	247.94
279.81	252.94
280.042	232.94
280.273	237.94
280.505	237.94
280.736	234.94
280.968	235.94
281.199	248.94
281.431	233.94
281.662	234.94
281.894	240.94
282.125	258.94
282.356	247.94
282.588	270.94
282.819	276.94
283.051	251.94
283.282	253.94
283.513	225.94
283.745	257.94
283.976	240.94
284.207	236.94
284.439	227.94
284.67	253.94
284.901	255.94
285.132	262.94
285.364	234.94
285.595	245.94
285.826	249.94
286.057	264.94
286.288	248.94
286.52	248.94
286.751	256.94
286.982	244.94
287.213	254.94
287.444	241.94
287.675	249.94
287.906	255.94
288.138	268.94
288.369	271.94
288.6	265.94
288.831	265.94
289.062	277.94
289.293	255.94
289.524	253.94
289.755	271.94
289.986	256.94
290.217	253.94
290.448	257.94
290.679	249.94
290.91	253.94
291.141	265.94
291.371	251.94
291.602	255.94
291.833	255.94
292.064	252.94
292.295	270.94
292.526	246.94
292.757	256.94
292.987	264.94
293.218	259.94
293.449	259.94
293.68	250.94
293.91	255.94
294.141	244.94
294.372	247.94
294.603	272.94
294.833	267.94
295.064	252.94
295.295	258.94
295.525	252.94
295.756	238.94
295.987	267.94
296.217	287.94
296.448	297.94
296.679	283.94
296.909	256.94
297.14	253.94
297.37	260.94
297.601	267.94
297.831	273.94
298.062	264.94
298.292	274.94
298.523	267.94
298.753	275.94
298.984	285.94
299.214	268.94
299.445	250.94
299.675	283.94
299.905	269.94
300.136	273.94
300.366	270.94
300.597	268.94
300.827	258.94
301.057	286.94
301.288	272.94
301.518	285.94
301.748	280.94
301.979	276.94
302.209	271.94
302.439	307.94
302.669	273.94
302.9	279.94
303.13	267.94
303.36	283.94
303.59	311.94
303.82	311.94
304.051	282.94
304.281	288.94
304.511	275.94
304.741	294.94
304.971	302.94
305.201	286.94
305.431	285.94
305.661	278.94
305.891	276.94
306.121	300.94
306.352	311.94
306.582	302.94
306.812	299.94
307.042	315.94
307.272	300.94
307.502	292.94
307.731	295.94
307.961	300.94
308.191	296.94
308.421	303.94
308.651	298.94
308.881	312.94
309.111	311.94
309.341	299.94
309.571	313.94
309.8	325.94
310.03	320.94
310.26	335.94
310.49	327.94
310.72	332.94
310.949	352.94
311.179	364.94
311.409	341.94
311.639	342.94
311.868	317.94
312.098	343.94
312.328	350.94
312.557	347.94
312.787	363.94
313.017	380.94
313.246	340.94
313.476	346.94
313.706	316.94
313.935	336.94
314.165	326.94
314.394	346.94
314.624	355.94
314.853	334.94
315.083	329.94
315.312	340.94
315.542	341.94
315.771	314.94
316.001	326.94
316.23	327.94
316.46	343.94
316.689	335.94
316.919	336.94
317.148	334.94
317.377	343.94
317.607	334.94
317.836	323.94
318.065	324.94
318.295	330.94
318.524	318.94
318.753	331.94
318.983	331.94
319.212	342.94
319.441	348.94
319.67	364.94
319.9	352.94
320.129	329.94
320.358	336.94
320.587	344.94
320.816	339.94
321.046	331.94
321.275	351.94
321.504	351.94
321.733	348.94
321.962	368.94
322.191	356.94
322.42	377.94
322.649	395.94
322.878	375.94
323.108	383.94
323.337	437.94
323.566	443.94
323.795	477.94
324.024	516.94
324.253	618.94
324.482	853.94
324.71	1292.94
324.939	1737.94
325.168	1427.94
325.397	769.94
325.626	539.94
325.855	474.94
326.084	435.94
326.313	437.94
326.542	452.94
326.77	482.94
326.999	567.94
327.228	773.94
327.457	1151.94
327.686	1310.94
327.914	820.94
328.143	599.94
328.372	533.94
328.6	484.94
328.829	501.94
329.058	488.94
329.287	502.94
329.515	471.94
329.744	441.94
329.972	426.94
330.201	419.94
330.43	453.94
330.658	460.94
330.887	520.94
331.115	512.94
331.344	450.94
331.572	424.94
331.801	447.94
332.03	430.94
332.258	412.94
332.486	385.94
332.715	393.94
332.943	395.94
333.172	404.94
333.4	397.94
333.629	395.94
333.857	392.94
334.085	395.94
334.314	371.94
334.542	404.94
334.771	388.94
334.999	397.94
335.227	392.94
335.455	383.94
335.684	385.94
335.912	367.94
336.14	371.94
336.369	384.94
336.597	391.94
336.825	410.94
337.053	389.94
337.281	383.94
337.51	382.94
337.738	392.94
337.966	385.94
338.194	373.94
338.422	379.94
338.65	384.94
338.878	374.94
339.106	391.94
339.334	369.94
339.562	365.94
339.79	361.94
340.018	363.94
340.246	363.94
340.474	356.94
340.702	381.94
340.93	359.94
341.158	377.94
341.386	383.94
341.614	387.94
341.842	384.94
342.07	379.94
342.298	381.94
342.526	389.94
342.754	376.94
342.981	356.94
343.209	367.94
343.437	348.94
343.665	361.94
343.893	380.94
344.12	383.94
344.348	383.94
344.576	383.94
344.804	356.94
345.031	385.94
345.259	389.94
345.487	393.94
345.714	369.94
345.942	366.94
346.17	352.94
346.397	368.94
346.625	371.94
346.853	353.94
347.08	356.94
347.308	354.94
347.535	375.94
347.763	356.94
347.99	381.94
348.218	373.94
348.445	381.94
348.673	378.94
348.9	371.94
349.128	357.94
349.355	345.94
349.583	343.94
349.81	337.94
350.037	344.94
350.265	341.94
350.492	350.94
350.72	350.94
350.947	336.94
351.174	356.94
351.402	385.94
351.629	350.94
351.856	346.94
352.083	364.94
352.311	373.94
352.538	371.94
352.765	379.94
352.992	380.94
353.22	363.94
353.447	366.94
353.674	352.94
353.901	337.94
354.128	345.94
354.355	342.94
354.583	334.94
354.81	329.94
355.037	331.94
355.264	327.94
355.491	334.94
355.718	319.94
355.945	343.94
356.172	335.94
356.399	357.94
356.626	323.94
356.853	341.94
357.08	329.94
357.307	349.94
357.534	350.94
357.761	346.94
357.988	347.94
358.215	340.94
358.441	338.94
358.668	323.94
358.895	332.94
359.122	347.94
359.349	362.94
359.576	364.94
359.802	368.94
360.029	408.94
360.256	418.94
360.483	387.94
360.709	375.94
360.936	361.94
361.163	359.94
361.39	376.94
361.616	373.94
361.843	348.94
362.07	363.94
362.296	351.94
362.523	367.94
362.749	356.94
362.976	351.94
363.203	363.94
363.429	366.94
363.656	347.94
363.882	337.94
364.109	345.94
364.335	335.94
364.562	340.94
364.788	356.94
365.015	356.94
365.241	344.94
365.468	348.94
365.694	348.94
365.92	355.94
366.147	343.94
366.373	344.94
366.599	346.94
366.826	339.94
367.052	329.94
367.278	340.94
367.505	345.94
367.731	357.94
367.957	343.94
368.184	346.94
368.41	372.94
368.636	357.94
368.862	375.94
369.089	351.94
369.315	355.94
369.541	341.94
369.767	341.94
369.993	353.94
370.219	351.94
370.445	345.94
370.672	339.94
370.898	350.94
371.124	351.94
371.35	343.94
371.576	334.94
371.802	334.94
372.028	339.94
372.254	334.94
372.48	332.94
372.706	332.94
372.932	370.94
373.158	347.94
373.384	357.94
373.61	343.94
373.835	347.94
374.061	368.94
374.287	367.94
374.513	343.94
374.739	349.94
374.965	356.94
375.191	362.94
375.416	347.94
375.642	361.94
375.868	347.94
376.094	358.94
376.319	341.94
376.545	343.94
376.771	349.94
376.997	331.94
377.222	355.94
377.448	336.94
377.674	359.94
377.899	327.94
378.125	331.94
378.35	339.94
378.576	340.94
378.802	330.94
379.027	353.94
379.253	336.94
379.478	344.94
379.704	343.94
379.929	329.94
380.155	336.94
380.38	323.94
380.606	332.94
380.831	331.94
381.057	359.94
381.282	349.94
381.507	348.94
381.733	348.94
381.958	338.94
382.184	355.94
382.409	348.94
382.634	348.94
382.86	347.94
383.085	348.94
383.31	363.94
383.535	362.94
383.761	358.94
383.986	352.94
384.211	367.94
384.436	359.94
384.662	372.94
384.887	377.94
385.112	353.94
385.337	385.94
385.562	368.94
385.787	368.94
386.013	368.94
386.238	379.94
386.463	361.94
386.688	367.94
386.913	355.94
387.138	360.94
387.363	380.94
387.588	364.94
387.813	356.94
388.038	360.94
388.263	366.94
388.488	364.94
388.713	364.94
388.938	391.94
389.163	379.94
389.387	366.94
389.612	362.94
389.837	361.94
390.062	378.94
390.287	344.94
390.512	357.94
390.736	359.94
390.961	367.94
391.186	364.94
391.411	350.94
391.636	384.94
391.86	361.94
392.085	390.94
392.31	371.94
392.534	366.94
392.759	375.94
392.984	363.94
393.208	367.94
393.433	377.94
393.658	359.94
393.882	377.94
394.107	351.94
394.331	366.94
394.556	360.94
394.78	365.94
395.005	354.94
395.229	358.94
395.454	364.94
395.678	371.94
395.903	393.94
396.127	389.94
396.352	405.94
396.576	371.94
396.801	381.94
397.025	387.94
397.249	377.94
397.474	383.94
397.698	406.94
397.922	407.94
398.147	416.94
398.371	394.94
398.595	411.94
398.82	398.94
399.044	435.94
399.268	408.94
399.492	439.94
399.717	459.94
399.941	482.94
400.165	499.94
400.389	494.94
400.613	466.94
400.837	422.94
401.062	400.94
401.286	409.94
401.51	407.94
401.734	395.94
401.958	427.94
402.182	423.94
402.406	424.94
402.63	421.94
402.854	423.94
403.078	440.94
403.302	410.94
403.526	424.94
403.75	429.94
403.974	422.94
404.198	416.94
404.422	439.94
404.645	420.94
404.869	409.94
405.093	439.94
405.317	458.94
405.541	462.94
405.765	471.94
405.988	426.94
406.212	458.94
406.436	501.94
406.66	495.94
406.883	465.94
407.107	482.94
407.331	520.94
407.555	548.94
407.778	548.94
408.002	521.94
408.226	482.94
408.449	473.94
408.673	455.94
408.896	468.94
409.12	500.94
409.344	481.94
409.567	443.94
409.791	419.94
410.014	415.94
410.238	411.94
410.461	426.94
410.685	428.94
410.908	443.94
411.132	467.94
411.355	500.94
411.578	478.94
411.802	452.94
412.025	429.94
412.249	421.94
412.472	424.94
412.695	432.94
412.919	448.94
413.142	401.94
413.365	412.94
413.589	423.94
413.812	417.94
414.035	414.94
414.258	410.94
414.482	384.94
414.705	393.94
414.928	396.94
415.151	385.94
415.374	414.94
415.597	417.94
415.821	391.94
416.044	420.94
416.267	397.94
416.49	396.94
416.713	423.94
416.936	397.94
417.159	384.94
417.382	400.94
417.605	399.94
417.828	391.94
418.051	408.94
418.274	420.94
418.497	387.94
418.72	402.94
418.943	390.94
419.166	431.94
419.389	435.94
419.611	421.94
419.834	429.94
420.057	437.94
420.28	412.94
420.503	389.94
420.726	420.94
420.948	435.94
421.171	464.94
421.394	483.94
421.617	437.94
421.839	415.94
422.062	415.94
422.285	417.94
422.507	486.94
422.73	555.94
422.953	504.94
423.175	449.94
423.398	445.94
423.621	436.94
423.843	461.94
424.066	431.94
424.288	449.94
424.511	465.94
424.733	510.94
424.956	561.94
425.178	534.94
425.401	515.94
425.623	549.94
425.846	497.94
426.068	461.94
426.291	456.94
426.513	442.94
426.735	456.94
426.958	473.94
427.18	551.94
427.402	658.94
427.625	672.94
427.847	604.94
428.069	537.94
428.292	447.94
428.514	451.94
428.736	448.94
428.958	421.94
429.181	435.94
429.403	401.94
429.625	422.94
429.847	473.94
430.069	496.94
430.292	464.94
430.514	437.94
430.736	435.94
430.958	439.94
431.18	413.94
431.402	387.94
431.624	380.94
431.846	405.94
432.068	392.94
432.29	389.94
432.512	369.94
432.734	389.94
432.956	413.94
433.178	412.94
433.4	416.94
433.622	384.94
433.844	405.94
434.066	399.94
434.287	406.94
434.509	398.94
434.731	409.94
434.953	409.94
435.175	433.94
435.397	431.94
435.618	442.94
435.84	493.94
436.062	549.94
436.284	592.94
436.505	499.94
436.727	475.94
436.949	419.94
437.17	417.94
437.392	415.94
437.614	433.94
437.835	453.94
438.057	539.94
438.278	612.94
438.5	578.94
438.721	643.94
438.943	612.94
439.165	493.94
439.386	455.94
439.608	472.94
439.829	464.94
440.05	479.94
440.272	498.94
440.493	482.94
440.715	448.94
440.936	419.94
441.158	432.94
441.379	430.94
441.6	436.94
441.822	465.94
442.043	469.94
442.264	546.94
442.486	577.94
442.707	505.94
442.928	492.94
443.149	469.94
443.371	472.94
443.592	508.94
443.813	589.94
444.034	605.94
444.255	518.94
444.476	471.94
444.698	471.94
444.919	456.94
445.14	575.94
445.361	507.94
445.582	488.94
445.803	529.94
446.024	629.94
446.245	599.94
446.466	541.94
446.687	484.94
446.908	432.94
447.129	431.94
447.35	419.94
447.571	424.94
447.792	428.94
448.013	413.94
448.234	421.94
448.455	473.94
448.675	569.94
448.896	616.94
449.117	554.94
449.338	510.94
449.559	588.94
449.779	659.94
450	525.94
450.221	482.94
450.442	432.94
450.662	413.94
450.883	417.94
451.104	421.94
451.324	419.94
451.545	393.94
451.766	405.94
451.986	373.94
452.207	376.94
452.428	365.94
452.648	385.94
452.869	394.94
453.089	397.94
453.31	392.94
453.53	380.94
453.751	368.94
453.971	387.94
454.192	397.94
454.412	404.94
454.633	383.94
454.853	369.94
455.073	368.94
455.294	406.94
455.514	441.94
455.734	423.94
455.955	386.94
456.175	366.94
456.395	337.94
456.616	380.94
456.836	345.94
457.056	341.94
457.276	352.94
457.497	373.94
457.717	351.94
457.937	365.94
458.157	356.94
458.377	366.94
458.598	399.94
458.818	444.94
459.038	480.94
459.258	505.94
459.478	430.94
459.698	387.94
459.918	409.94
460.138	407.94
460.358	397.94
460.578	384.94
460.798	394.94
461.018	409.94
461.238	409.94
461.458	399.94
461.678	409.94
461.898	383.94
462.118	391.94
462.338	404.94
462.558	423.94
462.777	413.94
462.997	430.94
463.217	437.94
463.437	428.94
463.657	429.94
463.876	420.94
464.096	443.94
464.316	431.94
464.536	441.94
464.755	460.94
464.975	431.94
465.195	484.94
465.414	545.94
465.634	460.94
465.854	416.94
466.073	421.94
466.293	400.94
466.512	383.94
466.732	379.94
466.951	367.94
467.171	376.94
467.391	383.94
467.61	401.94
467.829	404.94
468.049	399.94
468.268	381.94
468.488	396.94
468.707	393.94
468.927	389.94
469.146	366.94
469.365	375.94
469.585	398.94
469.804	401.94
470.023	420.94
470.243	405.94
470.462	412.94
470.681	427.94
470.901	417.94
471.12	405.94
471.339	376.94
471.558	394.94
471.777	406.94
471.997	373.94
472.216	404.94
472.435	395.94
472.654	376.94
472.873	375.94
473.092	392.94
473.311	389.94
473.53	372.94
473.749	392.94
473.968	436.94
474.187	483.94
474.406	525.94
474.625	420.94
474.844	405.94
475.063	407.94
475.282	384.94
475.501	391.94
475.72	412.94
475.939	423.94
476.158	401.94
476.377	414.94
476.596	395.94
476.814	415.94
477.033	408.94
477.252	410.94
477.471	409.94
477.69	421.94
477.908	421.94
478.127	451.94
478.346	435.94
478.564	445.94
478.783	439.94
479.002	447.94
479.22	445.94
479.439	454.94
479.658	455.94
479.876	470.94
480.095	462.94
480.313	488.94
480.532	464.94
480.751	468.94
480.969	474.94
481.188	478.94
481.406	488.94
481.624	478.94
481.843	442.94
482.061	455.94
482.28	416.94
482.498	429.94
482.717	470.94
482.935	463.94
483.153	457.94
483.372	454.94
483.59	464.94
483.808	460.94
484.027	454.94
484.245	443.94
484.463	470.94
484.681	492.94
484.9	464.94
485.118	456.94
485.336	464.94
485.554	486.94
485.772	479.94
485.99	474.94
486.209	448.94
486.427	472.94
486.645	468.94
486.863	491.94
487.081	500.94
487.299	465.94
487.517	494.94
487.735	472.94
487.953	517.94
488.171	481.94
488.389	496.94
488.607	500.94
488.825	499.94
489.043	488.94
489.261	488.94
489.479	494.94
489.696	519.94
489.914	469.94
490.132	499.94
490.35	523.94
490.568	515.94
490.786	515.94
491.003	520.94
491.221	524.94
491.439	520.94
491.657	541.94
491.874	566.94
492.092	550.94
492.31	548.94
492.527	570.94
492.745	560.94
492.963	545.94
493.18	547.94
493.398	564.94
493.615	599.94
493.833	556.94
494.05	564.94
494.268	561.94
494.485	572.94
494.703	560.94
494.92	572.94
495.138	568.94
495.355	578.94
495.573	601.94
495.79	576.94
496.008	569.94
496.225	570.94
496.442	561.94
496.66	559.94
496.877	558.94
497.094	617.94
497.312	570.94
497.529	584.94
497.746	593.94
497.963	584.94
498.181	631.94
498.398	613.94
498.615	636.94
498.832	633.94
499.049	636.94
499.267	660.94
499.484	698.94
499.701	726.94
499.918	720.94
500.135	709.94
500.352	763.94
500.569	779.94
500.786	775.94
501.003	778.94
501.22	754.94
501.437	754.94
501.654	703.94
501.871	719.94
502.088	693.94
