Data from 1983.PennyLincolnUp.Lamp.En5.5.200Scan.071819.P1_HRD10591_16-53-00-965.txt Node
Date: Thu Jul 18 16:53:00 EDT 2019
User: cochatt
Spectrometer: HR+D1059
Trigger mode: 1
Integration Time (sec): 1.000000E-1
Scans to average: 1
Electric dark correction enabled: true
Nonlinearity correction enabled: false
Boxcar width: 0
XAxis mode: Wavelengths
Number of Pixels in Spectrum: 2048
>>>>>Begin Spectral Data<<<<<
223.165	-9.38
223.4	-9.38
223.635	-9.38
223.869	-6.38
224.104	-7.38
224.338	-6.38
224.573	-7.38
224.808	-9.38
225.042	-18.38
225.277	-9.38
225.511	-10.38
225.746	2.62
225.98	20.62
226.215	12.62
226.449	-0.38
226.683	24.62
226.918	14.62
227.152	9.62
227.387	40.62
227.621	38.62
227.856	49.62
228.09	44.62
228.324	46.62
228.559	51.62
228.793	56.62
229.027	89.62
229.262	90.62
229.496	99.62
229.73	123.62
229.964	132.62
230.199	125.62
230.433	120.62
230.667	98.62
230.901	115.62
231.136	89.62
231.37	104.62
231.604	95.62
231.838	101.62
232.072	105.62
232.306	109.62
232.541	108.62
232.775	114.62
233.009	85.62
233.243	99.62
233.477	119.62
233.711	106.62
233.945	111.62
234.179	113.62
234.413	105.62
234.647	118.62
234.881	117.62
235.115	125.62
235.349	114.62
235.583	121.62
235.817	117.62
236.051	117.62
236.285	116.62
236.519	124.62
236.753	129.62
236.987	129.62
237.221	161.62
237.455	203.62
237.689	159.62
237.922	130.62
238.156	139.62
238.39	119.62
238.624	107.62
238.858	118.62
239.091	113.62
239.325	114.62
239.559	120.62
239.793	117.62
240.027	126.62
240.26	136.62
240.494	140.62
240.728	140.62
240.961	137.62
241.195	118.62
241.429	127.62
241.662	122.62
241.896	121.62
242.13	122.62
242.363	108.62
242.597	112.62
242.83	122.62
243.064	134.62
243.298	119.62
243.531	131.62
243.765	123.62
243.998	127.62
244.232	125.62
244.465	146.62
244.699	136.62
244.932	128.62
245.166	125.62
245.399	127.62
245.633	144.62
245.866	135.62
246.099	137.62
246.333	124.62
246.566	130.62
246.8	134.62
247.033	122.62
247.266	152.62
247.5	137.62
247.733	145.62
247.966	155.62
248.2	156.62
248.433	156.62
248.666	174.62
248.899	167.62
249.133	181.62
249.366	197.62
249.599	190.62
249.832	164.62
250.066	176.62
250.299	160.62
250.532	178.62
250.765	185.62
250.998	189.62
251.231	199.62
251.465	193.62
251.698	185.62
251.931	186.62
252.164	207.62
252.397	167.62
252.63	188.62
252.863	178.62
253.096	193.62
253.329	190.62
253.562	208.62
253.795	198.62
254.028	192.62
254.261	204.62
254.494	189.62
254.727	246.62
254.96	252.62
255.193	232.62
255.426	204.62
255.659	204.62
255.892	214.62
256.124	195.62
256.357	183.62
256.59	197.62
256.823	193.62
257.056	193.62
257.289	210.62
257.521	181.62
257.754	188.62
257.987	203.62
258.22	185.62
258.452	168.62
258.685	185.62
258.918	191.62
259.151	189.62
259.383	195.62
259.616	199.62
259.849	193.62
260.081	210.62
260.314	238.62
260.547	228.62
260.779	221.62
261.012	213.62
261.244	209.62
261.477	197.62
261.71	202.62
261.942	201.62
262.175	217.62
262.407	207.62
262.64	205.62
262.872	191.62
263.105	191.62
263.337	186.62
263.57	179.62
263.802	187.62
264.035	193.62
264.267	192.62
264.499	189.62
264.732	180.62
264.964	204.62
265.197	165.62
265.429	189.62
265.661	186.62
265.894	194.62
266.126	185.62
266.358	196.62
266.591	204.62
266.823	198.62
267.055	196.62
267.287	225.62
267.52	201.62
267.752	199.62
267.984	206.62
268.216	209.62
268.448	233.62
268.681	207.62
268.913	224.62
269.145	236.62
269.377	258.62
269.609	226.62
269.841	248.62
270.073	232.62
270.306	262.62
270.538	272.62
270.77	292.62
271.002	264.62
271.234	272.62
271.466	263.62
271.698	270.62
271.93	290.62
272.162	274.62
272.394	288.62
272.626	280.62
272.858	268.62
273.09	250.62
273.322	256.62
273.553	243.62
273.785	244.62
274.017	243.62
274.249	216.62
274.481	232.62
274.713	229.62
274.945	254.62
275.176	245.62
275.408	229.62
275.64	236.62
275.872	221.62
276.104	243.62
276.335	226.62
276.567	234.62
276.799	233.62
277.031	280.62
277.262	280.62
277.494	278.62
277.726	266.62
277.957	256.62
278.189	248.62
278.421	238.62
278.652	251.62
278.884	248.62
279.115	233.62
279.347	242.62
279.579	241.62
279.81	232.62
280.042	232.62
280.273	207.62
280.505	222.62
280.736	235.62
280.968	247.62
281.199	252.62
281.431	220.62
281.662	241.62
281.894	232.62
282.125	238.62
282.356	261.62
282.588	269.62
282.819	276.62
283.051	257.62
283.282	247.62
283.513	238.62
283.745	253.62
283.976	242.62
284.207	247.62
284.439	254.62
284.67	258.62
284.901	252.62
285.132	246.62
285.364	250.62
285.595	264.62
285.826	241.62
286.057	257.62
286.288	259.62
286.52	261.62
286.751	234.62
286.982	235.62
287.213	251.62
287.444	244.62
287.675	267.62
287.906	262.62
288.138	279.62
288.369	282.62
288.6	285.62
288.831	262.62
289.062	262.62
289.293	267.62
289.524	274.62
289.755	260.62
289.986	240.62
290.217	269.62
290.448	255.62
290.679	241.62
290.91	271.62
291.141	262.62
291.371	276.62
291.602	266.62
291.833	251.62
292.064	266.62
292.295	261.62
292.526	264.62
292.757	269.62
292.987	270.62
293.218	260.62
293.449	262.62
293.68	252.62
293.91	243.62
294.141	268.62
294.372	243.62
294.603	248.62
294.833	246.62
295.064	244.62
295.295	261.62
295.525	270.62
295.756	263.62
295.987	266.62
296.217	282.62
296.448	290.62
296.679	274.62
296.909	275.62
297.14	276.62
297.37	267.62
297.601	270.62
297.831	268.62
298.062	264.62
298.292	289.62
298.523	276.62
298.753	259.62
298.984	273.62
299.214	278.62
299.445	269.62
299.675	285.62
299.905	285.62
300.136	265.62
300.366	268.62
300.597	268.62
300.827	284.62
301.057	279.62
301.288	276.62
301.518	289.62
301.748	274.62
301.979	305.62
302.209	297.62
302.439	306.62
302.669	307.62
302.9	281.62
303.13	286.62
303.36	306.62
303.59	290.62
303.82	297.62
304.051	300.62
304.281	283.62
304.511	267.62
304.741	296.62
304.971	295.62
305.201	301.62
305.431	293.62
305.661	304.62
305.891	300.62
306.121	296.62
306.352	307.62
306.582	300.62
306.812	301.62
307.042	292.62
307.272	287.62
307.502	305.62
307.731	269.62
307.961	300.62
308.191	281.62
308.421	297.62
308.651	299.62
308.881	300.62
309.111	296.62
309.341	293.62
309.571	292.62
309.8	346.62
310.03	335.62
310.26	328.62
310.49	335.62
310.72	335.62
310.949	356.62
311.179	361.62
311.409	336.62
311.639	315.62
311.868	346.62
312.098	327.62
312.328	335.62
312.557	334.62
312.787	361.62
313.017	363.62
313.246	339.62
313.476	326.62
313.706	340.62
313.935	358.62
314.165	347.62
314.394	373.62
314.624	376.62
314.853	349.62
315.083	342.62
315.312	326.62
315.542	314.62
315.771	335.62
316.001	319.62
316.23	315.62
316.46	337.62
316.689	325.62
316.919	346.62
317.148	360.62
317.377	330.62
317.607	350.62
317.836	344.62
318.065	329.62
318.295	340.62
318.524	342.62
318.753	335.62
318.983	347.62
319.212	342.62
319.441	345.62
319.67	349.62
319.9	355.62
320.129	341.62
320.358	351.62
320.587	345.62
320.816	339.62
321.046	358.62
321.275	380.62
321.504	352.62
321.733	354.62
321.962	359.62
322.191	389.62
322.42	386.62
322.649	414.62
322.878	418.62
323.108	429.62
323.337	428.62
323.566	455.62
323.795	494.62
324.024	528.62
324.253	658.62
324.482	947.62
324.71	1368.62
324.939	1907.62
325.168	1524.62
325.397	816.62
325.626	583.62
325.855	490.62
326.084	464.62
326.313	440.62
326.542	453.62
326.77	509.62
326.999	620.62
327.228	838.62
327.457	1225.62
327.686	1369.62
327.914	930.62
328.143	638.62
328.372	542.62
328.6	490.62
328.829	503.62
329.058	509.62
329.287	506.62
329.515	489.62
329.744	445.62
329.972	426.62
330.201	443.62
330.43	436.62
330.658	484.62
330.887	536.62
331.115	522.62
331.344	443.62
331.572	430.62
331.801	429.62
332.03	426.62
332.258	418.62
332.486	418.62
332.715	411.62
332.943	404.62
333.172	398.62
333.4	374.62
333.629	399.62
333.857	389.62
334.085	404.62
334.314	391.62
334.542	401.62
334.771	412.62
334.999	408.62
335.227	405.62
335.455	399.62
335.684	385.62
335.912	389.62
336.14	388.62
336.369	386.62
336.597	385.62
336.825	391.62
337.053	390.62
337.281	374.62
337.51	378.62
337.738	357.62
337.966	398.62
338.194	402.62
338.422	390.62
338.65	385.62
338.878	383.62
339.106	384.62
339.334	399.62
339.562	385.62
339.79	360.62
340.018	365.62
340.246	371.62
340.474	384.62
340.702	386.62
340.93	370.62
341.158	362.62
341.386	361.62
341.614	371.62
341.842	384.62
342.07	376.62
342.298	378.62
342.526	370.62
342.754	377.62
342.981	360.62
343.209	357.62
343.437	377.62
343.665	374.62
343.893	398.62
344.12	389.62
344.348	392.62
344.576	394.62
344.804	390.62
345.031	395.62
345.259	394.62
345.487	395.62
345.714	389.62
345.942	368.62
346.17	358.62
346.397	371.62
346.625	374.62
346.853	343.62
347.08	351.62
347.308	353.62
347.535	361.62
347.763	360.62
347.99	386.62
348.218	384.62
348.445	390.62
348.673	378.62
348.9	362.62
349.128	373.62
349.355	346.62
349.583	349.62
349.81	348.62
350.037	349.62
350.265	369.62
350.492	367.62
350.72	359.62
350.947	357.62
351.174	368.62
351.402	368.62
351.629	355.62
351.856	372.62
352.083	375.62
352.311	389.62
352.538	384.62
352.765	393.62
352.992	384.62
353.22	375.62
353.447	369.62
353.674	360.62
353.901	359.62
354.128	348.62
354.355	348.62
354.583	334.62
354.81	334.62
355.037	345.62
355.264	356.62
355.491	321.62
355.718	358.62
355.945	347.62
356.172	329.62
356.399	331.62
356.626	328.62
356.853	357.62
357.08	356.62
357.307	346.62
357.534	333.62
357.761	338.62
357.988	347.62
358.215	349.62
358.441	358.62
358.668	340.62
358.895	344.62
359.122	334.62
359.349	343.62
359.576	362.62
359.802	382.62
360.029	410.62
360.256	429.62
360.483	398.62
360.709	382.62
360.936	374.62
361.163	356.62
361.39	386.62
361.616	374.62
361.843	381.62
362.07	365.62
362.296	348.62
362.523	358.62
362.749	374.62
362.976	376.62
363.203	359.62
363.429	340.62
363.656	353.62
363.882	363.62
364.109	344.62
364.335	330.62
364.562	329.62
364.788	352.62
365.015	327.62
365.241	372.62
365.468	348.62
365.694	361.62
365.92	370.62
366.147	345.62
366.373	326.62
366.599	359.62
366.826	361.62
367.052	340.62
367.278	354.62
367.505	341.62
367.731	348.62
367.957	343.62
368.184	347.62
368.41	340.62
368.636	372.62
368.862	364.62
369.089	356.62
369.315	346.62
369.541	331.62
369.767	347.62
369.993	337.62
370.219	337.62
370.445	346.62
370.672	344.62
370.898	339.62
371.124	338.62
371.35	325.62
371.576	340.62
371.802	312.62
372.028	354.62
372.254	331.62
372.48	344.62
372.706	349.62
372.932	349.62
373.158	354.62
373.384	341.62
373.61	323.62
373.835	368.62
374.061	348.62
374.287	364.62
374.513	357.62
374.739	350.62
374.965	329.62
375.191	364.62
375.416	346.62
375.642	350.62
375.868	344.62
376.094	345.62
376.319	334.62
376.545	349.62
376.771	336.62
376.997	349.62
377.222	335.62
377.448	334.62
377.674	349.62
377.899	330.62
378.125	333.62
378.35	335.62
378.576	348.62
378.802	345.62
379.027	330.62
379.253	353.62
379.478	329.62
379.704	358.62
379.929	333.62
380.155	345.62
380.38	342.62
380.606	338.62
380.831	337.62
381.057	357.62
381.282	337.62
381.507	326.62
381.733	348.62
381.958	358.62
382.184	344.62
382.409	350.62
382.634	352.62
382.86	352.62
383.085	347.62
383.31	356.62
383.535	336.62
383.761	350.62
383.986	357.62
384.211	350.62
384.436	363.62
384.662	358.62
384.887	377.62
385.112	358.62
385.337	352.62
385.562	375.62
385.787	366.62
386.013	391.62
386.238	380.62
386.463	377.62
386.688	376.62
386.913	371.62
387.138	368.62
387.363	369.62
387.588	374.62
387.813	350.62
388.038	369.62
388.263	338.62
388.488	380.62
388.713	355.62
388.938	370.62
389.163	384.62
389.387	364.62
389.612	372.62
389.837	371.62
390.062	378.62
390.287	365.62
390.512	352.62
390.736	360.62
390.961	361.62
391.186	366.62
391.411	354.62
391.636	362.62
391.86	372.62
392.085	374.62
392.31	379.62
392.534	383.62
392.759	372.62
392.984	379.62
393.208	365.62
393.433	376.62
393.658	369.62
393.882	354.62
394.107	365.62
394.331	370.62
394.556	379.62
394.78	376.62
395.005	369.62
395.229	376.62
395.454	387.62
395.678	382.62
395.903	383.62
396.127	400.62
396.352	403.62
396.576	383.62
396.801	384.62
397.025	371.62
397.249	384.62
397.474	387.62
397.698	390.62
397.922	415.62
398.147	406.62
398.371	412.62
398.595	395.62
398.82	412.62
399.044	433.62
399.268	440.62
399.492	451.62
399.717	473.62
399.941	482.62
400.165	504.62
400.389	506.62
400.613	457.62
400.837	437.62
401.062	439.62
401.286	415.62
401.51	404.62
401.734	405.62
401.958	421.62
402.182	410.62
402.406	441.62
402.63	436.62
402.854	439.62
403.078	436.62
403.302	432.62
403.526	438.62
403.75	446.62
403.974	422.62
404.198	428.62
404.422	432.62
404.645	451.62
404.869	428.62
405.093	441.62
405.317	474.62
405.541	473.62
405.765	456.62
405.988	454.62
406.212	475.62
406.436	488.62
406.66	470.62
406.883	456.62
407.107	488.62
407.331	514.62
407.555	532.62
407.778	547.62
408.002	515.62
408.226	472.62
408.449	468.62
408.673	452.62
408.896	487.62
409.12	523.62
409.344	512.62
409.567	438.62
409.791	448.62
410.014	439.62
410.238	450.62
410.461	428.62
410.685	455.62
410.908	440.62
411.132	468.62
411.355	499.62
411.578	457.62
411.802	448.62
412.025	448.62
412.249	411.62
412.472	442.62
412.695	420.62
412.919	412.62
413.142	441.62
413.365	408.62
413.589	420.62
413.812	414.62
414.035	403.62
414.258	399.62
414.482	399.62
414.705	393.62
414.928	404.62
415.151	391.62
415.374	396.62
415.597	394.62
415.821	382.62
416.044	433.62
416.267	406.62
416.49	379.62
416.713	396.62
416.936	404.62
417.159	404.62
417.382	397.62
417.605	412.62
417.828	431.62
418.051	416.62
418.274	418.62
418.497	401.62
418.72	403.62
418.943	411.62
419.166	426.62
419.389	442.62
419.611	438.62
419.834	424.62
420.057	435.62
420.28	424.62
420.503	408.62
420.726	415.62
420.948	432.62
421.171	463.62
421.394	474.62
421.617	437.62
421.839	446.62
422.062	435.62
422.285	427.62
422.507	466.62
422.73	544.62
422.953	519.62
423.175	452.62
423.398	435.62
423.621	445.62
423.843	453.62
424.066	461.62
424.288	453.62
424.511	470.62
424.733	530.62
424.956	549.62
425.178	569.62
425.401	532.62
425.623	562.62
425.846	512.62
426.068	457.62
426.291	463.62
426.513	433.62
426.735	483.62
426.958	499.62
427.18	566.62
427.402	665.62
427.625	698.62
427.847	666.62
428.069	545.62
428.292	480.62
428.514	441.62
428.736	442.62
428.958	444.62
429.181	420.62
429.403	433.62
429.625	436.62
429.847	440.62
430.069	477.62
430.292	496.62
430.514	456.62
430.736	427.62
430.958	427.62
431.18	401.62
431.402	420.62
431.624	404.62
431.846	380.62
432.068	378.62
432.29	392.62
432.512	393.62
432.734	403.62
432.956	404.62
433.178	419.62
433.4	412.62
433.622	428.62
433.844	391.62
434.066	387.62
434.287	400.62
434.509	408.62
434.731	416.62
434.953	413.62
435.175	433.62
435.397	452.62
435.618	456.62
435.84	491.62
436.062	566.62
436.284	616.62
436.505	525.62
436.727	468.62
436.949	440.62
437.17	416.62
437.392	423.62
437.614	449.62
437.835	456.62
438.057	535.62
438.278	618.62
438.5	636.62
438.721	678.62
438.943	617.62
439.165	521.62
439.386	462.62
439.608	464.62
439.829	463.62
440.05	494.62
440.272	481.62
440.493	496.62
440.715	461.62
440.936	442.62
441.158	437.62
441.379	432.62
441.6	430.62
441.822	458.62
442.043	501.62
442.264	558.62
442.486	571.62
442.707	516.62
442.928	481.62
443.149	474.62
443.371	491.62
443.592	531.62
443.813	598.62
444.034	638.62
444.255	515.62
444.476	472.62
444.698	466.62
444.919	477.62
445.14	588.62
445.361	520.62
445.582	497.62
445.803	546.62
446.024	617.62
446.245	622.62
446.466	582.62
446.687	493.62
446.908	472.62
447.129	440.62
447.35	430.62
447.571	432.62
447.792	429.62
448.013	409.62
448.234	457.62
448.455	499.62
448.675	571.62
448.896	649.62
449.117	551.62
449.338	546.62
449.559	626.62
449.779	674.62
450	575.62
450.221	460.62
450.442	438.62
450.662	430.62
450.883	443.62
451.104	444.62
451.324	457.62
451.545	398.62
451.766	375.62
451.986	384.62
452.207	402.62
452.428	388.62
452.648	388.62
452.869	388.62
453.089	396.62
453.31	418.62
453.53	382.62
453.751	387.62
453.971	399.62
454.192	406.62
454.412	399.62
454.633	392.62
454.853	393.62
455.073	361.62
455.294	412.62
455.514	429.62
455.734	430.62
455.955	395.62
456.175	375.62
456.395	378.62
456.616	366.62
456.836	366.62
457.056	362.62
457.276	342.62
457.497	372.62
457.717	376.62
457.937	372.62
458.157	370.62
458.377	360.62
458.598	395.62
458.818	445.62
459.038	520.62
459.258	523.62
459.478	432.62
459.698	407.62
459.918	405.62
460.138	398.62
460.358	400.62
460.578	398.62
460.798	423.62
461.018	414.62
461.238	407.62
461.458	412.62
461.678	387.62
461.898	403.62
462.118	406.62
462.338	416.62
462.558	429.62
462.777	438.62
462.997	444.62
463.217	440.62
463.437	428.62
463.657	433.62
463.876	425.62
464.096	407.62
464.316	424.62
464.536	452.62
464.755	448.62
464.975	453.62
465.195	505.62
465.414	568.62
465.634	496.62
465.854	452.62
466.073	413.62
466.293	386.62
466.512	411.62
466.732	397.62
466.951	384.62
467.171	365.62
467.391	378.62
467.61	404.62
467.829	412.62
468.049	417.62
468.268	392.62
468.488	381.62
468.707	389.62
468.927	375.62
469.146	380.62
469.365	391.62
469.585	382.62
469.804	424.62
470.023	404.62
470.243	406.62
470.462	418.62
470.681	446.62
470.901	406.62
471.12	389.62
471.339	386.62
471.558	396.62
471.777	385.62
471.997	377.62
472.216	385.62
472.435	379.62
472.654	377.62
472.873	388.62
473.092	377.62
473.311	393.62
473.53	407.62
473.749	402.62
473.968	436.62
474.187	511.62
474.406	532.62
474.625	440.62
474.844	415.62
475.063	394.62
475.282	399.62
475.501	388.62
475.72	394.62
475.939	419.62
476.158	414.62
476.377	414.62
476.596	403.62
476.814	418.62
477.033	405.62
477.252	415.62
477.471	409.62
477.69	422.62
477.908	428.62
478.127	430.62
478.346	424.62
478.564	423.62
478.783	457.62
479.002	438.62
479.22	442.62
479.439	460.62
479.658	460.62
479.876	469.62
480.095	475.62
480.313	475.62
480.532	467.62
480.751	454.62
480.969	478.62
481.188	517.62
481.406	501.62
481.624	471.62
481.843	473.62
482.061	456.62
482.28	476.62
482.498	460.62
482.717	462.62
482.935	445.62
483.153	449.62
483.372	448.62
483.59	457.62
483.808	460.62
484.027	453.62
484.245	453.62
484.463	441.62
484.681	483.62
484.9	444.62
485.118	459.62
485.336	482.62
485.554	466.62
485.772	481.62
485.99	479.62
486.209	468.62
486.427	492.62
486.645	480.62
486.863	510.62
487.081	504.62
487.299	490.62
487.517	477.62
487.735	482.62
487.953	495.62
488.171	482.62
488.389	498.62
488.607	492.62
488.825	490.62
489.043	517.62
489.261	523.62
489.479	516.62
489.696	525.62
489.914	485.62
490.132	496.62
490.35	512.62
490.568	516.62
490.786	533.62
491.003	545.62
491.221	529.62
491.439	554.62
491.657	555.62
491.874	562.62
492.092	560.62
492.31	556.62
492.527	581.62
492.745	575.62
492.963	584.62
493.18	565.62
493.398	575.62
493.615	584.62
493.833	583.62
494.05	551.62
494.268	560.62
494.485	573.62
494.703	567.62
494.92	562.62
495.138	581.62
495.355	591.62
495.573	605.62
495.79	588.62
496.008	580.62
496.225	597.62
496.442	582.62
496.66	578.62
496.877	598.62
497.094	573.62
497.312	587.62
497.529	588.62
497.746	616.62
497.963	617.62
498.181	627.62
498.398	624.62
498.615	654.62
498.832	641.62
499.049	638.62
499.267	644.62
499.484	673.62
499.701	716.62
499.918	756.62
500.135	753.62
500.352	785.62
500.569	793.62
500.786	778.62
501.003	783.62
501.22	732.62
501.437	761.62
501.654	742.62
501.871	735.62
502.088	696.62
