Data from 1983.PennyLincolnUp.Lamp.En5.5.200Scan.071819.P1_HRD10591_16-53-20-966.txt Node
Date: Thu Jul 18 16:53:20 EDT 2019
User: cochatt
Spectrometer: HR+D1059
Trigger mode: 1
Integration Time (sec): 1.000000E-1
Scans to average: 1
Electric dark correction enabled: true
Nonlinearity correction enabled: false
Boxcar width: 0
XAxis mode: Wavelengths
Number of Pixels in Spectrum: 2048
>>>>>Begin Spectral Data<<<<<
223.165	-15.44
223.4	-15.44
223.635	-15.44
223.869	-12.44
224.104	-24.44
224.338	3.56
224.573	-15.44
224.808	-22.44
225.042	-17.44
225.277	0.56
225.511	12.56
225.746	-5.44
225.98	-10.44
226.215	18.56
226.449	12.56
226.683	17.56
226.918	22.56
227.152	35.56
227.387	37.56
227.621	36.56
227.856	50.56
228.09	54.56
228.324	43.56
228.559	67.56
228.793	54.56
229.027	88.56
229.262	94.56
229.496	95.56
229.73	145.56
229.964	125.56
230.199	113.56
230.433	115.56
230.667	116.56
230.901	109.56
231.136	99.56
231.37	111.56
231.604	111.56
231.838	95.56
232.072	95.56
232.306	98.56
232.541	103.56
232.775	121.56
233.009	113.56
233.243	118.56
233.477	111.56
233.711	113.56
233.945	117.56
234.179	100.56
234.413	110.56
234.647	115.56
234.881	113.56
235.115	110.56
235.349	126.56
235.583	114.56
235.817	120.56
236.051	124.56
236.285	125.56
236.519	115.56
236.753	123.56
236.987	126.56
237.221	164.56
237.455	197.56
237.689	147.56
237.922	135.56
238.156	117.56
238.39	130.56
238.624	131.56
238.858	111.56
239.091	115.56
239.325	120.56
239.559	109.56
239.793	121.56
240.027	126.56
240.26	144.56
240.494	140.56
240.728	143.56
240.961	135.56
241.195	130.56
241.429	141.56
241.662	118.56
241.896	121.56
242.13	145.56
242.363	124.56
242.597	116.56
242.83	132.56
243.064	129.56
243.298	135.56
243.531	121.56
243.765	133.56
243.998	119.56
244.232	124.56
244.465	142.56
244.699	143.56
244.932	143.56
245.166	145.56
245.399	141.56
245.633	139.56
245.866	129.56
246.099	151.56
246.333	142.56
246.566	142.56
246.8	138.56
247.033	154.56
247.266	165.56
247.5	148.56
247.733	164.56
247.966	153.56
248.2	167.56
248.433	156.56
248.666	158.56
248.899	163.56
249.133	196.56
249.366	195.56
249.599	172.56
249.832	160.56
250.066	166.56
250.299	172.56
250.532	166.56
250.765	184.56
250.998	189.56
251.231	213.56
251.465	201.56
251.698	191.56
251.931	179.56
252.164	203.56
252.397	186.56
252.63	195.56
252.863	199.56
253.096	200.56
253.329	217.56
253.562	216.56
253.795	222.56
254.028	189.56
254.261	207.56
254.494	215.56
254.727	213.56
254.96	262.56
255.193	253.56
255.426	228.56
255.659	229.56
255.892	206.56
256.124	203.56
256.357	191.56
256.59	191.56
256.823	201.56
257.056	187.56
257.289	174.56
257.521	189.56
257.754	181.56
257.987	187.56
258.22	200.56
258.452	199.56
258.685	199.56
258.918	191.56
259.151	199.56
259.383	204.56
259.616	192.56
259.849	209.56
260.081	225.56
260.314	248.56
260.547	234.56
260.779	220.56
261.012	222.56
261.244	222.56
261.477	199.56
261.71	212.56
261.942	197.56
262.175	228.56
262.407	208.56
262.64	205.56
262.872	210.56
263.105	197.56
263.337	181.56
263.57	176.56
263.802	197.56
264.035	205.56
264.267	197.56
264.499	183.56
264.732	206.56
264.964	203.56
265.197	188.56
265.429	211.56
265.661	217.56
265.894	187.56
266.126	194.56
266.358	185.56
266.591	208.56
266.823	205.56
267.055	196.56
267.287	217.56
267.52	196.56
267.752	213.56
267.984	197.56
268.216	200.56
268.448	204.56
268.681	184.56
268.913	227.56
269.145	223.56
269.377	236.56
269.609	249.56
269.841	255.56
270.073	236.56
270.306	268.56
270.538	289.56
270.77	275.56
271.002	264.56
271.234	261.56
271.466	273.56
271.698	281.56
271.93	281.56
272.162	287.56
272.394	274.56
272.626	259.56
272.858	275.56
273.09	267.56
273.322	240.56
273.553	239.56
273.785	232.56
274.017	223.56
274.249	243.56
274.481	247.56
274.713	237.56
274.945	241.56
275.176	232.56
275.408	225.56
275.64	232.56
275.872	238.56
276.104	239.56
276.335	246.56
276.567	236.56
276.799	259.56
277.031	280.56
277.262	283.56
277.494	268.56
277.726	266.56
277.957	255.56
278.189	265.56
278.421	241.56
278.652	233.56
278.884	254.56
279.115	246.56
279.347	243.56
279.579	253.56
279.81	246.56
280.042	225.56
280.273	236.56
280.505	241.56
280.736	236.56
280.968	259.56
281.199	220.56
281.431	244.56
281.662	230.56
281.894	239.56
282.125	263.56
282.356	258.56
282.588	300.56
282.819	271.56
283.051	267.56
283.282	254.56
283.513	262.56
283.745	256.56
283.976	269.56
284.207	252.56
284.439	261.56
284.67	253.56
284.901	252.56
285.132	280.56
285.364	262.56
285.595	233.56
285.826	255.56
286.057	243.56
286.288	245.56
286.52	244.56
286.751	231.56
286.982	251.56
287.213	253.56
287.444	261.56
287.675	256.56
287.906	264.56
288.138	272.56
288.369	279.56
288.6	277.56
288.831	273.56
289.062	262.56
289.293	237.56
289.524	261.56
289.755	257.56
289.986	264.56
290.217	275.56
290.448	260.56
290.679	268.56
290.91	254.56
291.141	250.56
291.371	259.56
291.602	261.56
291.833	261.56
292.064	267.56
292.295	259.56
292.526	263.56
292.757	258.56
292.987	269.56
293.218	261.56
293.449	274.56
293.68	271.56
293.91	247.56
294.141	255.56
294.372	266.56
294.603	263.56
294.833	262.56
295.064	255.56
295.295	264.56
295.525	268.56
295.756	274.56
295.987	242.56
296.217	295.56
296.448	311.56
296.679	286.56
296.909	279.56
297.14	272.56
297.37	255.56
297.601	279.56
297.831	266.56
298.062	252.56
298.292	260.56
298.523	276.56
298.753	278.56
298.984	281.56
299.214	287.56
299.445	273.56
299.675	296.56
299.905	282.56
300.136	294.56
300.366	277.56
300.597	270.56
300.827	287.56
301.057	290.56
301.288	302.56
301.518	303.56
301.748	293.56
301.979	294.56
302.209	282.56
302.439	285.56
302.669	291.56
302.9	285.56
303.13	288.56
303.36	313.56
303.59	293.56
303.82	303.56
304.051	307.56
304.281	296.56
304.511	301.56
304.741	289.56
304.971	291.56
305.201	287.56
305.431	301.56
305.661	295.56
305.891	294.56
306.121	290.56
306.352	304.56
306.582	292.56
306.812	305.56
307.042	299.56
307.272	298.56
307.502	307.56
307.731	290.56
307.961	313.56
308.191	305.56
308.421	298.56
308.651	311.56
308.881	297.56
309.111	303.56
309.341	325.56
309.571	325.56
309.8	324.56
310.03	339.56
310.26	360.56
310.49	352.56
310.72	339.56
310.949	356.56
311.179	365.56
311.409	351.56
311.639	349.56
311.868	332.56
312.098	325.56
312.328	351.56
312.557	362.56
312.787	362.56
313.017	365.56
313.246	345.56
313.476	340.56
313.706	351.56
313.935	350.56
314.165	363.56
314.394	345.56
314.624	367.56
314.853	357.56
315.083	331.56
315.312	339.56
315.542	318.56
315.771	331.56
316.001	347.56
316.23	341.56
316.46	349.56
316.689	340.56
316.919	336.56
317.148	364.56
317.377	359.56
317.607	360.56
317.836	343.56
318.065	355.56
318.295	329.56
318.524	319.56
318.753	337.56
318.983	328.56
319.212	344.56
319.441	352.56
319.67	362.56
319.9	365.56
320.129	337.56
320.358	360.56
320.587	334.56
320.816	356.56
321.046	364.56
321.275	373.56
321.504	359.56
321.733	364.56
321.962	371.56
322.191	397.56
322.42	385.56
322.649	403.56
322.878	399.56
323.108	424.56
323.337	438.56
323.566	467.56
323.795	494.56
324.024	558.56
324.253	679.56
324.482	948.56
324.71	1457.56
324.939	1936.56
325.168	1592.56
325.397	848.56
325.626	574.56
325.855	503.56
326.084	455.56
326.313	447.56
326.542	456.56
326.77	504.56
326.999	597.56
327.228	848.56
327.457	1257.56
327.686	1453.56
327.914	933.56
328.143	667.56
328.372	552.56
328.6	529.56
328.829	530.56
329.058	506.56
329.287	535.56
329.515	481.56
329.744	452.56
329.972	467.56
330.201	448.56
330.43	467.56
330.658	504.56
330.887	555.56
331.115	537.56
331.344	452.56
331.572	440.56
331.801	440.56
332.03	442.56
332.258	409.56
332.486	407.56
332.715	384.56
332.943	407.56
333.172	407.56
333.4	432.56
333.629	411.56
333.857	419.56
334.085	412.56
334.314	421.56
334.542	419.56
334.771	428.56
334.999	407.56
335.227	407.56
335.455	399.56
335.684	389.56
335.912	401.56
336.14	378.56
336.369	398.56
336.597	410.56
336.825	443.56
337.053	391.56
337.281	390.56
337.51	388.56
337.738	385.56
337.966	405.56
338.194	396.56
338.422	405.56
338.65	385.56
338.878	399.56
339.106	365.56
339.334	373.56
339.562	378.56
339.79	382.56
340.018	385.56
340.246	394.56
340.474	391.56
340.702	415.56
340.93	383.56
341.158	372.56
341.386	399.56
341.614	377.56
341.842	389.56
342.07	368.56
342.298	382.56
342.526	379.56
342.754	380.56
342.981	376.56
343.209	356.56
343.437	384.56
343.665	375.56
343.893	393.56
344.12	394.56
344.348	377.56
344.576	376.56
344.804	384.56
345.031	402.56
345.259	406.56
345.487	416.56
345.714	402.56
345.942	385.56
346.17	377.56
346.397	355.56
346.625	375.56
346.853	363.56
347.08	373.56
347.308	381.56
347.535	380.56
347.763	383.56
347.99	388.56
348.218	379.56
348.445	368.56
348.673	378.56
348.9	381.56
349.128	358.56
349.355	350.56
349.583	368.56
349.81	359.56
350.037	355.56
350.265	356.56
350.492	356.56
350.72	352.56
350.947	364.56
351.174	375.56
351.402	401.56
351.629	365.56
351.856	368.56
352.083	389.56
352.311	397.56
352.538	389.56
352.765	375.56
352.992	383.56
353.22	379.56
353.447	371.56
353.674	360.56
353.901	353.56
354.128	343.56
354.355	334.56
354.583	347.56
354.81	360.56
355.037	347.56
355.264	344.56
355.491	334.56
355.718	332.56
355.945	339.56
356.172	339.56
356.399	322.56
356.626	343.56
356.853	341.56
357.08	334.56
357.307	346.56
357.534	348.56
357.761	337.56
357.988	335.56
358.215	355.56
358.441	367.56
358.668	346.56
358.895	354.56
359.122	352.56
359.349	369.56
359.576	366.56
359.802	402.56
360.029	423.56
360.256	428.56
360.483	398.56
360.709	383.56
360.936	392.56
361.163	373.56
361.39	368.56
361.616	363.56
361.843	395.56
362.07	373.56
362.296	387.56
362.523	373.56
362.749	368.56
362.976	369.56
363.203	368.56
363.429	349.56
363.656	344.56
363.882	345.56
364.109	343.56
364.335	359.56
364.562	353.56
364.788	345.56
365.015	336.56
365.241	360.56
365.468	350.56
365.694	359.56
365.92	374.56
366.147	341.56
366.373	339.56
366.599	354.56
366.826	344.56
367.052	349.56
367.278	350.56
367.505	356.56
367.731	367.56
367.957	338.56
368.184	336.56
368.41	354.56
368.636	356.56
368.862	357.56
369.089	345.56
369.315	335.56
369.541	363.56
369.767	348.56
369.993	342.56
370.219	348.56
370.445	341.56
370.672	332.56
370.898	349.56
371.124	341.56
371.35	355.56
371.576	345.56
371.802	347.56
372.028	337.56
372.254	356.56
372.48	358.56
372.706	347.56
372.932	361.56
373.158	340.56
373.384	345.56
373.61	361.56
373.835	373.56
374.061	339.56
374.287	357.56
374.513	347.56
374.739	355.56
374.965	345.56
375.191	335.56
375.416	355.56
375.642	364.56
375.868	358.56
376.094	367.56
376.319	343.56
376.545	360.56
376.771	358.56
376.997	350.56
377.222	348.56
377.448	351.56
377.674	336.56
377.899	331.56
378.125	353.56
378.35	350.56
378.576	358.56
378.802	343.56
379.027	331.56
379.253	335.56
379.478	346.56
379.704	339.56
379.929	354.56
380.155	359.56
380.38	349.56
380.606	358.56
380.831	333.56
381.057	351.56
381.282	345.56
381.507	354.56
381.733	340.56
381.958	350.56
382.184	328.56
382.409	334.56
382.634	350.56
382.86	334.56
383.085	349.56
383.31	357.56
383.535	354.56
383.761	353.56
383.986	359.56
384.211	363.56
384.436	369.56
384.662	375.56
384.887	362.56
385.112	378.56
385.337	385.56
385.562	377.56
385.787	381.56
386.013	381.56
386.238	393.56
386.463	387.56
386.688	384.56
386.913	375.56
387.138	392.56
387.363	381.56
387.588	365.56
387.813	343.56
388.038	377.56
388.263	376.56
388.488	363.56
388.713	395.56
388.938	387.56
389.163	374.56
389.387	390.56
389.612	357.56
389.837	383.56
390.062	400.56
390.287	386.56
390.512	355.56
390.736	377.56
390.961	364.56
391.186	361.56
391.411	374.56
391.636	357.56
391.86	367.56
392.085	380.56
392.31	374.56
392.534	381.56
392.759	379.56
392.984	380.56
393.208	358.56
393.433	355.56
393.658	358.56
393.882	356.56
394.107	375.56
394.331	361.56
394.556	370.56
394.78	381.56
395.005	378.56
395.229	381.56
395.454	383.56
395.678	374.56
395.903	392.56
396.127	425.56
396.352	407.56
396.576	395.56
396.801	388.56
397.025	387.56
397.249	371.56
397.474	397.56
397.698	421.56
397.922	387.56
398.147	437.56
398.371	389.56
398.595	411.56
398.82	424.56
399.044	435.56
399.268	423.56
399.492	453.56
399.717	482.56
399.941	481.56
400.165	495.56
400.389	524.56
400.613	468.56
400.837	428.56
401.062	440.56
401.286	420.56
401.51	409.56
401.734	418.56
401.958	443.56
402.182	435.56
402.406	448.56
402.63	437.56
402.854	438.56
403.078	414.56
403.302	435.56
403.526	423.56
403.75	433.56
403.974	428.56
404.198	438.56
404.422	425.56
404.645	433.56
404.869	441.56
405.093	447.56
405.317	470.56
405.541	483.56
405.765	481.56
405.988	463.56
406.212	459.56
406.436	487.56
406.66	506.56
406.883	494.56
407.107	507.56
407.331	508.56
407.555	543.56
407.778	565.56
408.002	520.56
408.226	481.56
408.449	465.56
408.673	453.56
408.896	471.56
409.12	515.56
409.344	481.56
409.567	452.56
409.791	460.56
410.014	452.56
410.238	435.56
410.461	443.56
410.685	432.56
410.908	464.56
411.132	464.56
411.355	491.56
411.578	478.56
411.802	432.56
412.025	422.56
412.249	454.56
412.472	433.56
412.695	457.56
412.919	438.56
413.142	443.56
413.365	426.56
413.589	424.56
413.812	405.56
414.035	415.56
414.258	413.56
414.482	430.56
414.705	411.56
414.928	427.56
415.151	411.56
415.374	393.56
415.597	400.56
415.821	399.56
416.044	408.56
416.267	401.56
416.49	393.56
416.713	388.56
416.936	390.56
417.159	391.56
417.382	410.56
417.605	411.56
417.828	425.56
418.051	426.56
418.274	425.56
418.497	409.56
418.72	415.56
418.943	393.56
419.166	429.56
419.389	439.56
419.611	431.56
419.834	430.56
420.057	424.56
420.28	445.56
420.503	431.56
420.726	424.56
420.948	446.56
421.171	445.56
421.394	478.56
421.617	460.56
421.839	446.56
422.062	418.56
422.285	441.56
422.507	492.56
422.73	548.56
422.953	501.56
423.175	446.56
423.398	439.56
423.621	430.56
423.843	457.56
424.066	464.56
424.288	457.56
424.511	470.56
424.733	547.56
424.956	574.56
425.178	550.56
425.401	556.56
425.623	572.56
425.846	528.56
426.068	476.56
426.291	450.56
426.513	471.56
426.735	460.56
426.958	494.56
427.18	557.56
427.402	645.56
427.625	733.56
427.847	653.56
428.069	559.56
428.292	492.56
428.514	464.56
428.736	465.56
428.958	437.56
429.181	417.56
429.403	448.56
429.625	432.56
429.847	478.56
430.069	527.56
430.292	504.56
430.514	427.56
430.736	433.56
430.958	421.56
431.18	393.56
431.402	420.56
431.624	417.56
431.846	398.56
432.068	393.56
432.29	401.56
432.512	417.56
432.734	406.56
432.956	419.56
433.178	427.56
433.4	414.56
433.622	423.56
433.844	430.56
434.066	407.56
434.287	424.56
434.509	406.56
434.731	420.56
434.953	429.56
435.175	430.56
435.397	458.56
435.618	464.56
435.84	491.56
436.062	573.56
436.284	614.56
436.505	497.56
436.727	467.56
436.949	452.56
437.17	423.56
437.392	429.56
437.614	453.56
437.835	480.56
438.057	552.56
438.278	637.56
438.5	618.56
438.721	660.56
438.943	637.56
439.165	524.56
439.386	466.56
439.608	478.56
439.829	467.56
440.05	471.56
440.272	528.56
440.493	498.56
440.715	479.56
440.936	422.56
441.158	439.56
441.379	430.56
441.6	448.56
441.822	459.56
442.043	501.56
442.264	584.56
442.486	627.56
442.707	506.56
442.928	499.56
443.149	494.56
443.371	513.56
443.592	529.56
443.813	602.56
444.034	612.56
444.255	544.56
444.476	489.56
444.698	476.56
444.919	488.56
445.14	557.56
445.361	529.56
445.582	491.56
445.803	547.56
446.024	618.56
446.245	620.56
446.466	593.56
446.687	507.56
446.908	495.56
447.129	435.56
447.35	445.56
447.571	437.56
447.792	435.56
448.013	416.56
448.234	458.56
448.455	489.56
448.675	581.56
448.896	645.56
449.117	550.56
449.338	535.56
449.559	630.56
449.779	695.56
450	557.56
450.221	462.56
450.442	452.56
450.662	415.56
450.883	435.56
451.104	470.56
451.324	431.56
451.545	426.56
451.766	406.56
451.986	382.56
452.207	401.56
452.428	394.56
452.648	384.56
452.869	417.56
453.089	410.56
453.31	416.56
453.53	400.56
453.751	407.56
453.971	403.56
454.192	418.56
454.412	411.56
454.633	376.56
454.853	386.56
455.073	377.56
455.294	406.56
455.514	424.56
455.734	443.56
455.955	380.56
456.175	377.56
456.395	376.56
456.616	389.56
456.836	380.56
457.056	376.56
457.276	342.56
457.497	362.56
457.717	366.56
457.937	367.56
458.157	372.56
458.377	387.56
458.598	387.56
458.818	479.56
459.038	529.56
459.258	509.56
459.478	440.56
459.698	416.56
459.918	415.56
460.138	410.56
460.358	404.56
460.578	412.56
460.798	420.56
461.018	425.56
461.238	417.56
461.458	414.56
461.678	411.56
461.898	428.56
462.118	415.56
462.338	426.56
462.558	431.56
462.777	419.56
462.997	438.56
463.217	445.56
463.437	451.56
463.657	451.56
463.876	432.56
464.096	442.56
464.316	422.56
464.536	453.56
464.755	437.56
464.975	469.56
465.195	487.56
465.414	567.56
465.634	471.56
465.854	432.56
466.073	411.56
466.293	421.56
466.512	412.56
466.732	394.56
466.951	364.56
467.171	379.56
467.391	395.56
467.61	421.56
467.829	436.56
468.049	413.56
468.268	386.56
468.488	389.56
468.707	369.56
468.927	379.56
469.146	390.56
469.365	397.56
469.585	399.56
469.804	404.56
470.023	421.56
470.243	403.56
470.462	400.56
470.681	415.56
470.901	417.56
471.12	417.56
471.339	391.56
471.558	407.56
471.777	415.56
471.997	401.56
472.216	381.56
472.435	404.56
472.654	401.56
472.873	400.56
473.092	398.56
473.311	408.56
473.53	396.56
473.749	391.56
473.968	441.56
474.187	528.56
474.406	545.56
474.625	430.56
474.844	432.56
475.063	396.56
475.282	402.56
475.501	407.56
475.72	428.56
475.939	397.56
476.158	407.56
476.377	401.56
476.596	424.56
476.814	416.56
477.033	410.56
477.252	425.56
477.471	416.56
477.69	436.56
477.908	437.56
478.127	437.56
478.346	440.56
478.564	445.56
478.783	449.56
479.002	451.56
479.22	462.56
479.439	456.56
479.658	474.56
479.876	487.56
480.095	490.56
480.313	517.56
480.532	493.56
480.751	486.56
480.969	488.56
481.188	509.56
481.406	515.56
481.624	471.56
481.843	492.56
482.061	456.56
482.28	484.56
482.498	450.56
482.717	450.56
482.935	471.56
483.153	485.56
483.372	455.56
483.59	461.56
483.808	459.56
484.027	457.56
484.245	470.56
484.463	463.56
484.681	478.56
484.9	458.56
485.118	467.56
485.336	475.56
485.554	463.56
485.772	473.56
485.99	478.56
486.209	478.56
486.427	481.56
486.645	495.56
486.863	509.56
487.081	510.56
487.299	534.56
487.517	477.56
487.735	504.56
487.953	506.56
488.171	509.56
488.389	528.56
488.607	487.56
488.825	488.56
489.043	516.56
489.261	493.56
489.479	509.56
489.696	509.56
489.914	521.56
490.132	507.56
490.35	503.56
490.568	507.56
490.786	535.56
491.003	539.56
491.221	574.56
491.439	538.56
491.657	583.56
491.874	579.56
492.092	583.56
492.31	591.56
492.527	579.56
492.745	584.56
492.963	575.56
493.18	578.56
493.398	589.56
493.615	592.56
493.833	565.56
494.05	583.56
494.268	597.56
494.485	588.56
494.703	574.56
494.92	599.56
495.138	597.56
495.355	596.56
495.573	586.56
495.79	579.56
496.008	604.56
496.225	575.56
496.442	573.56
496.66	583.56
496.877	597.56
497.094	601.56
497.312	584.56
497.529	607.56
497.746	603.56
497.963	616.56
498.181	663.56
498.398	623.56
498.615	679.56
498.832	657.56
499.049	654.56
499.267	664.56
499.484	704.56
499.701	698.56
499.918	743.56
500.135	773.56
500.352	758.56
500.569	796.56
500.786	780.56
501.003	782.56
501.22	767.56
501.437	763.56
501.654	729.56
501.871	711.56
502.088	715.56
