Data from 1983.PennyLincolnUp.Lamp.En5.5.200Scan.071819.P1_HRD10591_16-55-10-966.txt Node
Date: Thu Jul 18 16:55:10 EDT 2019
User: cochatt
Spectrometer: HR+D1059
Trigger mode: 1
Integration Time (sec): 1.000000E-1
Scans to average: 1
Electric dark correction enabled: true
Nonlinearity correction enabled: false
Boxcar width: 0
XAxis mode: Wavelengths
Number of Pixels in Spectrum: 2048
>>>>>Begin Spectral Data<<<<<
223.165	-19.19
223.4	-19.19
223.635	-19.19
223.869	-9.19
224.104	-9.19
224.338	-20.19
224.573	-13.19
224.808	-15.19
225.042	-8.19
225.277	-9.19
225.511	-15.19
225.746	6.81
225.98	24.81
226.215	10.81
226.449	-1.19
226.683	26.81
226.918	22.81
227.152	27.81
227.387	30.81
227.621	41.81
227.856	40.81
228.09	43.81
228.324	35.81
228.559	56.81
228.793	65.81
229.027	87.81
229.262	99.81
229.496	118.81
229.73	117.81
229.964	151.81
230.199	123.81
230.433	108.81
230.667	122.81
230.901	121.81
231.136	114.81
231.37	99.81
231.604	103.81
231.838	107.81
232.072	109.81
232.306	101.81
232.541	110.81
232.775	100.81
233.009	118.81
233.243	107.81
233.477	106.81
233.711	122.81
233.945	115.81
234.179	110.81
234.413	102.81
234.647	110.81
234.881	110.81
235.115	118.81
235.349	97.81
235.583	119.81
235.817	116.81
236.051	108.81
236.285	126.81
236.519	115.81
236.753	125.81
236.987	139.81
237.221	175.81
237.455	193.81
237.689	166.81
237.922	132.81
238.156	125.81
238.39	125.81
238.624	116.81
238.858	127.81
239.091	128.81
239.325	119.81
239.559	125.81
239.793	130.81
240.027	129.81
240.26	124.81
240.494	141.81
240.728	140.81
240.961	144.81
241.195	137.81
241.429	132.81
241.662	124.81
241.896	139.81
242.13	138.81
242.363	130.81
242.597	117.81
242.83	109.81
243.064	130.81
243.298	136.81
243.531	126.81
243.765	125.81
243.998	117.81
244.232	110.81
244.465	141.81
244.699	127.81
244.932	147.81
245.166	141.81
245.399	129.81
245.633	132.81
245.866	135.81
246.099	141.81
246.333	159.81
246.566	139.81
246.8	147.81
247.033	159.81
247.266	145.81
247.5	158.81
247.733	155.81
247.966	153.81
248.2	148.81
248.433	153.81
248.666	177.81
248.899	179.81
249.133	188.81
249.366	190.81
249.599	175.81
249.832	180.81
250.066	171.81
250.299	174.81
250.532	191.81
250.765	197.81
250.998	209.81
251.231	223.81
251.465	209.81
251.698	195.81
251.931	197.81
252.164	177.81
252.397	179.81
252.63	198.81
252.863	188.81
253.096	200.81
253.329	219.81
253.562	210.81
253.795	212.81
254.028	197.81
254.261	220.81
254.494	214.81
254.727	240.81
254.96	262.81
255.193	253.81
255.426	230.81
255.659	230.81
255.892	231.81
256.124	241.81
256.357	244.81
256.59	232.81
256.823	211.81
257.056	196.81
257.289	197.81
257.521	216.81
257.754	217.81
257.987	202.81
258.22	205.81
258.452	198.81
258.685	200.81
258.918	195.81
259.151	201.81
259.383	188.81
259.616	216.81
259.849	219.81
260.081	214.81
260.314	232.81
260.547	252.81
260.779	251.81
261.012	233.81
261.244	199.81
261.477	201.81
261.71	210.81
261.942	224.81
262.175	228.81
262.407	223.81
262.64	201.81
262.872	203.81
263.105	195.81
263.337	221.81
263.57	207.81
263.802	196.81
264.035	213.81
264.267	184.81
264.499	187.81
264.732	200.81
264.964	207.81
265.197	187.81
265.429	205.81
265.661	198.81
265.894	193.81
266.126	197.81
266.358	204.81
266.591	189.81
266.823	196.81
267.055	225.81
267.287	228.81
267.52	203.81
267.752	239.81
267.984	218.81
268.216	223.81
268.448	212.81
268.681	221.81
268.913	223.81
269.145	226.81
269.377	239.81
269.609	242.81
269.841	263.81
270.073	252.81
270.306	270.81
270.538	292.81
270.77	281.81
271.002	288.81
271.234	283.81
271.466	291.81
271.698	278.81
271.93	275.81
272.162	298.81
272.394	283.81
272.626	268.81
272.858	261.81
273.09	259.81
273.322	257.81
273.553	254.81
273.785	247.81
274.017	230.81
274.249	237.81
274.481	236.81
274.713	234.81
274.945	260.81
275.176	248.81
275.408	265.81
275.64	241.81
275.872	243.81
276.104	247.81
276.335	241.81
276.567	268.81
276.799	287.81
277.031	295.81
277.262	300.81
277.494	307.81
277.726	307.81
277.957	277.81
278.189	263.81
278.421	254.81
278.652	258.81
278.884	247.81
279.115	242.81
279.347	259.81
279.579	262.81
279.81	245.81
280.042	248.81
280.273	255.81
280.505	248.81
280.736	248.81
280.968	226.81
281.199	237.81
281.431	250.81
281.662	260.81
281.894	259.81
282.125	255.81
282.356	263.81
282.588	280.81
282.819	296.81
283.051	275.81
283.282	241.81
283.513	262.81
283.745	259.81
283.976	262.81
284.207	259.81
284.439	250.81
284.67	259.81
284.901	282.81
285.132	242.81
285.364	261.81
285.595	267.81
285.826	269.81
286.057	258.81
286.288	271.81
286.52	242.81
286.751	267.81
286.982	248.81
287.213	263.81
287.444	265.81
287.675	250.81
287.906	270.81
288.138	274.81
288.369	281.81
288.6	273.81
288.831	276.81
289.062	278.81
289.293	272.81
289.524	274.81
289.755	265.81
289.986	271.81
290.217	259.81
290.448	273.81
290.679	267.81
290.91	256.81
291.141	247.81
291.371	258.81
291.602	262.81
291.833	260.81
292.064	257.81
292.295	254.81
292.526	266.81
292.757	264.81
292.987	255.81
293.218	263.81
293.449	271.81
293.68	271.81
293.91	262.81
294.141	266.81
294.372	244.81
294.603	247.81
294.833	268.81
295.064	254.81
295.295	273.81
295.525	257.81
295.756	272.81
295.987	293.81
296.217	301.81
296.448	315.81
296.679	273.81
296.909	277.81
297.14	262.81
297.37	280.81
297.601	287.81
297.831	270.81
298.062	291.81
298.292	285.81
298.523	287.81
298.753	273.81
298.984	276.81
299.214	276.81
299.445	299.81
299.675	300.81
299.905	287.81
300.136	283.81
300.366	269.81
300.597	292.81
300.827	296.81
301.057	272.81
301.288	321.81
301.518	310.81
301.748	295.81
301.979	300.81
302.209	292.81
302.439	300.81
302.669	314.81
302.9	300.81
303.13	302.81
303.36	297.81
303.59	310.81
303.82	305.81
304.051	319.81
304.281	306.81
304.511	307.81
304.741	306.81
304.971	289.81
305.201	307.81
305.431	312.81
305.661	319.81
305.891	300.81
306.121	287.81
306.352	302.81
306.582	322.81
306.812	301.81
307.042	277.81
307.272	316.81
307.502	302.81
307.731	305.81
307.961	317.81
308.191	296.81
308.421	320.81
308.651	316.81
308.881	305.81
309.111	321.81
309.341	342.81
309.571	352.81
309.8	352.81
310.03	341.81
310.26	334.81
310.49	352.81
310.72	372.81
310.949	382.81
311.179	371.81
311.409	361.81
311.639	342.81
311.868	355.81
312.098	355.81
312.328	357.81
312.557	362.81
312.787	385.81
313.017	386.81
313.246	340.81
313.476	339.81
313.706	349.81
313.935	357.81
314.165	358.81
314.394	379.81
314.624	381.81
314.853	365.81
315.083	347.81
315.312	340.81
315.542	354.81
315.771	346.81
316.001	329.81
316.23	364.81
316.46	360.81
316.689	331.81
316.919	386.81
317.148	376.81
317.377	357.81
317.607	384.81
317.836	349.81
318.065	357.81
318.295	363.81
318.524	351.81
318.753	334.81
318.983	340.81
319.212	343.81
319.441	353.81
319.67	358.81
319.9	350.81
320.129	349.81
320.358	354.81
320.587	363.81
320.816	378.81
321.046	359.81
321.275	375.81
321.504	375.81
321.733	371.81
321.962	389.81
322.191	393.81
322.42	414.81
322.649	436.81
322.878	434.81
323.108	453.81
323.337	473.81
323.566	479.81
323.795	524.81
324.024	559.81
324.253	707.81
324.482	998.81
324.71	1509.81
324.939	2034.81
325.168	1673.81
325.397	939.81
325.626	631.81
325.855	543.81
326.084	499.81
326.313	493.81
326.542	489.81
326.77	533.81
326.999	659.81
327.228	886.81
327.457	1327.81
327.686	1551.81
327.914	1032.81
328.143	743.81
328.372	631.81
328.6	603.81
328.829	556.81
329.058	569.81
329.287	585.81
329.515	544.81
329.744	511.81
329.972	513.81
330.201	554.81
330.43	615.81
330.658	631.81
330.887	611.81
331.115	571.81
331.344	508.81
331.572	475.81
331.801	458.81
332.03	456.81
332.258	453.81
332.486	425.81
332.715	420.81
332.943	410.81
333.172	413.81
333.4	447.81
333.629	427.81
333.857	457.81
334.085	487.81
334.314	518.81
334.542	579.81
334.771	575.81
334.999	514.81
335.227	459.81
335.455	428.81
335.684	428.81
335.912	436.81
336.14	425.81
336.369	391.81
336.597	415.81
336.825	413.81
337.053	425.81
337.281	408.81
337.51	410.81
337.738	385.81
337.966	395.81
338.194	417.81
338.422	402.81
338.65	392.81
338.878	393.81
339.106	385.81
339.334	393.81
339.562	405.81
339.79	383.81
340.018	417.81
340.246	387.81
340.474	425.81
340.702	396.81
340.93	404.81
341.158	385.81
341.386	393.81
341.614	394.81
341.842	385.81
342.07	379.81
342.298	386.81
342.526	394.81
342.754	376.81
342.981	365.81
343.209	379.81
343.437	381.81
343.665	380.81
343.893	372.81
344.12	391.81
344.348	398.81
344.576	401.81
344.804	402.81
345.031	403.81
345.259	419.81
345.487	419.81
345.714	379.81
345.942	411.81
346.17	380.81
346.397	385.81
346.625	400.81
346.853	390.81
347.08	394.81
347.308	378.81
347.535	380.81
347.763	380.81
347.99	400.81
348.218	403.81
348.445	399.81
348.673	393.81
348.9	387.81
349.128	403.81
349.355	378.81
349.583	371.81
349.81	362.81
350.037	342.81
350.265	382.81
350.492	376.81
350.72	379.81
350.947	357.81
351.174	393.81
351.402	407.81
351.629	391.81
351.856	371.81
352.083	395.81
352.311	382.81
352.538	406.81
352.765	399.81
352.992	409.81
353.22	369.81
353.447	382.81
353.674	365.81
353.901	363.81
354.128	354.81
354.355	378.81
354.583	374.81
354.81	352.81
355.037	344.81
355.264	347.81
355.491	351.81
355.718	354.81
355.945	363.81
356.172	350.81
356.399	358.81
356.626	349.81
356.853	347.81
357.08	363.81
357.307	346.81
357.534	344.81
357.761	339.81
357.988	359.81
358.215	375.81
358.441	343.81
358.668	346.81
358.895	342.81
359.122	367.81
359.349	370.81
359.576	391.81
359.802	415.81
360.029	420.81
360.256	443.81
360.483	398.81
360.709	393.81
360.936	392.81
361.163	387.81
361.39	393.81
361.616	383.81
361.843	380.81
362.07	389.81
362.296	392.81
362.523	391.81
362.749	369.81
362.976	372.81
363.203	370.81
363.429	341.81
363.656	347.81
363.882	359.81
364.109	367.81
364.335	372.81
364.562	357.81
364.788	349.81
365.015	370.81
365.241	357.81
365.468	352.81
365.694	374.81
365.92	387.81
366.147	376.81
366.373	346.81
366.599	355.81
366.826	348.81
367.052	367.81
367.278	371.81
367.505	361.81
367.731	347.81
367.957	343.81
368.184	364.81
368.41	369.81
368.636	368.81
368.862	373.81
369.089	355.81
369.315	351.81
369.541	359.81
369.767	356.81
369.993	342.81
370.219	354.81
370.445	360.81
370.672	361.81
370.898	358.81
371.124	349.81
371.35	360.81
371.576	350.81
371.802	361.81
372.028	361.81
372.254	332.81
372.48	343.81
372.706	351.81
372.932	353.81
373.158	333.81
373.384	362.81
373.61	360.81
373.835	346.81
374.061	331.81
374.287	350.81
374.513	385.81
374.739	350.81
374.965	350.81
375.191	355.81
375.416	345.81
375.642	356.81
375.868	366.81
376.094	351.81
376.319	355.81
376.545	359.81
376.771	351.81
376.997	346.81
377.222	348.81
377.448	358.81
377.674	337.81
377.899	347.81
378.125	336.81
378.35	333.81
378.576	327.81
378.802	349.81
379.027	342.81
379.253	346.81
379.478	344.81
379.704	332.81
379.929	342.81
380.155	349.81
380.38	331.81
380.606	355.81
380.831	357.81
381.057	348.81
381.282	359.81
381.507	361.81
381.733	381.81
381.958	339.81
382.184	340.81
382.409	354.81
382.634	353.81
382.86	356.81
383.085	364.81
383.31	356.81
383.535	355.81
383.761	377.81
383.986	345.81
384.211	353.81
384.436	374.81
384.662	385.81
384.887	380.81
385.112	362.81
385.337	376.81
385.562	374.81
385.787	367.81
386.013	372.81
386.238	399.81
386.463	377.81
386.688	376.81
386.913	370.81
387.138	377.81
387.363	390.81
387.588	373.81
387.813	370.81
388.038	354.81
388.263	360.81
388.488	385.81
388.713	343.81
388.938	385.81
389.163	366.81
389.387	371.81
389.612	369.81
389.837	386.81
390.062	362.81
390.287	355.81
390.512	375.81
390.736	364.81
390.961	393.81
391.186	365.81
391.411	371.81
391.636	371.81
391.86	394.81
392.085	362.81
392.31	373.81
392.534	375.81
392.759	375.81
392.984	384.81
393.208	380.81
393.433	385.81
393.658	365.81
393.882	369.81
394.107	393.81
394.331	375.81
394.556	371.81
394.78	381.81
395.005	385.81
395.229	373.81
395.454	368.81
395.678	387.81
395.903	382.81
396.127	389.81
396.352	384.81
396.576	391.81
396.801	397.81
397.025	398.81
397.249	393.81
397.474	388.81
397.698	413.81
397.922	404.81
398.147	423.81
398.371	422.81
398.595	413.81
398.82	395.81
399.044	426.81
399.268	421.81
399.492	472.81
399.717	463.81
399.941	485.81
400.165	504.81
400.389	507.81
400.613	478.81
400.837	443.81
401.062	432.81
401.286	421.81
401.51	436.81
401.734	413.81
401.958	431.81
402.182	421.81
402.406	428.81
402.63	437.81
402.854	438.81
403.078	425.81
403.302	430.81
403.526	441.81
403.75	447.81
403.974	420.81
404.198	430.81
404.422	456.81
404.645	466.81
404.869	464.81
405.093	499.81
405.317	531.81
405.541	543.81
405.765	493.81
405.988	454.81
406.212	489.81
406.436	495.81
406.66	497.81
406.883	460.81
407.107	493.81
407.331	540.81
407.555	576.81
407.778	555.81
408.002	508.81
408.226	486.81
408.449	480.81
408.673	483.81
408.896	506.81
409.12	524.81
409.344	501.81
409.567	445.81
409.791	469.81
410.014	429.81
410.238	444.81
410.461	425.81
410.685	467.81
410.908	451.81
411.132	492.81
411.355	495.81
411.578	478.81
411.802	451.81
412.025	445.81
412.249	451.81
412.472	484.81
412.695	495.81
412.919	492.81
413.142	452.81
413.365	445.81
413.589	435.81
413.812	430.81
414.035	434.81
414.258	413.81
414.482	402.81
414.705	449.81
414.928	392.81
415.151	431.81
415.374	413.81
415.597	408.81
415.821	403.81
416.044	410.81
416.267	394.81
416.49	414.81
416.713	400.81
416.936	412.81
417.159	422.81
417.382	415.81
417.605	428.81
417.828	430.81
418.051	445.81
418.274	441.81
418.497	435.81
418.72	412.81
418.943	414.81
419.166	439.81
419.389	448.81
419.611	439.81
419.834	454.81
420.057	465.81
420.28	467.81
420.503	446.81
420.726	470.81
420.948	447.81
421.171	476.81
421.394	487.81
421.617	456.81
421.839	438.81
422.062	425.81
422.285	457.81
422.507	500.81
422.73	536.81
422.953	524.81
423.175	500.81
423.398	443.81
423.621	441.81
423.843	476.81
424.066	479.81
424.288	464.81
424.511	482.81
424.733	519.81
424.956	568.81
425.178	567.81
425.401	571.81
425.623	570.81
425.846	490.81
426.068	472.81
426.291	469.81
426.513	464.81
426.735	482.81
426.958	521.81
427.18	567.81
427.402	679.81
427.625	750.81
427.847	643.81
428.069	611.81
428.292	532.81
428.514	467.81
428.736	455.81
428.958	444.81
429.181	443.81
429.403	421.81
429.625	437.81
429.847	453.81
430.069	502.81
430.292	502.81
430.514	430.81
430.736	440.81
430.958	433.81
431.18	402.81
431.402	400.81
431.624	384.81
431.846	407.81
432.068	412.81
432.29	403.81
432.512	388.81
432.734	407.81
432.956	413.81
433.178	418.81
433.4	435.81
433.622	421.81
433.844	409.81
434.066	413.81
434.287	395.81
434.509	427.81
434.731	422.81
434.953	413.81
435.175	442.81
435.397	453.81
435.618	467.81
435.84	501.81
436.062	566.81
436.284	618.81
436.505	511.81
436.727	486.81
436.949	448.81
437.17	460.81
437.392	444.81
437.614	464.81
437.835	484.81
438.057	558.81
438.278	657.81
438.5	622.81
438.721	654.81
438.943	644.81
439.165	537.81
439.386	485.81
439.608	492.81
439.829	479.81
440.05	510.81
440.272	537.81
440.493	517.81
440.715	460.81
440.936	461.81
441.158	421.81
441.379	446.81
441.6	446.81
441.822	481.81
442.043	501.81
442.264	556.81
442.486	611.81
442.707	519.81
442.928	507.81
443.149	488.81
443.371	486.81
443.592	545.81
443.813	629.81
444.034	668.81
444.255	541.81
444.476	489.81
444.698	468.81
444.919	471.81
445.14	561.81
445.361	525.81
445.582	493.81
445.803	566.81
446.024	661.81
446.245	631.81
446.466	579.81
446.687	513.81
446.908	466.81
447.129	469.81
447.35	454.81
447.571	415.81
447.792	443.81
448.013	445.81
448.234	459.81
448.455	499.81
448.675	585.81
448.896	668.81
449.117	575.81
449.338	551.81
449.559	636.81
449.779	677.81
450	555.81
450.221	497.81
450.442	455.81
450.662	451.81
450.883	457.81
451.104	473.81
451.324	471.81
451.545	409.81
451.766	404.81
451.986	393.81
452.207	387.81
452.428	385.81
452.648	398.81
452.869	398.81
453.089	425.81
453.31	419.81
453.53	402.81
453.751	405.81
453.971	403.81
454.192	421.81
454.412	391.81
454.633	400.81
454.853	403.81
455.073	390.81
455.294	409.81
455.514	478.81
455.734	457.81
455.955	390.81
456.175	378.81
456.395	389.81
456.616	381.81
456.836	365.81
457.056	354.81
457.276	360.81
457.497	357.81
457.717	371.81
457.937	368.81
458.157	360.81
458.377	405.81
458.598	417.81
458.818	486.81
459.038	537.81
459.258	546.81
459.478	470.81
459.698	432.81
459.918	426.81
460.138	422.81
460.358	404.81
460.578	413.81
460.798	394.81
461.018	389.81
461.238	381.81
461.458	411.81
461.678	399.81
461.898	421.81
462.118	422.81
462.338	423.81
462.558	414.81
462.777	415.81
462.997	445.81
463.217	417.81
463.437	438.81
463.657	411.81
463.876	421.81
464.096	441.81
464.316	414.81
464.536	437.81
464.755	443.81
464.975	456.81
465.195	502.81
465.414	569.81
465.634	497.81
465.854	454.81
466.073	433.81
466.293	413.81
466.512	413.81
466.732	407.81
466.951	394.81
467.171	391.81
467.391	411.81
467.61	421.81
467.829	427.81
468.049	422.81
468.268	449.81
468.488	413.81
468.707	401.81
468.927	388.81
469.146	379.81
469.365	381.81
469.585	394.81
469.804	404.81
470.023	405.81
470.243	399.81
470.462	416.81
470.681	416.81
470.901	429.81
471.12	407.81
471.339	423.81
471.558	393.81
471.777	427.81
471.997	413.81
472.216	429.81
472.435	487.81
472.654	476.81
472.873	416.81
473.092	403.81
473.311	407.81
473.53	397.81
473.749	421.81
473.968	445.81
474.187	535.81
474.406	551.81
474.625	474.81
474.844	417.81
475.063	424.81
475.282	415.81
475.501	420.81
475.72	420.81
475.939	399.81
476.158	412.81
476.377	405.81
476.596	416.81
476.814	445.81
477.033	438.81
477.252	442.81
477.471	444.81
477.69	439.81
477.908	442.81
478.127	459.81
478.346	444.81
478.564	441.81
478.783	456.81
479.002	470.81
479.22	454.81
479.439	478.81
479.658	506.81
479.876	482.81
480.095	516.81
480.313	521.81
480.532	529.81
480.751	489.81
480.969	529.81
481.188	630.81
481.406	700.81
481.624	550.81
481.843	535.81
482.061	506.81
482.28	490.81
482.498	501.81
482.717	470.81
482.935	466.81
483.153	488.81
483.372	497.81
483.59	467.81
483.808	481.81
484.027	448.81
484.245	472.81
484.463	487.81
484.681	492.81
484.9	470.81
485.118	476.81
485.336	482.81
485.554	491.81
485.772	486.81
485.99	494.81
486.209	503.81
486.427	505.81
486.645	513.81
486.863	525.81
487.081	527.81
487.299	517.81
487.517	532.81
487.735	527.81
487.953	530.81
488.171	526.81
488.389	530.81
488.607	514.81
488.825	518.81
489.043	523.81
489.261	505.81
489.479	518.81
489.696	516.81
489.914	517.81
490.132	537.81
490.35	523.81
490.568	543.81
490.786	553.81
491.003	548.81
491.221	584.81
491.439	587.81
491.657	590.81
491.874	588.81
492.092	609.81
492.31	607.81
492.527	634.81
492.745	612.81
492.963	610.81
493.18	617.81
493.398	632.81
493.615	617.81
493.833	634.81
494.05	621.81
494.268	613.81
494.485	609.81
494.703	613.81
494.92	643.81
495.138	626.81
495.355	628.81
495.573	633.81
495.79	615.81
496.008	598.81
496.225	599.81
496.442	622.81
496.66	590.81
496.877	612.81
497.094	599.81
497.312	625.81
497.529	641.81
497.746	643.81
497.963	634.81
498.181	664.81
498.398	647.81
498.615	660.81
498.832	657.81
499.049	694.81
499.267	689.81
499.484	717.81
499.701	729.81
499.918	724.81
500.135	761.81
500.352	784.81
500.569	781.81
500.786	806.81
501.003	769.81
501.22	784.81
501.437	748.81
501.654	731.81
501.871	743.81
