Data from 1983.PennyLincolnUp.Lamp.En5.5.200Scan.071819.P1_HRD10591_16-53-01-965.txt Node
Date: Thu Jul 18 16:53:01 EDT 2019
User: cochatt
Spectrometer: HR+D1059
Trigger mode: 1
Integration Time (sec): 1.000000E-1
Scans to average: 1
Electric dark correction enabled: true
Nonlinearity correction enabled: false
Boxcar width: 0
XAxis mode: Wavelengths
Number of Pixels in Spectrum: 2048
>>>>>Begin Spectral Data<<<<<
223.165	-19.5
223.4	-19.5
223.635	-19.5
223.869	-14.5
224.104	-15.5
224.338	-8.5
224.573	-24.5
224.808	0.5
225.042	2.5
225.277	-12.5
225.511	2.5
225.746	-3.5
225.98	5.5
226.215	11.5
226.449	6.5
226.683	22.5
226.918	23.5
227.152	23.5
227.387	37.5
227.621	26.5
227.856	38.5
228.09	43.5
228.324	41.5
228.559	57.5
228.793	55.5
229.027	78.5
229.262	94.5
229.496	109.5
229.73	114.5
229.964	133.5
230.199	103.5
230.433	98.5
230.667	98.5
230.901	109.5
231.136	88.5
231.37	113.5
231.604	95.5
231.838	97.5
232.072	103.5
232.306	101.5
232.541	116.5
232.775	116.5
233.009	97.5
233.243	98.5
233.477	100.5
233.711	119.5
233.945	115.5
234.179	111.5
234.413	111.5
234.647	105.5
234.881	123.5
235.115	98.5
235.349	105.5
235.583	116.5
235.817	123.5
236.051	126.5
236.285	111.5
236.519	119.5
236.753	110.5
236.987	131.5
237.221	167.5
237.455	195.5
237.689	158.5
237.922	130.5
238.156	126.5
238.39	105.5
238.624	126.5
238.858	118.5
239.091	116.5
239.325	116.5
239.559	111.5
239.793	134.5
240.027	119.5
240.26	129.5
240.494	146.5
240.728	122.5
240.961	130.5
241.195	128.5
241.429	128.5
241.662	131.5
241.896	120.5
242.13	121.5
242.363	130.5
242.597	120.5
242.83	128.5
243.064	125.5
243.298	118.5
243.531	120.5
243.765	121.5
243.998	124.5
244.232	137.5
244.465	114.5
244.699	113.5
244.932	133.5
245.166	128.5
245.399	147.5
245.633	134.5
245.866	138.5
246.099	128.5
246.333	128.5
246.566	136.5
246.8	124.5
247.033	151.5
247.266	141.5
247.5	146.5
247.733	151.5
247.966	158.5
248.2	138.5
248.433	149.5
248.666	148.5
248.899	172.5
249.133	179.5
249.366	165.5
249.599	174.5
249.832	176.5
250.066	153.5
250.299	171.5
250.532	163.5
250.765	179.5
250.998	201.5
251.231	196.5
251.465	189.5
251.698	183.5
251.931	159.5
252.164	160.5
252.397	159.5
252.63	178.5
252.863	179.5
253.096	182.5
253.329	202.5
253.562	208.5
253.795	203.5
254.028	174.5
254.261	184.5
254.494	198.5
254.727	218.5
254.96	233.5
255.193	223.5
255.426	204.5
255.659	196.5
255.892	189.5
256.124	189.5
256.357	180.5
256.59	180.5
256.823	169.5
257.056	185.5
257.289	183.5
257.521	201.5
257.754	180.5
257.987	183.5
258.22	190.5
258.452	180.5
258.685	184.5
258.918	184.5
259.151	186.5
259.383	194.5
259.616	197.5
259.849	190.5
260.081	192.5
260.314	216.5
260.547	222.5
260.779	243.5
261.012	217.5
261.244	205.5
261.477	210.5
261.71	186.5
261.942	208.5
262.175	212.5
262.407	202.5
262.64	178.5
262.872	190.5
263.105	182.5
263.337	185.5
263.57	179.5
263.802	191.5
264.035	198.5
264.267	167.5
264.499	188.5
264.732	174.5
264.964	186.5
265.197	196.5
265.429	192.5
265.661	192.5
265.894	168.5
266.126	204.5
266.358	190.5
266.591	188.5
266.823	192.5
267.055	198.5
267.287	186.5
267.52	200.5
267.752	191.5
267.984	219.5
268.216	207.5
268.448	191.5
268.681	208.5
268.913	214.5
269.145	232.5
269.377	249.5
269.609	226.5
269.841	214.5
270.073	227.5
270.306	254.5
270.538	260.5
270.77	261.5
271.002	266.5
271.234	247.5
271.466	258.5
271.698	267.5
271.93	275.5
272.162	281.5
272.394	286.5
272.626	250.5
272.858	248.5
273.09	259.5
273.322	223.5
273.553	235.5
273.785	234.5
274.017	217.5
274.249	226.5
274.481	230.5
274.713	244.5
274.945	227.5
275.176	226.5
275.408	219.5
275.64	222.5
275.872	234.5
276.104	228.5
276.335	233.5
276.567	230.5
276.799	241.5
277.031	243.5
277.262	284.5
277.494	266.5
277.726	260.5
277.957	238.5
278.189	246.5
278.421	257.5
278.652	231.5
278.884	228.5
279.115	226.5
279.347	242.5
279.579	220.5
279.81	228.5
280.042	229.5
280.273	244.5
280.505	231.5
280.736	234.5
280.968	248.5
281.199	219.5
281.431	232.5
281.662	225.5
281.894	240.5
282.125	236.5
282.356	260.5
282.588	272.5
282.819	256.5
283.051	240.5
283.282	229.5
283.513	228.5
283.745	242.5
283.976	259.5
284.207	261.5
284.439	238.5
284.67	226.5
284.901	241.5
285.132	249.5
285.364	235.5
285.595	241.5
285.826	234.5
286.057	255.5
286.288	243.5
286.52	243.5
286.751	249.5
286.982	249.5
287.213	263.5
287.444	258.5
287.675	249.5
287.906	260.5
288.138	248.5
288.369	256.5
288.6	257.5
288.831	267.5
289.062	287.5
289.293	266.5
289.524	242.5
289.755	245.5
289.986	273.5
290.217	241.5
290.448	246.5
290.679	257.5
290.91	261.5
291.141	262.5
291.371	260.5
291.602	264.5
291.833	237.5
292.064	245.5
292.295	252.5
292.526	240.5
292.757	262.5
292.987	225.5
293.218	246.5
293.449	272.5
293.68	258.5
293.91	274.5
294.141	244.5
294.372	259.5
294.603	261.5
294.833	258.5
295.064	266.5
295.295	261.5
295.525	256.5
295.756	252.5
295.987	276.5
296.217	286.5
296.448	290.5
296.679	284.5
296.909	255.5
297.14	251.5
297.37	247.5
297.601	257.5
297.831	272.5
298.062	284.5
298.292	274.5
298.523	281.5
298.753	282.5
298.984	281.5
299.214	249.5
299.445	272.5
299.675	290.5
299.905	272.5
300.136	276.5
300.366	255.5
300.597	275.5
300.827	282.5
301.057	284.5
301.288	280.5
301.518	283.5
301.748	271.5
301.979	272.5
302.209	279.5
302.439	312.5
302.669	292.5
302.9	278.5
303.13	291.5
303.36	284.5
303.59	279.5
303.82	264.5
304.051	304.5
304.281	281.5
304.511	286.5
304.741	292.5
304.971	275.5
305.201	286.5
305.431	296.5
305.661	286.5
305.891	287.5
306.121	311.5
306.352	292.5
306.582	300.5
306.812	289.5
307.042	303.5
307.272	284.5
307.502	297.5
307.731	284.5
307.961	302.5
308.191	292.5
308.421	290.5
308.651	279.5
308.881	289.5
309.111	283.5
309.341	294.5
309.571	292.5
309.8	312.5
310.03	324.5
310.26	335.5
310.49	318.5
310.72	328.5
310.949	347.5
311.179	352.5
311.409	332.5
311.639	334.5
311.868	329.5
312.098	353.5
312.328	340.5
312.557	347.5
312.787	341.5
313.017	343.5
313.246	332.5
313.476	336.5
313.706	326.5
313.935	344.5
314.165	351.5
314.394	343.5
314.624	342.5
314.853	344.5
315.083	338.5
315.312	336.5
315.542	330.5
315.771	339.5
316.001	333.5
316.23	338.5
316.46	333.5
316.689	348.5
316.919	330.5
317.148	331.5
317.377	359.5
317.607	346.5
317.836	331.5
318.065	319.5
318.295	339.5
318.524	338.5
318.753	313.5
318.983	319.5
319.212	344.5
319.441	346.5
319.67	342.5
319.9	336.5
320.129	314.5
320.358	325.5
320.587	332.5
320.816	343.5
321.046	346.5
321.275	362.5
321.504	350.5
321.733	349.5
321.962	367.5
322.191	353.5
322.42	378.5
322.649	382.5
322.878	389.5
323.108	421.5
323.337	431.5
323.566	459.5
323.795	476.5
324.024	520.5
324.253	634.5
324.482	888.5
324.71	1366.5
324.939	1814.5
325.168	1495.5
325.397	836.5
325.626	572.5
325.855	475.5
326.084	469.5
326.313	440.5
326.542	425.5
326.77	458.5
326.999	597.5
327.228	804.5
327.457	1156.5
327.686	1339.5
327.914	900.5
328.143	622.5
328.372	551.5
328.6	503.5
328.829	501.5
329.058	512.5
329.287	524.5
329.515	465.5
329.744	448.5
329.972	420.5
330.201	433.5
330.43	472.5
330.658	491.5
330.887	517.5
331.115	509.5
331.344	444.5
331.572	430.5
331.801	436.5
332.03	410.5
332.258	399.5
332.486	384.5
332.715	393.5
332.943	379.5
333.172	395.5
333.4	387.5
333.629	384.5
333.857	415.5
334.085	381.5
334.314	395.5
334.542	404.5
334.771	416.5
334.999	394.5
335.227	398.5
335.455	396.5
335.684	374.5
335.912	385.5
336.14	372.5
336.369	372.5
336.597	379.5
336.825	389.5
337.053	363.5
337.281	382.5
337.51	368.5
337.738	386.5
337.966	393.5
338.194	378.5
338.422	378.5
338.65	369.5
338.878	372.5
339.106	367.5
339.334	388.5
339.562	368.5
339.79	375.5
340.018	377.5
340.246	368.5
340.474	382.5
340.702	383.5
340.93	362.5
341.158	361.5
341.386	374.5
341.614	368.5
341.842	369.5
342.07	370.5
342.298	359.5
342.526	354.5
342.754	358.5
342.981	348.5
343.209	344.5
343.437	377.5
343.665	357.5
343.893	353.5
344.12	370.5
344.348	379.5
344.576	374.5
344.804	394.5
345.031	386.5
345.259	381.5
345.487	395.5
345.714	381.5
345.942	354.5
346.17	360.5
346.397	341.5
346.625	363.5
346.853	367.5
347.08	339.5
347.308	365.5
347.535	354.5
347.763	352.5
347.99	381.5
348.218	379.5
348.445	384.5
348.673	384.5
348.9	365.5
349.128	366.5
349.355	347.5
349.583	350.5
349.81	345.5
350.037	339.5
350.265	371.5
350.492	353.5
350.72	360.5
350.947	350.5
351.174	356.5
351.402	370.5
351.629	352.5
351.856	368.5
352.083	376.5
352.311	368.5
352.538	393.5
352.765	386.5
352.992	375.5
353.22	359.5
353.447	375.5
353.674	366.5
353.901	340.5
354.128	333.5
354.355	355.5
354.583	344.5
354.81	340.5
355.037	344.5
355.264	328.5
355.491	332.5
355.718	324.5
355.945	322.5
356.172	321.5
356.399	318.5
356.626	323.5
356.853	331.5
357.08	337.5
357.307	332.5
357.534	324.5
357.761	345.5
357.988	344.5
358.215	358.5
358.441	339.5
358.668	338.5
358.895	326.5
359.122	343.5
359.349	336.5
359.576	352.5
359.802	374.5
360.029	410.5
360.256	411.5
360.483	367.5
360.709	344.5
360.936	356.5
361.163	342.5
361.39	350.5
361.616	380.5
361.843	362.5
362.07	366.5
362.296	350.5
362.523	340.5
362.749	351.5
362.976	363.5
363.203	345.5
363.429	350.5
363.656	345.5
363.882	342.5
364.109	336.5
364.335	358.5
364.562	332.5
364.788	330.5
365.015	349.5
365.241	358.5
365.468	337.5
365.694	330.5
365.92	334.5
366.147	351.5
366.373	353.5
366.599	368.5
366.826	336.5
367.052	339.5
367.278	337.5
367.505	331.5
367.731	363.5
367.957	345.5
368.184	337.5
368.41	341.5
368.636	335.5
368.862	374.5
369.089	355.5
369.315	344.5
369.541	342.5
369.767	342.5
369.993	363.5
370.219	348.5
370.445	331.5
370.672	332.5
370.898	348.5
371.124	325.5
371.35	339.5
371.576	342.5
371.802	345.5
372.028	355.5
372.254	329.5
372.48	329.5
372.706	330.5
372.932	345.5
373.158	354.5
373.384	349.5
373.61	335.5
373.835	329.5
374.061	328.5
374.287	350.5
374.513	347.5
374.739	347.5
374.965	332.5
375.191	323.5
375.416	349.5
375.642	338.5
375.868	359.5
376.094	336.5
376.319	326.5
376.545	335.5
376.771	340.5
376.997	321.5
377.222	352.5
377.448	327.5
377.674	330.5
377.899	329.5
378.125	309.5
378.35	329.5
378.576	330.5
378.802	357.5
379.027	349.5
379.253	322.5
379.478	336.5
379.704	329.5
379.929	344.5
380.155	350.5
380.38	344.5
380.606	334.5
380.831	343.5
381.057	355.5
381.282	336.5
381.507	334.5
381.733	349.5
381.958	344.5
382.184	340.5
382.409	351.5
382.634	329.5
382.86	352.5
383.085	343.5
383.31	331.5
383.535	340.5
383.761	340.5
383.986	360.5
384.211	344.5
384.436	341.5
384.662	352.5
384.887	354.5
385.112	358.5
385.337	336.5
385.562	349.5
385.787	376.5
386.013	368.5
386.238	362.5
386.463	368.5
386.688	374.5
386.913	358.5
387.138	356.5
387.363	340.5
387.588	350.5
387.813	351.5
388.038	371.5
388.263	342.5
388.488	376.5
388.713	364.5
388.938	372.5
389.163	374.5
389.387	357.5
389.612	362.5
389.837	335.5
390.062	372.5
390.287	357.5
390.512	336.5
390.736	363.5
390.961	354.5
391.186	366.5
391.411	354.5
391.636	369.5
391.86	369.5
392.085	362.5
392.31	381.5
392.534	360.5
392.759	388.5
392.984	354.5
393.208	348.5
393.433	367.5
393.658	380.5
393.882	360.5
394.107	342.5
394.331	353.5
394.556	353.5
394.78	351.5
395.005	354.5
395.229	367.5
395.454	378.5
395.678	367.5
395.903	407.5
396.127	396.5
396.352	392.5
396.576	391.5
396.801	371.5
397.025	395.5
397.249	383.5
397.474	400.5
397.698	370.5
397.922	385.5
398.147	406.5
398.371	416.5
398.595	405.5
398.82	407.5
399.044	417.5
399.268	430.5
399.492	445.5
399.717	455.5
399.941	460.5
400.165	491.5
400.389	484.5
400.613	469.5
400.837	422.5
401.062	390.5
401.286	405.5
401.51	423.5
401.734	412.5
401.958	411.5
402.182	420.5
402.406	428.5
402.63	430.5
402.854	422.5
403.078	412.5
403.302	412.5
403.526	428.5
403.75	418.5
403.974	412.5
404.198	421.5
404.422	427.5
404.645	439.5
404.869	454.5
405.093	443.5
405.317	449.5
405.541	466.5
405.765	438.5
405.988	447.5
406.212	466.5
406.436	450.5
406.66	487.5
406.883	469.5
407.107	480.5
407.331	507.5
407.555	530.5
407.778	554.5
408.002	517.5
408.226	481.5
408.449	459.5
408.673	476.5
408.896	484.5
409.12	509.5
409.344	467.5
409.567	461.5
409.791	406.5
410.014	431.5
410.238	414.5
410.461	440.5
410.685	449.5
410.908	434.5
411.132	466.5
411.355	487.5
411.578	476.5
411.802	427.5
412.025	407.5
412.249	427.5
412.472	424.5
412.695	423.5
412.919	413.5
413.142	403.5
413.365	406.5
413.589	386.5
413.812	394.5
414.035	385.5
414.258	378.5
414.482	416.5
414.705	427.5
414.928	403.5
415.151	382.5
415.374	381.5
415.597	386.5
415.821	384.5
416.044	388.5
416.267	378.5
416.49	386.5
416.713	395.5
416.936	389.5
417.159	387.5
417.382	397.5
417.605	398.5
417.828	403.5
418.051	406.5
418.274	440.5
418.497	392.5
418.72	396.5
418.943	391.5
419.166	412.5
419.389	415.5
419.611	420.5
419.834	421.5
420.057	406.5
420.28	414.5
420.503	402.5
420.726	415.5
420.948	398.5
421.171	467.5
421.394	463.5
421.617	443.5
421.839	418.5
422.062	433.5
422.285	439.5
422.507	488.5
422.73	525.5
422.953	488.5
423.175	459.5
423.398	422.5
423.621	433.5
423.843	448.5
424.066	466.5
424.288	431.5
424.511	435.5
424.733	490.5
424.956	558.5
425.178	523.5
425.401	535.5
425.623	549.5
425.846	470.5
426.068	458.5
426.291	433.5
426.513	448.5
426.735	439.5
426.958	472.5
427.18	543.5
427.402	637.5
427.625	678.5
427.847	628.5
428.069	536.5
428.292	473.5
428.514	453.5
428.736	429.5
428.958	424.5
429.181	419.5
429.403	426.5
429.625	418.5
429.847	457.5
430.069	502.5
430.292	488.5
430.514	437.5
430.736	415.5
430.958	392.5
431.18	409.5
431.402	390.5
431.624	386.5
431.846	381.5
432.068	374.5
432.29	377.5
432.512	376.5
432.734	397.5
432.956	397.5
433.178	425.5
433.4	422.5
433.622	406.5
433.844	399.5
434.066	383.5
434.287	416.5
434.509	400.5
434.731	396.5
434.953	416.5
435.175	424.5
435.397	425.5
435.618	471.5
435.84	484.5
436.062	559.5
436.284	591.5
436.505	512.5
436.727	467.5
436.949	424.5
437.17	434.5
437.392	430.5
437.614	438.5
437.835	459.5
438.057	542.5
438.278	613.5
438.5	586.5
438.721	646.5
438.943	595.5
439.165	489.5
439.386	448.5
439.608	446.5
439.829	457.5
440.05	485.5
440.272	524.5
440.493	481.5
440.715	451.5
440.936	429.5
441.158	430.5
441.379	430.5
441.6	448.5
441.822	446.5
442.043	493.5
442.264	551.5
442.486	588.5
442.707	473.5
442.928	466.5
443.149	461.5
443.371	512.5
443.592	538.5
443.813	592.5
444.034	616.5
444.255	533.5
444.476	478.5
444.698	447.5
444.919	465.5
445.14	567.5
445.361	511.5
445.582	484.5
445.803	546.5
446.024	609.5
446.245	612.5
446.466	558.5
446.687	487.5
446.908	467.5
447.129	431.5
447.35	443.5
447.571	428.5
447.792	431.5
448.013	437.5
448.234	449.5
448.455	482.5
448.675	573.5
448.896	635.5
449.117	528.5
449.338	532.5
449.559	610.5
449.779	644.5
450	541.5
450.221	452.5
450.442	432.5
450.662	412.5
450.883	427.5
451.104	425.5
451.324	415.5
451.545	410.5
451.766	388.5
451.986	383.5
452.207	380.5
452.428	382.5
452.648	396.5
452.869	378.5
453.089	374.5
453.31	385.5
453.53	392.5
453.751	377.5
453.971	373.5
454.192	379.5
454.412	387.5
454.633	370.5
454.853	370.5
455.073	387.5
455.294	414.5
455.514	450.5
455.734	437.5
455.955	378.5
456.175	358.5
456.395	356.5
456.616	359.5
456.836	354.5
457.056	363.5
457.276	355.5
457.497	361.5
457.717	371.5
457.937	355.5
458.157	359.5
458.377	368.5
458.598	378.5
458.818	454.5
459.038	529.5
459.258	508.5
459.478	440.5
459.698	394.5
459.918	387.5
460.138	384.5
460.358	397.5
460.578	395.5
460.798	387.5
461.018	382.5
461.238	384.5
461.458	389.5
461.678	404.5
461.898	404.5
462.118	409.5
462.338	384.5
462.558	416.5
462.777	406.5
462.997	422.5
463.217	431.5
463.437	414.5
463.657	426.5
463.876	421.5
464.096	423.5
464.316	413.5
464.536	422.5
464.755	446.5
464.975	443.5
465.195	474.5
465.414	527.5
465.634	463.5
465.854	433.5
466.073	417.5
466.293	402.5
466.512	394.5
466.732	373.5
466.951	374.5
467.171	385.5
467.391	393.5
467.61	402.5
467.829	406.5
468.049	403.5
468.268	389.5
468.488	383.5
468.707	339.5
468.927	376.5
469.146	359.5
469.365	371.5
469.585	356.5
469.804	417.5
470.023	403.5
470.243	377.5
470.462	397.5
470.681	416.5
470.901	398.5
471.12	387.5
471.339	375.5
471.558	408.5
471.777	391.5
471.997	370.5
472.216	371.5
472.435	386.5
472.654	377.5
472.873	367.5
473.092	373.5
473.311	365.5
473.53	383.5
473.749	399.5
473.968	430.5
474.187	521.5
474.406	508.5
474.625	409.5
474.844	403.5
475.063	390.5
475.282	405.5
475.501	380.5
475.72	388.5
475.939	409.5
476.158	397.5
476.377	392.5
476.596	400.5
476.814	403.5
477.033	422.5
477.252	423.5
477.471	426.5
477.69	430.5
477.908	400.5
478.127	437.5
478.346	425.5
478.564	435.5
478.783	445.5
479.002	428.5
479.22	444.5
479.439	438.5
479.658	461.5
479.876	477.5
480.095	475.5
480.313	481.5
480.532	464.5
480.751	467.5
480.969	452.5
481.188	496.5
481.406	481.5
481.624	450.5
481.843	465.5
482.061	451.5
482.28	442.5
482.498	450.5
482.717	427.5
482.935	436.5
483.153	441.5
483.372	435.5
483.59	447.5
483.808	443.5
484.027	450.5
484.245	438.5
484.463	463.5
484.681	458.5
484.9	438.5
485.118	465.5
485.336	445.5
485.554	469.5
485.772	475.5
485.99	459.5
486.209	454.5
486.427	454.5
486.645	478.5
486.863	500.5
487.081	478.5
487.299	475.5
487.517	495.5
487.735	480.5
487.953	470.5
488.171	487.5
488.389	483.5
488.607	486.5
488.825	469.5
489.043	497.5
489.261	491.5
489.479	478.5
489.696	470.5
489.914	495.5
490.132	488.5
490.35	486.5
490.568	530.5
490.786	548.5
491.003	539.5
491.221	546.5
491.439	539.5
491.657	518.5
491.874	544.5
492.092	545.5
492.31	595.5
492.527	556.5
492.745	567.5
492.963	560.5
493.18	549.5
493.398	562.5
493.615	584.5
493.833	547.5
494.05	570.5
494.268	570.5
494.485	580.5
494.703	554.5
494.92	575.5
495.138	580.5
495.355	562.5
495.573	575.5
495.79	582.5
496.008	569.5
496.225	564.5
496.442	586.5
496.66	576.5
496.877	554.5
497.094	566.5
497.312	573.5
497.529	572.5
497.746	581.5
497.963	594.5
498.181	627.5
498.398	626.5
498.615	617.5
498.832	616.5
499.049	665.5
499.267	645.5
499.484	658.5
499.701	680.5
499.918	730.5
500.135	740.5
500.352	768.5
500.569	772.5
500.786	763.5
501.003	763.5
501.22	721.5
501.437	740.5
501.654	729.5
501.871	723.5
502.088	691.5
502.305	663.5
502.522	640.5
502.739	607.5
502.956	624.5
503.172	602.5
503.389	594.5
503.606	610.5
503.823	599.5
504.04	579.5
504.256	580.5
504.473	553.5
504.69	566.5
504.907	560.5
505.123	571.5
505.34	563.5
505.557	547.5
505.773	542.5
505.99	549.5
506.207	553.5
506.423	556.5
506.64	548.5
506.856	542.5
507.073	532.5
507.289	539.5
507.506	556.5
507.722	563.5
507.939	560.5
508.155	538.5
508.372	521.5
508.588	517.5
508.805	539.5
509.021	510.5
509.238	542.5
509.454	528.5
509.67	527.5
509.887	550.5
510.103	518.5
510.319	553.5
510.536	614.5
510.752	1086.5
510.968	841.5
511.184	542.5
511.401	530.5
511.617	527.5
511.833	520.5
512.049	485.5
512.265	491.5
512.481	501.5
512.698	494.5
512.914	489.5
513.13	506.5
513.346	497.5
513.562	475.5
513.778	490.5
513.994	515.5
514.21	534.5
514.426	540.5
514.642	584.5
514.858	603.5
515.074	644.5
515.29	793.5
515.506	1187.5
515.721	954.5
515.937	635.5
516.153	584.5
516.369	546.5
516.585	537.5
516.801	534.5
517.016	522.5
517.232	521.5
517.448	506.5
517.664	507.5
517.879	500.5
518.095	520.5
518.311	501.5
518.527	512.5
518.742	506.5
518.958	504.5
519.173	513.5
519.389	516.5
519.605	496.5
519.82	528.5
520.036	517.5
