Data from 1983.PennyLincolnUp.Lamp.En5.5.200Scan.071819.P1_HRD10591_16-52-42-965.txt Node
Date: Thu Jul 18 16:52:42 EDT 2019
User: cochatt
Spectrometer: HR+D1059
Trigger mode: 1
Integration Time (sec): 1.000000E-1
Scans to average: 1
Electric dark correction enabled: true
Nonlinearity correction enabled: false
Boxcar width: 0
XAxis mode: Wavelengths
Number of Pixels in Spectrum: 2048
>>>>>Begin Spectral Data<<<<<
223.165	-10.56
223.4	-10.56
223.635	-10.56
223.869	-27.56
224.104	-15.56
224.338	-7.56
224.573	-11.56
224.808	-24.56
225.042	-17.56
225.277	-8.56
225.511	-2.56
225.746	-1.56
225.98	16.44
226.215	8.44
226.449	22.44
226.683	33.44
226.918	23.44
227.152	23.44
227.387	36.44
227.621	46.44
227.856	35.44
228.09	35.44
228.324	56.44
228.559	47.44
228.793	81.44
229.027	90.44
229.262	91.44
229.496	122.44
229.73	111.44
229.964	130.44
230.199	117.44
230.433	105.44
230.667	104.44
230.901	108.44
231.136	83.44
231.37	102.44
231.604	95.44
231.838	93.44
232.072	97.44
232.306	90.44
232.541	97.44
232.775	110.44
233.009	111.44
233.243	105.44
233.477	105.44
233.711	106.44
233.945	112.44
234.179	106.44
234.413	106.44
234.647	114.44
234.881	102.44
235.115	115.44
235.349	106.44
235.583	107.44
235.817	102.44
236.051	109.44
236.285	115.44
236.519	106.44
236.753	125.44
236.987	136.44
237.221	162.44
237.455	193.44
237.689	152.44
237.922	107.44
238.156	125.44
238.39	123.44
238.624	118.44
238.858	111.44
239.091	115.44
239.325	111.44
239.559	117.44
239.793	113.44
240.027	117.44
240.26	130.44
240.494	134.44
240.728	143.44
240.961	134.44
241.195	139.44
241.429	135.44
241.662	115.44
241.896	111.44
242.13	109.44
242.363	138.44
242.597	101.44
242.83	121.44
243.064	127.44
243.298	122.44
243.531	104.44
243.765	131.44
243.998	121.44
244.232	122.44
244.465	142.44
244.699	132.44
244.932	135.44
245.166	120.44
245.399	118.44
245.633	129.44
245.866	133.44
246.099	136.44
246.333	131.44
246.566	120.44
246.8	120.44
247.033	152.44
247.266	123.44
247.5	154.44
247.733	152.44
247.966	152.44
248.2	162.44
248.433	148.44
248.666	136.44
248.899	161.44
249.133	175.44
249.366	170.44
249.599	170.44
249.832	152.44
250.066	153.44
250.299	163.44
250.532	161.44
250.765	175.44
250.998	182.44
251.231	196.44
251.465	193.44
251.698	174.44
251.931	158.44
252.164	170.44
252.397	175.44
252.63	183.44
252.863	164.44
253.096	193.44
253.329	189.44
253.562	181.44
253.795	192.44
254.028	191.44
254.261	176.44
254.494	197.44
254.727	225.44
254.96	213.44
255.193	224.44
255.426	197.44
255.659	185.44
255.892	194.44
256.124	183.44
256.357	192.44
256.59	184.44
256.823	195.44
257.056	176.44
257.289	177.44
257.521	181.44
257.754	175.44
257.987	167.44
258.22	188.44
258.452	190.44
258.685	168.44
258.918	169.44
259.151	186.44
259.383	179.44
259.616	198.44
259.849	187.44
260.081	188.44
260.314	203.44
260.547	209.44
260.779	203.44
261.012	189.44
261.244	211.44
261.477	193.44
261.71	194.44
261.942	219.44
262.175	221.44
262.407	200.44
262.64	181.44
262.872	172.44
263.105	184.44
263.337	192.44
263.57	176.44
263.802	187.44
264.035	183.44
264.267	170.44
264.499	191.44
264.732	189.44
264.964	189.44
265.197	187.44
265.429	196.44
265.661	181.44
265.894	203.44
266.126	185.44
266.358	199.44
266.591	189.44
266.823	191.44
267.055	186.44
267.287	194.44
267.52	208.44
267.752	201.44
267.984	197.44
268.216	217.44
268.448	191.44
268.681	197.44
268.913	216.44
269.145	225.44
269.377	218.44
269.609	226.44
269.841	226.44
270.073	243.44
270.306	258.44
270.538	271.44
270.77	257.44
271.002	253.44
271.234	250.44
271.466	245.44
271.698	253.44
271.93	262.44
272.162	288.44
272.394	260.44
272.626	246.44
272.858	257.44
273.09	229.44
273.322	231.44
273.553	219.44
273.785	221.44
274.017	227.44
274.249	209.44
274.481	236.44
274.713	223.44
274.945	246.44
275.176	258.44
275.408	218.44
275.64	221.44
275.872	217.44
276.104	221.44
276.335	233.44
276.567	247.44
276.799	261.44
277.031	258.44
277.262	257.44
277.494	260.44
277.726	247.44
277.957	251.44
278.189	224.44
278.421	244.44
278.652	236.44
278.884	233.44
279.115	232.44
279.347	219.44
279.579	215.44
279.81	226.44
280.042	228.44
280.273	233.44
280.505	219.44
280.736	236.44
280.968	224.44
281.199	237.44
281.431	234.44
281.662	232.44
281.894	231.44
282.125	229.44
282.356	256.44
282.588	244.44
282.819	275.44
283.051	239.44
283.282	226.44
283.513	226.44
283.745	240.44
283.976	240.44
284.207	250.44
284.439	244.44
284.67	244.44
284.901	226.44
285.132	234.44
285.364	224.44
285.595	230.44
285.826	226.44
286.057	232.44
286.288	239.44
286.52	239.44
286.751	232.44
286.982	237.44
287.213	243.44
287.444	246.44
287.675	244.44
287.906	234.44
288.138	249.44
288.369	238.44
288.6	261.44
288.831	243.44
289.062	245.44
289.293	253.44
289.524	238.44
289.755	234.44
289.986	231.44
290.217	247.44
290.448	239.44
290.679	245.44
290.91	254.44
291.141	239.44
291.371	257.44
291.602	249.44
291.833	248.44
292.064	253.44
292.295	239.44
292.526	269.44
292.757	258.44
292.987	254.44
293.218	222.44
293.449	259.44
293.68	254.44
293.91	251.44
294.141	245.44
294.372	247.44
294.603	260.44
294.833	250.44
295.064	244.44
295.295	254.44
295.525	264.44
295.756	263.44
295.987	257.44
296.217	278.44
296.448	283.44
296.679	260.44
296.909	232.44
297.14	254.44
297.37	241.44
297.601	257.44
297.831	267.44
298.062	264.44
298.292	255.44
298.523	262.44
298.753	258.44
298.984	268.44
299.214	248.44
299.445	259.44
299.675	270.44
299.905	240.44
300.136	255.44
300.366	255.44
300.597	276.44
300.827	282.44
301.057	265.44
301.288	261.44
301.518	264.44
301.748	267.44
301.979	269.44
302.209	270.44
302.439	282.44
302.669	268.44
302.9	277.44
303.13	284.44
303.36	284.44
303.59	294.44
303.82	277.44
304.051	284.44
304.281	274.44
304.511	282.44
304.741	292.44
304.971	283.44
305.201	276.44
305.431	267.44
305.661	280.44
305.891	289.44
306.121	285.44
306.352	296.44
306.582	294.44
306.812	267.44
307.042	284.44
307.272	278.44
307.502	283.44
307.731	302.44
307.961	286.44
308.191	276.44
308.421	270.44
308.651	282.44
308.881	281.44
309.111	282.44
309.341	284.44
309.571	289.44
309.8	313.44
310.03	308.44
310.26	311.44
310.49	302.44
310.72	316.44
310.949	333.44
311.179	342.44
311.409	341.44
311.639	323.44
311.868	309.44
312.098	329.44
312.328	325.44
312.557	344.44
312.787	344.44
313.017	344.44
313.246	337.44
313.476	331.44
313.706	320.44
313.935	335.44
314.165	335.44
314.394	345.44
314.624	328.44
314.853	329.44
315.083	322.44
315.312	324.44
315.542	319.44
315.771	323.44
316.001	290.44
316.23	316.44
316.46	339.44
316.689	344.44
316.919	319.44
317.148	330.44
317.377	329.44
317.607	322.44
317.836	293.44
318.065	331.44
318.295	327.44
318.524	334.44
318.753	323.44
318.983	336.44
319.212	324.44
319.441	332.44
319.67	351.44
319.9	316.44
320.129	326.44
320.358	326.44
320.587	316.44
320.816	333.44
321.046	329.44
321.275	347.44
321.504	333.44
321.733	335.44
321.962	336.44
322.191	356.44
322.42	375.44
322.649	369.44
322.878	377.44
323.108	384.44
323.337	393.44
323.566	418.44
323.795	462.44
324.024	479.44
324.253	600.44
324.482	823.44
324.71	1239.44
324.939	1684.44
325.168	1443.44
325.397	773.44
325.626	554.44
325.855	457.44
326.084	443.44
326.313	407.44
326.542	415.44
326.77	457.44
326.999	552.44
327.228	754.44
327.457	1081.44
327.686	1257.44
327.914	853.44
328.143	566.44
328.372	529.44
328.6	487.44
328.829	458.44
329.058	454.44
329.287	481.44
329.515	442.44
329.744	405.44
329.972	406.44
330.201	414.44
330.43	429.44
330.658	459.44
330.887	517.44
331.115	514.44
331.344	443.44
331.572	418.44
331.801	407.44
332.03	399.44
332.258	389.44
332.486	375.44
332.715	370.44
332.943	375.44
333.172	376.44
333.4	365.44
333.629	378.44
333.857	397.44
334.085	385.44
334.314	388.44
334.542	388.44
334.771	375.44
334.999	380.44
335.227	367.44
335.455	382.44
335.684	369.44
335.912	371.44
336.14	378.44
336.369	365.44
336.597	380.44
336.825	360.44
337.053	356.44
337.281	357.44
337.51	356.44
337.738	383.44
337.966	381.44
338.194	386.44
338.422	383.44
338.65	376.44
338.878	353.44
339.106	367.44
339.334	368.44
339.562	371.44
339.79	352.44
340.018	363.44
340.246	367.44
340.474	351.44
340.702	363.44
340.93	373.44
341.158	368.44
341.386	337.44
341.614	365.44
341.842	354.44
342.07	363.44
342.298	354.44
342.526	346.44
342.754	347.44
342.981	374.44
343.209	346.44
343.437	346.44
343.665	355.44
343.893	358.44
344.12	367.44
344.348	370.44
344.576	351.44
344.804	379.44
345.031	374.44
345.259	377.44
345.487	367.44
345.714	370.44
345.942	367.44
346.17	336.44
346.397	335.44
346.625	335.44
346.853	342.44
347.08	358.44
347.308	352.44
347.535	379.44
347.763	383.44
347.99	373.44
348.218	362.44
348.445	355.44
348.673	361.44
348.9	354.44
349.128	343.44
349.355	341.44
349.583	331.44
349.81	335.44
350.037	338.44
350.265	330.44
350.492	343.44
350.72	325.44
350.947	355.44
351.174	362.44
351.402	365.44
351.629	371.44
351.856	369.44
352.083	368.44
352.311	366.44
352.538	355.44
352.765	373.44
352.992	367.44
353.22	371.44
353.447	374.44
353.674	346.44
353.901	347.44
354.128	351.44
354.355	337.44
354.583	339.44
354.81	344.44
355.037	316.44
355.264	319.44
355.491	343.44
355.718	328.44
355.945	334.44
356.172	333.44
356.399	326.44
356.626	336.44
356.853	306.44
357.08	323.44
357.307	327.44
357.534	309.44
357.761	318.44
357.988	331.44
358.215	343.44
358.441	342.44
358.668	312.44
358.895	325.44
359.122	358.44
359.349	329.44
359.576	353.44
359.802	373.44
360.029	391.44
360.256	393.44
360.483	373.44
360.709	359.44
360.936	352.44
361.163	346.44
361.39	356.44
361.616	374.44
361.843	325.44
362.07	338.44
362.296	340.44
362.523	356.44
362.749	341.44
362.976	334.44
363.203	347.44
363.429	337.44
363.656	336.44
363.882	331.44
364.109	331.44
364.335	347.44
364.562	322.44
364.788	317.44
365.015	331.44
365.241	336.44
365.468	349.44
365.694	353.44
365.92	359.44
366.147	336.44
366.373	335.44
366.599	335.44
366.826	328.44
367.052	339.44
367.278	329.44
367.505	346.44
367.731	323.44
367.957	325.44
368.184	338.44
368.41	355.44
368.636	336.44
368.862	335.44
369.089	346.44
369.315	343.44
369.541	345.44
369.767	344.44
369.993	342.44
370.219	336.44
370.445	337.44
370.672	332.44
370.898	340.44
371.124	331.44
371.35	319.44
371.576	322.44
371.802	344.44
372.028	332.44
372.254	326.44
372.48	303.44
372.706	331.44
372.932	343.44
373.158	333.44
373.384	334.44
373.61	340.44
373.835	331.44
374.061	340.44
374.287	334.44
374.513	343.44
374.739	339.44
374.965	363.44
375.191	337.44
375.416	345.44
375.642	335.44
375.868	334.44
376.094	339.44
376.319	324.44
376.545	324.44
376.771	347.44
376.997	323.44
377.222	323.44
377.448	336.44
377.674	335.44
377.899	339.44
378.125	338.44
378.35	346.44
378.576	333.44
378.802	314.44
379.027	334.44
379.253	329.44
379.478	335.44
379.704	327.44
379.929	327.44
380.155	325.44
380.38	329.44
380.606	334.44
380.831	344.44
381.057	328.44
381.282	333.44
381.507	354.44
381.733	353.44
381.958	347.44
382.184	329.44
382.409	334.44
382.634	341.44
382.86	338.44
383.085	345.44
383.31	329.44
383.535	327.44
383.761	345.44
383.986	346.44
384.211	331.44
384.436	354.44
384.662	339.44
384.887	357.44
385.112	339.44
385.337	357.44
385.562	366.44
385.787	353.44
386.013	369.44
386.238	357.44
386.463	357.44
386.688	358.44
386.913	334.44
387.138	369.44
387.363	353.44
387.588	365.44
387.813	358.44
388.038	359.44
388.263	360.44
388.488	350.44
388.713	385.44
388.938	369.44
389.163	362.44
389.387	361.44
389.612	366.44
389.837	359.44
390.062	360.44
390.287	354.44
390.512	356.44
390.736	357.44
390.961	373.44
391.186	353.44
391.411	355.44
391.636	359.44
391.86	366.44
392.085	351.44
392.31	355.44
392.534	364.44
392.759	384.44
392.984	369.44
393.208	338.44
393.433	353.44
393.658	358.44
393.882	336.44
394.107	346.44
394.331	358.44
394.556	357.44
394.78	374.44
395.005	361.44
395.229	348.44
395.454	364.44
395.678	353.44
395.903	387.44
396.127	395.44
396.352	398.44
396.576	373.44
396.801	370.44
397.025	373.44
397.249	381.44
397.474	398.44
397.698	371.44
397.922	385.44
398.147	382.44
398.371	382.44
398.595	388.44
398.82	392.44
399.044	398.44
399.268	416.44
399.492	432.44
399.717	457.44
399.941	454.44
400.165	479.44
400.389	467.44
400.613	443.44
400.837	415.44
401.062	417.44
401.286	385.44
401.51	386.44
401.734	429.44
401.958	395.44
402.182	414.44
402.406	425.44
402.63	433.44
402.854	423.44
403.078	426.44
403.302	392.44
403.526	398.44
403.75	418.44
403.974	410.44
404.198	417.44
404.422	425.44
404.645	411.44
404.869	425.44
405.093	435.44
405.317	438.44
405.541	442.44
405.765	444.44
405.988	447.44
406.212	436.44
406.436	467.44
406.66	452.44
406.883	463.44
407.107	457.44
407.331	486.44
407.555	525.44
407.778	547.44
408.002	510.44
408.226	452.44
408.449	468.44
408.673	448.44
408.896	477.44
409.12	498.44
409.344	461.44
409.567	437.44
409.791	420.44
410.014	414.44
410.238	424.44
410.461	420.44
410.685	412.44
410.908	442.44
411.132	453.44
411.355	466.44
411.578	472.44
411.802	410.44
412.025	388.44
412.249	406.44
412.472	416.44
412.695	431.44
412.919	422.44
413.142	409.44
413.365	408.44
413.589	384.44
413.812	377.44
414.035	374.44
414.258	401.44
414.482	393.44
414.705	393.44
414.928	400.44
415.151	376.44
415.374	379.44
415.597	387.44
415.821	406.44
416.044	394.44
416.267	399.44
416.49	393.44
416.713	368.44
416.936	381.44
417.159	394.44
417.382	414.44
417.605	403.44
417.828	389.44
418.051	405.44
418.274	400.44
418.497	381.44
418.72	405.44
418.943	404.44
419.166	414.44
419.389	441.44
419.611	410.44
419.834	402.44
420.057	419.44
420.28	417.44
420.503	409.44
420.726	398.44
420.948	410.44
421.171	456.44
421.394	469.44
421.617	434.44
421.839	389.44
422.062	421.44
422.285	423.44
422.507	449.44
422.73	513.44
422.953	497.44
423.175	416.44
423.398	403.44
423.621	410.44
423.843	425.44
424.066	449.44
424.288	417.44
424.511	459.44
424.733	478.44
424.956	548.44
425.178	520.44
425.401	533.44
425.623	527.44
425.846	464.44
426.068	443.44
426.291	445.44
426.513	452.44
426.735	443.44
426.958	467.44
427.18	501.44
427.402	645.44
427.625	676.44
427.847	589.44
428.069	498.44
428.292	484.44
428.514	427.44
428.736	418.44
428.958	402.44
429.181	402.44
429.403	394.44
429.625	429.44
429.847	459.44
430.069	495.44
430.292	480.44
430.514	419.44
430.736	411.44
430.958	401.44
431.18	384.44
431.402	400.44
431.624	381.44
431.846	370.44
432.068	374.44
432.29	385.44
432.512	390.44
432.734	396.44
432.956	408.44
433.178	395.44
433.4	396.44
433.622	385.44
433.844	404.44
434.066	383.44
434.287	401.44
434.509	371.44
434.731	385.44
434.953	382.44
435.175	410.44
435.397	429.44
435.618	452.44
435.84	470.44
436.062	530.44
436.284	563.44
436.505	508.44
436.727	445.44
436.949	395.44
437.17	409.44
437.392	386.44
437.614	417.44
437.835	461.44
438.057	521.44
438.278	595.44
438.5	607.44
438.721	641.44
438.943	598.44
439.165	489.44
439.386	474.44
439.608	439.44
439.829	445.44
440.05	472.44
440.272	493.44
440.493	453.44
440.715	435.44
440.936	419.44
441.158	431.44
441.379	417.44
441.6	418.44
441.822	427.44
442.043	492.44
442.264	527.44
442.486	569.44
442.707	493.44
442.928	444.44
443.149	486.44
443.371	467.44
443.592	500.44
443.813	583.44
444.034	602.44
444.255	489.44
444.476	448.44
444.698	439.44
444.919	433.44
445.14	567.44
445.361	532.44
445.582	461.44
445.803	529.44
446.024	607.44
446.245	592.44
446.466	538.44
446.687	471.44
446.908	415.44
447.129	427.44
447.35	409.44
447.571	411.44
447.792	415.44
448.013	412.44
448.234	410.44
448.455	455.44
448.675	551.44
448.896	641.44
449.117	547.44
449.338	516.44
449.559	588.44
449.779	652.44
450	543.44
450.221	437.44
450.442	414.44
450.662	404.44
450.883	404.44
451.104	424.44
451.324	407.44
451.545	407.44
451.766	368.44
451.986	380.44
452.207	381.44
452.428	374.44
452.648	380.44
452.869	384.44
453.089	386.44
453.31	389.44
453.53	374.44
453.751	350.44
453.971	350.44
454.192	395.44
454.412	395.44
454.633	374.44
454.853	369.44
455.073	369.44
455.294	404.44
455.514	478.44
455.734	453.44
455.955	396.44
456.175	354.44
456.395	326.44
456.616	356.44
456.836	346.44
457.056	346.44
457.276	328.44
457.497	351.44
457.717	333.44
457.937	356.44
458.157	356.44
458.377	367.44
458.598	387.44
458.818	439.44
459.038	484.44
459.258	503.44
459.478	422.44
459.698	398.44
459.918	374.44
460.138	371.44
460.358	395.44
460.578	393.44
460.798	405.44
461.018	411.44
461.238	389.44
461.458	393.44
461.678	373.44
461.898	399.44
462.118	377.44
462.338	379.44
462.558	406.44
462.777	403.44
462.997	411.44
463.217	412.44
463.437	442.44
463.657	418.44
463.876	423.44
464.096	386.44
464.316	408.44
464.536	416.44
464.755	414.44
464.975	420.44
465.195	459.44
465.414	519.44
465.634	442.44
465.854	425.44
466.073	386.44
466.293	376.44
466.512	370.44
466.732	373.44
466.951	385.44
467.171	375.44
467.391	370.44
467.61	383.44
467.829	392.44
468.049	379.44
468.268	379.44
468.488	363.44
468.707	378.44
468.927	369.44
469.146	378.44
469.365	348.44
469.585	380.44
469.804	359.44
470.023	383.44
470.243	392.44
470.462	369.44
470.681	397.44
470.901	411.44
471.12	384.44
471.339	371.44
471.558	373.44
471.777	383.44
471.997	371.44
472.216	393.44
472.435	399.44
472.654	374.44
472.873	351.44
473.092	380.44
473.311	373.44
473.53	393.44
473.749	404.44
473.968	403.44
474.187	498.44
474.406	511.44
474.625	427.44
474.844	397.44
475.063	380.44
475.282	389.44
475.501	381.44
475.72	393.44
475.939	389.44
476.158	393.44
476.377	375.44
476.596	375.44
476.814	419.44
477.033	394.44
477.252	439.44
477.471	415.44
477.69	401.44
477.908	417.44
478.127	439.44
478.346	406.44
478.564	418.44
478.783	442.44
479.002	432.44
479.22	428.44
479.439	441.44
479.658	451.44
479.876	459.44
480.095	449.44
480.313	462.44
480.532	474.44
480.751	464.44
480.969	473.44
481.188	469.44
481.406	466.44
481.624	450.44
481.843	430.44
482.061	443.44
482.28	436.44
482.498	432.44
482.717	434.44
482.935	427.44
483.153	437.44
483.372	435.44
483.59	447.44
483.808	458.44
484.027	424.44
484.245	456.44
484.463	431.44
484.681	458.44
484.9	446.44
485.118	454.44
485.336	441.44
485.554	431.44
485.772	454.44
485.99	441.44
486.209	458.44
486.427	474.44
486.645	467.44
486.863	480.44
487.081	473.44
487.299	492.44
487.517	481.44
487.735	453.44
487.953	466.44
488.171	502.44
488.389	478.44
488.607	493.44
488.825	481.44
489.043	472.44
489.261	473.44
489.479	458.44
489.696	490.44
489.914	490.44
490.132	481.44
490.35	478.44
490.568	507.44
490.786	501.44
491.003	485.44
491.221	526.44
491.439	536.44
491.657	486.44
491.874	535.44
492.092	535.44
492.31	563.44
492.527	547.44
492.745	546.44
492.963	543.44
493.18	551.44
493.398	571.44
493.615	561.44
493.833	543.44
494.05	527.44
494.268	551.44
494.485	563.44
494.703	552.44
494.92	544.44
495.138	564.44
495.355	565.44
495.573	545.44
495.79	549.44
496.008	557.44
496.225	552.44
496.442	551.44
496.66	588.44
496.877	569.44
497.094	593.44
497.312	571.44
497.529	565.44
497.746	558.44
497.963	574.44
498.181	595.44
498.398	612.44
498.615	621.44
498.832	625.44
499.049	634.44
499.267	666.44
499.484	648.44
499.701	689.44
499.918	713.44
500.135	720.44
500.352	735.44
500.569	729.44
500.786	744.44
501.003	743.44
501.22	736.44
501.437	731.44
501.654	698.44
501.871	699.44
502.088	679.44
