Data from 1983.PennyLincolnUp.Lamp.En5.5.200Scan.071819.P1_HRD10591_16-54-53-966.txt Node
Date: Thu Jul 18 16:54:53 EDT 2019
User: cochatt
Spectrometer: HR+D1059
Trigger mode: 1
Integration Time (sec): 1.000000E-1
Scans to average: 1
Electric dark correction enabled: true
Nonlinearity correction enabled: false
Boxcar width: 0
XAxis mode: Wavelengths
Number of Pixels in Spectrum: 2048
>>>>>Begin Spectral Data<<<<<
223.165	-10.88
223.4	-10.88
223.635	-10.88
223.869	-26.88
224.104	-12.88
224.338	-20.88
224.573	-18.88
224.808	-24.88
225.042	5.12
225.277	4.12
225.511	4.12
225.746	6.12
225.98	-4.88
226.215	15.12
226.449	14.12
226.683	16.12
226.918	30.12
227.152	25.12
227.387	33.12
227.621	52.12
227.856	49.12
228.09	63.12
228.324	46.12
228.559	48.12
228.793	54.12
229.027	89.12
229.262	97.12
229.496	109.12
229.73	139.12
229.964	148.12
230.199	121.12
230.433	103.12
230.667	124.12
230.901	109.12
231.136	110.12
231.37	102.12
231.604	105.12
231.838	121.12
232.072	119.12
232.306	118.12
232.541	114.12
232.775	122.12
233.009	113.12
233.243	104.12
233.477	110.12
233.711	119.12
233.945	133.12
234.179	118.12
234.413	115.12
234.647	125.12
234.881	107.12
235.115	123.12
235.349	124.12
235.583	115.12
235.817	110.12
236.051	120.12
236.285	119.12
236.519	130.12
236.753	135.12
236.987	133.12
237.221	171.12
237.455	218.12
237.689	173.12
237.922	153.12
238.156	134.12
238.39	117.12
238.624	122.12
238.858	124.12
239.091	136.12
239.325	110.12
239.559	107.12
239.793	120.12
240.027	122.12
240.26	131.12
240.494	151.12
240.728	140.12
240.961	151.12
241.195	133.12
241.429	135.12
241.662	120.12
241.896	139.12
242.13	113.12
242.363	118.12
242.597	131.12
242.83	123.12
243.064	138.12
243.298	134.12
243.531	123.12
243.765	145.12
243.998	136.12
244.232	144.12
244.465	129.12
244.699	137.12
244.932	135.12
245.166	135.12
245.399	133.12
245.633	134.12
245.866	151.12
246.099	137.12
246.333	133.12
246.566	133.12
246.8	129.12
247.033	141.12
247.266	144.12
247.5	150.12
247.733	165.12
247.966	159.12
248.2	169.12
248.433	169.12
248.666	162.12
248.899	183.12
249.133	186.12
249.366	200.12
249.599	181.12
249.832	175.12
250.066	164.12
250.299	187.12
250.532	191.12
250.765	209.12
250.998	215.12
251.231	221.12
251.465	186.12
251.698	188.12
251.931	184.12
252.164	183.12
252.397	193.12
252.63	191.12
252.863	183.12
253.096	214.12
253.329	200.12
253.562	206.12
253.795	195.12
254.028	205.12
254.261	200.12
254.494	209.12
254.727	241.12
254.96	266.12
255.193	266.12
255.426	234.12
255.659	217.12
255.892	213.12
256.124	236.12
256.357	237.12
256.59	222.12
256.823	203.12
257.056	197.12
257.289	198.12
257.521	203.12
257.754	197.12
257.987	203.12
258.22	199.12
258.452	185.12
258.685	209.12
258.918	204.12
259.151	200.12
259.383	205.12
259.616	198.12
259.849	191.12
260.081	195.12
260.314	237.12
260.547	226.12
260.779	222.12
261.012	219.12
261.244	218.12
261.477	207.12
261.71	202.12
261.942	211.12
262.175	206.12
262.407	233.12
262.64	211.12
262.872	202.12
263.105	187.12
263.337	195.12
263.57	201.12
263.802	207.12
264.035	206.12
264.267	193.12
264.499	207.12
264.732	216.12
264.964	202.12
265.197	204.12
265.429	190.12
265.661	175.12
265.894	197.12
266.126	217.12
266.358	197.12
266.591	214.12
266.823	209.12
267.055	220.12
267.287	221.12
267.52	198.12
267.752	216.12
267.984	216.12
268.216	206.12
268.448	214.12
268.681	218.12
268.913	222.12
269.145	240.12
269.377	245.12
269.609	256.12
269.841	259.12
270.073	235.12
270.306	273.12
270.538	298.12
270.77	286.12
271.002	283.12
271.234	266.12
271.466	259.12
271.698	278.12
271.93	291.12
272.162	286.12
272.394	305.12
272.626	294.12
272.858	261.12
273.09	267.12
273.322	258.12
273.553	246.12
273.785	249.12
274.017	243.12
274.249	265.12
274.481	255.12
274.713	246.12
274.945	236.12
275.176	249.12
275.408	243.12
275.64	245.12
275.872	237.12
276.104	230.12
276.335	241.12
276.567	271.12
276.799	264.12
277.031	300.12
277.262	294.12
277.494	300.12
277.726	293.12
277.957	274.12
278.189	273.12
278.421	266.12
278.652	242.12
278.884	246.12
279.115	246.12
279.347	237.12
279.579	253.12
279.81	229.12
280.042	215.12
280.273	235.12
280.505	232.12
280.736	243.12
280.968	264.12
281.199	241.12
281.431	237.12
281.662	244.12
281.894	249.12
282.125	234.12
282.356	258.12
282.588	285.12
282.819	283.12
283.051	266.12
283.282	260.12
283.513	246.12
283.745	259.12
283.976	248.12
284.207	249.12
284.439	279.12
284.67	250.12
284.901	255.12
285.132	264.12
285.364	257.12
285.595	257.12
285.826	258.12
286.057	269.12
286.288	267.12
286.52	253.12
286.751	277.12
286.982	275.12
287.213	265.12
287.444	276.12
287.675	277.12
287.906	291.12
288.138	267.12
288.369	280.12
288.6	275.12
288.831	273.12
289.062	277.12
289.293	278.12
289.524	270.12
289.755	265.12
289.986	264.12
290.217	258.12
290.448	281.12
290.679	240.12
290.91	273.12
291.141	269.12
291.371	271.12
291.602	279.12
291.833	279.12
292.064	261.12
292.295	259.12
292.526	265.12
292.757	257.12
292.987	285.12
293.218	252.12
293.449	251.12
293.68	274.12
293.91	273.12
294.141	275.12
294.372	268.12
294.603	261.12
294.833	266.12
295.064	265.12
295.295	274.12
295.525	284.12
295.756	279.12
295.987	268.12
296.217	312.12
296.448	315.12
296.679	270.12
296.909	281.12
297.14	296.12
297.37	281.12
297.601	259.12
297.831	257.12
298.062	259.12
298.292	252.12
298.523	270.12
298.753	271.12
298.984	290.12
299.214	272.12
299.445	281.12
299.675	286.12
299.905	281.12
300.136	275.12
300.366	305.12
300.597	276.12
300.827	277.12
301.057	293.12
301.288	303.12
301.518	302.12
301.748	312.12
301.979	304.12
302.209	280.12
302.439	311.12
302.669	291.12
302.9	277.12
303.13	296.12
303.36	312.12
303.59	313.12
303.82	307.12
304.051	297.12
304.281	300.12
304.511	296.12
304.741	297.12
304.971	300.12
305.201	272.12
305.431	306.12
305.661	330.12
305.891	298.12
306.121	311.12
306.352	302.12
306.582	315.12
306.812	297.12
307.042	296.12
307.272	300.12
307.502	307.12
307.731	326.12
307.961	302.12
308.191	306.12
308.421	312.12
308.651	301.12
308.881	309.12
309.111	303.12
309.341	311.12
309.571	331.12
309.8	347.12
310.03	331.12
310.26	354.12
310.49	361.12
310.72	374.12
310.949	368.12
311.179	367.12
311.409	360.12
311.639	349.12
311.868	346.12
312.098	347.12
312.328	363.12
312.557	377.12
312.787	389.12
313.017	385.12
313.246	355.12
313.476	343.12
313.706	337.12
313.935	339.12
314.165	346.12
314.394	377.12
314.624	362.12
314.853	365.12
315.083	366.12
315.312	354.12
315.542	318.12
315.771	347.12
316.001	356.12
316.23	360.12
316.46	356.12
316.689	349.12
316.919	373.12
317.148	349.12
317.377	355.12
317.607	355.12
317.836	362.12
318.065	328.12
318.295	329.12
318.524	351.12
318.753	343.12
318.983	369.12
319.212	345.12
319.441	362.12
319.67	364.12
319.9	362.12
320.129	365.12
320.358	370.12
320.587	353.12
320.816	360.12
321.046	359.12
321.275	390.12
321.504	363.12
321.733	375.12
321.962	399.12
322.191	395.12
322.42	383.12
322.649	420.12
322.878	425.12
323.108	450.12
323.337	467.12
323.566	480.12
323.795	514.12
324.024	580.12
324.253	709.12
324.482	1024.12
324.71	1565.12
324.939	2081.12
325.168	1738.12
325.397	921.12
325.626	636.12
325.855	533.12
326.084	479.12
326.313	475.12
326.542	509.12
326.77	559.12
326.999	629.12
327.228	893.12
327.457	1318.12
327.686	1525.12
327.914	1025.12
328.143	715.12
328.372	604.12
328.6	563.12
328.829	555.12
329.058	555.12
329.287	591.12
329.515	540.12
329.744	490.12
329.972	503.12
330.201	534.12
330.43	577.12
330.658	609.12
330.887	618.12
331.115	571.12
331.344	481.12
331.572	454.12
331.801	474.12
332.03	463.12
332.258	434.12
332.486	423.12
332.715	408.12
332.943	420.12
333.172	410.12
333.4	426.12
333.629	450.12
333.857	445.12
334.085	477.12
334.314	472.12
334.542	527.12
334.771	545.12
334.999	474.12
335.227	460.12
335.455	439.12
335.684	411.12
335.912	419.12
336.14	413.12
336.369	414.12
336.597	425.12
336.825	421.12
337.053	417.12
337.281	401.12
337.51	399.12
337.738	394.12
337.966	396.12
338.194	411.12
338.422	396.12
338.65	406.12
338.878	397.12
339.106	393.12
339.334	380.12
339.562	384.12
339.79	381.12
340.018	401.12
340.246	398.12
340.474	391.12
340.702	387.12
340.93	382.12
341.158	370.12
341.386	405.12
341.614	391.12
341.842	371.12
342.07	385.12
342.298	403.12
342.526	380.12
342.754	360.12
342.981	353.12
343.209	359.12
343.437	404.12
343.665	372.12
343.893	361.12
344.12	397.12
344.348	382.12
344.576	382.12
344.804	382.12
345.031	407.12
345.259	403.12
345.487	377.12
345.714	390.12
345.942	364.12
346.17	376.12
346.397	387.12
346.625	377.12
346.853	373.12
347.08	366.12
347.308	376.12
347.535	392.12
347.763	402.12
347.99	393.12
348.218	410.12
348.445	383.12
348.673	394.12
348.9	378.12
349.128	359.12
349.355	366.12
349.583	361.12
349.81	354.12
350.037	373.12
350.265	373.12
350.492	379.12
350.72	358.12
350.947	370.12
351.174	388.12
351.402	397.12
351.629	380.12
351.856	377.12
352.083	388.12
352.311	395.12
352.538	395.12
352.765	406.12
352.992	395.12
353.22	384.12
353.447	366.12
353.674	358.12
353.901	362.12
354.128	356.12
354.355	351.12
354.583	343.12
354.81	345.12
355.037	349.12
355.264	347.12
355.491	343.12
355.718	352.12
355.945	369.12
356.172	350.12
356.399	346.12
356.626	355.12
356.853	357.12
357.08	346.12
357.307	347.12
357.534	346.12
357.761	335.12
357.988	357.12
358.215	356.12
358.441	350.12
358.668	344.12
358.895	342.12
359.122	358.12
359.349	376.12
359.576	377.12
359.802	405.12
360.029	427.12
360.256	431.12
360.483	422.12
360.709	386.12
360.936	381.12
361.163	397.12
361.39	372.12
361.616	380.12
361.843	358.12
362.07	371.12
362.296	389.12
362.523	400.12
362.749	385.12
362.976	378.12
363.203	342.12
363.429	357.12
363.656	350.12
363.882	382.12
364.109	362.12
364.335	339.12
364.562	368.12
364.788	354.12
365.015	350.12
365.241	362.12
365.468	373.12
365.694	363.12
365.92	364.12
366.147	359.12
366.373	331.12
366.599	355.12
366.826	342.12
367.052	355.12
367.278	358.12
367.505	371.12
367.731	355.12
367.957	349.12
368.184	360.12
368.41	352.12
368.636	376.12
368.862	379.12
369.089	361.12
369.315	350.12
369.541	356.12
369.767	358.12
369.993	350.12
370.219	334.12
370.445	333.12
370.672	348.12
370.898	335.12
371.124	321.12
371.35	331.12
371.576	340.12
371.802	350.12
372.028	340.12
372.254	320.12
372.48	339.12
372.706	340.12
372.932	351.12
373.158	344.12
373.384	344.12
373.61	347.12
373.835	354.12
374.061	347.12
374.287	356.12
374.513	349.12
374.739	364.12
374.965	341.12
375.191	360.12
375.416	346.12
375.642	344.12
375.868	345.12
376.094	344.12
376.319	339.12
376.545	341.12
376.771	336.12
376.997	350.12
377.222	337.12
377.448	339.12
377.674	334.12
377.899	346.12
378.125	339.12
378.35	339.12
378.576	350.12
378.802	344.12
379.027	345.12
379.253	330.12
379.478	341.12
379.704	346.12
379.929	366.12
380.155	343.12
380.38	343.12
380.606	351.12
380.831	332.12
381.057	327.12
381.282	346.12
381.507	369.12
381.733	366.12
381.958	338.12
382.184	346.12
382.409	356.12
382.634	360.12
382.86	370.12
383.085	355.12
383.31	340.12
383.535	358.12
383.761	355.12
383.986	358.12
384.211	347.12
384.436	357.12
384.662	357.12
384.887	369.12
385.112	369.12
385.337	349.12
385.562	371.12
385.787	340.12
386.013	385.12
386.238	361.12
386.463	369.12
386.688	370.12
386.913	362.12
387.138	345.12
387.363	362.12
387.588	369.12
387.813	372.12
388.038	375.12
388.263	362.12
388.488	365.12
388.713	377.12
388.938	355.12
389.163	354.12
389.387	375.12
389.612	355.12
389.837	369.12
390.062	359.12
390.287	387.12
390.512	383.12
390.736	372.12
390.961	380.12
391.186	371.12
391.411	381.12
391.636	382.12
391.86	364.12
392.085	365.12
392.31	362.12
392.534	369.12
392.759	361.12
392.984	388.12
393.208	345.12
393.433	349.12
393.658	358.12
393.882	361.12
394.107	356.12
394.331	366.12
394.556	362.12
394.78	364.12
395.005	365.12
395.229	356.12
395.454	393.12
395.678	399.12
395.903	389.12
396.127	410.12
396.352	409.12
396.576	389.12
396.801	375.12
397.025	374.12
397.249	366.12
397.474	371.12
397.698	412.12
397.922	411.12
398.147	404.12
398.371	414.12
398.595	413.12
398.82	411.12
399.044	428.12
399.268	410.12
399.492	467.12
399.717	470.12
399.941	500.12
400.165	506.12
400.389	507.12
400.613	459.12
400.837	411.12
401.062	428.12
401.286	426.12
401.51	420.12
401.734	408.12
401.958	413.12
402.182	417.12
402.406	418.12
402.63	434.12
402.854	430.12
403.078	413.12
403.302	414.12
403.526	435.12
403.75	422.12
403.974	441.12
404.198	446.12
404.422	450.12
404.645	449.12
404.869	444.12
405.093	487.12
405.317	513.12
405.541	537.12
405.765	490.12
405.988	475.12
406.212	473.12
406.436	491.12
406.66	500.12
406.883	501.12
407.107	502.12
407.331	529.12
407.555	546.12
407.778	571.12
408.002	515.12
408.226	479.12
408.449	484.12
408.673	478.12
408.896	493.12
409.12	501.12
409.344	477.12
409.567	471.12
409.791	425.12
410.014	462.12
410.238	423.12
410.461	421.12
410.685	434.12
410.908	449.12
411.132	492.12
411.355	524.12
411.578	457.12
411.802	435.12
412.025	426.12
412.249	442.12
412.472	467.12
412.695	495.12
412.919	484.12
413.142	450.12
413.365	449.12
413.589	437.12
413.812	420.12
414.035	435.12
414.258	418.12
414.482	419.12
414.705	409.12
414.928	408.12
415.151	403.12
415.374	396.12
415.597	406.12
415.821	410.12
416.044	390.12
416.267	402.12
416.49	385.12
416.713	395.12
416.936	402.12
417.159	405.12
417.382	420.12
417.605	399.12
417.828	423.12
418.051	427.12
418.274	428.12
418.497	414.12
418.72	414.12
418.943	393.12
419.166	419.12
419.389	435.12
419.611	431.12
419.834	417.12
420.057	421.12
420.28	430.12
420.503	440.12
420.726	435.12
420.948	469.12
421.171	463.12
421.394	481.12
421.617	451.12
421.839	450.12
422.062	447.12
422.285	442.12
422.507	500.12
422.73	559.12
422.953	526.12
423.175	453.12
423.398	451.12
423.621	442.12
423.843	469.12
424.066	465.12
424.288	444.12
424.511	467.12
424.733	507.12
424.956	572.12
425.178	558.12
425.401	555.12
425.623	552.12
425.846	472.12
426.068	473.12
426.291	446.12
426.513	457.12
426.735	468.12
426.958	490.12
427.18	575.12
427.402	666.12
427.625	740.12
427.847	703.12
428.069	609.12
428.292	501.12
428.514	444.12
428.736	425.12
428.958	446.12
429.181	437.12
429.403	423.12
429.625	426.12
429.847	463.12
430.069	516.12
430.292	534.12
430.514	462.12
430.736	445.12
430.958	410.12
431.18	413.12
431.402	415.12
431.624	413.12
431.846	389.12
432.068	396.12
432.29	398.12
432.512	403.12
432.734	417.12
432.956	427.12
433.178	414.12
433.4	421.12
433.622	413.12
433.844	401.12
434.066	403.12
434.287	419.12
434.509	390.12
434.731	406.12
434.953	425.12
435.175	428.12
435.397	463.12
435.618	474.12
435.84	498.12
436.062	555.12
436.284	612.12
436.505	507.12
436.727	463.12
436.949	470.12
437.17	437.12
437.392	435.12
437.614	436.12
437.835	493.12
438.057	581.12
438.278	593.12
438.5	609.12
438.721	654.12
438.943	625.12
439.165	526.12
439.386	477.12
439.608	488.12
439.829	483.12
440.05	482.12
440.272	540.12
440.493	495.12
440.715	470.12
440.936	447.12
441.158	441.12
441.379	450.12
441.6	449.12
441.822	458.12
442.043	502.12
442.264	576.12
442.486	593.12
442.707	501.12
442.928	476.12
443.149	498.12
443.371	520.12
443.592	538.12
443.813	608.12
444.034	620.12
444.255	539.12
444.476	476.12
444.698	487.12
444.919	469.12
445.14	601.12
445.361	550.12
445.582	514.12
445.803	595.12
446.024	644.12
446.245	635.12
446.466	591.12
446.687	509.12
446.908	476.12
447.129	442.12
447.35	438.12
447.571	425.12
447.792	423.12
448.013	431.12
448.234	435.12
448.455	454.12
448.675	603.12
448.896	651.12
449.117	575.12
449.338	551.12
449.559	603.12
449.779	679.12
450	551.12
450.221	450.12
450.442	445.12
450.662	454.12
450.883	467.12
451.104	470.12
451.324	439.12
451.545	427.12
451.766	422.12
451.986	395.12
452.207	389.12
452.428	394.12
452.648	402.12
452.869	401.12
453.089	389.12
453.31	423.12
453.53	410.12
453.751	401.12
453.971	407.12
454.192	430.12
454.412	419.12
454.633	386.12
454.853	390.12
455.073	397.12
455.294	417.12
455.514	469.12
455.734	439.12
455.955	391.12
456.175	388.12
456.395	372.12
456.616	373.12
456.836	363.12
457.056	374.12
457.276	353.12
457.497	364.12
457.717	378.12
457.937	372.12
458.157	376.12
458.377	362.12
458.598	412.12
458.818	460.12
459.038	535.12
459.258	528.12
459.478	465.12
459.698	423.12
459.918	414.12
460.138	413.12
460.358	398.12
460.578	419.12
460.798	397.12
461.018	423.12
461.238	409.12
461.458	401.12
461.678	408.12
461.898	418.12
462.118	395.12
462.338	417.12
462.558	397.12
462.777	409.12
462.997	423.12
463.217	410.12
463.437	430.12
463.657	437.12
463.876	437.12
464.096	421.12
464.316	439.12
464.536	450.12
464.755	443.12
464.975	441.12
465.195	486.12
465.414	587.12
465.634	485.12
465.854	447.12
466.073	423.12
466.293	422.12
466.512	391.12
466.732	392.12
466.951	389.12
467.171	406.12
467.391	403.12
467.61	417.12
467.829	427.12
468.049	415.12
468.268	444.12
468.488	433.12
468.707	393.12
468.927	395.12
469.146	391.12
469.365	399.12
469.585	381.12
469.804	398.12
470.023	425.12
470.243	419.12
470.462	424.12
470.681	446.12
470.901	445.12
471.12	417.12
471.339	387.12
471.558	394.12
471.777	405.12
471.997	405.12
472.216	417.12
472.435	460.12
472.654	436.12
472.873	424.12
473.092	411.12
473.311	398.12
473.53	408.12
473.749	424.12
473.968	461.12
474.187	527.12
474.406	555.12
474.625	439.12
474.844	437.12
475.063	413.12
475.282	393.12
475.501	393.12
475.72	424.12
475.939	403.12
476.158	427.12
476.377	408.12
476.596	423.12
476.814	435.12
477.033	425.12
477.252	429.12
477.471	409.12
477.69	419.12
477.908	444.12
478.127	435.12
478.346	421.12
478.564	437.12
478.783	449.12
479.002	466.12
479.22	445.12
479.439	482.12
479.658	506.12
479.876	476.12
480.095	491.12
480.313	512.12
480.532	509.12
480.751	502.12
480.969	495.12
481.188	606.12
481.406	657.12
481.624	554.12
481.843	523.12
482.061	485.12
482.28	458.12
482.498	473.12
482.717	453.12
482.935	473.12
483.153	479.12
483.372	469.12
483.59	473.12
483.808	475.12
484.027	470.12
484.245	481.12
484.463	461.12
484.681	491.12
484.9	461.12
485.118	483.12
485.336	467.12
485.554	477.12
485.772	476.12
485.99	489.12
486.209	515.12
486.427	492.12
486.645	511.12
486.863	514.12
487.081	532.12
487.299	524.12
487.517	510.12
487.735	507.12
487.953	512.12
488.171	520.12
488.389	500.12
488.607	513.12
488.825	481.12
489.043	509.12
489.261	509.12
489.479	509.12
489.696	526.12
489.914	522.12
490.132	529.12
490.35	542.12
490.568	545.12
490.786	542.12
491.003	543.12
491.221	565.12
491.439	570.12
491.657	574.12
491.874	586.12
492.092	596.12
492.31	603.12
492.527	603.12
492.745	617.12
492.963	603.12
493.18	599.12
493.398	600.12
493.615	604.12
493.833	623.12
494.05	590.12
494.268	609.12
494.485	598.12
494.703	618.12
494.92	604.12
495.138	601.12
495.355	620.12
495.573	621.12
495.79	598.12
496.008	617.12
496.225	604.12
496.442	612.12
496.66	601.12
496.877	594.12
497.094	597.12
497.312	622.12
497.529	595.12
497.746	620.12
497.963	644.12
498.181	641.12
498.398	653.12
498.615	651.12
498.832	661.12
499.049	677.12
499.267	671.12
499.484	699.12
499.701	721.12
499.918	757.12
500.135	761.12
500.352	801.12
500.569	797.12
500.786	797.12
501.003	767.12
501.22	741.12
501.437	753.12
501.654	743.12
501.871	757.12
