Data from 1983.PennyLincolnUp.Lamp.En5.5.200Scan.071819.P1_HRD10591_16-53-22-966.txt Node
Date: Thu Jul 18 16:53:22 EDT 2019
User: cochatt
Spectrometer: HR+D1059
Trigger mode: 1
Integration Time (sec): 1.000000E-1
Scans to average: 1
Electric dark correction enabled: true
Nonlinearity correction enabled: false
Boxcar width: 0
XAxis mode: Wavelengths
Number of Pixels in Spectrum: 2048
>>>>>Begin Spectral Data<<<<<
223.165	-10.88
223.4	-10.88
223.635	-10.88
223.869	-21.88
224.104	-20.88
224.338	-3.88
224.573	-5.88
224.808	-18.88
225.042	3.12
225.277	-5.88
225.511	-16.88
225.746	12.12
225.98	13.12
226.215	13.12
226.449	11.12
226.683	11.12
226.918	13.12
227.152	28.12
227.387	36.12
227.621	40.12
227.856	56.12
228.09	52.12
228.324	44.12
228.559	59.12
228.793	64.12
229.027	89.12
229.262	96.12
229.496	110.12
229.73	116.12
229.964	125.12
230.199	118.12
230.433	116.12
230.667	96.12
230.901	109.12
231.136	108.12
231.37	105.12
231.604	107.12
231.838	100.12
232.072	105.12
232.306	112.12
232.541	87.12
232.775	104.12
233.009	112.12
233.243	115.12
233.477	95.12
233.711	111.12
233.945	110.12
234.179	106.12
234.413	108.12
234.647	105.12
234.881	110.12
235.115	104.12
235.349	108.12
235.583	96.12
235.817	113.12
236.051	125.12
236.285	123.12
236.519	120.12
236.753	130.12
236.987	144.12
237.221	160.12
237.455	200.12
237.689	154.12
237.922	129.12
238.156	127.12
238.39	119.12
238.624	117.12
238.858	136.12
239.091	111.12
239.325	121.12
239.559	121.12
239.793	127.12
240.027	128.12
240.26	122.12
240.494	144.12
240.728	127.12
240.961	142.12
241.195	130.12
241.429	132.12
241.662	132.12
241.896	126.12
242.13	135.12
242.363	144.12
242.597	135.12
242.83	117.12
243.064	133.12
243.298	129.12
243.531	137.12
243.765	139.12
243.998	131.12
244.232	136.12
244.465	137.12
244.699	122.12
244.932	138.12
245.166	144.12
245.399	148.12
245.633	124.12
245.866	153.12
246.099	132.12
246.333	128.12
246.566	132.12
246.8	133.12
247.033	172.12
247.266	129.12
247.5	147.12
247.733	166.12
247.966	145.12
248.2	154.12
248.433	144.12
248.666	160.12
248.899	156.12
249.133	171.12
249.366	187.12
249.599	173.12
249.832	154.12
250.066	190.12
250.299	162.12
250.532	178.12
250.765	181.12
250.998	190.12
251.231	197.12
251.465	196.12
251.698	180.12
251.931	179.12
252.164	174.12
252.397	184.12
252.63	178.12
252.863	182.12
253.096	208.12
253.329	191.12
253.562	201.12
253.795	191.12
254.028	192.12
254.261	203.12
254.494	207.12
254.727	213.12
254.96	246.12
255.193	236.12
255.426	220.12
255.659	193.12
255.892	189.12
256.124	196.12
256.357	190.12
256.59	191.12
256.823	192.12
257.056	191.12
257.289	189.12
257.521	175.12
257.754	193.12
257.987	186.12
258.22	205.12
258.452	180.12
258.685	195.12
258.918	176.12
259.151	190.12
259.383	216.12
259.616	179.12
259.849	207.12
260.081	209.12
260.314	218.12
260.547	219.12
260.779	215.12
261.012	212.12
261.244	185.12
261.477	200.12
261.71	204.12
261.942	185.12
262.175	203.12
262.407	212.12
262.64	187.12
262.872	166.12
263.105	182.12
263.337	196.12
263.57	193.12
263.802	192.12
264.035	193.12
264.267	173.12
264.499	200.12
264.732	202.12
264.964	185.12
265.197	191.12
265.429	182.12
265.661	196.12
265.894	192.12
266.126	202.12
266.358	195.12
266.591	207.12
266.823	190.12
267.055	210.12
267.287	193.12
267.52	204.12
267.752	192.12
267.984	195.12
268.216	220.12
268.448	214.12
268.681	213.12
268.913	210.12
269.145	233.12
269.377	237.12
269.609	242.12
269.841	236.12
270.073	244.12
270.306	265.12
270.538	270.12
270.77	274.12
271.002	276.12
271.234	279.12
271.466	278.12
271.698	283.12
271.93	286.12
272.162	288.12
272.394	292.12
272.626	270.12
272.858	223.12
273.09	242.12
273.322	254.12
273.553	223.12
273.785	245.12
274.017	227.12
274.249	220.12
274.481	240.12
274.713	235.12
274.945	242.12
275.176	227.12
275.408	214.12
275.64	238.12
275.872	237.12
276.104	228.12
276.335	233.12
276.567	228.12
276.799	248.12
277.031	249.12
277.262	281.12
277.494	290.12
277.726	270.12
277.957	263.12
278.189	240.12
278.421	230.12
278.652	239.12
278.884	248.12
279.115	236.12
279.347	233.12
279.579	231.12
279.81	239.12
280.042	231.12
280.273	212.12
280.505	227.12
280.736	224.12
280.968	234.12
281.199	231.12
281.431	223.12
281.662	220.12
281.894	234.12
282.125	230.12
282.356	271.12
282.588	273.12
282.819	276.12
283.051	270.12
283.282	247.12
283.513	247.12
283.745	230.12
283.976	260.12
284.207	261.12
284.439	241.12
284.67	260.12
284.901	239.12
285.132	257.12
285.364	249.12
285.595	235.12
285.826	244.12
286.057	266.12
286.288	260.12
286.52	243.12
286.751	248.12
286.982	246.12
287.213	254.12
287.444	242.12
287.675	232.12
287.906	260.12
288.138	259.12
288.369	280.12
288.6	259.12
288.831	260.12
289.062	250.12
289.293	246.12
289.524	255.12
289.755	271.12
289.986	253.12
290.217	261.12
290.448	243.12
290.679	247.12
290.91	267.12
291.141	251.12
291.371	253.12
291.602	274.12
291.833	254.12
292.064	257.12
292.295	272.12
292.526	267.12
292.757	243.12
292.987	245.12
293.218	263.12
293.449	262.12
293.68	263.12
293.91	244.12
294.141	253.12
294.372	242.12
294.603	257.12
294.833	255.12
295.064	275.12
295.295	252.12
295.525	248.12
295.756	256.12
295.987	265.12
296.217	280.12
296.448	291.12
296.679	272.12
296.909	257.12
297.14	267.12
297.37	273.12
297.601	271.12
297.831	267.12
298.062	249.12
298.292	248.12
298.523	263.12
298.753	278.12
298.984	246.12
299.214	268.12
299.445	276.12
299.675	276.12
299.905	288.12
300.136	278.12
300.366	275.12
300.597	282.12
300.827	285.12
301.057	286.12
301.288	285.12
301.518	292.12
301.748	268.12
301.979	288.12
302.209	283.12
302.439	302.12
302.669	298.12
302.9	302.12
303.13	278.12
303.36	296.12
303.59	295.12
303.82	288.12
304.051	290.12
304.281	299.12
304.511	267.12
304.741	275.12
304.971	280.12
305.201	282.12
305.431	279.12
305.661	290.12
305.891	302.12
306.121	278.12
306.352	282.12
306.582	288.12
306.812	279.12
307.042	290.12
307.272	292.12
307.502	298.12
307.731	299.12
307.961	288.12
308.191	309.12
308.421	298.12
308.651	305.12
308.881	307.12
309.111	315.12
309.341	298.12
309.571	301.12
309.8	304.12
310.03	323.12
310.26	329.12
310.49	345.12
310.72	344.12
310.949	360.12
311.179	365.12
311.409	336.12
311.639	306.12
311.868	339.12
312.098	324.12
312.328	340.12
312.557	363.12
312.787	329.12
313.017	362.12
313.246	331.12
313.476	338.12
313.706	325.12
313.935	341.12
314.165	355.12
314.394	350.12
314.624	338.12
314.853	347.12
315.083	327.12
315.312	327.12
315.542	320.12
315.771	327.12
316.001	340.12
316.23	319.12
316.46	339.12
316.689	337.12
316.919	330.12
317.148	350.12
317.377	365.12
317.607	333.12
317.836	337.12
318.065	327.12
318.295	351.12
318.524	318.12
318.753	333.12
318.983	331.12
319.212	335.12
319.441	342.12
319.67	357.12
319.9	336.12
320.129	339.12
320.358	349.12
320.587	341.12
320.816	355.12
321.046	363.12
321.275	363.12
321.504	341.12
321.733	343.12
321.962	363.12
322.191	374.12
322.42	368.12
322.649	408.12
322.878	397.12
323.108	419.12
323.337	410.12
323.566	447.12
323.795	475.12
324.024	531.12
324.253	667.12
324.482	928.12
324.71	1380.12
324.939	1876.12
325.168	1541.12
325.397	809.12
325.626	565.12
325.855	485.12
326.084	442.12
326.313	422.12
326.542	458.12
326.77	493.12
326.999	610.12
327.228	812.12
327.457	1191.12
327.686	1372.12
327.914	932.12
328.143	632.12
328.372	549.12
328.6	512.12
328.829	514.12
329.058	523.12
329.287	520.12
329.515	487.12
329.744	447.12
329.972	445.12
330.201	451.12
330.43	470.12
330.658	518.12
330.887	548.12
331.115	528.12
331.344	464.12
331.572	422.12
331.801	433.12
332.03	422.12
332.258	413.12
332.486	406.12
332.715	395.12
332.943	390.12
333.172	388.12
333.4	382.12
333.629	399.12
333.857	407.12
334.085	400.12
334.314	404.12
334.542	410.12
334.771	400.12
334.999	400.12
335.227	396.12
335.455	393.12
335.684	375.12
335.912	388.12
336.14	375.12
336.369	372.12
336.597	383.12
336.825	382.12
337.053	380.12
337.281	408.12
337.51	373.12
337.738	370.12
337.966	376.12
338.194	394.12
338.422	382.12
338.65	380.12
338.878	371.12
339.106	373.12
339.334	376.12
339.562	363.12
339.79	353.12
340.018	370.12
340.246	382.12
340.474	381.12
340.702	371.12
340.93	360.12
341.158	392.12
341.386	380.12
341.614	374.12
341.842	376.12
342.07	362.12
342.298	354.12
342.526	360.12
342.754	350.12
342.981	356.12
343.209	349.12
343.437	368.12
343.665	389.12
343.893	366.12
344.12	376.12
344.348	364.12
344.576	379.12
344.804	362.12
345.031	384.12
345.259	398.12
345.487	373.12
345.714	363.12
345.942	389.12
346.17	340.12
346.397	354.12
346.625	344.12
346.853	375.12
347.08	360.12
347.308	367.12
347.535	377.12
347.763	371.12
347.99	368.12
348.218	358.12
348.445	377.12
348.673	392.12
348.9	366.12
349.128	340.12
349.355	350.12
349.583	341.12
349.81	359.12
350.037	346.12
350.265	342.12
350.492	356.12
350.72	337.12
350.947	372.12
351.174	388.12
351.402	365.12
351.629	397.12
351.856	386.12
352.083	371.12
352.311	374.12
352.538	377.12
352.765	391.12
352.992	377.12
353.22	353.12
353.447	343.12
353.674	354.12
353.901	344.12
354.128	359.12
354.355	331.12
354.583	342.12
354.81	340.12
355.037	319.12
355.264	331.12
355.491	349.12
355.718	330.12
355.945	322.12
356.172	331.12
356.399	324.12
356.626	325.12
356.853	335.12
357.08	327.12
357.307	349.12
357.534	343.12
357.761	321.12
357.988	333.12
358.215	351.12
358.441	346.12
358.668	330.12
358.895	353.12
359.122	346.12
359.349	345.12
359.576	364.12
359.802	359.12
360.029	410.12
360.256	412.12
360.483	384.12
360.709	368.12
360.936	366.12
361.163	380.12
361.39	356.12
361.616	339.12
361.843	349.12
362.07	372.12
362.296	378.12
362.523	354.12
362.749	349.12
362.976	363.12
363.203	349.12
363.429	343.12
363.656	356.12
363.882	351.12
364.109	327.12
364.335	336.12
364.562	348.12
364.788	350.12
365.015	340.12
365.241	333.12
365.468	350.12
365.694	349.12
365.92	348.12
366.147	339.12
366.373	355.12
366.599	324.12
366.826	337.12
367.052	337.12
367.278	347.12
367.505	360.12
367.731	349.12
367.957	351.12
368.184	345.12
368.41	348.12
368.636	356.12
368.862	367.12
369.089	360.12
369.315	342.12
369.541	328.12
369.767	355.12
369.993	346.12
370.219	338.12
370.445	309.12
370.672	326.12
370.898	352.12
371.124	336.12
371.35	346.12
371.576	340.12
371.802	308.12
372.028	338.12
372.254	326.12
372.48	343.12
372.706	339.12
372.932	329.12
373.158	332.12
373.384	320.12
373.61	362.12
373.835	342.12
374.061	343.12
374.287	350.12
374.513	341.12
374.739	339.12
374.965	339.12
375.191	327.12
375.416	343.12
375.642	344.12
375.868	322.12
376.094	348.12
376.319	326.12
376.545	320.12
376.771	338.12
376.997	334.12
377.222	322.12
377.448	317.12
377.674	337.12
377.899	342.12
378.125	324.12
378.35	327.12
378.576	335.12
378.802	321.12
379.027	309.12
379.253	328.12
379.478	350.12
379.704	322.12
379.929	331.12
380.155	325.12
380.38	337.12
380.606	351.12
380.831	333.12
381.057	355.12
381.282	349.12
381.507	342.12
381.733	323.12
381.958	343.12
382.184	348.12
382.409	341.12
382.634	359.12
382.86	337.12
383.085	348.12
383.31	352.12
383.535	344.12
383.761	359.12
383.986	342.12
384.211	344.12
384.436	354.12
384.662	351.12
384.887	370.12
385.112	348.12
385.337	350.12
385.562	355.12
385.787	365.12
386.013	374.12
386.238	357.12
386.463	378.12
386.688	359.12
386.913	330.12
387.138	371.12
387.363	365.12
387.588	351.12
387.813	368.12
388.038	362.12
388.263	347.12
388.488	354.12
388.713	359.12
388.938	362.12
389.163	364.12
389.387	370.12
389.612	348.12
389.837	373.12
390.062	351.12
390.287	338.12
390.512	352.12
390.736	346.12
390.961	366.12
391.186	363.12
391.411	377.12
391.636	356.12
391.86	340.12
392.085	359.12
392.31	358.12
392.534	368.12
392.759	367.12
392.984	372.12
393.208	341.12
393.433	374.12
393.658	374.12
393.882	345.12
394.107	363.12
394.331	363.12
394.556	362.12
394.78	374.12
395.005	356.12
395.229	365.12
395.454	366.12
395.678	381.12
395.903	361.12
396.127	398.12
396.352	406.12
396.576	373.12
396.801	365.12
397.025	390.12
397.249	395.12
397.474	368.12
397.698	383.12
397.922	405.12
398.147	401.12
398.371	391.12
398.595	408.12
398.82	401.12
399.044	405.12
399.268	430.12
399.492	439.12
399.717	430.12
399.941	484.12
400.165	459.12
400.389	491.12
400.613	463.12
400.837	436.12
401.062	422.12
401.286	412.12
401.51	401.12
401.734	401.12
401.958	413.12
402.182	404.12
402.406	416.12
402.63	411.12
402.854	444.12
403.078	409.12
403.302	421.12
403.526	421.12
403.75	415.12
403.974	423.12
404.198	424.12
404.422	444.12
404.645	418.12
404.869	422.12
405.093	452.12
405.317	461.12
405.541	473.12
405.765	436.12
405.988	427.12
406.212	459.12
406.436	487.12
406.66	489.12
406.883	449.12
407.107	473.12
407.331	508.12
407.555	546.12
407.778	544.12
408.002	476.12
408.226	478.12
408.449	463.12
408.673	459.12
408.896	481.12
409.12	517.12
409.344	488.12
409.567	444.12
409.791	437.12
410.014	408.12
410.238	424.12
410.461	401.12
410.685	421.12
410.908	443.12
411.132	458.12
411.355	494.12
411.578	463.12
411.802	421.12
412.025	402.12
412.249	404.12
412.472	410.12
412.695	441.12
412.919	419.12
413.142	397.12
413.365	417.12
413.589	412.12
413.812	414.12
414.035	395.12
414.258	410.12
414.482	395.12
414.705	396.12
414.928	403.12
415.151	392.12
415.374	408.12
415.597	413.12
415.821	385.12
416.044	401.12
416.267	412.12
416.49	388.12
416.713	418.12
416.936	405.12
417.159	394.12
417.382	411.12
417.605	386.12
417.828	412.12
418.051	434.12
418.274	400.12
418.497	379.12
418.72	406.12
418.943	381.12
419.166	424.12
419.389	444.12
419.611	427.12
419.834	431.12
420.057	426.12
420.28	438.12
420.503	409.12
420.726	415.12
420.948	409.12
421.171	469.12
421.394	448.12
421.617	434.12
421.839	422.12
422.062	422.12
422.285	436.12
422.507	476.12
422.73	526.12
422.953	518.12
423.175	467.12
423.398	434.12
423.621	428.12
423.843	441.12
424.066	445.12
424.288	465.12
424.511	449.12
424.733	483.12
424.956	549.12
425.178	534.12
425.401	531.12
425.623	544.12
425.846	475.12
426.068	442.12
426.291	458.12
426.513	431.12
426.735	450.12
426.958	492.12
427.18	547.12
427.402	623.12
427.625	692.12
427.847	637.12
428.069	546.12
428.292	494.12
428.514	453.12
428.736	429.12
428.958	421.12
429.181	411.12
429.403	399.12
429.625	432.12
429.847	440.12
430.069	510.12
430.292	480.12
430.514	448.12
430.736	415.12
430.958	407.12
431.18	409.12
431.402	397.12
431.624	372.12
431.846	383.12
432.068	367.12
432.29	377.12
432.512	396.12
432.734	398.12
432.956	391.12
433.178	404.12
433.4	397.12
433.622	396.12
433.844	392.12
434.066	395.12
434.287	406.12
434.509	401.12
434.731	402.12
434.953	419.12
435.175	416.12
435.397	425.12
435.618	440.12
435.84	476.12
436.062	569.12
436.284	575.12
436.505	505.12
436.727	471.12
436.949	429.12
437.17	428.12
437.392	399.12
437.614	449.12
437.835	463.12
438.057	545.12
438.278	585.12
438.5	626.12
438.721	614.12
438.943	628.12
439.165	512.12
439.386	474.12
439.608	469.12
439.829	454.12
440.05	488.12
440.272	527.12
440.493	489.12
440.715	456.12
440.936	422.12
441.158	419.12
441.379	406.12
441.6	437.12
441.822	437.12
442.043	475.12
442.264	539.12
442.486	558.12
442.707	495.12
442.928	472.12
443.149	474.12
443.371	486.12
443.592	502.12
443.813	580.12
444.034	614.12
444.255	526.12
444.476	470.12
444.698	456.12
444.919	464.12
445.14	557.12
445.361	524.12
445.582	493.12
445.803	523.12
446.024	616.12
446.245	614.12
446.466	561.12
446.687	464.12
446.908	450.12
447.129	434.12
447.35	451.12
447.571	426.12
447.792	418.12
448.013	431.12
448.234	441.12
448.455	462.12
448.675	556.12
448.896	661.12
449.117	546.12
449.338	526.12
449.559	606.12
449.779	641.12
450	542.12
450.221	454.12
450.442	430.12
450.662	427.12
450.883	432.12
451.104	437.12
451.324	429.12
451.545	406.12
451.766	396.12
451.986	367.12
452.207	354.12
452.428	374.12
452.648	372.12
452.869	377.12
453.089	380.12
453.31	397.12
453.53	387.12
453.751	392.12
453.971	386.12
454.192	389.12
454.412	405.12
454.633	391.12
454.853	379.12
455.073	376.12
455.294	406.12
455.514	460.12
455.734	428.12
455.955	378.12
456.175	348.12
456.395	359.12
456.616	351.12
456.836	351.12
457.056	331.12
457.276	339.12
457.497	333.12
457.717	353.12
457.937	351.12
458.157	361.12
458.377	367.12
458.598	383.12
458.818	452.12
459.038	524.12
459.258	515.12
459.478	458.12
459.698	412.12
459.918	411.12
460.138	397.12
460.358	398.12
460.578	381.12
460.798	411.12
461.018	387.12
461.238	379.12
461.458	403.12
461.678	403.12
461.898	398.12
462.118	394.12
462.338	422.12
462.558	396.12
462.777	416.12
462.997	413.12
463.217	396.12
463.437	421.12
463.657	430.12
463.876	420.12
464.096	434.12
464.316	411.12
464.536	416.12
464.755	427.12
464.975	429.12
465.195	498.12
465.414	542.12
465.634	486.12
465.854	436.12
466.073	415.12
466.293	410.12
466.512	394.12
466.732	383.12
466.951	376.12
467.171	373.12
467.391	372.12
467.61	377.12
467.829	386.12
468.049	392.12
468.268	379.12
468.488	368.12
468.707	375.12
468.927	361.12
469.146	387.12
469.365	388.12
469.585	351.12
469.804	382.12
470.023	408.12
470.243	397.12
470.462	396.12
470.681	398.12
470.901	400.12
471.12	380.12
471.339	398.12
471.558	417.12
471.777	394.12
471.997	386.12
472.216	393.12
472.435	418.12
472.654	395.12
472.873	378.12
473.092	375.12
473.311	367.12
473.53	382.12
473.749	399.12
473.968	424.12
474.187	501.12
474.406	510.12
474.625	439.12
474.844	399.12
475.063	385.12
475.282	394.12
475.501	389.12
475.72	389.12
475.939	377.12
476.158	386.12
476.377	390.12
476.596	389.12
476.814	407.12
477.033	426.12
477.252	411.12
477.471	426.12
477.69	410.12
477.908	430.12
478.127	431.12
478.346	401.12
478.564	448.12
478.783	437.12
479.002	435.12
479.22	452.12
479.439	468.12
479.658	468.12
479.876	475.12
480.095	475.12
480.313	484.12
480.532	486.12
480.751	473.12
480.969	446.12
481.188	485.12
481.406	515.12
481.624	478.12
481.843	460.12
482.061	457.12
482.28	459.12
482.498	442.12
482.717	432.12
482.935	456.12
483.153	452.12
483.372	461.12
483.59	454.12
483.808	458.12
484.027	447.12
484.245	444.12
484.463	458.12
484.681	439.12
484.9	461.12
485.118	467.12
485.336	449.12
485.554	471.12
485.772	450.12
485.99	472.12
486.209	466.12
486.427	464.12
486.645	471.12
486.863	482.12
487.081	477.12
487.299	483.12
487.517	501.12
487.735	498.12
487.953	469.12
488.171	492.12
488.389	474.12
488.607	464.12
488.825	482.12
489.043	479.12
489.261	494.12
489.479	501.12
489.696	486.12
489.914	507.12
490.132	514.12
490.35	512.12
490.568	502.12
490.786	519.12
491.003	514.12
491.221	522.12
491.439	523.12
491.657	536.12
491.874	519.12
492.092	540.12
492.31	566.12
492.527	535.12
492.745	553.12
492.963	558.12
493.18	582.12
493.398	553.12
493.615	553.12
493.833	572.12
494.05	567.12
494.268	586.12
494.485	573.12
494.703	564.12
494.92	559.12
495.138	581.12
495.355	588.12
495.573	588.12
495.79	570.12
496.008	573.12
496.225	562.12
496.442	589.12
496.66	560.12
496.877	581.12
497.094	593.12
497.312	588.12
497.529	596.12
497.746	597.12
497.963	599.12
498.181	613.12
498.398	618.12
498.615	636.12
498.832	633.12
499.049	642.12
499.267	632.12
499.484	659.12
499.701	657.12
499.918	720.12
500.135	724.12
500.352	746.12
500.569	740.12
500.786	758.12
501.003	751.12
501.22	728.12
501.437	719.12
501.654	726.12
501.871	692.12
502.088	692.12
