Data from 1983.PennyLincolnUp.Lamp.En5.5.200Scan.071819.P1_HRD10591_16-53-02-965.txt Node
Date: Thu Jul 18 16:53:02 EDT 2019
User: cochatt
Spectrometer: HR+D1059
Trigger mode: 1
Integration Time (sec): 1.000000E-1
Scans to average: 1
Electric dark correction enabled: true
Nonlinearity correction enabled: false
Boxcar width: 0
XAxis mode: Wavelengths
Number of Pixels in Spectrum: 2048
>>>>>Begin Spectral Data<<<<<
223.165	-13.25
223.4	-13.25
223.635	-13.25
223.869	-23.25
224.104	-22.25
224.338	-14.25
224.573	4.75
224.808	-2.25
225.042	-14.25
225.277	-7.25
225.511	-11.25
225.746	-4.25
225.98	6.75
226.215	16.75
226.449	16.75
226.683	14.75
226.918	19.75
227.152	32.75
227.387	36.75
227.621	34.75
227.856	40.75
228.09	59.75
228.324	52.75
228.559	62.75
228.793	56.75
229.027	86.75
229.262	97.75
229.496	100.75
229.73	142.75
229.964	147.75
230.199	130.75
230.433	125.75
230.667	109.75
230.901	101.75
231.136	117.75
231.37	97.75
231.604	89.75
231.838	102.75
232.072	113.75
232.306	108.75
232.541	102.75
232.775	111.75
233.009	107.75
233.243	102.75
233.477	110.75
233.711	118.75
233.945	113.75
234.179	107.75
234.413	101.75
234.647	97.75
234.881	108.75
235.115	119.75
235.349	113.75
235.583	116.75
235.817	113.75
236.051	114.75
236.285	108.75
236.519	108.75
236.753	119.75
236.987	135.75
237.221	168.75
237.455	215.75
237.689	173.75
237.922	142.75
238.156	133.75
238.39	106.75
238.624	123.75
238.858	121.75
239.091	118.75
239.325	121.75
239.559	107.75
239.793	113.75
240.027	130.75
240.26	131.75
240.494	141.75
240.728	125.75
240.961	117.75
241.195	131.75
241.429	125.75
241.662	132.75
241.896	122.75
242.13	121.75
242.363	128.75
242.597	123.75
242.83	117.75
243.064	148.75
243.298	129.75
243.531	130.75
243.765	124.75
243.998	141.75
244.232	131.75
244.465	132.75
244.699	133.75
244.932	125.75
245.166	143.75
245.399	132.75
245.633	143.75
245.866	147.75
246.099	137.75
246.333	139.75
246.566	142.75
246.8	141.75
247.033	151.75
247.266	157.75
247.5	147.75
247.733	154.75
247.966	156.75
248.2	152.75
248.433	154.75
248.666	177.75
248.899	174.75
249.133	166.75
249.366	205.75
249.599	160.75
249.832	163.75
250.066	162.75
250.299	157.75
250.532	165.75
250.765	190.75
250.998	195.75
251.231	188.75
251.465	181.75
251.698	184.75
251.931	178.75
252.164	191.75
252.397	191.75
252.63	170.75
252.863	189.75
253.096	188.75
253.329	189.75
253.562	210.75
253.795	203.75
254.028	204.75
254.261	191.75
254.494	185.75
254.727	222.75
254.96	243.75
255.193	226.75
255.426	222.75
255.659	201.75
255.892	210.75
256.124	188.75
256.357	194.75
256.59	185.75
256.823	192.75
257.056	206.75
257.289	186.75
257.521	194.75
257.754	180.75
257.987	189.75
258.22	200.75
258.452	175.75
258.685	179.75
258.918	189.75
259.151	201.75
259.383	212.75
259.616	193.75
259.849	194.75
260.081	210.75
260.314	227.75
260.547	220.75
260.779	234.75
261.012	205.75
261.244	209.75
261.477	197.75
261.71	187.75
261.942	214.75
262.175	216.75
262.407	201.75
262.64	200.75
262.872	198.75
263.105	203.75
263.337	185.75
263.57	199.75
263.802	189.75
264.035	186.75
264.267	191.75
264.499	193.75
264.732	205.75
264.964	191.75
265.197	195.75
265.429	184.75
265.661	201.75
265.894	196.75
266.126	205.75
266.358	184.75
266.591	200.75
266.823	205.75
267.055	216.75
267.287	203.75
267.52	193.75
267.752	195.75
267.984	202.75
268.216	205.75
268.448	203.75
268.681	223.75
268.913	227.75
269.145	235.75
269.377	237.75
269.609	263.75
269.841	240.75
270.073	243.75
270.306	247.75
270.538	276.75
270.77	265.75
271.002	270.75
271.234	266.75
271.466	275.75
271.698	293.75
271.93	287.75
272.162	301.75
272.394	274.75
272.626	282.75
272.858	270.75
273.09	262.75
273.322	251.75
273.553	254.75
273.785	232.75
274.017	241.75
274.249	231.75
274.481	239.75
274.713	223.75
274.945	235.75
275.176	222.75
275.408	230.75
275.64	241.75
275.872	236.75
276.104	238.75
276.335	250.75
276.567	247.75
276.799	260.75
277.031	282.75
277.262	275.75
277.494	277.75
277.726	275.75
277.957	259.75
278.189	249.75
278.421	238.75
278.652	225.75
278.884	230.75
279.115	242.75
279.347	241.75
279.579	239.75
279.81	253.75
280.042	227.75
280.273	242.75
280.505	227.75
280.736	243.75
280.968	226.75
281.199	246.75
281.431	246.75
281.662	243.75
281.894	242.75
282.125	247.75
282.356	249.75
282.588	278.75
282.819	279.75
283.051	239.75
283.282	258.75
283.513	257.75
283.745	233.75
283.976	251.75
284.207	257.75
284.439	254.75
284.67	259.75
284.901	247.75
285.132	235.75
285.364	261.75
285.595	240.75
285.826	258.75
286.057	243.75
286.288	243.75
286.52	234.75
286.751	246.75
286.982	262.75
287.213	266.75
287.444	245.75
287.675	247.75
287.906	255.75
288.138	274.75
288.369	299.75
288.6	275.75
288.831	265.75
289.062	255.75
289.293	264.75
289.524	254.75
289.755	255.75
289.986	263.75
290.217	265.75
290.448	259.75
290.679	257.75
290.91	287.75
291.141	267.75
291.371	262.75
291.602	265.75
291.833	260.75
292.064	248.75
292.295	247.75
292.526	265.75
292.757	261.75
292.987	262.75
293.218	269.75
293.449	251.75
293.68	262.75
293.91	248.75
294.141	259.75
294.372	249.75
294.603	261.75
294.833	268.75
295.064	254.75
295.295	272.75
295.525	267.75
295.756	267.75
295.987	266.75
296.217	293.75
296.448	314.75
296.679	278.75
296.909	252.75
297.14	292.75
297.37	268.75
297.601	281.75
297.831	253.75
298.062	262.75
298.292	274.75
298.523	265.75
298.753	279.75
298.984	288.75
299.214	267.75
299.445	271.75
299.675	267.75
299.905	281.75
300.136	265.75
300.366	287.75
300.597	286.75
300.827	270.75
301.057	282.75
301.288	314.75
301.518	301.75
301.748	273.75
301.979	284.75
302.209	299.75
302.439	294.75
302.669	278.75
302.9	278.75
303.13	290.75
303.36	271.75
303.59	294.75
303.82	297.75
304.051	287.75
304.281	291.75
304.511	295.75
304.741	274.75
304.971	286.75
305.201	288.75
305.431	297.75
305.661	284.75
305.891	310.75
306.121	277.75
306.352	284.75
306.582	310.75
306.812	300.75
307.042	298.75
307.272	293.75
307.502	305.75
307.731	300.75
307.961	291.75
308.191	294.75
308.421	299.75
308.651	296.75
308.881	294.75
309.111	311.75
309.341	298.75
309.571	325.75
309.8	312.75
310.03	337.75
310.26	348.75
310.49	323.75
310.72	339.75
310.949	341.75
311.179	352.75
311.409	330.75
311.639	343.75
311.868	334.75
312.098	339.75
312.328	350.75
312.557	348.75
312.787	366.75
313.017	363.75
313.246	356.75
313.476	338.75
313.706	340.75
313.935	352.75
314.165	349.75
314.394	372.75
314.624	356.75
314.853	335.75
315.083	346.75
315.312	337.75
315.542	335.75
315.771	340.75
316.001	332.75
316.23	347.75
316.46	344.75
316.689	329.75
316.919	338.75
317.148	350.75
317.377	333.75
317.607	351.75
317.836	336.75
318.065	345.75
318.295	325.75
318.524	332.75
318.753	329.75
318.983	326.75
319.212	339.75
319.441	331.75
319.67	351.75
319.9	332.75
320.129	349.75
320.358	345.75
320.587	347.75
320.816	350.75
321.046	358.75
321.275	381.75
321.504	353.75
321.733	374.75
321.962	350.75
322.191	387.75
322.42	383.75
322.649	419.75
322.878	415.75
323.108	423.75
323.337	444.75
323.566	457.75
323.795	475.75
324.024	531.75
324.253	647.75
324.482	897.75
324.71	1382.75
324.939	1850.75
325.168	1540.75
325.397	836.75
325.626	593.75
325.855	479.75
326.084	474.75
326.313	458.75
326.542	459.75
326.77	506.75
326.999	582.75
327.228	809.75
327.457	1193.75
327.686	1400.75
327.914	923.75
328.143	630.75
328.372	543.75
328.6	504.75
328.829	503.75
329.058	490.75
329.287	517.75
329.515	473.75
329.744	427.75
329.972	433.75
330.201	444.75
330.43	481.75
330.658	482.75
330.887	538.75
331.115	518.75
331.344	467.75
331.572	421.75
331.801	435.75
332.03	438.75
332.258	395.75
332.486	377.75
332.715	390.75
332.943	387.75
333.172	393.75
333.4	398.75
333.629	402.75
333.857	407.75
334.085	409.75
334.314	380.75
334.542	421.75
334.771	445.75
334.999	389.75
335.227	384.75
335.455	382.75
335.684	398.75
335.912	400.75
336.14	396.75
336.369	409.75
336.597	414.75
336.825	402.75
337.053	385.75
337.281	381.75
337.51	373.75
337.738	390.75
337.966	391.75
338.194	386.75
338.422	402.75
338.65	388.75
338.878	385.75
339.106	389.75
339.334	365.75
339.562	373.75
339.79	369.75
340.018	373.75
340.246	364.75
340.474	383.75
340.702	375.75
340.93	367.75
341.158	369.75
341.386	379.75
341.614	373.75
341.842	369.75
342.07	402.75
342.298	358.75
342.526	372.75
342.754	389.75
342.981	364.75
343.209	365.75
343.437	372.75
343.665	375.75
343.893	375.75
344.12	390.75
344.348	389.75
344.576	368.75
344.804	384.75
345.031	395.75
345.259	401.75
345.487	411.75
345.714	393.75
345.942	363.75
346.17	361.75
346.397	379.75
346.625	353.75
346.853	355.75
347.08	373.75
347.308	383.75
347.535	373.75
347.763	374.75
347.99	370.75
348.218	377.75
348.445	389.75
348.673	406.75
348.9	370.75
349.128	378.75
349.355	358.75
349.583	347.75
349.81	359.75
350.037	353.75
350.265	355.75
350.492	356.75
350.72	368.75
350.947	351.75
351.174	361.75
351.402	358.75
351.629	360.75
351.856	355.75
352.083	365.75
352.311	359.75
352.538	385.75
352.765	383.75
352.992	379.75
353.22	360.75
353.447	353.75
353.674	367.75
353.901	355.75
354.128	342.75
354.355	350.75
354.583	341.75
354.81	341.75
355.037	338.75
355.264	353.75
355.491	350.75
355.718	353.75
355.945	322.75
356.172	334.75
356.399	322.75
356.626	351.75
356.853	315.75
357.08	338.75
357.307	337.75
357.534	326.75
357.761	330.75
357.988	343.75
358.215	355.75
358.441	337.75
358.668	345.75
358.895	319.75
359.122	353.75
359.349	359.75
359.576	375.75
359.802	386.75
360.029	393.75
360.256	423.75
360.483	403.75
360.709	368.75
360.936	387.75
361.163	362.75
361.39	373.75
361.616	376.75
361.843	371.75
362.07	371.75
362.296	370.75
362.523	365.75
362.749	369.75
362.976	360.75
363.203	351.75
363.429	374.75
363.656	363.75
363.882	343.75
364.109	368.75
364.335	352.75
364.562	349.75
364.788	337.75
365.015	356.75
365.241	357.75
365.468	365.75
365.694	357.75
365.92	374.75
366.147	360.75
366.373	339.75
366.599	339.75
366.826	349.75
367.052	340.75
367.278	346.75
367.505	351.75
367.731	351.75
367.957	353.75
368.184	350.75
368.41	353.75
368.636	365.75
368.862	370.75
369.089	346.75
369.315	340.75
369.541	342.75
369.767	372.75
369.993	362.75
370.219	337.75
370.445	342.75
370.672	337.75
370.898	347.75
371.124	340.75
371.35	341.75
371.576	321.75
371.802	349.75
372.028	333.75
372.254	363.75
372.48	353.75
372.706	354.75
372.932	369.75
373.158	335.75
373.384	352.75
373.61	331.75
373.835	370.75
374.061	357.75
374.287	343.75
374.513	356.75
374.739	353.75
374.965	346.75
375.191	348.75
375.416	349.75
375.642	347.75
375.868	358.75
376.094	342.75
376.319	350.75
376.545	357.75
376.771	347.75
376.997	345.75
377.222	359.75
377.448	339.75
377.674	323.75
377.899	335.75
378.125	346.75
378.35	333.75
378.576	343.75
378.802	356.75
379.027	353.75
379.253	344.75
379.478	329.75
379.704	343.75
379.929	330.75
380.155	343.75
380.38	342.75
380.606	348.75
380.831	352.75
381.057	350.75
381.282	334.75
381.507	349.75
381.733	355.75
381.958	363.75
382.184	376.75
382.409	346.75
382.634	369.75
382.86	358.75
383.085	359.75
383.31	374.75
383.535	351.75
383.761	354.75
383.986	351.75
384.211	361.75
384.436	340.75
384.662	366.75
384.887	356.75
385.112	368.75
385.337	359.75
385.562	361.75
385.787	361.75
386.013	384.75
386.238	379.75
386.463	372.75
386.688	391.75
386.913	373.75
387.138	381.75
387.363	369.75
387.588	364.75
387.813	379.75
388.038	360.75
388.263	365.75
388.488	385.75
388.713	371.75
388.938	379.75
389.163	360.75
389.387	361.75
389.612	372.75
389.837	371.75
390.062	350.75
390.287	348.75
390.512	355.75
390.736	359.75
390.961	361.75
391.186	358.75
391.411	362.75
391.636	362.75
391.86	368.75
392.085	377.75
392.31	380.75
392.534	396.75
392.759	373.75
392.984	365.75
393.208	382.75
393.433	381.75
393.658	374.75
393.882	376.75
394.107	364.75
394.331	389.75
394.556	371.75
394.78	362.75
395.005	369.75
395.229	364.75
395.454	377.75
395.678	379.75
395.903	390.75
396.127	407.75
396.352	401.75
396.576	379.75
396.801	385.75
397.025	383.75
397.249	363.75
397.474	376.75
397.698	415.75
397.922	395.75
398.147	413.75
398.371	413.75
398.595	419.75
398.82	433.75
399.044	414.75
399.268	440.75
399.492	431.75
399.717	484.75
399.941	501.75
400.165	486.75
400.389	510.75
400.613	470.75
400.837	435.75
401.062	427.75
401.286	412.75
401.51	434.75
401.734	434.75
401.958	427.75
402.182	428.75
402.406	415.75
402.63	430.75
402.854	441.75
403.078	418.75
403.302	436.75
403.526	405.75
403.75	426.75
403.974	426.75
404.198	426.75
404.422	440.75
404.645	447.75
404.869	443.75
405.093	426.75
405.317	456.75
405.541	485.75
405.765	483.75
405.988	456.75
406.212	468.75
406.436	479.75
406.66	488.75
406.883	467.75
407.107	484.75
407.331	532.75
407.555	565.75
407.778	549.75
408.002	513.75
408.226	488.75
408.449	486.75
408.673	462.75
408.896	465.75
409.12	499.75
409.344	498.75
409.567	453.75
409.791	444.75
410.014	430.75
410.238	415.75
410.461	438.75
410.685	414.75
410.908	451.75
411.132	473.75
411.355	495.75
411.578	480.75
411.802	440.75
412.025	410.75
412.249	420.75
412.472	441.75
412.695	427.75
412.919	425.75
413.142	407.75
413.365	418.75
413.589	398.75
413.812	406.75
414.035	404.75
414.258	409.75
414.482	411.75
414.705	411.75
414.928	403.75
415.151	413.75
415.374	417.75
415.597	403.75
415.821	412.75
416.044	437.75
416.267	417.75
416.49	400.75
416.713	390.75
416.936	409.75
417.159	423.75
417.382	425.75
417.605	406.75
417.828	419.75
418.051	437.75
418.274	417.75
418.497	425.75
418.72	402.75
418.943	428.75
419.166	412.75
419.389	435.75
419.611	428.75
419.834	425.75
420.057	436.75
420.28	424.75
420.503	437.75
420.726	450.75
420.948	430.75
421.171	471.75
421.394	479.75
421.617	446.75
421.839	418.75
422.062	446.75
422.285	440.75
422.507	490.75
422.73	539.75
422.953	501.75
423.175	492.75
423.398	462.75
423.621	442.75
423.843	470.75
424.066	439.75
424.288	465.75
424.511	500.75
424.733	506.75
424.956	578.75
425.178	550.75
425.401	531.75
425.623	550.75
425.846	493.75
426.068	457.75
426.291	452.75
426.513	481.75
426.735	472.75
426.958	491.75
427.18	567.75
427.402	658.75
427.625	697.75
427.847	649.75
428.069	535.75
428.292	479.75
428.514	459.75
428.736	447.75
428.958	433.75
429.181	422.75
429.403	413.75
429.625	436.75
429.847	463.75
430.069	497.75
430.292	512.75
430.514	446.75
430.736	413.75
430.958	429.75
431.18	400.75
431.402	403.75
431.624	395.75
431.846	405.75
432.068	398.75
432.29	396.75
432.512	397.75
432.734	418.75
432.956	411.75
433.178	432.75
433.4	405.75
433.622	400.75
433.844	399.75
434.066	415.75
434.287	400.75
434.509	417.75
434.731	409.75
434.953	403.75
435.175	436.75
435.397	451.75
435.618	471.75
435.84	473.75
436.062	555.75
436.284	619.75
436.505	515.75
436.727	483.75
436.949	447.75
437.17	418.75
437.392	430.75
437.614	444.75
437.835	493.75
438.057	547.75
438.278	604.75
438.5	617.75
438.721	661.75
438.943	651.75
439.165	511.75
439.386	477.75
439.608	479.75
439.829	468.75
440.05	505.75
440.272	520.75
440.493	491.75
440.715	460.75
440.936	436.75
441.158	433.75
441.379	428.75
441.6	441.75
441.822	451.75
442.043	493.75
442.264	574.75
442.486	586.75
442.707	513.75
442.928	483.75
443.149	484.75
443.371	490.75
443.592	550.75
443.813	605.75
444.034	635.75
444.255	515.75
444.476	466.75
444.698	470.75
444.919	474.75
445.14	564.75
445.361	505.75
445.582	497.75
445.803	566.75
446.024	614.75
446.245	610.75
446.466	571.75
446.687	495.75
446.908	469.75
447.129	435.75
447.35	449.75
447.571	438.75
447.792	421.75
448.013	439.75
448.234	465.75
448.455	486.75
448.675	556.75
448.896	631.75
449.117	563.75
449.338	517.75
449.559	621.75
449.779	674.75
450	536.75
450.221	476.75
450.442	452.75
450.662	429.75
450.883	420.75
451.104	451.75
451.324	423.75
451.545	417.75
451.766	387.75
451.986	394.75
452.207	380.75
452.428	357.75
452.648	369.75
452.869	400.75
453.089	412.75
453.31	398.75
453.53	381.75
453.751	390.75
453.971	413.75
454.192	428.75
454.412	405.75
454.633	386.75
454.853	389.75
455.073	388.75
455.294	418.75
455.514	468.75
455.734	433.75
455.955	395.75
456.175	383.75
456.395	352.75
456.616	374.75
456.836	377.75
457.056	385.75
457.276	356.75
457.497	350.75
457.717	371.75
457.937	375.75
458.157	369.75
458.377	389.75
458.598	413.75
458.818	466.75
459.038	523.75
459.258	520.75
459.478	424.75
459.698	416.75
459.918	419.75
460.138	403.75
460.358	408.75
460.578	406.75
460.798	408.75
461.018	427.75
461.238	425.75
461.458	424.75
461.678	418.75
461.898	416.75
462.118	398.75
462.338	407.75
462.558	417.75
462.777	441.75
462.997	433.75
463.217	431.75
463.437	453.75
463.657	439.75
463.876	443.75
464.096	443.75
464.316	422.75
464.536	431.75
464.755	442.75
464.975	452.75
465.195	453.75
465.414	559.75
465.634	483.75
465.854	434.75
466.073	417.75
466.293	414.75
466.512	388.75
466.732	382.75
466.951	390.75
467.171	406.75
467.391	387.75
467.61	403.75
467.829	396.75
468.049	405.75
468.268	397.75
468.488	369.75
468.707	381.75
468.927	392.75
469.146	389.75
469.365	378.75
469.585	376.75
469.804	391.75
470.023	405.75
470.243	388.75
470.462	398.75
470.681	412.75
470.901	406.75
471.12	399.75
471.339	392.75
471.558	396.75
471.777	397.75
471.997	414.75
472.216	385.75
472.435	383.75
472.654	374.75
472.873	385.75
473.092	382.75
473.311	381.75
473.53	427.75
473.749	387.75
473.968	445.75
474.187	525.75
474.406	525.75
474.625	468.75
474.844	412.75
475.063	408.75
475.282	409.75
475.501	387.75
475.72	416.75
475.939	425.75
476.158	397.75
476.377	416.75
476.596	397.75
476.814	422.75
477.033	409.75
477.252	417.75
477.471	429.75
477.69	423.75
477.908	418.75
478.127	431.75
478.346	425.75
478.564	416.75
478.783	423.75
479.002	449.75
479.22	455.75
479.439	454.75
479.658	486.75
479.876	469.75
480.095	453.75
480.313	504.75
480.532	473.75
480.751	456.75
480.969	480.75
481.188	490.75
481.406	500.75
481.624	479.75
481.843	475.75
482.061	473.75
482.28	454.75
482.498	465.75
482.717	458.75
482.935	441.75
483.153	454.75
483.372	457.75
483.59	446.75
483.808	457.75
484.027	466.75
484.245	449.75
484.463	442.75
484.681	481.75
484.9	464.75
485.118	477.75
485.336	461.75
485.554	458.75
485.772	467.75
485.99	474.75
486.209	468.75
486.427	473.75
486.645	480.75
486.863	534.75
487.081	507.75
487.299	485.75
487.517	483.75
487.735	518.75
487.953	506.75
488.171	483.75
488.389	481.75
488.607	506.75
488.825	486.75
489.043	481.75
489.261	506.75
489.479	508.75
489.696	509.75
489.914	495.75
490.132	522.75
490.35	516.75
490.568	542.75
490.786	506.75
491.003	523.75
491.221	550.75
491.439	550.75
491.657	570.75
491.874	547.75
492.092	549.75
492.31	559.75
492.527	562.75
492.745	573.75
492.963	568.75
493.18	565.75
493.398	577.75
493.615	577.75
493.833	552.75
494.05	571.75
494.268	579.75
494.485	582.75
494.703	585.75
494.92	574.75
495.138	596.75
495.355	579.75
495.573	577.75
495.79	598.75
496.008	585.75
496.225	578.75
496.442	588.75
496.66	604.75
496.877	573.75
497.094	582.75
497.312	584.75
497.529	595.75
497.746	612.75
497.963	615.75
498.181	629.75
498.398	633.75
498.615	650.75
498.832	667.75
499.049	646.75
499.267	665.75
499.484	706.75
499.701	713.75
499.918	706.75
500.135	738.75
500.352	771.75
500.569	776.75
500.786	778.75
501.003	782.75
501.22	764.75
501.437	744.75
501.654	732.75
501.871	728.75
502.088	730.75
