Data from 1983.PennyLincolnUp.Lamp.En5.5.200Scan.071819.P1_HRD10591_16-52-26-964.txt Node
Date: Thu Jul 18 16:52:26 EDT 2019
User: cochatt
Spectrometer: HR+D1059
Trigger mode: 1
Integration Time (sec): 1.000000E-1
Scans to average: 1
Electric dark correction enabled: true
Nonlinearity correction enabled: false
Boxcar width: 0
XAxis mode: Wavelengths
Number of Pixels in Spectrum: 2048
>>>>>Begin Spectral Data<<<<<
223.165	1.75
223.4	1.75
223.635	1.75
223.869	-13.25
224.104	-34.25
224.338	-9.25
224.573	-21.25
224.808	-12.25
225.042	-11.25
225.277	0.75
225.511	-4.25
225.746	6.75
225.98	10.75
226.215	19.75
226.449	19.75
226.683	14.75
226.918	13.75
227.152	17.75
227.387	38.75
227.621	31.75
227.856	31.75
228.09	38.75
228.324	53.75
228.559	58.75
228.793	50.75
229.027	89.75
229.262	117.75
229.496	97.75
229.73	108.75
229.964	145.75
230.199	101.75
230.433	117.75
230.667	114.75
230.901	104.75
231.136	93.75
231.37	108.75
231.604	100.75
231.838	101.75
232.072	101.75
232.306	98.75
232.541	100.75
232.775	106.75
233.009	110.75
233.243	104.75
233.477	98.75
233.711	102.75
233.945	103.75
234.179	106.75
234.413	123.75
234.647	98.75
234.881	95.75
235.115	109.75
235.349	102.75
235.583	114.75
235.817	111.75
236.051	113.75
236.285	117.75
236.519	117.75
236.753	109.75
236.987	117.75
237.221	163.75
237.455	195.75
237.689	166.75
237.922	132.75
238.156	107.75
238.39	125.75
238.624	121.75
238.858	118.75
239.091	118.75
239.325	114.75
239.559	115.75
239.793	116.75
240.027	121.75
240.26	127.75
240.494	137.75
240.728	134.75
240.961	127.75
241.195	129.75
241.429	122.75
241.662	115.75
241.896	127.75
242.13	119.75
242.363	115.75
242.597	126.75
242.83	111.75
243.064	117.75
243.298	117.75
243.531	133.75
243.765	124.75
243.998	121.75
244.232	125.75
244.465	133.75
244.699	127.75
244.932	135.75
245.166	122.75
245.399	122.75
245.633	134.75
245.866	150.75
246.099	144.75
246.333	124.75
246.566	137.75
246.8	133.75
247.033	146.75
247.266	147.75
247.5	137.75
247.733	137.75
247.966	143.75
248.2	164.75
248.433	159.75
248.666	148.75
248.899	168.75
249.133	168.75
249.366	179.75
249.599	165.75
249.832	149.75
250.066	148.75
250.299	157.75
250.532	163.75
250.765	172.75
250.998	163.75
251.231	181.75
251.465	177.75
251.698	185.75
251.931	187.75
252.164	178.75
252.397	187.75
252.63	177.75
252.863	183.75
253.096	187.75
253.329	189.75
253.562	187.75
253.795	189.75
254.028	179.75
254.261	175.75
254.494	196.75
254.727	213.75
254.96	225.75
255.193	219.75
255.426	211.75
255.659	204.75
255.892	196.75
256.124	186.75
256.357	187.75
256.59	185.75
256.823	187.75
257.056	166.75
257.289	181.75
257.521	175.75
257.754	170.75
257.987	181.75
258.22	167.75
258.452	175.75
258.685	186.75
258.918	175.75
259.151	178.75
259.383	190.75
259.616	175.75
259.849	212.75
260.081	230.75
260.314	207.75
260.547	208.75
260.779	210.75
261.012	206.75
261.244	197.75
261.477	194.75
261.71	204.75
261.942	192.75
262.175	200.75
262.407	197.75
262.64	195.75
262.872	180.75
263.105	175.75
263.337	174.75
263.57	201.75
263.802	195.75
264.035	197.75
264.267	159.75
264.499	193.75
264.732	172.75
264.964	157.75
265.197	175.75
265.429	169.75
265.661	168.75
265.894	179.75
266.126	196.75
266.358	206.75
266.591	196.75
266.823	185.75
267.055	194.75
267.287	190.75
267.52	206.75
267.752	191.75
267.984	195.75
268.216	206.75
268.448	188.75
268.681	198.75
268.913	214.75
269.145	221.75
269.377	233.75
269.609	250.75
269.841	231.75
270.073	220.75
270.306	233.75
270.538	255.75
270.77	269.75
271.002	254.75
271.234	236.75
271.466	243.75
271.698	260.75
271.93	265.75
272.162	265.75
272.394	258.75
272.626	262.75
272.858	247.75
273.09	238.75
273.322	233.75
273.553	217.75
273.785	225.75
274.017	235.75
274.249	238.75
274.481	222.75
274.713	220.75
274.945	230.75
275.176	226.75
275.408	215.75
275.64	228.75
275.872	222.75
276.104	219.75
276.335	220.75
276.567	243.75
276.799	233.75
277.031	262.75
277.262	261.75
277.494	252.75
277.726	238.75
277.957	235.75
278.189	240.75
278.421	225.75
278.652	236.75
278.884	228.75
279.115	231.75
279.347	251.75
279.579	218.75
279.81	238.75
280.042	224.75
280.273	221.75
280.505	222.75
280.736	230.75
280.968	220.75
281.199	234.75
281.431	226.75
281.662	224.75
281.894	217.75
282.125	224.75
282.356	236.75
282.588	248.75
282.819	255.75
283.051	249.75
283.282	230.75
283.513	255.75
283.745	244.75
283.976	245.75
284.207	229.75
284.439	234.75
284.67	239.75
284.901	251.75
285.132	249.75
285.364	220.75
285.595	231.75
285.826	246.75
286.057	227.75
286.288	235.75
286.52	250.75
286.751	230.75
286.982	241.75
287.213	241.75
287.444	222.75
287.675	255.75
287.906	249.75
288.138	235.75
288.369	253.75
288.6	257.75
288.831	251.75
289.062	254.75
289.293	233.75
289.524	246.75
289.755	254.75
289.986	238.75
290.217	239.75
290.448	268.75
290.679	236.75
290.91	240.75
291.141	247.75
291.371	249.75
291.602	238.75
291.833	257.75
292.064	241.75
292.295	248.75
292.526	249.75
292.757	245.75
292.987	246.75
293.218	231.75
293.449	245.75
293.68	249.75
293.91	249.75
294.141	239.75
294.372	261.75
294.603	250.75
294.833	252.75
295.064	242.75
295.295	246.75
295.525	244.75
295.756	254.75
295.987	255.75
296.217	269.75
296.448	284.75
296.679	259.75
296.909	261.75
297.14	237.75
297.37	274.75
297.601	263.75
297.831	239.75
298.062	269.75
298.292	252.75
298.523	259.75
298.753	253.75
298.984	252.75
299.214	262.75
299.445	259.75
299.675	263.75
299.905	282.75
300.136	253.75
300.366	285.75
300.597	269.75
300.827	250.75
301.057	281.75
301.288	275.75
301.518	261.75
301.748	273.75
301.979	261.75
302.209	278.75
302.439	263.75
302.669	282.75
302.9	278.75
303.13	277.75
303.36	277.75
303.59	270.75
303.82	286.75
304.051	285.75
304.281	263.75
304.511	279.75
304.741	262.75
304.971	274.75
305.201	291.75
305.431	274.75
305.661	269.75
305.891	281.75
306.121	283.75
306.352	294.75
306.582	270.75
306.812	271.75
307.042	289.75
307.272	271.75
307.502	278.75
307.731	283.75
307.961	286.75
308.191	271.75
308.421	289.75
308.651	279.75
308.881	295.75
309.111	275.75
309.341	277.75
309.571	278.75
309.8	306.75
310.03	307.75
310.26	308.75
310.49	302.75
310.72	311.75
310.949	332.75
311.179	329.75
311.409	322.75
311.639	321.75
311.868	318.75
312.098	311.75
312.328	311.75
312.557	318.75
312.787	344.75
313.017	342.75
313.246	318.75
313.476	311.75
313.706	307.75
313.935	319.75
314.165	320.75
314.394	341.75
314.624	345.75
314.853	323.75
315.083	324.75
315.312	321.75
315.542	320.75
315.771	294.75
316.001	303.75
316.23	313.75
316.46	315.75
316.689	325.75
316.919	318.75
317.148	328.75
317.377	319.75
317.607	325.75
317.836	315.75
318.065	315.75
318.295	324.75
318.524	318.75
318.753	319.75
318.983	318.75
319.212	335.75
319.441	316.75
319.67	327.75
319.9	321.75
320.129	332.75
320.358	329.75
320.587	311.75
320.816	318.75
321.046	326.75
321.275	327.75
321.504	339.75
321.733	337.75
321.962	350.75
322.191	340.75
322.42	378.75
322.649	379.75
322.878	375.75
323.108	367.75
323.337	401.75
323.566	389.75
323.795	413.75
324.024	484.75
324.253	533.75
324.482	777.75
324.71	1169.75
324.939	1551.75
325.168	1250.75
325.397	685.75
325.626	488.75
325.855	437.75
326.084	412.75
326.313	409.75
326.542	401.75
326.77	441.75
326.999	510.75
327.228	687.75
327.457	1018.75
327.686	1144.75
327.914	756.75
328.143	522.75
328.372	477.75
328.6	465.75
328.829	433.75
329.058	432.75
329.287	446.75
329.515	417.75
329.744	416.75
329.972	400.75
330.201	419.75
330.43	405.75
330.658	450.75
330.887	447.75
331.115	419.75
331.344	414.75
331.572	383.75
331.801	403.75
332.03	400.75
332.258	384.75
332.486	381.75
332.715	371.75
332.943	388.75
333.172	363.75
333.4	381.75
333.629	373.75
333.857	395.75
334.085	390.75
334.314	391.75
334.542	373.75
334.771	412.75
334.999	359.75
335.227	387.75
335.455	365.75
335.684	373.75
335.912	363.75
336.14	377.75
336.369	369.75
336.597	390.75
336.825	364.75
337.053	361.75
337.281	346.75
337.51	355.75
337.738	357.75
337.966	381.75
338.194	365.75
338.422	381.75
338.65	341.75
338.878	358.75
339.106	347.75
339.334	363.75
339.562	365.75
339.79	343.75
340.018	345.75
340.246	350.75
340.474	346.75
340.702	353.75
340.93	361.75
341.158	353.75
341.386	351.75
341.614	354.75
341.842	356.75
342.07	345.75
342.298	330.75
342.526	339.75
342.754	347.75
342.981	351.75
343.209	341.75
343.437	351.75
343.665	376.75
343.893	363.75
344.12	367.75
344.348	362.75
344.576	378.75
344.804	367.75
345.031	382.75
345.259	377.75
345.487	375.75
345.714	355.75
345.942	343.75
346.17	353.75
346.397	343.75
346.625	342.75
346.853	354.75
347.08	366.75
347.308	355.75
347.535	359.75
347.763	342.75
347.99	361.75
348.218	350.75
348.445	346.75
348.673	363.75
348.9	355.75
349.128	340.75
349.355	333.75
349.583	337.75
349.81	327.75
350.037	333.75
350.265	343.75
350.492	333.75
350.72	332.75
350.947	351.75
351.174	355.75
351.402	361.75
351.629	358.75
351.856	330.75
352.083	347.75
352.311	361.75
352.538	343.75
352.765	345.75
352.992	354.75
353.22	334.75
353.447	324.75
353.674	333.75
353.901	346.75
354.128	301.75
354.355	332.75
354.583	331.75
354.81	332.75
355.037	328.75
355.264	324.75
355.491	327.75
355.718	330.75
355.945	317.75
356.172	328.75
356.399	330.75
356.626	333.75
356.853	344.75
357.08	322.75
357.307	338.75
357.534	324.75
357.761	322.75
357.988	316.75
358.215	322.75
358.441	338.75
358.668	330.75
358.895	327.75
359.122	303.75
359.349	344.75
359.576	313.75
359.802	348.75
360.029	392.75
360.256	382.75
360.483	361.75
360.709	347.75
360.936	350.75
361.163	349.75
361.39	340.75
361.616	344.75
361.843	336.75
362.07	345.75
362.296	323.75
362.523	338.75
362.749	337.75
362.976	335.75
363.203	356.75
363.429	332.75
363.656	348.75
363.882	319.75
364.109	337.75
364.335	313.75
364.562	331.75
364.788	343.75
365.015	334.75
365.241	333.75
365.468	325.75
365.694	328.75
365.92	356.75
366.147	343.75
366.373	325.75
366.599	322.75
366.826	322.75
367.052	326.75
367.278	319.75
367.505	328.75
367.731	354.75
367.957	329.75
368.184	318.75
368.41	317.75
368.636	349.75
368.862	331.75
369.089	348.75
369.315	341.75
369.541	338.75
369.767	341.75
369.993	337.75
370.219	319.75
370.445	314.75
370.672	336.75
370.898	325.75
371.124	331.75
371.35	341.75
371.576	339.75
371.802	331.75
372.028	314.75
372.254	327.75
372.48	336.75
372.706	323.75
372.932	333.75
373.158	329.75
373.384	336.75
373.61	343.75
373.835	350.75
374.061	348.75
374.287	343.75
374.513	317.75
374.739	324.75
374.965	349.75
375.191	325.75
375.416	352.75
375.642	344.75
375.868	339.75
376.094	341.75
376.319	339.75
376.545	342.75
376.771	330.75
376.997	332.75
377.222	323.75
377.448	321.75
377.674	314.75
377.899	318.75
378.125	325.75
378.35	341.75
378.576	325.75
378.802	318.75
379.027	333.75
379.253	327.75
379.478	331.75
379.704	329.75
379.929	322.75
380.155	329.75
380.38	318.75
380.606	326.75
380.831	291.75
381.057	310.75
381.282	333.75
381.507	335.75
381.733	338.75
381.958	330.75
382.184	355.75
382.409	343.75
382.634	342.75
382.86	333.75
383.085	321.75
383.31	349.75
383.535	343.75
383.761	321.75
383.986	361.75
384.211	338.75
384.436	338.75
384.662	361.75
384.887	357.75
385.112	340.75
385.337	362.75
385.562	349.75
385.787	340.75
386.013	342.75
386.238	356.75
386.463	357.75
386.688	345.75
386.913	345.75
387.138	357.75
387.363	356.75
387.588	351.75
387.813	345.75
388.038	338.75
388.263	358.75
388.488	363.75
388.713	361.75
388.938	363.75
389.163	351.75
389.387	343.75
389.612	347.75
389.837	351.75
390.062	339.75
390.287	339.75
390.512	353.75
390.736	346.75
390.961	366.75
391.186	352.75
391.411	352.75
391.636	347.75
391.86	349.75
392.085	373.75
392.31	353.75
392.534	351.75
392.759	356.75
392.984	362.75
393.208	353.75
393.433	375.75
393.658	362.75
393.882	356.75
394.107	373.75
394.331	369.75
394.556	374.75
394.78	351.75
395.005	339.75
395.229	360.75
395.454	382.75
395.678	384.75
395.903	389.75
396.127	385.75
396.352	395.75
396.576	380.75
396.801	373.75
397.025	377.75
397.249	356.75
397.474	383.75
397.698	389.75
397.922	369.75
398.147	400.75
398.371	393.75
398.595	392.75
398.82	399.75
399.044	403.75
399.268	392.75
399.492	422.75
399.717	456.75
399.941	466.75
400.165	471.75
400.389	475.75
400.613	427.75
400.837	425.75
401.062	412.75
401.286	402.75
401.51	395.75
401.734	402.75
401.958	399.75
402.182	418.75
402.406	439.75
402.63	393.75
402.854	398.75
403.078	382.75
403.302	377.75
403.526	409.75
403.75	409.75
403.974	419.75
404.198	396.75
404.422	407.75
404.645	397.75
404.869	412.75
405.093	427.75
405.317	441.75
405.541	446.75
405.765	441.75
405.988	430.75
406.212	430.75
406.436	442.75
406.66	454.75
406.883	436.75
407.107	452.75
407.331	485.75
407.555	521.75
407.778	549.75
408.002	483.75
408.226	450.75
408.449	459.75
408.673	460.75
408.896	471.75
409.12	490.75
409.344	476.75
409.567	428.75
409.791	423.75
410.014	409.75
410.238	417.75
410.461	403.75
410.685	391.75
410.908	411.75
411.132	457.75
411.355	477.75
411.578	445.75
411.802	410.75
412.025	389.75
412.249	413.75
412.472	423.75
412.695	422.75
412.919	423.75
413.142	399.75
413.365	401.75
413.589	403.75
413.812	402.75
414.035	390.75
414.258	361.75
414.482	387.75
414.705	377.75
414.928	388.75
415.151	387.75
415.374	394.75
415.597	395.75
415.821	390.75
416.044	390.75
416.267	411.75
416.49	385.75
416.713	389.75
416.936	395.75
417.159	374.75
417.382	377.75
417.605	399.75
417.828	428.75
418.051	411.75
418.274	395.75
418.497	392.75
418.72	390.75
418.943	395.75
419.166	400.75
419.389	420.75
419.611	404.75
419.834	394.75
420.057	406.75
420.28	393.75
420.503	403.75
420.726	395.75
420.948	406.75
421.171	444.75
421.394	438.75
421.617	420.75
421.839	411.75
422.062	389.75
422.285	418.75
422.507	448.75
422.73	523.75
422.953	485.75
423.175	442.75
423.398	417.75
423.621	415.75
423.843	429.75
424.066	435.75
424.288	438.75
424.511	461.75
424.733	489.75
424.956	536.75
425.178	539.75
425.401	537.75
425.623	539.75
425.846	465.75
426.068	433.75
426.291	427.75
426.513	433.75
426.735	441.75
426.958	486.75
427.18	519.75
427.402	610.75
427.625	681.75
427.847	564.75
428.069	505.75
428.292	461.75
428.514	429.75
428.736	420.75
428.958	402.75
429.181	416.75
429.403	402.75
429.625	415.75
429.847	434.75
430.069	479.75
430.292	462.75
430.514	414.75
430.736	401.75
430.958	398.75
431.18	381.75
431.402	409.75
431.624	374.75
431.846	385.75
432.068	383.75
432.29	369.75
432.512	369.75
432.734	370.75
432.956	397.75
433.178	390.75
433.4	373.75
433.622	377.75
433.844	372.75
434.066	383.75
434.287	375.75
434.509	393.75
434.731	395.75
434.953	386.75
435.175	423.75
435.397	433.75
435.618	451.75
435.84	485.75
436.062	548.75
436.284	599.75
436.505	478.75
436.727	433.75
436.949	417.75
437.17	389.75
437.392	409.75
437.614	406.75
437.835	449.75
438.057	499.75
438.278	580.75
438.5	573.75
438.721	625.75
438.943	603.75
439.165	487.75
439.386	433.75
439.608	445.75
439.829	449.75
440.05	453.75
440.272	460.75
440.493	459.75
440.715	442.75
440.936	426.75
441.158	414.75
441.379	420.75
441.6	423.75
441.822	438.75
442.043	451.75
442.264	542.75
442.486	541.75
442.707	478.75
442.928	454.75
443.149	457.75
443.371	447.75
443.592	488.75
443.813	533.75
444.034	568.75
444.255	510.75
444.476	469.75
444.698	453.75
444.919	440.75
445.14	549.75
445.361	496.75
445.582	478.75
445.803	530.75
446.024	594.75
446.245	577.75
446.466	528.75
446.687	470.75
446.908	458.75
447.129	413.75
447.35	387.75
447.571	429.75
447.792	401.75
448.013	397.75
448.234	420.75
448.455	456.75
448.675	545.75
448.896	609.75
449.117	518.75
449.338	525.75
449.559	571.75
449.779	646.75
450	523.75
450.221	458.75
450.442	415.75
450.662	387.75
450.883	423.75
451.104	419.75
451.324	402.75
451.545	380.75
451.766	399.75
451.986	371.75
452.207	348.75
452.428	362.75
452.648	378.75
452.869	360.75
453.089	388.75
453.31	369.75
453.53	374.75
453.751	370.75
453.971	383.75
454.192	378.75
454.412	359.75
454.633	358.75
454.853	380.75
455.073	377.75
455.294	403.75
455.514	430.75
455.734	428.75
455.955	361.75
456.175	345.75
456.395	332.75
456.616	335.75
456.836	345.75
457.056	358.75
457.276	335.75
457.497	336.75
457.717	358.75
457.937	358.75
458.157	357.75
458.377	375.75
458.598	379.75
458.818	406.75
459.038	463.75
459.258	467.75
459.478	395.75
459.698	380.75
459.918	382.75
460.138	357.75
460.358	395.75
460.578	355.75
460.798	389.75
461.018	387.75
461.238	361.75
461.458	395.75
461.678	382.75
461.898	385.75
462.118	381.75
462.338	399.75
462.558	425.75
462.777	394.75
462.997	410.75
463.217	402.75
463.437	398.75
463.657	415.75
463.876	389.75
464.096	419.75
464.316	400.75
464.536	423.75
464.755	425.75
464.975	429.75
465.195	452.75
465.414	494.75
465.634	446.75
465.854	413.75
466.073	391.75
466.293	362.75
466.512	395.75
466.732	370.75
466.951	360.75
467.171	382.75
467.391	365.75
467.61	388.75
467.829	389.75
468.049	380.75
468.268	363.75
468.488	369.75
468.707	373.75
468.927	356.75
469.146	381.75
469.365	373.75
469.585	359.75
469.804	382.75
470.023	379.75
470.243	380.75
470.462	366.75
470.681	390.75
470.901	378.75
471.12	369.75
471.339	370.75
471.558	386.75
471.777	379.75
471.997	377.75
472.216	385.75
472.435	379.75
472.654	368.75
472.873	381.75
473.092	355.75
473.311	389.75
473.53	389.75
473.749	391.75
473.968	407.75
474.187	484.75
474.406	487.75
474.625	417.75
474.844	390.75
475.063	385.75
475.282	365.75
475.501	378.75
475.72	390.75
475.939	369.75
476.158	376.75
476.377	409.75
476.596	385.75
476.814	390.75
477.033	389.75
477.252	398.75
477.471	398.75
477.69	398.75
477.908	385.75
478.127	417.75
478.346	421.75
478.564	429.75
478.783	439.75
479.002	448.75
479.22	433.75
479.439	446.75
479.658	454.75
479.876	425.75
480.095	450.75
480.313	499.75
480.532	462.75
480.751	451.75
480.969	444.75
481.188	466.75
481.406	494.75
481.624	451.75
481.843	437.75
482.061	437.75
482.28	437.75
482.498	443.75
482.717	410.75
482.935	422.75
483.153	430.75
483.372	427.75
483.59	427.75
483.808	434.75
484.027	437.75
484.245	449.75
484.463	433.75
484.681	422.75
484.9	453.75
485.118	432.75
485.336	448.75
485.554	456.75
485.772	450.75
485.99	449.75
486.209	441.75
486.427	463.75
486.645	446.75
486.863	479.75
487.081	475.75
487.299	466.75
487.517	470.75
487.735	453.75
487.953	483.75
488.171	491.75
488.389	476.75
488.607	465.75
488.825	471.75
489.043	501.75
489.261	449.75
489.479	481.75
489.696	486.75
489.914	490.75
490.132	471.75
490.35	483.75
490.568	477.75
490.786	499.75
491.003	488.75
491.221	509.75
491.439	516.75
491.657	538.75
491.874	538.75
492.092	534.75
492.31	515.75
492.527	542.75
492.745	539.75
492.963	525.75
493.18	559.75
493.398	524.75
493.615	546.75
493.833	563.75
494.05	557.75
494.268	517.75
494.485	519.75
494.703	537.75
494.92	553.75
495.138	536.75
495.355	535.75
495.573	565.75
495.79	537.75
496.008	546.75
496.225	575.75
496.442	549.75
496.66	567.75
496.877	570.75
497.094	540.75
497.312	553.75
497.529	565.75
497.746	581.75
497.963	561.75
498.181	587.75
498.398	595.75
498.615	626.75
498.832	619.75
499.049	641.75
499.267	610.75
499.484	674.75
499.701	681.75
499.918	695.75
500.135	723.75
500.352	737.75
500.569	758.75
500.786	725.75
501.003	743.75
501.22	733.75
501.437	715.75
501.654	675.75
501.871	671.75
502.088	644.75
