Data from 1983.PennyLincolnUp.Lamp.En5.5.200Scan.071819.P1_HRD10591_16-53-08-965.txt Node
Date: Thu Jul 18 16:53:08 EDT 2019
User: cochatt
Spectrometer: HR+D1059
Trigger mode: 1
Integration Time (sec): 1.000000E-1
Scans to average: 1
Electric dark correction enabled: true
Nonlinearity correction enabled: false
Boxcar width: 0
XAxis mode: Wavelengths
Number of Pixels in Spectrum: 2048
>>>>>Begin Spectral Data<<<<<
223.165	-27.44
223.4	-27.44
223.635	-27.44
223.869	-23.44
224.104	-7.44
224.338	3.56
224.573	-4.44
224.808	-23.44
225.042	-10.44
225.277	-8.44
225.511	-14.44
225.746	-2.44
225.98	21.56
226.215	0.56
226.449	15.56
226.683	22.56
226.918	25.56
227.152	32.56
227.387	47.56
227.621	27.56
227.856	44.56
228.09	47.56
228.324	61.56
228.559	48.56
228.793	67.56
229.027	96.56
229.262	97.56
229.496	105.56
229.73	131.56
229.964	135.56
230.199	127.56
230.433	96.56
230.667	107.56
230.901	113.56
231.136	105.56
231.37	123.56
231.604	108.56
231.838	109.56
232.072	112.56
232.306	106.56
232.541	108.56
232.775	103.56
233.009	122.56
233.243	88.56
233.477	113.56
233.711	119.56
233.945	120.56
234.179	110.56
234.413	112.56
234.647	111.56
234.881	123.56
235.115	105.56
235.349	102.56
235.583	111.56
235.817	113.56
236.051	120.56
236.285	123.56
236.519	108.56
236.753	117.56
236.987	125.56
237.221	151.56
237.455	187.56
237.689	176.56
237.922	141.56
238.156	127.56
238.39	125.56
238.624	116.56
238.858	126.56
239.091	127.56
239.325	133.56
239.559	126.56
239.793	109.56
240.027	125.56
240.26	131.56
240.494	150.56
240.728	145.56
240.961	137.56
241.195	139.56
241.429	133.56
241.662	119.56
241.896	128.56
242.13	113.56
242.363	135.56
242.597	133.56
242.83	127.56
243.064	130.56
243.298	129.56
243.531	135.56
243.765	123.56
243.998	134.56
244.232	131.56
244.465	134.56
244.699	146.56
244.932	139.56
245.166	127.56
245.399	149.56
245.633	125.56
245.866	137.56
246.099	128.56
246.333	128.56
246.566	151.56
246.8	151.56
247.033	155.56
247.266	160.56
247.5	158.56
247.733	148.56
247.966	164.56
248.2	169.56
248.433	181.56
248.666	153.56
248.899	171.56
249.133	194.56
249.366	199.56
249.599	161.56
249.832	175.56
250.066	165.56
250.299	155.56
250.532	176.56
250.765	191.56
250.998	199.56
251.231	215.56
251.465	205.56
251.698	185.56
251.931	187.56
252.164	187.56
252.397	184.56
252.63	181.56
252.863	182.56
253.096	202.56
253.329	221.56
253.562	205.56
253.795	192.56
254.028	196.56
254.261	195.56
254.494	209.56
254.727	221.56
254.96	256.56
255.193	243.56
255.426	215.56
255.659	209.56
255.892	189.56
256.124	213.56
256.357	197.56
256.59	193.56
256.823	187.56
257.056	193.56
257.289	195.56
257.521	187.56
257.754	197.56
257.987	183.56
258.22	183.56
258.452	186.56
258.685	188.56
258.918	185.56
259.151	214.56
259.383	192.56
259.616	187.56
259.849	213.56
260.081	207.56
260.314	226.56
260.547	237.56
260.779	215.56
261.012	211.56
261.244	200.56
261.477	207.56
261.71	211.56
261.942	208.56
262.175	224.56
262.407	207.56
262.64	198.56
262.872	200.56
263.105	205.56
263.337	196.56
263.57	200.56
263.802	195.56
264.035	184.56
264.267	201.56
264.499	206.56
264.732	189.56
264.964	216.56
265.197	199.56
265.429	208.56
265.661	196.56
265.894	191.56
266.126	181.56
266.358	207.56
266.591	203.56
266.823	213.56
267.055	203.56
267.287	193.56
267.52	192.56
267.752	209.56
267.984	200.56
268.216	235.56
268.448	232.56
268.681	225.56
268.913	210.56
269.145	239.56
269.377	251.56
269.609	239.56
269.841	266.56
270.073	237.56
270.306	255.56
270.538	273.56
270.77	278.56
271.002	247.56
271.234	268.56
271.466	293.56
271.698	283.56
271.93	282.56
272.162	283.56
272.394	288.56
272.626	296.56
272.858	266.56
273.09	247.56
273.322	264.56
273.553	248.56
273.785	259.56
274.017	246.56
274.249	243.56
274.481	237.56
274.713	232.56
274.945	238.56
275.176	267.56
275.408	246.56
275.64	236.56
275.872	249.56
276.104	243.56
276.335	236.56
276.567	238.56
276.799	256.56
277.031	272.56
277.262	293.56
277.494	278.56
277.726	259.56
277.957	257.56
278.189	237.56
278.421	252.56
278.652	261.56
278.884	247.56
279.115	248.56
279.347	238.56
279.579	248.56
279.81	233.56
280.042	248.56
280.273	254.56
280.505	222.56
280.736	240.56
280.968	219.56
281.199	244.56
281.431	253.56
281.662	228.56
281.894	233.56
282.125	254.56
282.356	266.56
282.588	286.56
282.819	287.56
283.051	243.56
283.282	238.56
283.513	245.56
283.745	250.56
283.976	250.56
284.207	247.56
284.439	254.56
284.67	257.56
284.901	262.56
285.132	255.56
285.364	276.56
285.595	244.56
285.826	244.56
286.057	259.56
286.288	245.56
286.52	255.56
286.751	265.56
286.982	280.56
287.213	249.56
287.444	247.56
287.675	262.56
287.906	263.56
288.138	263.56
288.369	276.56
288.6	282.56
288.831	264.56
289.062	270.56
289.293	271.56
289.524	267.56
289.755	271.56
289.986	257.56
290.217	246.56
290.448	261.56
290.679	265.56
290.91	251.56
291.141	242.56
291.371	276.56
291.602	271.56
291.833	263.56
292.064	266.56
292.295	261.56
292.526	260.56
292.757	280.56
292.987	249.56
293.218	254.56
293.449	261.56
293.68	266.56
293.91	263.56
294.141	249.56
294.372	249.56
294.603	258.56
294.833	276.56
295.064	282.56
295.295	257.56
295.525	265.56
295.756	274.56
295.987	291.56
296.217	296.56
296.448	320.56
296.679	291.56
296.909	279.56
297.14	262.56
297.37	285.56
297.601	277.56
297.831	252.56
298.062	259.56
298.292	284.56
298.523	271.56
298.753	291.56
298.984	282.56
299.214	267.56
299.445	282.56
299.675	276.56
299.905	291.56
300.136	275.56
300.366	264.56
300.597	276.56
300.827	288.56
301.057	297.56
301.288	302.56
301.518	301.56
301.748	291.56
301.979	276.56
302.209	296.56
302.439	307.56
302.669	303.56
302.9	293.56
303.13	288.56
303.36	304.56
303.59	311.56
303.82	309.56
304.051	305.56
304.281	307.56
304.511	295.56
304.741	310.56
304.971	300.56
305.201	293.56
305.431	297.56
305.661	312.56
305.891	293.56
306.121	295.56
306.352	291.56
306.582	299.56
306.812	302.56
307.042	287.56
307.272	296.56
307.502	309.56
307.731	301.56
307.961	299.56
308.191	303.56
308.421	318.56
308.651	295.56
308.881	315.56
309.111	307.56
309.341	323.56
309.571	320.56
309.8	311.56
310.03	331.56
310.26	350.56
310.49	363.56
310.72	350.56
310.949	353.56
311.179	367.56
311.409	360.56
311.639	359.56
311.868	349.56
312.098	323.56
312.328	352.56
312.557	383.56
312.787	378.56
313.017	387.56
313.246	353.56
313.476	343.56
313.706	351.56
313.935	348.56
314.165	360.56
314.394	370.56
314.624	365.56
314.853	339.56
315.083	350.56
315.312	331.56
315.542	342.56
315.771	331.56
316.001	333.56
316.23	352.56
316.46	342.56
316.689	330.56
316.919	355.56
317.148	376.56
317.377	348.56
317.607	343.56
317.836	346.56
318.065	321.56
318.295	350.56
318.524	356.56
318.753	319.56
318.983	353.56
319.212	339.56
319.441	351.56
319.67	361.56
319.9	357.56
320.129	351.56
320.358	324.56
320.587	341.56
320.816	357.56
321.046	349.56
321.275	381.56
321.504	352.56
321.733	376.56
321.962	365.56
322.191	389.56
322.42	408.56
322.649	420.56
322.878	410.56
323.108	417.56
323.337	438.56
323.566	465.56
323.795	495.56
324.024	531.56
324.253	669.56
324.482	951.56
324.71	1409.56
324.939	1872.56
325.168	1567.56
325.397	867.56
325.626	608.56
325.855	515.56
326.084	477.56
326.313	465.56
326.542	479.56
326.77	526.56
326.999	584.56
327.228	845.56
327.457	1266.56
327.686	1387.56
327.914	959.56
328.143	637.56
328.372	572.56
328.6	519.56
328.829	519.56
329.058	502.56
329.287	563.56
329.515	473.56
329.744	457.56
329.972	447.56
330.201	440.56
330.43	468.56
330.658	511.56
330.887	538.56
331.115	538.56
331.344	462.56
331.572	447.56
331.801	431.56
332.03	443.56
332.258	417.56
332.486	409.56
332.715	406.56
332.943	387.56
333.172	422.56
333.4	393.56
333.629	403.56
333.857	410.56
334.085	411.56
334.314	387.56
334.542	412.56
334.771	410.56
334.999	407.56
335.227	411.56
335.455	412.56
335.684	400.56
335.912	384.56
336.14	389.56
336.369	397.56
336.597	396.56
336.825	403.56
337.053	405.56
337.281	401.56
337.51	399.56
337.738	396.56
337.966	404.56
338.194	396.56
338.422	400.56
338.65	379.56
338.878	407.56
339.106	385.56
339.334	387.56
339.562	377.56
339.79	390.56
340.018	377.56
340.246	381.56
340.474	377.56
340.702	380.56
340.93	385.56
341.158	393.56
341.386	405.56
341.614	392.56
341.842	380.56
342.07	396.56
342.298	377.56
342.526	388.56
342.754	385.56
342.981	366.56
343.209	401.56
343.437	379.56
343.665	377.56
343.893	405.56
344.12	413.56
344.348	386.56
344.576	384.56
344.804	402.56
345.031	395.56
345.259	399.56
345.487	393.56
345.714	381.56
345.942	386.56
346.17	377.56
346.397	387.56
346.625	375.56
346.853	382.56
347.08	362.56
347.308	379.56
347.535	394.56
347.763	383.56
347.99	383.56
348.218	380.56
348.445	397.56
348.673	404.56
348.9	382.56
349.128	360.56
349.355	360.56
349.583	343.56
349.81	371.56
350.037	361.56
350.265	361.56
350.492	362.56
350.72	358.56
350.947	361.56
351.174	382.56
351.402	380.56
351.629	382.56
351.856	380.56
352.083	384.56
352.311	413.56
352.538	400.56
352.765	394.56
352.992	366.56
353.22	384.56
353.447	368.56
353.674	367.56
353.901	354.56
354.128	343.56
354.355	359.56
354.583	346.56
354.81	357.56
355.037	356.56
355.264	355.56
355.491	355.56
355.718	350.56
355.945	357.56
356.172	335.56
356.399	357.56
356.626	363.56
356.853	364.56
357.08	343.56
357.307	352.56
357.534	343.56
357.761	344.56
357.988	347.56
358.215	356.56
358.441	352.56
358.668	345.56
358.895	337.56
359.122	371.56
359.349	367.56
359.576	360.56
359.802	376.56
360.029	416.56
360.256	427.56
360.483	397.56
360.709	381.56
360.936	394.56
361.163	376.56
361.39	364.56
361.616	383.56
361.843	381.56
362.07	357.56
362.296	371.56
362.523	369.56
362.749	383.56
362.976	365.56
363.203	366.56
363.429	354.56
363.656	359.56
363.882	344.56
364.109	357.56
364.335	353.56
364.562	368.56
364.788	346.56
365.015	348.56
365.241	362.56
365.468	368.56
365.694	358.56
365.92	367.56
366.147	345.56
366.373	347.56
366.599	376.56
366.826	374.56
367.052	355.56
367.278	348.56
367.505	346.56
367.731	352.56
367.957	346.56
368.184	361.56
368.41	367.56
368.636	376.56
368.862	364.56
369.089	355.56
369.315	360.56
369.541	359.56
369.767	352.56
369.993	335.56
370.219	366.56
370.445	353.56
370.672	339.56
370.898	331.56
371.124	347.56
371.35	340.56
371.576	341.56
371.802	371.56
372.028	355.56
372.254	343.56
372.48	351.56
372.706	361.56
372.932	377.56
373.158	359.56
373.384	343.56
373.61	347.56
373.835	352.56
374.061	349.56
374.287	348.56
374.513	355.56
374.739	327.56
374.965	332.56
375.191	355.56
375.416	364.56
375.642	379.56
375.868	344.56
376.094	345.56
376.319	350.56
376.545	364.56
376.771	351.56
376.997	354.56
377.222	359.56
377.448	340.56
377.674	345.56
377.899	341.56
378.125	347.56
378.35	362.56
378.576	356.56
378.802	352.56
379.027	359.56
379.253	332.56
379.478	346.56
379.704	346.56
379.929	347.56
380.155	355.56
380.38	359.56
380.606	348.56
380.831	340.56
381.057	350.56
381.282	364.56
381.507	345.56
381.733	356.56
381.958	371.56
382.184	350.56
382.409	349.56
382.634	347.56
382.86	345.56
383.085	364.56
383.31	366.56
383.535	364.56
383.761	347.56
383.986	369.56
384.211	375.56
384.436	381.56
384.662	377.56
384.887	360.56
385.112	369.56
385.337	377.56
385.562	347.56
385.787	381.56
386.013	399.56
386.238	391.56
386.463	371.56
386.688	376.56
386.913	366.56
387.138	376.56
387.363	384.56
387.588	372.56
387.813	371.56
388.038	357.56
388.263	377.56
388.488	373.56
388.713	380.56
388.938	376.56
389.163	383.56
389.387	361.56
389.612	365.56
389.837	385.56
390.062	370.56
390.287	371.56
390.512	388.56
390.736	389.56
390.961	367.56
391.186	389.56
391.411	373.56
391.636	359.56
391.86	383.56
392.085	407.56
392.31	384.56
392.534	393.56
392.759	383.56
392.984	376.56
393.208	381.56
393.433	383.56
393.658	386.56
393.882	372.56
394.107	381.56
394.331	381.56
394.556	363.56
394.78	381.56
395.005	391.56
395.229	363.56
395.454	381.56
395.678	387.56
395.903	383.56
396.127	406.56
396.352	404.56
396.576	409.56
396.801	390.56
397.025	404.56
397.249	407.56
397.474	405.56
397.698	414.56
397.922	399.56
398.147	432.56
398.371	412.56
398.595	424.56
398.82	431.56
399.044	397.56
399.268	442.56
399.492	473.56
399.717	469.56
399.941	485.56
400.165	486.56
400.389	511.56
400.613	466.56
400.837	456.56
401.062	434.56
401.286	429.56
401.51	435.56
401.734	427.56
401.958	427.56
402.182	435.56
402.406	424.56
402.63	443.56
402.854	421.56
403.078	445.56
403.302	432.56
403.526	410.56
403.75	417.56
403.974	450.56
404.198	425.56
404.422	443.56
404.645	459.56
404.869	438.56
405.093	483.56
405.317	474.56
405.541	494.56
405.765	448.56
405.988	469.56
406.212	479.56
406.436	494.56
406.66	503.56
406.883	453.56
407.107	498.56
407.331	515.56
407.555	558.56
407.778	579.56
408.002	493.56
408.226	471.56
408.449	484.56
408.673	482.56
408.896	513.56
409.12	539.56
409.344	507.56
409.567	463.56
409.791	436.56
410.014	431.56
410.238	446.56
410.461	439.56
410.685	448.56
410.908	451.56
411.132	467.56
411.355	500.56
411.578	482.56
411.802	446.56
412.025	422.56
412.249	437.56
412.472	435.56
412.695	460.56
412.919	425.56
413.142	419.56
413.365	425.56
413.589	410.56
413.812	429.56
414.035	402.56
414.258	398.56
414.482	401.56
414.705	425.56
414.928	427.56
415.151	423.56
415.374	398.56
415.597	421.56
415.821	413.56
416.044	423.56
416.267	411.56
416.49	400.56
416.713	409.56
416.936	396.56
417.159	418.56
417.382	426.56
417.605	419.56
417.828	420.56
418.051	444.56
418.274	441.56
418.497	417.56
418.72	403.56
418.943	427.56
419.166	428.56
419.389	447.56
419.611	424.56
419.834	427.56
420.057	435.56
420.28	435.56
420.503	413.56
420.726	421.56
420.948	439.56
421.171	463.56
421.394	490.56
421.617	455.56
421.839	436.56
422.062	430.56
422.285	447.56
422.507	492.56
422.73	552.56
422.953	535.56
423.175	464.56
423.398	453.56
423.621	465.56
423.843	482.56
424.066	462.56
424.288	458.56
424.511	479.56
424.733	541.56
424.956	584.56
425.178	564.56
425.401	581.56
425.623	569.56
425.846	503.56
426.068	454.56
426.291	468.56
426.513	465.56
426.735	489.56
426.958	517.56
427.18	571.56
427.402	661.56
427.625	751.56
427.847	651.56
428.069	548.56
428.292	507.56
428.514	468.56
428.736	442.56
428.958	449.56
429.181	428.56
429.403	417.56
429.625	472.56
429.847	458.56
430.069	522.56
430.292	503.56
430.514	451.56
430.736	432.56
430.958	405.56
431.18	412.56
431.402	439.56
431.624	413.56
431.846	421.56
432.068	399.56
432.29	412.56
432.512	413.56
432.734	404.56
432.956	402.56
433.178	413.56
433.4	420.56
433.622	415.56
433.844	389.56
434.066	424.56
434.287	401.56
434.509	408.56
434.731	405.56
434.953	407.56
435.175	432.56
435.397	454.56
435.618	462.56
435.84	506.56
436.062	586.56
436.284	604.56
436.505	535.56
436.727	489.56
436.949	453.56
437.17	443.56
437.392	425.56
437.614	445.56
437.835	479.56
438.057	566.56
438.278	631.56
438.5	633.56
438.721	648.56
438.943	638.56
439.165	520.56
439.386	488.56
439.608	489.56
439.829	478.56
440.05	478.56
440.272	518.56
440.493	500.56
440.715	459.56
440.936	439.56
441.158	423.56
441.379	442.56
441.6	456.56
441.822	470.56
442.043	488.56
442.264	564.56
442.486	579.56
442.707	519.56
442.928	502.56
443.149	514.56
443.371	503.56
443.592	547.56
443.813	599.56
444.034	648.56
444.255	550.56
444.476	501.56
444.698	461.56
444.919	471.56
445.14	588.56
445.361	522.56
445.582	509.56
445.803	545.56
446.024	633.56
446.245	628.56
446.466	587.56
446.687	517.56
446.908	457.56
447.129	431.56
447.35	443.56
447.571	429.56
447.792	429.56
448.013	431.56
448.234	451.56
448.455	515.56
448.675	576.56
448.896	669.56
449.117	577.56
449.338	555.56
449.559	621.56
449.779	670.56
450	584.56
450.221	477.56
450.442	436.56
450.662	423.56
450.883	455.56
451.104	427.56
451.324	446.56
451.545	423.56
451.766	383.56
451.986	383.56
452.207	381.56
452.428	389.56
452.648	377.56
452.869	405.56
453.089	416.56
453.31	393.56
453.53	407.56
453.751	399.56
453.971	420.56
454.192	414.56
454.412	387.56
454.633	378.56
454.853	403.56
455.073	401.56
455.294	429.56
455.514	479.56
455.734	467.56
455.955	367.56
456.175	387.56
456.395	358.56
456.616	355.56
456.836	360.56
457.056	371.56
457.276	368.56
457.497	366.56
457.717	370.56
457.937	361.56
458.157	370.56
458.377	396.56
458.598	404.56
458.818	452.56
459.038	525.56
459.258	543.56
459.478	458.56
459.698	411.56
459.918	419.56
460.138	407.56
460.358	401.56
460.578	405.56
460.798	429.56
461.018	414.56
461.238	407.56
461.458	387.56
461.678	425.56
461.898	417.56
462.118	416.56
462.338	432.56
462.558	422.56
462.777	430.56
462.997	448.56
463.217	440.56
463.437	451.56
463.657	442.56
463.876	442.56
464.096	422.56
464.316	429.56
464.536	430.56
464.755	437.56
464.975	439.56
465.195	486.56
465.414	554.56
465.634	488.56
465.854	439.56
466.073	440.56
466.293	401.56
466.512	401.56
466.732	399.56
466.951	377.56
467.171	401.56
467.391	404.56
467.61	413.56
467.829	430.56
468.049	409.56
468.268	383.56
468.488	383.56
468.707	398.56
468.927	383.56
469.146	390.56
469.365	407.56
469.585	387.56
469.804	404.56
470.023	421.56
470.243	399.56
470.462	415.56
470.681	437.56
470.901	425.56
471.12	411.56
471.339	419.56
471.558	409.56
471.777	402.56
471.997	395.56
472.216	378.56
472.435	400.56
472.654	415.56
472.873	399.56
473.092	394.56
473.311	376.56
473.53	386.56
473.749	366.56
473.968	452.56
474.187	529.56
474.406	542.56
474.625	433.56
474.844	426.56
475.063	400.56
475.282	405.56
475.501	391.56
475.72	421.56
475.939	401.56
476.158	433.56
476.377	412.56
476.596	409.56
476.814	430.56
477.033	415.56
477.252	410.56
477.471	440.56
477.69	419.56
477.908	443.56
478.127	436.56
478.346	429.56
478.564	421.56
478.783	433.56
479.002	465.56
479.22	445.56
479.439	470.56
479.658	478.56
479.876	481.56
480.095	480.56
480.313	498.56
480.532	483.56
480.751	480.56
480.969	509.56
481.188	510.56
481.406	513.56
481.624	469.56
481.843	463.56
482.061	465.56
482.28	462.56
482.498	444.56
482.717	440.56
482.935	458.56
483.153	471.56
483.372	471.56
483.59	464.56
483.808	454.56
484.027	463.56
484.245	470.56
484.463	481.56
484.681	491.56
484.9	479.56
485.118	468.56
485.336	473.56
485.554	473.56
485.772	455.56
485.99	485.56
486.209	488.56
486.427	475.56
486.645	485.56
486.863	523.56
487.081	511.56
487.299	507.56
487.517	495.56
487.735	507.56
487.953	515.56
488.171	487.56
488.389	490.56
488.607	497.56
488.825	497.56
489.043	505.56
489.261	524.56
489.479	511.56
489.696	507.56
489.914	496.56
490.132	537.56
490.35	524.56
490.568	535.56
490.786	544.56
491.003	537.56
491.221	552.56
491.439	557.56
491.657	564.56
491.874	563.56
492.092	579.56
492.31	602.56
492.527	563.56
492.745	582.56
492.963	567.56
493.18	590.56
493.398	587.56
493.615	580.56
493.833	580.56
494.05	605.56
494.268	586.56
494.485	604.56
494.703	590.56
494.92	592.56
495.138	586.56
495.355	560.56
495.573	585.56
495.79	591.56
496.008	601.56
496.225	582.56
496.442	600.56
496.66	609.56
496.877	603.56
497.094	591.56
497.312	605.56
497.529	617.56
497.746	603.56
497.963	608.56
498.181	648.56
498.398	639.56
498.615	631.56
498.832	667.56
499.049	679.56
499.267	676.56
499.484	697.56
499.701	727.56
499.918	740.56
500.135	769.56
500.352	785.56
500.569	801.56
500.786	797.56
501.003	783.56
501.22	769.56
501.437	746.56
501.654	757.56
501.871	736.56
502.088	700.56
