Data from 1983.PennyLincolnUp.Lamp.En5.5.200Scan.071819.P1_HRD10591_16-53-34-966.txt Node
Date: Thu Jul 18 16:53:34 EDT 2019
User: cochatt
Spectrometer: HR+D1059
Trigger mode: 1
Integration Time (sec): 1.000000E-1
Scans to average: 1
Electric dark correction enabled: true
Nonlinearity correction enabled: false
Boxcar width: 0
XAxis mode: Wavelengths
Number of Pixels in Spectrum: 2048
>>>>>Begin Spectral Data<<<<<
223.165	-20.75
223.4	-20.75
223.635	-20.75
223.869	-22.75
224.104	-8.75
224.338	-27.75
224.573	-14.75
224.808	-22.75
225.042	-10.75
225.277	8.25
225.511	-0.75
225.746	7.25
225.98	10.25
226.215	17.25
226.449	19.25
226.683	14.25
226.918	20.25
227.152	32.25
227.387	39.25
227.621	40.25
227.856	28.25
228.09	44.25
228.324	44.25
228.559	52.25
228.793	64.25
229.027	103.25
229.262	93.25
229.496	96.25
229.73	104.25
229.964	135.25
230.199	112.25
230.433	105.25
230.667	111.25
230.901	111.25
231.136	101.25
231.37	111.25
231.604	99.25
231.838	114.25
232.072	105.25
232.306	87.25
232.541	100.25
232.775	105.25
233.009	121.25
233.243	113.25
233.477	105.25
233.711	97.25
233.945	88.25
234.179	111.25
234.413	110.25
234.647	101.25
234.881	111.25
235.115	112.25
235.349	108.25
235.583	120.25
235.817	121.25
236.051	123.25
236.285	107.25
236.519	116.25
236.753	119.25
236.987	137.25
237.221	170.25
237.455	209.25
237.689	156.25
237.922	140.25
238.156	135.25
238.39	129.25
238.624	119.25
238.858	113.25
239.091	108.25
239.325	108.25
239.559	123.25
239.793	123.25
240.027	131.25
240.26	134.25
240.494	150.25
240.728	135.25
240.961	142.25
241.195	134.25
241.429	140.25
241.662	135.25
241.896	129.25
242.13	141.25
242.363	126.25
242.597	116.25
242.83	133.25
243.064	143.25
243.298	136.25
243.531	132.25
243.765	129.25
243.998	124.25
244.232	142.25
244.465	145.25
244.699	131.25
244.932	128.25
245.166	140.25
245.399	142.25
245.633	136.25
245.866	125.25
246.099	140.25
246.333	130.25
246.566	133.25
246.8	149.25
247.033	137.25
247.266	137.25
247.5	136.25
247.733	162.25
247.966	151.25
248.2	175.25
248.433	160.25
248.666	164.25
248.899	182.25
249.133	183.25
249.366	181.25
249.599	175.25
249.832	164.25
250.066	166.25
250.299	158.25
250.532	178.25
250.765	180.25
250.998	187.25
251.231	199.25
251.465	203.25
251.698	197.25
251.931	180.25
252.164	180.25
252.397	185.25
252.63	180.25
252.863	199.25
253.096	197.25
253.329	185.25
253.562	213.25
253.795	185.25
254.028	188.25
254.261	198.25
254.494	218.25
254.727	236.25
254.96	246.25
255.193	231.25
255.426	217.25
255.659	210.25
255.892	217.25
256.124	214.25
256.357	203.25
256.59	205.25
256.823	210.25
257.056	181.25
257.289	203.25
257.521	202.25
257.754	193.25
257.987	198.25
258.22	200.25
258.452	170.25
258.685	199.25
258.918	194.25
259.151	167.25
259.383	199.25
259.616	202.25
259.849	214.25
260.081	200.25
260.314	220.25
260.547	233.25
260.779	225.25
261.012	220.25
261.244	201.25
261.477	195.25
261.71	199.25
261.942	220.25
262.175	210.25
262.407	211.25
262.64	204.25
262.872	192.25
263.105	198.25
263.337	222.25
263.57	197.25
263.802	205.25
264.035	192.25
264.267	200.25
264.499	199.25
264.732	189.25
264.964	194.25
265.197	200.25
265.429	194.25
265.661	196.25
265.894	181.25
266.126	187.25
266.358	195.25
266.591	209.25
266.823	191.25
267.055	216.25
267.287	211.25
267.52	194.25
267.752	213.25
267.984	199.25
268.216	195.25
268.448	210.25
268.681	218.25
268.913	219.25
269.145	249.25
269.377	242.25
269.609	259.25
269.841	249.25
270.073	244.25
270.306	271.25
270.538	283.25
270.77	269.25
271.002	275.25
271.234	274.25
271.466	290.25
271.698	283.25
271.93	275.25
272.162	287.25
272.394	289.25
272.626	295.25
272.858	267.25
273.09	251.25
273.322	244.25
273.553	242.25
273.785	234.25
274.017	232.25
274.249	232.25
274.481	245.25
274.713	245.25
274.945	237.25
275.176	246.25
275.408	243.25
275.64	241.25
275.872	251.25
276.104	236.25
276.335	237.25
276.567	256.25
276.799	271.25
277.031	307.25
277.262	291.25
277.494	288.25
277.726	289.25
277.957	276.25
278.189	253.25
278.421	251.25
278.652	262.25
278.884	241.25
279.115	255.25
279.347	228.25
279.579	231.25
279.81	234.25
280.042	233.25
280.273	245.25
280.505	239.25
280.736	249.25
280.968	231.25
281.199	233.25
281.431	251.25
281.662	243.25
281.894	231.25
282.125	255.25
282.356	276.25
282.588	287.25
282.819	281.25
283.051	261.25
283.282	255.25
283.513	265.25
283.745	226.25
283.976	259.25
284.207	268.25
284.439	252.25
284.67	254.25
284.901	244.25
285.132	252.25
285.364	273.25
285.595	255.25
285.826	273.25
286.057	255.25
286.288	263.25
286.52	255.25
286.751	233.25
286.982	259.25
287.213	266.25
287.444	258.25
287.675	276.25
287.906	279.25
288.138	261.25
288.369	291.25
288.6	278.25
288.831	276.25
289.062	269.25
289.293	253.25
289.524	267.25
289.755	240.25
289.986	253.25
290.217	244.25
290.448	260.25
290.679	264.25
290.91	260.25
291.141	259.25
291.371	271.25
291.602	266.25
291.833	268.25
292.064	282.25
292.295	275.25
292.526	281.25
292.757	253.25
292.987	255.25
293.218	272.25
293.449	262.25
293.68	255.25
293.91	292.25
294.141	260.25
294.372	274.25
294.603	279.25
294.833	263.25
295.064	269.25
295.295	268.25
295.525	242.25
295.756	281.25
295.987	285.25
296.217	308.25
296.448	313.25
296.679	294.25
296.909	275.25
297.14	243.25
297.37	279.25
297.601	270.25
297.831	275.25
298.062	269.25
298.292	271.25
298.523	281.25
298.753	284.25
298.984	282.25
299.214	298.25
299.445	284.25
299.675	287.25
299.905	291.25
300.136	281.25
300.366	279.25
300.597	263.25
300.827	279.25
301.057	279.25
301.288	308.25
301.518	309.25
301.748	292.25
301.979	296.25
302.209	303.25
302.439	277.25
302.669	301.25
302.9	286.25
303.13	289.25
303.36	296.25
303.59	294.25
303.82	314.25
304.051	308.25
304.281	312.25
304.511	281.25
304.741	291.25
304.971	303.25
305.201	311.25
305.431	298.25
305.661	293.25
305.891	308.25
306.121	300.25
306.352	315.25
306.582	303.25
306.812	307.25
307.042	298.25
307.272	302.25
307.502	321.25
307.731	309.25
307.961	301.25
308.191	289.25
308.421	310.25
308.651	295.25
308.881	318.25
309.111	315.25
309.341	311.25
309.571	337.25
309.8	333.25
310.03	340.25
310.26	342.25
310.49	343.25
310.72	349.25
310.949	375.25
311.179	355.25
311.409	346.25
311.639	346.25
311.868	348.25
312.098	343.25
312.328	353.25
312.557	361.25
312.787	398.25
313.017	393.25
313.246	354.25
313.476	354.25
313.706	356.25
313.935	345.25
314.165	356.25
314.394	369.25
314.624	364.25
314.853	365.25
315.083	353.25
315.312	364.25
315.542	350.25
315.771	327.25
316.001	339.25
316.23	339.25
316.46	333.25
316.689	334.25
316.919	338.25
317.148	357.25
317.377	365.25
317.607	353.25
317.836	360.25
318.065	364.25
318.295	328.25
318.524	348.25
318.753	327.25
318.983	341.25
319.212	357.25
319.441	360.25
319.67	373.25
319.9	359.25
320.129	340.25
320.358	370.25
320.587	362.25
320.816	359.25
321.046	353.25
321.275	361.25
321.504	360.25
321.733	376.25
321.962	375.25
322.191	388.25
322.42	406.25
322.649	403.25
322.878	402.25
323.108	435.25
323.337	442.25
323.566	479.25
323.795	525.25
324.024	561.25
324.253	674.25
324.482	966.25
324.71	1482.25
324.939	1987.25
325.168	1643.25
325.397	892.25
325.626	631.25
325.855	498.25
326.084	477.25
326.313	477.25
326.542	480.25
326.77	523.25
326.999	612.25
327.228	881.25
327.457	1293.25
327.686	1452.25
327.914	997.25
328.143	684.25
328.372	581.25
328.6	551.25
328.829	521.25
329.058	538.25
329.287	541.25
329.515	519.25
329.744	455.25
329.972	440.25
330.201	466.25
330.43	505.25
330.658	522.25
330.887	581.25
331.115	555.25
331.344	495.25
331.572	475.25
331.801	465.25
332.03	437.25
332.258	438.25
332.486	403.25
332.715	418.25
332.943	397.25
333.172	389.25
333.4	401.25
333.629	413.25
333.857	414.25
334.085	429.25
334.314	438.25
334.542	416.25
334.771	434.25
334.999	431.25
335.227	422.25
335.455	411.25
335.684	397.25
335.912	399.25
336.14	406.25
336.369	404.25
336.597	395.25
336.825	419.25
337.053	403.25
337.281	416.25
337.51	389.25
337.738	393.25
337.966	371.25
338.194	413.25
338.422	406.25
338.65	412.25
338.878	375.25
339.106	376.25
339.334	387.25
339.562	379.25
339.79	379.25
340.018	390.25
340.246	398.25
340.474	389.25
340.702	408.25
340.93	390.25
341.158	387.25
341.386	389.25
341.614	377.25
341.842	396.25
342.07	393.25
342.298	389.25
342.526	391.25
342.754	371.25
342.981	364.25
343.209	370.25
343.437	377.25
343.665	386.25
343.893	387.25
344.12	377.25
344.348	383.25
344.576	398.25
344.804	367.25
345.031	393.25
345.259	408.25
345.487	377.25
345.714	381.25
345.942	394.25
346.17	400.25
346.397	382.25
346.625	370.25
346.853	401.25
347.08	358.25
347.308	385.25
347.535	397.25
347.763	385.25
347.99	384.25
348.218	376.25
348.445	399.25
348.673	383.25
348.9	362.25
349.128	378.25
349.355	363.25
349.583	356.25
349.81	374.25
350.037	379.25
350.265	328.25
350.492	371.25
350.72	354.25
350.947	363.25
351.174	379.25
351.402	385.25
351.629	398.25
351.856	388.25
352.083	402.25
352.311	400.25
352.538	397.25
352.765	407.25
352.992	376.25
353.22	386.25
353.447	372.25
353.674	380.25
353.901	368.25
354.128	353.25
354.355	364.25
354.583	346.25
354.81	355.25
355.037	359.25
355.264	337.25
355.491	345.25
355.718	360.25
355.945	343.25
356.172	365.25
356.399	349.25
356.626	348.25
356.853	356.25
357.08	325.25
357.307	333.25
357.534	359.25
357.761	347.25
357.988	353.25
358.215	345.25
358.441	332.25
358.668	362.25
358.895	338.25
359.122	368.25
359.349	361.25
359.576	377.25
359.802	387.25
360.029	425.25
360.256	441.25
360.483	430.25
360.709	365.25
360.936	379.25
361.163	379.25
361.39	369.25
361.616	380.25
361.843	385.25
362.07	381.25
362.296	395.25
362.523	394.25
362.749	365.25
362.976	367.25
363.203	357.25
363.429	354.25
363.656	355.25
363.882	349.25
364.109	363.25
364.335	343.25
364.562	371.25
364.788	361.25
365.015	360.25
365.241	357.25
365.468	353.25
365.694	364.25
365.92	372.25
366.147	354.25
366.373	360.25
366.599	347.25
366.826	344.25
367.052	361.25
367.278	355.25
367.505	354.25
367.731	360.25
367.957	369.25
368.184	360.25
368.41	339.25
368.636	367.25
368.862	357.25
369.089	364.25
369.315	373.25
369.541	348.25
369.767	369.25
369.993	377.25
370.219	363.25
370.445	349.25
370.672	353.25
370.898	336.25
371.124	332.25
371.35	347.25
371.576	351.25
371.802	360.25
372.028	346.25
372.254	345.25
372.48	355.25
372.706	362.25
372.932	368.25
373.158	339.25
373.384	359.25
373.61	334.25
373.835	354.25
374.061	360.25
374.287	355.25
374.513	383.25
374.739	367.25
374.965	352.25
375.191	350.25
375.416	359.25
375.642	363.25
375.868	335.25
376.094	355.25
376.319	360.25
376.545	361.25
376.771	353.25
376.997	350.25
377.222	348.25
377.448	344.25
377.674	341.25
377.899	345.25
378.125	338.25
378.35	340.25
378.576	347.25
378.802	344.25
379.027	341.25
379.253	353.25
379.478	339.25
379.704	364.25
379.929	351.25
380.155	338.25
380.38	353.25
380.606	342.25
380.831	339.25
381.057	344.25
381.282	335.25
381.507	348.25
381.733	349.25
381.958	359.25
382.184	373.25
382.409	351.25
382.634	356.25
382.86	342.25
383.085	362.25
383.31	365.25
383.535	363.25
383.761	357.25
383.986	346.25
384.211	352.25
384.436	363.25
384.662	376.25
384.887	358.25
385.112	369.25
385.337	378.25
385.562	351.25
385.787	383.25
386.013	377.25
386.238	377.25
386.463	382.25
386.688	368.25
386.913	365.25
387.138	391.25
387.363	382.25
387.588	371.25
387.813	380.25
388.038	362.25
388.263	379.25
388.488	395.25
388.713	383.25
388.938	357.25
389.163	346.25
389.387	372.25
389.612	342.25
389.837	364.25
390.062	385.25
390.287	387.25
390.512	375.25
390.736	378.25
390.961	367.25
391.186	373.25
391.411	378.25
391.636	368.25
391.86	369.25
392.085	398.25
392.31	379.25
392.534	381.25
392.759	363.25
392.984	371.25
393.208	403.25
393.433	371.25
393.658	370.25
393.882	371.25
394.107	371.25
394.331	380.25
394.556	373.25
394.78	368.25
395.005	389.25
395.229	384.25
395.454	408.25
395.678	388.25
395.903	372.25
396.127	411.25
396.352	410.25
396.576	396.25
396.801	390.25
397.025	395.25
397.249	397.25
397.474	405.25
397.698	417.25
397.922	434.25
398.147	433.25
398.371	417.25
398.595	399.25
398.82	436.25
399.044	434.25
399.268	442.25
399.492	452.25
399.717	484.25
399.941	486.25
400.165	510.25
400.389	526.25
400.613	483.25
400.837	441.25
401.062	423.25
401.286	439.25
401.51	432.25
401.734	440.25
401.958	429.25
402.182	429.25
402.406	433.25
402.63	443.25
402.854	435.25
403.078	433.25
403.302	430.25
403.526	440.25
403.75	446.25
403.974	412.25
404.198	456.25
404.422	435.25
404.645	457.25
404.869	449.25
405.093	455.25
405.317	467.25
405.541	497.25
405.765	464.25
405.988	462.25
406.212	467.25
406.436	486.25
406.66	515.25
406.883	481.25
407.107	500.25
407.331	536.25
407.555	579.25
407.778	555.25
408.002	515.25
408.226	488.25
408.449	471.25
408.673	458.25
408.896	501.25
409.12	540.25
409.344	525.25
409.567	448.25
409.791	413.25
410.014	452.25
410.238	454.25
410.461	460.25
410.685	456.25
410.908	450.25
411.132	479.25
411.355	484.25
411.578	486.25
411.802	429.25
412.025	448.25
412.249	447.25
412.472	449.25
412.695	471.25
412.919	445.25
413.142	444.25
413.365	446.25
413.589	417.25
413.812	424.25
414.035	422.25
414.258	399.25
414.482	413.25
414.705	408.25
414.928	410.25
415.151	419.25
415.374	416.25
415.597	420.25
415.821	416.25
416.044	422.25
416.267	421.25
416.49	421.25
416.713	421.25
416.936	434.25
417.159	379.25
417.382	388.25
417.605	425.25
417.828	419.25
418.051	427.25
418.274	431.25
418.497	411.25
418.72	404.25
418.943	442.25
419.166	417.25
419.389	449.25
419.611	443.25
419.834	423.25
420.057	422.25
420.28	426.25
420.503	458.25
420.726	415.25
420.948	427.25
421.171	461.25
421.394	475.25
421.617	456.25
421.839	421.25
422.062	450.25
422.285	436.25
422.507	503.25
422.73	554.25
422.953	543.25
423.175	457.25
423.398	438.25
423.621	472.25
423.843	482.25
424.066	496.25
424.288	454.25
424.511	488.25
424.733	527.25
424.956	576.25
425.178	551.25
425.401	559.25
425.623	591.25
425.846	502.25
426.068	481.25
426.291	463.25
426.513	462.25
426.735	502.25
426.958	521.25
427.18	572.25
427.402	651.25
427.625	732.25
427.847	640.25
428.069	568.25
428.292	498.25
428.514	467.25
428.736	453.25
428.958	436.25
429.181	456.25
429.403	448.25
429.625	443.25
429.847	481.25
430.069	527.25
430.292	499.25
430.514	471.25
430.736	421.25
430.958	433.25
431.18	413.25
431.402	419.25
431.624	411.25
431.846	418.25
432.068	419.25
432.29	408.25
432.512	419.25
432.734	396.25
432.956	410.25
433.178	407.25
433.4	422.25
433.622	429.25
433.844	417.25
434.066	404.25
434.287	417.25
434.509	415.25
434.731	403.25
434.953	421.25
435.175	438.25
435.397	469.25
435.618	431.25
435.84	476.25
436.062	599.25
436.284	627.25
436.505	539.25
436.727	484.25
436.949	449.25
437.17	439.25
437.392	433.25
437.614	451.25
437.835	477.25
438.057	571.25
438.278	651.25
438.5	632.25
438.721	693.25
438.943	638.25
439.165	522.25
439.386	491.25
439.608	480.25
439.829	471.25
440.05	517.25
440.272	549.25
440.493	519.25
440.715	455.25
440.936	455.25
441.158	449.25
441.379	453.25
441.6	458.25
441.822	467.25
442.043	479.25
442.264	569.25
442.486	617.25
442.707	522.25
442.928	467.25
443.149	509.25
443.371	517.25
443.592	535.25
443.813	612.25
444.034	641.25
444.255	530.25
444.476	484.25
444.698	500.25
444.919	474.25
445.14	555.25
445.361	509.25
445.582	497.25
445.803	559.25
446.024	635.25
446.245	643.25
446.466	597.25
446.687	502.25
446.908	463.25
447.129	445.25
447.35	433.25
447.571	429.25
447.792	439.25
448.013	418.25
448.234	451.25
448.455	483.25
448.675	576.25
448.896	650.25
449.117	547.25
449.338	543.25
449.559	642.25
449.779	698.25
450	585.25
450.221	481.25
450.442	431.25
450.662	446.25
450.883	445.25
451.104	447.25
451.324	451.25
451.545	427.25
451.766	415.25
451.986	404.25
452.207	375.25
452.428	397.25
452.648	397.25
452.869	379.25
453.089	405.25
453.31	408.25
453.53	409.25
453.751	403.25
453.971	397.25
454.192	427.25
454.412	419.25
454.633	395.25
454.853	381.25
455.073	412.25
455.294	427.25
455.514	474.25
455.734	459.25
455.955	430.25
456.175	371.25
456.395	372.25
456.616	349.25
456.836	367.25
457.056	360.25
457.276	364.25
457.497	376.25
457.717	360.25
457.937	366.25
458.157	369.25
458.377	387.25
458.598	418.25
458.818	480.25
459.038	531.25
459.258	539.25
459.478	456.25
459.698	411.25
459.918	412.25
460.138	401.25
460.358	409.25
460.578	411.25
460.798	421.25
461.018	407.25
461.238	405.25
461.458	417.25
461.678	398.25
461.898	410.25
462.118	408.25
462.338	420.25
462.558	413.25
462.777	431.25
462.997	425.25
463.217	423.25
463.437	448.25
463.657	433.25
463.876	449.25
464.096	453.25
464.316	442.25
464.536	449.25
464.755	457.25
464.975	460.25
465.195	500.25
465.414	575.25
465.634	485.25
465.854	442.25
466.073	412.25
466.293	433.25
466.512	416.25
466.732	397.25
466.951	406.25
467.171	384.25
467.391	405.25
467.61	416.25
467.829	417.25
468.049	413.25
468.268	389.25
468.488	400.25
468.707	395.25
468.927	397.25
469.146	379.25
469.365	368.25
469.585	390.25
469.804	409.25
470.023	412.25
470.243	418.25
470.462	411.25
470.681	420.25
470.901	429.25
471.12	403.25
471.339	407.25
471.558	398.25
471.777	431.25
471.997	386.25
472.216	386.25
472.435	415.25
472.654	399.25
472.873	408.25
473.092	385.25
473.311	403.25
473.53	411.25
473.749	413.25
473.968	428.25
474.187	529.25
474.406	532.25
474.625	449.25
474.844	411.25
475.063	419.25
475.282	403.25
475.501	420.25
475.72	404.25
475.939	405.25
476.158	416.25
476.377	409.25
476.596	404.25
476.814	427.25
477.033	442.25
477.252	439.25
477.471	431.25
477.69	428.25
477.908	431.25
478.127	439.25
478.346	422.25
478.564	442.25
478.783	432.25
479.002	465.25
479.22	449.25
479.439	471.25
479.658	486.25
479.876	507.25
480.095	472.25
480.313	495.25
480.532	508.25
480.751	489.25
480.969	504.25
481.188	533.25
481.406	527.25
481.624	495.25
481.843	487.25
482.061	475.25
482.28	466.25
482.498	461.25
482.717	472.25
482.935	463.25
483.153	480.25
483.372	487.25
483.59	480.25
483.808	469.25
484.027	466.25
484.245	470.25
484.463	473.25
484.681	493.25
484.9	476.25
485.118	470.25
485.336	463.25
485.554	461.25
485.772	474.25
485.99	483.25
486.209	476.25
486.427	473.25
486.645	508.25
486.863	518.25
487.081	511.25
487.299	515.25
487.517	523.25
487.735	515.25
487.953	518.25
488.171	521.25
488.389	504.25
488.607	519.25
488.825	497.25
489.043	505.25
489.261	509.25
489.479	512.25
489.696	518.25
489.914	508.25
490.132	512.25
490.35	538.25
490.568	523.25
490.786	525.25
491.003	537.25
491.221	571.25
491.439	549.25
491.657	580.25
491.874	565.25
492.092	559.25
492.31	584.25
492.527	573.25
492.745	591.25
492.963	592.25
493.18	588.25
493.398	593.25
493.615	593.25
493.833	609.25
494.05	605.25
494.268	599.25
494.485	600.25
494.703	604.25
494.92	601.25
495.138	594.25
495.355	625.25
495.573	610.25
495.79	614.25
496.008	614.25
496.225	607.25
496.442	596.25
496.66	593.25
496.877	614.25
497.094	638.25
497.312	605.25
497.529	603.25
497.746	627.25
497.963	641.25
498.181	649.25
498.398	656.25
498.615	647.25
498.832	655.25
499.049	667.25
499.267	684.25
499.484	719.25
499.701	734.25
499.918	749.25
500.135	766.25
500.352	801.25
500.569	775.25
500.786	779.25
501.003	799.25
501.22	789.25
501.437	768.25
501.654	765.25
501.871	742.25
502.088	724.25
