Data from 1983.PennyLincolnUp.Lamp.En5.5.200Scan.071819.P1_HRD10591_16-54-54-966.txt Node
Date: Thu Jul 18 16:54:54 EDT 2019
User: cochatt
Spectrometer: HR+D1059
Trigger mode: 1
Integration Time (sec): 1.000000E-1
Scans to average: 1
Electric dark correction enabled: true
Nonlinearity correction enabled: false
Boxcar width: 0
XAxis mode: Wavelengths
Number of Pixels in Spectrum: 2048
>>>>>Begin Spectral Data<<<<<
223.165	-8.06
223.4	-8.06
223.635	-8.06
223.869	-23.06
224.104	-7.06
224.338	-28.06
224.573	0.94
224.808	-15.06
225.042	-14.06
225.277	-15.06
225.511	-12.06
225.746	11.94
225.98	9.94
226.215	12.94
226.449	16.94
226.683	18.94
226.918	15.94
227.152	34.94
227.387	30.94
227.621	43.94
227.856	36.94
228.09	47.94
228.324	48.94
228.559	63.94
228.793	66.94
229.027	85.94
229.262	108.94
229.496	103.94
229.73	144.94
229.964	152.94
230.199	131.94
230.433	117.94
230.667	114.94
230.901	98.94
231.136	102.94
231.37	104.94
231.604	113.94
231.838	107.94
232.072	107.94
232.306	113.94
232.541	112.94
232.775	101.94
233.009	112.94
233.243	123.94
233.477	108.94
233.711	112.94
233.945	107.94
234.179	111.94
234.413	104.94
234.647	126.94
234.881	118.94
235.115	102.94
235.349	107.94
235.583	113.94
235.817	103.94
236.051	102.94
236.285	126.94
236.519	120.94
236.753	128.94
236.987	134.94
237.221	148.94
237.455	212.94
237.689	157.94
237.922	134.94
238.156	134.94
238.39	124.94
238.624	124.94
238.858	112.94
239.091	112.94
239.325	124.94
239.559	136.94
239.793	127.94
240.027	126.94
240.26	137.94
240.494	154.94
240.728	129.94
240.961	132.94
241.195	127.94
241.429	132.94
241.662	139.94
241.896	135.94
242.13	133.94
242.363	133.94
242.597	123.94
242.83	141.94
243.064	121.94
243.298	125.94
243.531	133.94
243.765	125.94
243.998	122.94
244.232	133.94
244.465	139.94
244.699	143.94
244.932	136.94
245.166	140.94
245.399	128.94
245.633	144.94
245.866	150.94
246.099	149.94
246.333	157.94
246.566	137.94
246.8	136.94
247.033	131.94
247.266	160.94
247.5	158.94
247.733	146.94
247.966	168.94
248.2	165.94
248.433	167.94
248.666	153.94
248.899	173.94
249.133	201.94
249.366	200.94
249.599	196.94
249.832	177.94
250.066	173.94
250.299	175.94
250.532	186.94
250.765	210.94
250.998	197.94
251.231	195.94
251.465	214.94
251.698	192.94
251.931	171.94
252.164	175.94
252.397	171.94
252.63	199.94
252.863	176.94
253.096	211.94
253.329	196.94
253.562	202.94
253.795	212.94
254.028	208.94
254.261	200.94
254.494	216.94
254.727	235.94
254.96	272.94
255.193	230.94
255.426	228.94
255.659	226.94
255.892	238.94
256.124	226.94
256.357	224.94
256.59	218.94
256.823	221.94
257.056	212.94
257.289	187.94
257.521	197.94
257.754	187.94
257.987	205.94
258.22	206.94
258.452	196.94
258.685	191.94
258.918	203.94
259.151	204.94
259.383	200.94
259.616	214.94
259.849	206.94
260.081	227.94
260.314	245.94
260.547	253.94
260.779	231.94
261.012	231.94
261.244	215.94
261.477	215.94
261.71	205.94
261.942	201.94
262.175	229.94
262.407	218.94
262.64	194.94
262.872	205.94
263.105	219.94
263.337	215.94
263.57	197.94
263.802	217.94
264.035	202.94
264.267	190.94
264.499	181.94
264.732	193.94
264.964	201.94
265.197	200.94
265.429	210.94
265.661	205.94
265.894	202.94
266.126	194.94
266.358	188.94
266.591	208.94
266.823	205.94
267.055	204.94
267.287	226.94
267.52	208.94
267.752	207.94
267.984	218.94
268.216	213.94
268.448	221.94
268.681	221.94
268.913	226.94
269.145	240.94
269.377	254.94
269.609	259.94
269.841	233.94
270.073	258.94
270.306	278.94
270.538	309.94
270.77	291.94
271.002	304.94
271.234	266.94
271.466	262.94
271.698	289.94
271.93	294.94
272.162	289.94
272.394	291.94
272.626	288.94
272.858	263.94
273.09	270.94
273.322	266.94
273.553	237.94
273.785	245.94
274.017	237.94
274.249	237.94
274.481	243.94
274.713	241.94
274.945	241.94
275.176	245.94
275.408	237.94
275.64	245.94
275.872	254.94
276.104	228.94
276.335	247.94
276.567	253.94
276.799	284.94
277.031	298.94
277.262	301.94
277.494	297.94
277.726	292.94
277.957	274.94
278.189	274.94
278.421	253.94
278.652	252.94
278.884	244.94
279.115	245.94
279.347	241.94
279.579	244.94
279.81	259.94
280.042	243.94
280.273	247.94
280.505	241.94
280.736	264.94
280.968	255.94
281.199	245.94
281.431	238.94
281.662	260.94
281.894	246.94
282.125	262.94
282.356	269.94
282.588	299.94
282.819	288.94
283.051	272.94
283.282	247.94
283.513	268.94
283.745	264.94
283.976	244.94
284.207	260.94
284.439	259.94
284.67	243.94
284.901	251.94
285.132	263.94
285.364	249.94
285.595	251.94
285.826	242.94
286.057	245.94
286.288	262.94
286.52	277.94
286.751	271.94
286.982	277.94
287.213	269.94
287.444	254.94
287.675	273.94
287.906	283.94
288.138	290.94
288.369	293.94
288.6	294.94
288.831	272.94
289.062	271.94
289.293	275.94
289.524	257.94
289.755	260.94
289.986	263.94
290.217	269.94
290.448	260.94
290.679	286.94
290.91	275.94
291.141	252.94
291.371	262.94
291.602	269.94
291.833	275.94
292.064	273.94
292.295	273.94
292.526	272.94
292.757	263.94
292.987	275.94
293.218	275.94
293.449	277.94
293.68	266.94
293.91	260.94
294.141	259.94
294.372	260.94
294.603	266.94
294.833	267.94
295.064	254.94
295.295	266.94
295.525	277.94
295.756	278.94
295.987	266.94
296.217	299.94
296.448	318.94
296.679	305.94
296.909	288.94
297.14	268.94
297.37	280.94
297.601	282.94
297.831	277.94
298.062	242.94
298.292	253.94
298.523	272.94
298.753	294.94
298.984	292.94
299.214	269.94
299.445	258.94
299.675	290.94
299.905	293.94
300.136	312.94
300.366	288.94
300.597	285.94
300.827	287.94
301.057	313.94
301.288	310.94
301.518	304.94
301.748	287.94
301.979	292.94
302.209	304.94
302.439	293.94
302.669	298.94
302.9	287.94
303.13	295.94
303.36	306.94
303.59	300.94
303.82	309.94
304.051	312.94
304.281	307.94
304.511	294.94
304.741	294.94
304.971	296.94
305.201	302.94
305.431	310.94
305.661	301.94
305.891	300.94
306.121	304.94
306.352	306.94
306.582	309.94
306.812	290.94
307.042	292.94
307.272	297.94
307.502	299.94
307.731	313.94
307.961	305.94
308.191	313.94
308.421	305.94
308.651	311.94
308.881	324.94
309.111	299.94
309.341	309.94
309.571	339.94
309.8	332.94
310.03	358.94
310.26	362.94
310.49	341.94
310.72	365.94
310.949	377.94
311.179	388.94
311.409	373.94
311.639	362.94
311.868	362.94
312.098	339.94
312.328	360.94
312.557	394.94
312.787	400.94
313.017	370.94
313.246	377.94
313.476	340.94
313.706	335.94
313.935	361.94
314.165	364.94
314.394	380.94
314.624	384.94
314.853	367.94
315.083	344.94
315.312	346.94
315.542	353.94
315.771	356.94
316.001	348.94
316.23	343.94
316.46	345.94
316.689	364.94
316.919	362.94
317.148	348.94
317.377	358.94
317.607	362.94
317.836	360.94
318.065	363.94
318.295	339.94
318.524	364.94
318.753	339.94
318.983	343.94
319.212	365.94
319.441	356.94
319.67	355.94
319.9	350.94
320.129	373.94
320.358	365.94
320.587	386.94
320.816	400.94
321.046	378.94
321.275	392.94
321.504	379.94
321.733	381.94
321.962	395.94
322.191	404.94
322.42	430.94
322.649	440.94
322.878	440.94
323.108	428.94
323.337	458.94
323.566	496.94
323.795	514.94
324.024	558.94
324.253	713.94
324.482	1022.94
324.71	1536.94
324.939	2102.94
325.168	1778.94
325.397	936.94
325.626	640.94
325.855	544.94
326.084	496.94
326.313	471.94
326.542	485.94
326.77	538.94
326.999	653.94
327.228	929.94
327.457	1365.94
327.686	1601.94
327.914	1053.94
328.143	701.94
328.372	635.94
328.6	576.94
328.829	566.94
329.058	596.94
329.287	567.94
329.515	541.94
329.744	483.94
329.972	501.94
330.201	529.94
330.43	589.94
330.658	602.94
330.887	630.94
331.115	610.94
331.344	516.94
331.572	493.94
331.801	485.94
332.03	483.94
332.258	457.94
332.486	424.94
332.715	412.94
332.943	435.94
333.172	411.94
333.4	428.94
333.629	433.94
333.857	454.94
334.085	481.94
334.314	512.94
334.542	546.94
334.771	531.94
334.999	512.94
335.227	452.94
335.455	434.94
335.684	428.94
335.912	416.94
336.14	405.94
336.369	402.94
336.597	422.94
336.825	423.94
337.053	417.94
337.281	415.94
337.51	406.94
337.738	407.94
337.966	409.94
338.194	413.94
338.422	399.94
338.65	414.94
338.878	394.94
339.106	394.94
339.334	401.94
339.562	394.94
339.79	373.94
340.018	382.94
340.246	392.94
340.474	418.94
340.702	391.94
340.93	398.94
341.158	397.94
341.386	391.94
341.614	386.94
341.842	407.94
342.07	404.94
342.298	394.94
342.526	390.94
342.754	389.94
342.981	381.94
343.209	390.94
343.437	387.94
343.665	385.94
343.893	399.94
344.12	400.94
344.348	398.94
344.576	381.94
344.804	391.94
345.031	403.94
345.259	416.94
345.487	405.94
345.714	398.94
345.942	395.94
346.17	391.94
346.397	393.94
346.625	382.94
346.853	387.94
347.08	376.94
347.308	381.94
347.535	400.94
347.763	396.94
347.99	400.94
348.218	397.94
348.445	419.94
348.673	405.94
348.9	394.94
349.128	388.94
349.355	370.94
349.583	371.94
349.81	363.94
350.037	357.94
350.265	356.94
350.492	347.94
350.72	362.94
350.947	386.94
351.174	383.94
351.402	410.94
351.629	377.94
351.856	381.94
352.083	382.94
352.311	411.94
352.538	400.94
352.765	393.94
352.992	399.94
353.22	388.94
353.447	393.94
353.674	380.94
353.901	365.94
354.128	350.94
354.355	340.94
354.583	358.94
354.81	358.94
355.037	352.94
355.264	358.94
355.491	348.94
355.718	344.94
355.945	358.94
356.172	344.94
356.399	359.94
356.626	357.94
356.853	330.94
357.08	341.94
357.307	348.94
357.534	354.94
357.761	356.94
357.988	352.94
358.215	346.94
358.441	353.94
358.668	347.94
358.895	354.94
359.122	362.94
359.349	378.94
359.576	388.94
359.802	388.94
360.029	441.94
360.256	459.94
360.483	426.94
360.709	408.94
360.936	382.94
361.163	377.94
361.39	379.94
361.616	374.94
361.843	381.94
362.07	365.94
362.296	396.94
362.523	388.94
362.749	379.94
362.976	353.94
363.203	367.94
363.429	377.94
363.656	360.94
363.882	372.94
364.109	372.94
364.335	366.94
364.562	372.94
364.788	348.94
365.015	369.94
365.241	360.94
365.468	368.94
365.694	374.94
365.92	368.94
366.147	355.94
366.373	358.94
366.599	342.94
366.826	370.94
367.052	359.94
367.278	363.94
367.505	369.94
367.731	370.94
367.957	353.94
368.184	355.94
368.41	348.94
368.636	363.94
368.862	379.94
369.089	370.94
369.315	352.94
369.541	354.94
369.767	377.94
369.993	371.94
370.219	379.94
370.445	347.94
370.672	361.94
370.898	361.94
371.124	357.94
371.35	343.94
371.576	343.94
371.802	352.94
372.028	358.94
372.254	359.94
372.48	357.94
372.706	384.94
372.932	346.94
373.158	356.94
373.384	359.94
373.61	361.94
373.835	350.94
374.061	350.94
374.287	361.94
374.513	353.94
374.739	357.94
374.965	357.94
375.191	356.94
375.416	366.94
375.642	353.94
375.868	345.94
376.094	352.94
376.319	357.94
376.545	338.94
376.771	354.94
376.997	353.94
377.222	362.94
377.448	369.94
377.674	336.94
377.899	331.94
378.125	368.94
378.35	333.94
378.576	336.94
378.802	368.94
379.027	351.94
379.253	349.94
379.478	334.94
379.704	324.94
379.929	359.94
380.155	350.94
380.38	347.94
380.606	342.94
380.831	354.94
381.057	351.94
381.282	351.94
381.507	349.94
381.733	350.94
381.958	357.94
382.184	347.94
382.409	343.94
382.634	377.94
382.86	340.94
383.085	349.94
383.31	380.94
383.535	378.94
383.761	360.94
383.986	354.94
384.211	357.94
384.436	356.94
384.662	363.94
384.887	372.94
385.112	348.94
385.337	370.94
385.562	372.94
385.787	363.94
386.013	414.94
386.238	385.94
386.463	390.94
386.688	377.94
386.913	367.94
387.138	361.94
387.363	364.94
387.588	377.94
387.813	365.94
388.038	372.94
388.263	392.94
388.488	373.94
388.713	372.94
388.938	372.94
389.163	379.94
389.387	378.94
389.612	367.94
389.837	376.94
390.062	386.94
390.287	374.94
390.512	361.94
390.736	359.94
390.961	376.94
391.186	364.94
391.411	378.94
391.636	386.94
391.86	377.94
392.085	398.94
392.31	378.94
392.534	396.94
392.759	379.94
392.984	340.94
393.208	368.94
393.433	363.94
393.658	378.94
393.882	368.94
394.107	353.94
394.331	371.94
394.556	380.94
394.78	386.94
395.005	404.94
395.229	364.94
395.454	397.94
395.678	386.94
395.903	415.94
396.127	394.94
396.352	410.94
396.576	378.94
396.801	410.94
397.025	393.94
397.249	396.94
397.474	390.94
397.698	382.94
397.922	397.94
398.147	416.94
398.371	412.94
398.595	416.94
398.82	411.94
399.044	421.94
399.268	444.94
399.492	452.94
399.717	472.94
399.941	505.94
400.165	506.94
400.389	519.94
400.613	467.94
400.837	451.94
401.062	442.94
401.286	433.94
401.51	435.94
401.734	428.94
401.958	413.94
402.182	437.94
402.406	457.94
402.63	465.94
402.854	432.94
403.078	446.94
403.302	440.94
403.526	435.94
403.75	446.94
403.974	436.94
404.198	448.94
404.422	459.94
404.645	459.94
404.869	470.94
405.093	476.94
405.317	508.94
405.541	543.94
405.765	495.94
405.988	475.94
406.212	461.94
406.436	490.94
406.66	485.94
406.883	488.94
407.107	489.94
407.331	538.94
407.555	583.94
407.778	575.94
408.002	504.94
408.226	479.94
408.449	472.94
408.673	461.94
408.896	506.94
409.12	516.94
409.344	498.94
409.567	467.94
409.791	456.94
410.014	434.94
410.238	438.94
410.461	454.94
410.685	437.94
410.908	462.94
411.132	483.94
411.355	509.94
411.578	500.94
411.802	451.94
412.025	440.94
412.249	449.94
412.472	474.94
412.695	508.94
412.919	475.94
413.142	440.94
413.365	465.94
413.589	439.94
413.812	443.94
414.035	420.94
414.258	423.94
414.482	432.94
414.705	423.94
414.928	410.94
415.151	432.94
415.374	396.94
415.597	407.94
415.821	404.94
416.044	432.94
416.267	404.94
416.49	428.94
416.713	412.94
416.936	412.94
417.159	426.94
417.382	432.94
417.605	422.94
417.828	431.94
418.051	448.94
418.274	452.94
418.497	432.94
418.72	431.94
418.943	426.94
419.166	430.94
419.389	439.94
419.611	442.94
419.834	434.94
420.057	456.94
420.28	434.94
420.503	439.94
420.726	439.94
420.948	443.94
421.171	485.94
421.394	520.94
421.617	446.94
421.839	419.94
422.062	436.94
422.285	459.94
422.507	488.94
422.73	576.94
422.953	503.94
423.175	477.94
423.398	454.94
423.621	459.94
423.843	455.94
424.066	465.94
424.288	482.94
424.511	470.94
424.733	532.94
424.956	576.94
425.178	548.94
425.401	593.94
425.623	588.94
425.846	508.94
426.068	483.94
426.291	485.94
426.513	491.94
426.735	493.94
426.958	514.94
427.18	583.94
427.402	679.94
427.625	765.94
427.847	682.94
428.069	603.94
428.292	498.94
428.514	500.94
428.736	472.94
428.958	460.94
429.181	426.94
429.403	446.94
429.625	420.94
429.847	484.94
430.069	526.94
430.292	526.94
430.514	444.94
430.736	451.94
430.958	429.94
431.18	438.94
431.402	413.94
431.624	419.94
431.846	415.94
432.068	388.94
432.29	412.94
432.512	432.94
432.734	428.94
432.956	430.94
433.178	420.94
433.4	442.94
433.622	422.94
433.844	422.94
434.066	417.94
434.287	404.94
434.509	420.94
434.731	416.94
434.953	418.94
435.175	437.94
435.397	462.94
435.618	463.94
435.84	518.94
436.062	591.94
436.284	635.94
436.505	534.94
436.727	473.94
436.949	436.94
437.17	432.94
437.392	427.94
437.614	456.94
437.835	507.94
438.057	574.94
438.278	652.94
438.5	628.94
438.721	667.94
438.943	646.94
439.165	551.94
439.386	508.94
439.608	478.94
439.829	513.94
440.05	518.94
440.272	552.94
440.493	507.94
440.715	482.94
440.936	461.94
441.158	445.94
441.379	448.94
441.6	435.94
441.822	475.94
442.043	513.94
442.264	588.94
442.486	607.94
442.707	529.94
442.928	488.94
443.149	506.94
443.371	534.94
443.592	546.94
443.813	621.94
444.034	664.94
444.255	555.94
444.476	504.94
444.698	469.94
444.919	474.94
445.14	605.94
445.361	536.94
445.582	510.94
445.803	565.94
446.024	651.94
446.245	651.94
446.466	593.94
446.687	504.94
446.908	491.94
447.129	459.94
447.35	435.94
447.571	438.94
447.792	441.94
448.013	421.94
448.234	461.94
448.455	505.94
448.675	592.94
448.896	685.94
449.117	594.94
449.338	549.94
449.559	645.94
449.779	679.94
450	553.94
450.221	455.94
450.442	445.94
450.662	426.94
450.883	453.94
451.104	467.94
451.324	456.94
451.545	416.94
451.766	427.94
451.986	392.94
452.207	409.94
452.428	397.94
452.648	381.94
452.869	408.94
453.089	420.94
453.31	412.94
453.53	410.94
453.751	397.94
453.971	417.94
454.192	425.94
454.412	421.94
454.633	404.94
454.853	402.94
455.073	398.94
455.294	437.94
455.514	464.94
455.734	458.94
455.955	396.94
456.175	369.94
456.395	364.94
456.616	368.94
456.836	354.94
457.056	352.94
457.276	367.94
457.497	382.94
457.717	360.94
457.937	380.94
458.157	384.94
458.377	389.94
458.598	390.94
458.818	454.94
459.038	545.94
459.258	546.94
459.478	462.94
459.698	414.94
459.918	391.94
460.138	402.94
460.358	394.94
460.578	427.94
460.798	424.94
461.018	418.94
461.238	412.94
461.458	389.94
461.678	394.94
461.898	406.94
462.118	418.94
462.338	430.94
462.558	409.94
462.777	433.94
462.997	422.94
463.217	440.94
463.437	452.94
463.657	425.94
463.876	421.94
464.096	441.94
464.316	436.94
464.536	448.94
464.755	450.94
464.975	481.94
465.195	526.94
465.414	590.94
465.634	492.94
465.854	459.94
466.073	448.94
466.293	429.94
466.512	409.94
466.732	399.94
466.951	417.94
467.171	388.94
467.391	411.94
467.61	438.94
467.829	437.94
468.049	427.94
468.268	435.94
468.488	408.94
468.707	378.94
468.927	393.94
469.146	381.94
469.365	386.94
469.585	386.94
469.804	392.94
470.023	428.94
470.243	422.94
470.462	426.94
470.681	436.94
470.901	443.94
471.12	416.94
471.339	412.94
471.558	402.94
471.777	407.94
471.997	399.94
472.216	419.94
472.435	469.94
472.654	435.94
472.873	436.94
473.092	418.94
473.311	410.94
473.53	387.94
473.749	421.94
473.968	450.94
474.187	537.94
474.406	562.94
474.625	455.94
474.844	450.94
475.063	417.94
475.282	418.94
475.501	406.94
475.72	424.94
475.939	394.94
476.158	420.94
476.377	410.94
476.596	420.94
476.814	427.94
477.033	436.94
477.252	443.94
477.471	430.94
477.69	436.94
477.908	413.94
478.127	444.94
478.346	446.94
478.564	433.94
478.783	454.94
479.002	458.94
479.22	476.94
479.439	487.94
479.658	505.94
479.876	490.94
480.095	512.94
480.313	512.94
480.532	492.94
480.751	493.94
480.969	508.94
481.188	590.94
481.406	668.94
481.624	580.94
481.843	514.94
482.061	493.94
482.28	486.94
482.498	468.94
482.717	481.94
482.935	473.94
483.153	489.94
483.372	470.94
483.59	484.94
483.808	462.94
484.027	471.94
484.245	466.94
484.463	472.94
484.681	488.94
484.9	493.94
485.118	483.94
485.336	471.94
485.554	490.94
485.772	503.94
485.99	472.94
486.209	503.94
486.427	498.94
486.645	491.94
486.863	526.94
487.081	535.94
487.299	522.94
487.517	507.94
487.735	529.94
487.953	527.94
488.171	507.94
488.389	504.94
488.607	531.94
488.825	522.94
489.043	520.94
489.261	522.94
489.479	501.94
489.696	537.94
489.914	522.94
490.132	531.94
490.35	537.94
490.568	538.94
490.786	553.94
491.003	587.94
491.221	569.94
491.439	594.94
491.657	593.94
491.874	603.94
492.092	596.94
492.31	602.94
492.527	588.94
492.745	610.94
492.963	608.94
493.18	596.94
493.398	593.94
493.615	591.94
493.833	617.94
494.05	632.94
494.268	605.94
494.485	638.94
494.703	624.94
494.92	607.94
495.138	628.94
495.355	609.94
495.573	633.94
495.79	624.94
496.008	608.94
496.225	596.94
496.442	632.94
496.66	629.94
496.877	615.94
497.094	630.94
497.312	596.94
497.529	622.94
497.746	649.94
497.963	633.94
498.181	639.94
498.398	620.94
498.615	646.94
498.832	668.94
499.049	677.94
499.267	673.94
499.484	710.94
499.701	709.94
499.918	736.94
500.135	760.94
500.352	778.94
500.569	781.94
500.786	815.94
501.003	787.94
501.22	786.94
501.437	752.94
501.654	749.94
501.871	730.94
