Data from 1983.PennyLincolnUp.Lamp.En5.5.200Scan.071819.P1_HRD10591_16-53-21-966.txt Node
Date: Thu Jul 18 16:53:21 EDT 2019
User: cochatt
Spectrometer: HR+D1059
Trigger mode: 1
Integration Time (sec): 1.000000E-1
Scans to average: 1
Electric dark correction enabled: true
Nonlinearity correction enabled: false
Boxcar width: 0
XAxis mode: Wavelengths
Number of Pixels in Spectrum: 2048
>>>>>Begin Spectral Data<<<<<
223.165	-17.56
223.4	-17.56
223.635	-17.56
223.869	-16.56
224.104	-4.56
224.338	-21.56
224.573	-17.56
224.808	-19.56
225.042	1.44
225.277	2.44
225.511	-6.56
225.746	3.44
225.98	-4.56
226.215	-1.56
226.449	12.44
226.683	25.44
226.918	29.44
227.152	35.44
227.387	45.44
227.621	33.44
227.856	35.44
228.09	47.44
228.324	65.44
228.559	61.44
228.793	70.44
229.027	99.44
229.262	108.44
229.496	98.44
229.73	123.44
229.964	145.44
230.199	113.44
230.433	107.44
230.667	105.44
230.901	110.44
231.136	116.44
231.37	113.44
231.604	113.44
231.838	110.44
232.072	105.44
232.306	114.44
232.541	110.44
232.775	95.44
233.009	125.44
233.243	106.44
233.477	115.44
233.711	105.44
233.945	110.44
234.179	120.44
234.413	113.44
234.647	116.44
234.881	117.44
235.115	114.44
235.349	123.44
235.583	120.44
235.817	117.44
236.051	126.44
236.285	126.44
236.519	138.44
236.753	131.44
236.987	124.44
237.221	167.44
237.455	204.44
237.689	162.44
237.922	118.44
238.156	130.44
238.39	139.44
238.624	121.44
238.858	107.44
239.091	106.44
239.325	118.44
239.559	110.44
239.793	123.44
240.027	109.44
240.26	124.44
240.494	139.44
240.728	143.44
240.961	138.44
241.195	148.44
241.429	129.44
241.662	135.44
241.896	139.44
242.13	122.44
242.363	103.44
242.597	110.44
242.83	138.44
243.064	129.44
243.298	145.44
243.531	135.44
243.765	133.44
243.998	119.44
244.232	130.44
244.465	131.44
244.699	126.44
244.932	134.44
245.166	125.44
245.399	124.44
245.633	135.44
245.866	138.44
246.099	140.44
246.333	143.44
246.566	167.44
246.8	143.44
247.033	127.44
247.266	148.44
247.5	153.44
247.733	161.44
247.966	149.44
248.2	165.44
248.433	153.44
248.666	157.44
248.899	164.44
249.133	183.44
249.366	182.44
249.599	179.44
249.832	164.44
250.066	172.44
250.299	165.44
250.532	168.44
250.765	182.44
250.998	196.44
251.231	196.44
251.465	196.44
251.698	177.44
251.931	200.44
252.164	157.44
252.397	179.44
252.63	196.44
252.863	192.44
253.096	206.44
253.329	214.44
253.562	212.44
253.795	199.44
254.028	180.44
254.261	175.44
254.494	203.44
254.727	237.44
254.96	261.44
255.193	253.44
255.426	232.44
255.659	217.44
255.892	213.44
256.124	209.44
256.357	197.44
256.59	194.44
256.823	203.44
257.056	210.44
257.289	195.44
257.521	183.44
257.754	182.44
257.987	202.44
258.22	201.44
258.452	195.44
258.685	177.44
258.918	180.44
259.151	194.44
259.383	208.44
259.616	212.44
259.849	192.44
260.081	211.44
260.314	236.44
260.547	226.44
260.779	221.44
261.012	198.44
261.244	199.44
261.477	214.44
261.71	196.44
261.942	198.44
262.175	221.44
262.407	215.44
262.64	212.44
262.872	199.44
263.105	200.44
263.337	209.44
263.57	204.44
263.802	193.44
264.035	196.44
264.267	200.44
264.499	209.44
264.732	206.44
264.964	187.44
265.197	193.44
265.429	191.44
265.661	197.44
265.894	197.44
266.126	207.44
266.358	211.44
266.591	212.44
266.823	206.44
267.055	192.44
267.287	209.44
267.52	206.44
267.752	207.44
267.984	203.44
268.216	189.44
268.448	201.44
268.681	222.44
268.913	227.44
269.145	251.44
269.377	267.44
269.609	239.44
269.841	239.44
270.073	246.44
270.306	260.44
270.538	289.44
270.77	272.44
271.002	273.44
271.234	266.44
271.466	269.44
271.698	286.44
271.93	275.44
272.162	284.44
272.394	282.44
272.626	289.44
272.858	268.44
273.09	264.44
273.322	245.44
273.553	237.44
273.785	257.44
274.017	254.44
274.249	245.44
274.481	239.44
274.713	251.44
274.945	248.44
275.176	235.44
275.408	230.44
275.64	218.44
275.872	227.44
276.104	263.44
276.335	242.44
276.567	241.44
276.799	265.44
277.031	263.44
277.262	286.44
277.494	296.44
277.726	282.44
277.957	265.44
278.189	267.44
278.421	246.44
278.652	266.44
278.884	253.44
279.115	243.44
279.347	240.44
279.579	233.44
279.81	240.44
280.042	220.44
280.273	233.44
280.505	247.44
280.736	235.44
280.968	229.44
281.199	246.44
281.431	228.44
281.662	227.44
281.894	261.44
282.125	255.44
282.356	255.44
282.588	251.44
282.819	279.44
283.051	271.44
283.282	261.44
283.513	246.44
283.745	252.44
283.976	253.44
284.207	234.44
284.439	263.44
284.67	273.44
284.901	241.44
285.132	258.44
285.364	257.44
285.595	243.44
285.826	251.44
286.057	256.44
286.288	251.44
286.52	271.44
286.751	244.44
286.982	247.44
287.213	255.44
287.444	267.44
287.675	253.44
287.906	283.44
288.138	251.44
288.369	279.44
288.6	273.44
288.831	252.44
289.062	270.44
289.293	265.44
289.524	257.44
289.755	273.44
289.986	265.44
290.217	262.44
290.448	267.44
290.679	264.44
290.91	266.44
291.141	248.44
291.371	267.44
291.602	257.44
291.833	252.44
292.064	256.44
292.295	279.44
292.526	265.44
292.757	259.44
292.987	262.44
293.218	284.44
293.449	278.44
293.68	259.44
293.91	257.44
294.141	267.44
294.372	271.44
294.603	269.44
294.833	269.44
295.064	268.44
295.295	285.44
295.525	264.44
295.756	286.44
295.987	270.44
296.217	308.44
296.448	307.44
296.679	284.44
296.909	279.44
297.14	277.44
297.37	282.44
297.601	262.44
297.831	294.44
298.062	281.44
298.292	268.44
298.523	270.44
298.753	271.44
298.984	291.44
299.214	282.44
299.445	276.44
299.675	298.44
299.905	285.44
300.136	290.44
300.366	295.44
300.597	292.44
300.827	291.44
301.057	305.44
301.288	292.44
301.518	290.44
301.748	311.44
301.979	287.44
302.209	286.44
302.439	297.44
302.669	309.44
302.9	277.44
303.13	295.44
303.36	313.44
303.59	295.44
303.82	321.44
304.051	318.44
304.281	294.44
304.511	307.44
304.741	291.44
304.971	296.44
305.201	301.44
305.431	309.44
305.661	301.44
305.891	309.44
306.121	314.44
306.352	317.44
306.582	305.44
306.812	293.44
307.042	296.44
307.272	292.44
307.502	310.44
307.731	313.44
307.961	299.44
308.191	303.44
308.421	298.44
308.651	313.44
308.881	322.44
309.111	318.44
309.341	310.44
309.571	336.44
309.8	302.44
310.03	334.44
310.26	348.44
310.49	359.44
310.72	367.44
310.949	354.44
311.179	367.44
311.409	343.44
311.639	339.44
311.868	349.44
312.098	355.44
312.328	355.44
312.557	350.44
312.787	388.44
313.017	387.44
313.246	363.44
313.476	336.44
313.706	363.44
313.935	363.44
314.165	359.44
314.394	353.44
314.624	381.44
314.853	353.44
315.083	356.44
315.312	336.44
315.542	338.44
315.771	333.44
316.001	334.44
316.23	336.44
316.46	357.44
316.689	362.44
316.919	347.44
317.148	358.44
317.377	354.44
317.607	357.44
317.836	348.44
318.065	360.44
318.295	342.44
318.524	338.44
318.753	366.44
318.983	361.44
319.212	339.44
319.441	364.44
319.67	341.44
319.9	351.44
320.129	355.44
320.358	344.44
320.587	369.44
320.816	353.44
321.046	361.44
321.275	361.44
321.504	383.44
321.733	375.44
321.962	374.44
322.191	394.44
322.42	393.44
322.649	430.44
322.878	420.44
323.108	409.44
323.337	452.44
323.566	480.44
323.795	507.44
324.024	568.44
324.253	701.44
324.482	983.44
324.71	1492.44
324.939	1959.44
325.168	1625.44
325.397	862.44
325.626	603.44
325.855	515.44
326.084	494.44
326.313	487.44
326.542	479.44
326.77	535.44
326.999	625.44
327.228	890.44
327.457	1321.44
327.686	1487.44
327.914	957.44
328.143	661.44
328.372	586.44
328.6	527.44
328.829	518.44
329.058	530.44
329.287	542.44
329.515	486.44
329.744	465.44
329.972	452.44
330.201	458.44
330.43	477.44
330.658	522.44
330.887	569.44
331.115	534.44
331.344	462.44
331.572	437.44
331.801	478.44
332.03	463.44
332.258	442.44
332.486	412.44
332.715	400.44
332.943	385.44
333.172	421.44
333.4	405.44
333.629	414.44
333.857	435.44
334.085	407.44
334.314	418.44
334.542	429.44
334.771	437.44
334.999	413.44
335.227	403.44
335.455	413.44
335.684	413.44
335.912	398.44
336.14	406.44
336.369	379.44
336.597	416.44
336.825	413.44
337.053	402.44
337.281	390.44
337.51	383.44
337.738	401.44
337.966	399.44
338.194	387.44
338.422	407.44
338.65	393.44
338.878	391.44
339.106	398.44
339.334	381.44
339.562	400.44
339.79	396.44
340.018	386.44
340.246	383.44
340.474	383.44
340.702	393.44
340.93	377.44
341.158	389.44
341.386	379.44
341.614	382.44
341.842	394.44
342.07	409.44
342.298	375.44
342.526	392.44
342.754	380.44
342.981	376.44
343.209	382.44
343.437	374.44
343.665	392.44
343.893	393.44
344.12	397.44
344.348	394.44
344.576	379.44
344.804	406.44
345.031	403.44
345.259	425.44
345.487	408.44
345.714	395.44
345.942	374.44
346.17	393.44
346.397	375.44
346.625	389.44
346.853	388.44
347.08	372.44
347.308	392.44
347.535	392.44
347.763	386.44
347.99	389.44
348.218	381.44
348.445	384.44
348.673	392.44
348.9	385.44
349.128	380.44
349.355	363.44
349.583	379.44
349.81	381.44
350.037	366.44
350.265	381.44
350.492	364.44
350.72	357.44
350.947	362.44
351.174	382.44
351.402	389.44
351.629	379.44
351.856	389.44
352.083	398.44
352.311	384.44
352.538	393.44
352.765	383.44
352.992	389.44
353.22	391.44
353.447	395.44
353.674	374.44
353.901	356.44
354.128	362.44
354.355	372.44
354.583	349.44
354.81	341.44
355.037	372.44
355.264	367.44
355.491	355.44
355.718	337.44
355.945	342.44
356.172	327.44
356.399	349.44
356.626	337.44
356.853	357.44
357.08	329.44
357.307	369.44
357.534	378.44
357.761	355.44
357.988	345.44
358.215	348.44
358.441	341.44
358.668	340.44
358.895	360.44
359.122	354.44
359.349	371.44
359.576	379.44
359.802	375.44
360.029	428.44
360.256	437.44
360.483	401.44
360.709	377.44
360.936	388.44
361.163	375.44
361.39	383.44
361.616	373.44
361.843	366.44
362.07	366.44
362.296	384.44
362.523	389.44
362.749	395.44
362.976	369.44
363.203	367.44
363.429	361.44
363.656	375.44
363.882	375.44
364.109	360.44
364.335	355.44
364.562	357.44
364.788	364.44
365.015	362.44
365.241	362.44
365.468	356.44
365.694	373.44
365.92	364.44
366.147	357.44
366.373	377.44
366.599	356.44
366.826	350.44
367.052	339.44
367.278	355.44
367.505	351.44
367.731	349.44
367.957	361.44
368.184	375.44
368.41	349.44
368.636	375.44
368.862	388.44
369.089	377.44
369.315	358.44
369.541	337.44
369.767	357.44
369.993	358.44
370.219	353.44
370.445	354.44
370.672	354.44
370.898	345.44
371.124	375.44
371.35	351.44
371.576	355.44
371.802	360.44
372.028	341.44
372.254	359.44
372.48	354.44
372.706	356.44
372.932	338.44
373.158	352.44
373.384	350.44
373.61	363.44
373.835	353.44
374.061	356.44
374.287	385.44
374.513	352.44
374.739	358.44
374.965	378.44
375.191	345.44
375.416	355.44
375.642	351.44
375.868	372.44
376.094	353.44
376.319	358.44
376.545	336.44
376.771	362.44
376.997	335.44
377.222	348.44
377.448	350.44
377.674	350.44
377.899	357.44
378.125	341.44
378.35	369.44
378.576	351.44
378.802	349.44
379.027	357.44
379.253	350.44
379.478	349.44
379.704	363.44
379.929	360.44
380.155	355.44
380.38	345.44
380.606	346.44
380.831	349.44
381.057	357.44
381.282	365.44
381.507	363.44
381.733	377.44
381.958	356.44
382.184	345.44
382.409	375.44
382.634	364.44
382.86	358.44
383.085	346.44
383.31	347.44
383.535	370.44
383.761	369.44
383.986	353.44
384.211	364.44
384.436	369.44
384.662	376.44
384.887	375.44
385.112	362.44
385.337	375.44
385.562	369.44
385.787	364.44
386.013	393.44
386.238	383.44
386.463	386.44
386.688	382.44
386.913	381.44
387.138	375.44
387.363	397.44
387.588	365.44
387.813	381.44
388.038	389.44
388.263	373.44
388.488	365.44
388.713	370.44
388.938	377.44
389.163	380.44
389.387	385.44
389.612	356.44
389.837	364.44
390.062	373.44
390.287	373.44
390.512	380.44
390.736	397.44
390.961	371.44
391.186	375.44
391.411	385.44
391.636	389.44
391.86	381.44
392.085	378.44
392.31	381.44
392.534	377.44
392.759	362.44
392.984	403.44
393.208	386.44
393.433	372.44
393.658	386.44
393.882	389.44
394.107	390.44
394.331	388.44
394.556	377.44
394.78	380.44
395.005	382.44
395.229	383.44
395.454	391.44
395.678	376.44
395.903	411.44
396.127	414.44
396.352	393.44
396.576	399.44
396.801	386.44
397.025	387.44
397.249	392.44
397.474	399.44
397.698	392.44
397.922	423.44
398.147	435.44
398.371	437.44
398.595	418.44
398.82	422.44
399.044	442.44
399.268	436.44
399.492	455.44
399.717	481.44
399.941	500.44
400.165	515.44
400.389	525.44
400.613	469.44
400.837	462.44
401.062	454.44
401.286	436.44
401.51	437.44
401.734	417.44
401.958	434.44
402.182	429.44
402.406	439.44
402.63	458.44
402.854	444.44
403.078	435.44
403.302	447.44
403.526	452.44
403.75	454.44
403.974	446.44
404.198	430.44
404.422	443.44
404.645	437.44
404.869	449.44
405.093	460.44
405.317	460.44
405.541	508.44
405.765	478.44
405.988	469.44
406.212	489.44
406.436	494.44
406.66	511.44
406.883	484.44
407.107	492.44
407.331	514.44
407.555	569.44
407.778	567.44
408.002	518.44
408.226	485.44
408.449	466.44
408.673	488.44
408.896	489.44
409.12	506.44
409.344	502.44
409.567	458.44
409.791	447.44
410.014	453.44
410.238	436.44
410.461	422.44
410.685	460.44
410.908	445.44
411.132	478.44
411.355	513.44
411.578	491.44
411.802	452.44
412.025	435.44
412.249	470.44
412.472	456.44
412.695	463.44
412.919	431.44
413.142	462.44
413.365	409.44
413.589	428.44
413.812	416.44
414.035	424.44
414.258	402.44
414.482	431.44
414.705	427.44
414.928	440.44
415.151	443.44
415.374	411.44
415.597	419.44
415.821	425.44
416.044	425.44
416.267	450.44
416.49	400.44
416.713	433.44
416.936	426.44
417.159	418.44
417.382	419.44
417.605	413.44
417.828	420.44
418.051	445.44
418.274	423.44
418.497	427.44
418.72	417.44
418.943	418.44
419.166	410.44
419.389	443.44
419.611	445.44
419.834	432.44
420.057	460.44
420.28	436.44
420.503	435.44
420.726	427.44
420.948	442.44
421.171	477.44
421.394	472.44
421.617	451.44
421.839	433.44
422.062	448.44
422.285	438.44
422.507	488.44
422.73	547.44
422.953	515.44
423.175	485.44
423.398	467.44
423.621	464.44
423.843	478.44
424.066	471.44
424.288	474.44
424.511	468.44
424.733	533.44
424.956	573.44
425.178	567.44
425.401	568.44
425.623	572.44
425.846	510.44
426.068	478.44
426.291	460.44
426.513	467.44
426.735	477.44
426.958	506.44
427.18	589.44
427.402	682.44
427.625	746.44
427.847	645.44
428.069	566.44
428.292	509.44
428.514	476.44
428.736	473.44
428.958	446.44
429.181	449.44
429.403	445.44
429.625	442.44
429.847	467.44
430.069	489.44
430.292	504.44
430.514	444.44
430.736	449.44
430.958	430.44
431.18	427.44
431.402	411.44
431.624	414.44
431.846	417.44
432.068	422.44
432.29	394.44
432.512	409.44
432.734	419.44
432.956	414.44
433.178	424.44
433.4	438.44
433.622	420.44
433.844	429.44
434.066	415.44
434.287	421.44
434.509	399.44
434.731	423.44
434.953	427.44
435.175	443.44
435.397	430.44
435.618	490.44
435.84	495.44
436.062	575.44
436.284	607.44
436.505	533.44
436.727	462.44
436.949	441.44
437.17	441.44
437.392	436.44
437.614	439.44
437.835	454.44
438.057	575.44
438.278	646.44
438.5	646.44
438.721	679.44
438.943	645.44
439.165	522.44
439.386	486.44
439.608	487.44
439.829	468.44
440.05	483.44
440.272	548.44
440.493	511.44
440.715	486.44
440.936	456.44
441.158	443.44
441.379	440.44
441.6	433.44
441.822	471.44
442.043	485.44
442.264	552.44
442.486	604.44
442.707	509.44
442.928	479.44
443.149	499.44
443.371	495.44
443.592	563.44
443.813	589.44
444.034	614.44
444.255	540.44
444.476	489.44
444.698	478.44
444.919	468.44
445.14	582.44
445.361	530.44
445.582	513.44
445.803	567.44
446.024	631.44
446.245	621.44
446.466	569.44
446.687	511.44
446.908	461.44
447.129	454.44
447.35	447.44
447.571	438.44
447.792	449.44
448.013	442.44
448.234	463.44
448.455	515.44
448.675	588.44
448.896	685.44
449.117	583.44
449.338	538.44
449.559	618.44
449.779	707.44
450	548.44
450.221	482.44
450.442	438.44
450.662	433.44
450.883	439.44
451.104	474.44
451.324	439.44
451.545	432.44
451.766	407.44
451.986	389.44
452.207	376.44
452.428	397.44
452.648	403.44
452.869	405.44
453.089	387.44
453.31	422.44
453.53	412.44
453.751	404.44
453.971	413.44
454.192	417.44
454.412	407.44
454.633	400.44
454.853	404.44
455.073	396.44
455.294	407.44
455.514	457.44
455.734	444.44
455.955	397.44
456.175	383.44
456.395	374.44
456.616	374.44
456.836	372.44
457.056	362.44
457.276	375.44
457.497	359.44
457.717	388.44
457.937	383.44
458.157	377.44
458.377	388.44
458.598	398.44
458.818	457.44
459.038	525.44
459.258	526.44
459.478	459.44
459.698	433.44
459.918	419.44
460.138	410.44
460.358	433.44
460.578	401.44
460.798	415.44
461.018	404.44
461.238	418.44
461.458	411.44
461.678	408.44
461.898	400.44
462.118	422.44
462.338	436.44
462.558	441.44
462.777	435.44
462.997	435.44
463.217	439.44
463.437	451.44
463.657	433.44
463.876	442.44
464.096	457.44
464.316	454.44
464.536	451.44
464.755	447.44
464.975	462.44
465.195	493.44
465.414	575.44
465.634	499.44
465.854	447.44
466.073	420.44
466.293	418.44
466.512	411.44
466.732	411.44
466.951	391.44
467.171	416.44
467.391	398.44
467.61	440.44
467.829	429.44
468.049	409.44
468.268	417.44
468.488	410.44
468.707	397.44
468.927	399.44
469.146	400.44
469.365	390.44
469.585	396.44
469.804	381.44
470.023	409.44
470.243	411.44
470.462	421.44
470.681	419.44
470.901	426.44
471.12	407.44
471.339	399.44
471.558	404.44
471.777	403.44
471.997	403.44
472.216	394.44
472.435	419.44
472.654	406.44
472.873	379.44
473.092	383.44
473.311	391.44
473.53	403.44
473.749	420.44
473.968	452.44
474.187	541.44
474.406	545.44
474.625	469.44
474.844	427.44
475.063	381.44
475.282	419.44
475.501	417.44
475.72	409.44
475.939	412.44
476.158	417.44
476.377	409.44
476.596	403.44
476.814	429.44
477.033	422.44
477.252	434.44
477.471	438.44
477.69	436.44
477.908	467.44
478.127	444.44
478.346	427.44
478.564	457.44
478.783	458.44
479.002	471.44
479.22	485.44
479.439	471.44
479.658	489.44
479.876	490.44
480.095	487.44
480.313	539.44
480.532	501.44
480.751	502.44
480.969	476.44
481.188	527.44
481.406	529.44
481.624	501.44
481.843	484.44
482.061	467.44
482.28	482.44
482.498	462.44
482.717	443.44
482.935	454.44
483.153	462.44
483.372	491.44
483.59	485.44
483.808	448.44
484.027	477.44
484.245	463.44
484.463	459.44
484.681	490.44
484.9	466.44
485.118	452.44
485.336	474.44
485.554	485.44
485.772	487.44
485.99	475.44
486.209	482.44
486.427	492.44
486.645	516.44
486.863	506.44
487.081	513.44
487.299	523.44
487.517	527.44
487.735	489.44
487.953	498.44
488.171	507.44
488.389	529.44
488.607	513.44
488.825	507.44
489.043	506.44
489.261	519.44
489.479	522.44
489.696	507.44
489.914	516.44
490.132	537.44
490.35	529.44
490.568	539.44
490.786	546.44
491.003	555.44
491.221	580.44
491.439	577.44
491.657	576.44
491.874	582.44
492.092	566.44
492.31	600.44
492.527	582.44
492.745	580.44
492.963	566.44
493.18	592.44
493.398	571.44
493.615	610.44
493.833	612.44
494.05	594.44
494.268	573.44
494.485	594.44
494.703	579.44
494.92	613.44
495.138	586.44
495.355	631.44
495.573	596.44
495.79	599.44
496.008	588.44
496.225	605.44
496.442	582.44
496.66	619.44
496.877	565.44
497.094	598.44
497.312	597.44
497.529	585.44
497.746	620.44
497.963	618.44
498.181	649.44
498.398	651.44
498.615	661.44
498.832	677.44
499.049	662.44
499.267	682.44
499.484	690.44
499.701	723.44
499.918	737.44
500.135	792.44
500.352	789.44
500.569	823.44
500.786	814.44
501.003	799.44
501.22	799.44
501.437	772.44
501.654	746.44
501.871	740.44
502.088	725.44
