Data from 1983.PennyLincolnUp.Lamp.En5.5.200Scan.071819.P1_HRD10591_16-53-05-965.txt Node
Date: Thu Jul 18 16:53:05 EDT 2019
User: cochatt
Spectrometer: HR+D1059
Trigger mode: 1
Integration Time (sec): 1.000000E-1
Scans to average: 1
Electric dark correction enabled: true
Nonlinearity correction enabled: false
Boxcar width: 0
XAxis mode: Wavelengths
Number of Pixels in Spectrum: 2048
>>>>>Begin Spectral Data<<<<<
223.165	-28.06
223.4	-28.06
223.635	-28.06
223.869	-23.06
224.104	-14.06
224.338	-12.06
224.573	-14.06
224.808	-16.06
225.042	-17.06
225.277	-11.06
225.511	-11.06
225.746	13.94
225.98	6.94
226.215	10.94
226.449	25.94
226.683	13.94
226.918	33.94
227.152	40.94
227.387	33.94
227.621	27.94
227.856	27.94
228.09	42.94
228.324	49.94
228.559	65.94
228.793	86.94
229.027	93.94
229.262	100.94
229.496	99.94
229.73	106.94
229.964	141.94
230.199	114.94
230.433	108.94
230.667	112.94
230.901	112.94
231.136	105.94
231.37	114.94
231.604	104.94
231.838	103.94
232.072	102.94
232.306	93.94
232.541	112.94
232.775	110.94
233.009	115.94
233.243	119.94
233.477	112.94
233.711	100.94
233.945	102.94
234.179	125.94
234.413	115.94
234.647	113.94
234.881	107.94
235.115	110.94
235.349	103.94
235.583	113.94
235.817	117.94
236.051	112.94
236.285	112.94
236.519	106.94
236.753	112.94
236.987	124.94
237.221	162.94
237.455	200.94
237.689	158.94
237.922	128.94
238.156	118.94
238.39	102.94
238.624	127.94
238.858	118.94
239.091	111.94
239.325	119.94
239.559	114.94
239.793	116.94
240.027	121.94
240.26	131.94
240.494	130.94
240.728	129.94
240.961	127.94
241.195	126.94
241.429	131.94
241.662	121.94
241.896	126.94
242.13	111.94
242.363	119.94
242.597	120.94
242.83	114.94
243.064	130.94
243.298	127.94
243.531	141.94
243.765	124.94
243.998	117.94
244.232	123.94
244.465	132.94
244.699	143.94
244.932	122.94
245.166	124.94
245.399	123.94
245.633	136.94
245.866	124.94
246.099	127.94
246.333	142.94
246.566	154.94
246.8	137.94
247.033	140.94
247.266	132.94
247.5	143.94
247.733	153.94
247.966	168.94
248.2	156.94
248.433	136.94
248.666	168.94
248.899	160.94
249.133	182.94
249.366	181.94
249.599	174.94
249.832	148.94
250.066	173.94
250.299	162.94
250.532	155.94
250.765	179.94
250.998	191.94
251.231	178.94
251.465	175.94
251.698	203.94
251.931	178.94
252.164	174.94
252.397	168.94
252.63	168.94
252.863	170.94
253.096	191.94
253.329	191.94
253.562	195.94
253.795	206.94
254.028	176.94
254.261	196.94
254.494	194.94
254.727	221.94
254.96	230.94
255.193	220.94
255.426	215.94
255.659	223.94
255.892	203.94
256.124	201.94
256.357	194.94
256.59	190.94
256.823	192.94
257.056	174.94
257.289	184.94
257.521	212.94
257.754	186.94
257.987	182.94
258.22	194.94
258.452	183.94
258.685	178.94
258.918	191.94
259.151	182.94
259.383	192.94
259.616	199.94
259.849	194.94
260.081	198.94
260.314	215.94
260.547	231.94
260.779	207.94
261.012	219.94
261.244	202.94
261.477	208.94
261.71	191.94
261.942	204.94
262.175	200.94
262.407	214.94
262.64	174.94
262.872	202.94
263.105	189.94
263.337	188.94
263.57	197.94
263.802	178.94
264.035	191.94
264.267	187.94
264.499	177.94
264.732	204.94
264.964	184.94
265.197	198.94
265.429	195.94
265.661	176.94
265.894	182.94
266.126	198.94
266.358	175.94
266.591	185.94
266.823	195.94
267.055	216.94
267.287	205.94
267.52	193.94
267.752	209.94
267.984	206.94
268.216	192.94
268.448	179.94
268.681	208.94
268.913	204.94
269.145	227.94
269.377	240.94
269.609	226.94
269.841	226.94
270.073	224.94
270.306	258.94
270.538	278.94
270.77	281.94
271.002	256.94
271.234	254.94
271.466	272.94
271.698	263.94
271.93	272.94
272.162	272.94
272.394	282.94
272.626	246.94
272.858	254.94
273.09	251.94
273.322	239.94
273.553	229.94
273.785	246.94
274.017	238.94
274.249	230.94
274.481	249.94
274.713	238.94
274.945	244.94
275.176	229.94
275.408	245.94
275.64	247.94
275.872	220.94
276.104	236.94
276.335	223.94
276.567	238.94
276.799	254.94
277.031	268.94
277.262	284.94
277.494	274.94
277.726	258.94
277.957	259.94
278.189	242.94
278.421	221.94
278.652	230.94
278.884	259.94
279.115	235.94
279.347	235.94
279.579	227.94
279.81	234.94
280.042	229.94
280.273	235.94
280.505	249.94
280.736	233.94
280.968	215.94
281.199	242.94
281.431	239.94
281.662	241.94
281.894	230.94
282.125	236.94
282.356	245.94
282.588	267.94
282.819	257.94
283.051	245.94
283.282	241.94
283.513	245.94
283.745	242.94
283.976	257.94
284.207	249.94
284.439	254.94
284.67	251.94
284.901	241.94
285.132	241.94
285.364	252.94
285.595	258.94
285.826	231.94
286.057	242.94
286.288	261.94
286.52	258.94
286.751	238.94
286.982	227.94
287.213	258.94
287.444	231.94
287.675	238.94
287.906	268.94
288.138	274.94
288.369	254.94
288.6	276.94
288.831	258.94
289.062	249.94
289.293	277.94
289.524	265.94
289.755	261.94
289.986	258.94
290.217	266.94
290.448	264.94
290.679	262.94
290.91	268.94
291.141	240.94
291.371	248.94
291.602	266.94
291.833	260.94
292.064	249.94
292.295	251.94
292.526	257.94
292.757	241.94
292.987	263.94
293.218	256.94
293.449	269.94
293.68	241.94
293.91	251.94
294.141	242.94
294.372	251.94
294.603	257.94
294.833	238.94
295.064	246.94
295.295	264.94
295.525	252.94
295.756	254.94
295.987	276.94
296.217	300.94
296.448	280.94
296.679	272.94
296.909	252.94
297.14	256.94
297.37	269.94
297.601	269.94
297.831	289.94
298.062	288.94
298.292	258.94
298.523	264.94
298.753	267.94
298.984	248.94
299.214	262.94
299.445	271.94
299.675	286.94
299.905	287.94
300.136	275.94
300.366	254.94
300.597	266.94
300.827	282.94
301.057	287.94
301.288	297.94
301.518	283.94
301.748	287.94
301.979	286.94
302.209	296.94
302.439	288.94
302.669	276.94
302.9	294.94
303.13	294.94
303.36	308.94
303.59	298.94
303.82	306.94
304.051	306.94
304.281	292.94
304.511	285.94
304.741	282.94
304.971	287.94
305.201	278.94
305.431	278.94
305.661	286.94
305.891	282.94
306.121	297.94
306.352	278.94
306.582	286.94
306.812	278.94
307.042	296.94
307.272	293.94
307.502	287.94
307.731	299.94
307.961	304.94
308.191	296.94
308.421	294.94
308.651	297.94
308.881	308.94
309.111	310.94
309.341	316.94
309.571	337.94
309.8	319.94
310.03	343.94
310.26	343.94
310.49	319.94
310.72	342.94
310.949	351.94
311.179	347.94
311.409	355.94
311.639	344.94
311.868	345.94
312.098	338.94
312.328	340.94
312.557	347.94
312.787	367.94
313.017	379.94
313.246	369.94
313.476	336.94
313.706	331.94
313.935	338.94
314.165	346.94
314.394	362.94
314.624	354.94
314.853	342.94
315.083	336.94
315.312	333.94
315.542	329.94
315.771	341.94
316.001	337.94
316.23	319.94
316.46	321.94
316.689	336.94
316.919	322.94
317.148	343.94
317.377	329.94
317.607	333.94
317.836	338.94
318.065	324.94
318.295	330.94
318.524	336.94
318.753	328.94
318.983	332.94
319.212	354.94
319.441	362.94
319.67	344.94
319.9	331.94
320.129	306.94
320.358	336.94
320.587	340.94
320.816	340.94
321.046	346.94
321.275	363.94
321.504	360.94
321.733	340.94
321.962	370.94
322.191	382.94
322.42	404.94
322.649	382.94
322.878	411.94
323.108	414.94
323.337	424.94
323.566	462.94
323.795	470.94
324.024	512.94
324.253	651.94
324.482	951.94
324.71	1362.94
324.939	1832.94
325.168	1554.94
325.397	839.94
325.626	585.94
325.855	488.94
326.084	449.94
326.313	441.94
326.542	441.94
326.77	510.94
326.999	593.94
327.228	794.94
327.457	1158.94
327.686	1377.94
327.914	914.94
328.143	606.94
328.372	534.94
328.6	527.94
328.829	514.94
329.058	531.94
329.287	523.94
329.515	489.94
329.744	444.94
329.972	424.94
330.201	455.94
330.43	464.94
330.658	500.94
330.887	521.94
331.115	531.94
331.344	462.94
331.572	446.94
331.801	441.94
332.03	420.94
332.258	407.94
332.486	390.94
332.715	397.94
332.943	393.94
333.172	380.94
333.4	386.94
333.629	401.94
333.857	402.94
334.085	411.94
334.314	405.94
334.542	394.94
334.771	411.94
334.999	406.94
335.227	389.94
335.455	396.94
335.684	379.94
335.912	386.94
336.14	389.94
336.369	384.94
336.597	390.94
336.825	409.94
337.053	405.94
337.281	386.94
337.51	386.94
337.738	361.94
337.966	392.94
338.194	402.94
338.422	387.94
338.65	368.94
338.878	359.94
339.106	372.94
339.334	380.94
339.562	354.94
339.79	361.94
340.018	374.94
340.246	360.94
340.474	356.94
340.702	375.94
340.93	375.94
341.158	370.94
341.386	369.94
341.614	377.94
341.842	383.94
342.07	363.94
342.298	373.94
342.526	368.94
342.754	374.94
342.981	372.94
343.209	361.94
343.437	359.94
343.665	355.94
343.893	362.94
344.12	377.94
344.348	396.94
344.576	387.94
344.804	390.94
345.031	412.94
345.259	406.94
345.487	387.94
345.714	369.94
345.942	372.94
346.17	370.94
346.397	375.94
346.625	348.94
346.853	368.94
347.08	346.94
347.308	370.94
347.535	373.94
347.763	370.94
347.99	372.94
348.218	367.94
348.445	381.94
348.673	356.94
348.9	354.94
349.128	366.94
349.355	366.94
349.583	372.94
349.81	349.94
350.037	358.94
350.265	371.94
350.492	369.94
350.72	339.94
350.947	338.94
351.174	382.94
351.402	373.94
351.629	356.94
351.856	354.94
352.083	379.94
352.311	386.94
352.538	404.94
352.765	384.94
352.992	395.94
353.22	363.94
353.447	370.94
353.674	370.94
353.901	339.94
354.128	360.94
354.355	339.94
354.583	328.94
354.81	340.94
355.037	343.94
355.264	330.94
355.491	345.94
355.718	340.94
355.945	347.94
356.172	326.94
356.399	337.94
356.626	337.94
356.853	333.94
357.08	325.94
357.307	351.94
357.534	349.94
357.761	323.94
357.988	332.94
358.215	351.94
358.441	332.94
358.668	325.94
358.895	357.94
359.122	338.94
359.349	353.94
359.576	343.94
359.802	402.94
360.029	407.94
360.256	425.94
360.483	409.94
360.709	358.94
360.936	345.94
361.163	382.94
361.39	376.94
361.616	370.94
361.843	341.94
362.07	363.94
362.296	355.94
362.523	348.94
362.749	363.94
362.976	358.94
363.203	369.94
363.429	352.94
363.656	344.94
363.882	354.94
364.109	329.94
364.335	356.94
364.562	360.94
364.788	359.94
365.015	352.94
365.241	374.94
365.468	342.94
365.694	345.94
365.92	358.94
366.147	335.94
366.373	341.94
366.599	338.94
366.826	329.94
367.052	337.94
367.278	328.94
367.505	355.94
367.731	352.94
367.957	347.94
368.184	345.94
368.41	342.94
368.636	357.94
368.862	362.94
369.089	331.94
369.315	348.94
369.541	344.94
369.767	365.94
369.993	336.94
370.219	334.94
370.445	356.94
370.672	329.94
370.898	339.94
371.124	330.94
371.35	353.94
371.576	348.94
371.802	338.94
372.028	334.94
372.254	328.94
372.48	329.94
372.706	347.94
372.932	339.94
373.158	331.94
373.384	359.94
373.61	341.94
373.835	352.94
374.061	330.94
374.287	340.94
374.513	353.94
374.739	345.94
374.965	338.94
375.191	351.94
375.416	347.94
375.642	337.94
375.868	368.94
376.094	332.94
376.319	351.94
376.545	350.94
376.771	342.94
376.997	343.94
377.222	338.94
377.448	346.94
377.674	330.94
377.899	340.94
378.125	326.94
378.35	327.94
378.576	319.94
378.802	340.94
379.027	343.94
379.253	344.94
379.478	333.94
379.704	346.94
379.929	349.94
380.155	346.94
380.38	336.94
380.606	331.94
380.831	354.94
381.057	345.94
381.282	340.94
381.507	319.94
381.733	348.94
381.958	350.94
382.184	337.94
382.409	349.94
382.634	347.94
382.86	362.94
383.085	351.94
383.31	360.94
383.535	369.94
383.761	368.94
383.986	360.94
384.211	346.94
384.436	368.94
384.662	363.94
384.887	352.94
385.112	348.94
385.337	372.94
385.562	352.94
385.787	362.94
386.013	384.94
386.238	369.94
386.463	358.94
386.688	382.94
386.913	377.94
387.138	353.94
387.363	368.94
387.588	359.94
387.813	356.94
388.038	355.94
388.263	363.94
388.488	387.94
388.713	380.94
388.938	359.94
389.163	363.94
389.387	370.94
389.612	354.94
389.837	346.94
390.062	353.94
390.287	362.94
390.512	358.94
390.736	348.94
390.961	372.94
391.186	369.94
391.411	356.94
391.636	363.94
391.86	386.94
392.085	378.94
392.31	367.94
392.534	372.94
392.759	366.94
392.984	378.94
393.208	375.94
393.433	355.94
393.658	352.94
393.882	363.94
394.107	368.94
394.331	372.94
394.556	359.94
394.78	374.94
395.005	370.94
395.229	382.94
395.454	367.94
395.678	388.94
395.903	373.94
396.127	392.94
396.352	400.94
396.576	384.94
396.801	364.94
397.025	386.94
397.249	390.94
397.474	404.94
397.698	402.94
397.922	411.94
398.147	391.94
398.371	404.94
398.595	408.94
398.82	416.94
399.044	422.94
399.268	432.94
399.492	456.94
399.717	464.94
399.941	489.94
400.165	519.94
400.389	524.94
400.613	474.94
400.837	437.94
401.062	419.94
401.286	424.94
401.51	416.94
401.734	411.94
401.958	416.94
402.182	415.94
402.406	433.94
402.63	427.94
402.854	407.94
403.078	425.94
403.302	430.94
403.526	444.94
403.75	427.94
403.974	422.94
404.198	418.94
404.422	424.94
404.645	435.94
404.869	442.94
405.093	444.94
405.317	460.94
405.541	474.94
405.765	438.94
405.988	435.94
406.212	456.94
406.436	476.94
406.66	496.94
406.883	468.94
407.107	453.94
407.331	499.94
407.555	557.94
407.778	535.94
408.002	504.94
408.226	489.94
408.449	471.94
408.673	472.94
408.896	491.94
409.12	523.94
409.344	491.94
409.567	450.94
409.791	435.94
410.014	410.94
410.238	416.94
410.461	434.94
410.685	440.94
410.908	449.94
411.132	451.94
411.355	519.94
411.578	462.94
411.802	439.94
412.025	441.94
412.249	436.94
412.472	420.94
412.695	446.94
412.919	442.94
413.142	408.94
413.365	416.94
413.589	400.94
413.812	397.94
414.035	412.94
414.258	392.94
414.482	400.94
414.705	401.94
414.928	380.94
415.151	416.94
415.374	405.94
415.597	397.94
415.821	406.94
416.044	390.94
416.267	392.94
416.49	386.94
416.713	396.94
416.936	380.94
417.159	419.94
417.382	406.94
417.605	395.94
417.828	414.94
418.051	434.94
418.274	413.94
418.497	408.94
418.72	409.94
418.943	416.94
419.166	432.94
419.389	436.94
419.611	438.94
419.834	427.94
420.057	434.94
420.28	412.94
420.503	393.94
420.726	392.94
420.948	419.94
421.171	441.94
421.394	462.94
421.617	450.94
421.839	429.94
422.062	431.94
422.285	424.94
422.507	471.94
422.73	541.94
422.953	506.94
423.175	447.94
423.398	443.94
423.621	432.94
423.843	441.94
424.066	457.94
424.288	443.94
424.511	459.94
424.733	507.94
424.956	558.94
425.178	530.94
425.401	551.94
425.623	552.94
425.846	489.94
426.068	446.94
426.291	444.94
426.513	464.94
426.735	466.94
426.958	490.94
427.18	568.94
427.402	650.94
427.625	712.94
427.847	638.94
428.069	532.94
428.292	485.94
428.514	447.94
428.736	430.94
428.958	423.94
429.181	414.94
429.403	422.94
429.625	429.94
429.847	454.94
430.069	516.94
430.292	496.94
430.514	426.94
430.736	413.94
430.958	417.94
431.18	398.94
431.402	387.94
431.624	398.94
431.846	386.94
432.068	403.94
432.29	412.94
432.512	391.94
432.734	401.94
432.956	391.94
433.178	417.94
433.4	399.94
433.622	399.94
433.844	416.94
434.066	413.94
434.287	401.94
434.509	401.94
434.731	407.94
434.953	402.94
435.175	412.94
435.397	435.94
435.618	457.94
435.84	487.94
436.062	544.94
436.284	597.94
436.505	508.94
436.727	466.94
436.949	440.94
437.17	422.94
437.392	432.94
437.614	414.94
437.835	461.94
438.057	542.94
438.278	603.94
438.5	599.94
438.721	633.94
438.943	609.94
439.165	499.94
439.386	467.94
439.608	490.94
439.829	467.94
440.05	476.94
440.272	511.94
440.493	497.94
440.715	438.94
440.936	419.94
441.158	425.94
441.379	427.94
441.6	443.94
441.822	450.94
442.043	482.94
442.264	555.94
442.486	584.94
442.707	488.94
442.928	475.94
443.149	490.94
443.371	484.94
443.592	536.94
443.813	579.94
444.034	607.94
444.255	533.94
444.476	474.94
444.698	440.94
444.919	463.94
445.14	587.94
445.361	510.94
445.582	484.94
445.803	545.94
446.024	606.94
446.245	608.94
446.466	564.94
446.687	486.94
446.908	454.94
447.129	437.94
447.35	395.94
447.571	423.94
447.792	432.94
448.013	440.94
448.234	444.94
448.455	505.94
448.675	590.94
448.896	635.94
449.117	558.94
449.338	534.94
449.559	620.94
449.779	650.94
450	555.94
450.221	463.94
450.442	433.94
450.662	414.94
450.883	451.94
451.104	457.94
451.324	438.94
451.545	399.94
451.766	393.94
451.986	388.94
452.207	378.94
452.428	372.94
452.648	387.94
452.869	394.94
453.089	398.94
453.31	415.94
453.53	394.94
453.751	371.94
453.971	401.94
454.192	392.94
454.412	402.94
454.633	384.94
454.853	364.94
455.073	384.94
455.294	402.94
455.514	458.94
455.734	431.94
455.955	376.94
456.175	367.94
456.395	347.94
456.616	352.94
456.836	359.94
457.056	348.94
457.276	363.94
457.497	353.94
457.717	343.94
457.937	374.94
458.157	390.94
458.377	368.94
458.598	393.94
458.818	459.94
459.038	524.94
459.258	501.94
459.478	449.94
459.698	424.94
459.918	404.94
460.138	410.94
460.358	392.94
460.578	412.94
460.798	400.94
461.018	398.94
461.238	398.94
461.458	388.94
461.678	403.94
461.898	415.94
462.118	399.94
462.338	391.94
462.558	412.94
462.777	425.94
462.997	422.94
463.217	445.94
463.437	417.94
463.657	416.94
463.876	415.94
464.096	433.94
464.316	412.94
464.536	436.94
464.755	443.94
464.975	458.94
465.195	490.94
465.414	537.94
465.634	474.94
465.854	445.94
466.073	408.94
466.293	414.94
466.512	396.94
466.732	382.94
466.951	392.94
467.171	393.94
467.391	380.94
467.61	381.94
467.829	402.94
468.049	406.94
468.268	389.94
468.488	374.94
468.707	383.94
468.927	398.94
469.146	388.94
469.365	360.94
469.585	371.94
469.804	386.94
470.023	403.94
470.243	405.94
470.462	420.94
470.681	419.94
470.901	406.94
471.12	404.94
471.339	400.94
471.558	386.94
471.777	411.94
471.997	374.94
472.216	396.94
472.435	375.94
472.654	397.94
472.873	391.94
473.092	367.94
473.311	378.94
473.53	393.94
473.749	411.94
473.968	444.94
474.187	520.94
474.406	530.94
474.625	426.94
474.844	400.94
475.063	394.94
475.282	390.94
475.501	396.94
475.72	403.94
475.939	391.94
476.158	394.94
476.377	405.94
476.596	408.94
476.814	406.94
477.033	429.94
477.252	420.94
477.471	404.94
477.69	431.94
477.908	432.94
478.127	421.94
478.346	423.94
478.564	422.94
478.783	432.94
479.002	412.94
479.22	434.94
479.439	455.94
479.658	473.94
479.876	466.94
480.095	468.94
480.313	495.94
480.532	485.94
480.751	480.94
480.969	473.94
481.188	493.94
481.406	483.94
481.624	461.94
481.843	447.94
482.061	448.94
482.28	470.94
482.498	457.94
482.717	445.94
482.935	460.94
483.153	444.94
483.372	463.94
483.59	447.94
483.808	436.94
484.027	450.94
484.245	451.94
484.463	451.94
484.681	471.94
484.9	468.94
485.118	478.94
485.336	474.94
485.554	465.94
485.772	475.94
485.99	467.94
486.209	465.94
486.427	481.94
486.645	473.94
486.863	494.94
487.081	484.94
487.299	498.94
487.517	475.94
487.735	494.94
487.953	506.94
488.171	496.94
488.389	476.94
488.607	486.94
488.825	486.94
489.043	484.94
489.261	490.94
489.479	486.94
489.696	490.94
489.914	500.94
490.132	490.94
490.35	516.94
490.568	526.94
490.786	523.94
491.003	526.94
491.221	546.94
491.439	538.94
491.657	552.94
491.874	570.94
492.092	582.94
492.31	555.94
492.527	556.94
492.745	550.94
492.963	589.94
493.18	576.94
493.398	566.94
493.615	566.94
493.833	591.94
494.05	563.94
494.268	569.94
494.485	562.94
494.703	577.94
494.92	570.94
495.138	581.94
495.355	580.94
495.573	581.94
495.79	574.94
496.008	576.94
496.225	569.94
496.442	587.94
496.66	586.94
496.877	558.94
497.094	586.94
497.312	583.94
497.529	604.94
497.746	604.94
497.963	628.94
498.181	636.94
498.398	643.94
498.615	633.94
498.832	668.94
499.049	645.94
499.267	651.94
499.484	667.94
499.701	702.94
499.918	722.94
500.135	754.94
500.352	779.94
500.569	759.94
500.786	791.94
501.003	745.94
501.22	747.94
501.437	729.94
501.654	713.94
501.871	722.94
