Data from 1983.PennyLincolnUp.Lamp.En5.5.200Scan.071819.P1_HRD10591_16-52-48-965.txt Node
Date: Thu Jul 18 16:52:48 EDT 2019
User: cochatt
Spectrometer: HR+D1059
Trigger mode: 1
Integration Time (sec): 1.000000E-1
Scans to average: 1
Electric dark correction enabled: true
Nonlinearity correction enabled: false
Boxcar width: 0
XAxis mode: Wavelengths
Number of Pixels in Spectrum: 2048
>>>>>Begin Spectral Data<<<<<
223.165	-19.25
223.4	-19.25
223.635	-19.25
223.869	-1.25
224.104	-21.25
224.338	-14.25
224.573	-11.25
224.808	-17.25
225.042	-11.25
225.277	-3.25
225.511	-7.25
225.746	7.75
225.98	3.75
226.215	15.75
226.449	17.75
226.683	4.75
226.918	27.75
227.152	28.75
227.387	30.75
227.621	38.75
227.856	53.75
228.09	44.75
228.324	50.75
228.559	58.75
228.793	79.75
229.027	108.75
229.262	105.75
229.496	113.75
229.73	127.75
229.964	140.75
230.199	105.75
230.433	99.75
230.667	120.75
230.901	106.75
231.136	106.75
231.37	108.75
231.604	115.75
231.838	103.75
232.072	106.75
232.306	109.75
232.541	104.75
232.775	113.75
233.009	122.75
233.243	114.75
233.477	108.75
233.711	102.75
233.945	109.75
234.179	115.75
234.413	102.75
234.647	94.75
234.881	124.75
235.115	133.75
235.349	109.75
235.583	118.75
235.817	101.75
236.051	121.75
236.285	121.75
236.519	122.75
236.753	125.75
236.987	139.75
237.221	172.75
237.455	193.75
237.689	161.75
237.922	120.75
238.156	126.75
238.39	124.75
238.624	114.75
238.858	110.75
239.091	114.75
239.325	105.75
239.559	124.75
239.793	115.75
240.027	131.75
240.26	141.75
240.494	155.75
240.728	127.75
240.961	142.75
241.195	136.75
241.429	130.75
241.662	123.75
241.896	114.75
242.13	120.75
242.363	133.75
242.597	128.75
242.83	122.75
243.064	135.75
243.298	137.75
243.531	134.75
243.765	126.75
243.998	132.75
244.232	132.75
244.465	126.75
244.699	118.75
244.932	127.75
245.166	140.75
245.399	136.75
245.633	135.75
245.866	147.75
246.099	135.75
246.333	148.75
246.566	139.75
246.8	127.75
247.033	145.75
247.266	144.75
247.5	142.75
247.733	159.75
247.966	153.75
248.2	156.75
248.433	156.75
248.666	159.75
248.899	163.75
249.133	182.75
249.366	190.75
249.599	170.75
249.832	165.75
250.066	159.75
250.299	155.75
250.532	157.75
250.765	171.75
250.998	204.75
251.231	188.75
251.465	204.75
251.698	183.75
251.931	166.75
252.164	180.75
252.397	171.75
252.63	190.75
252.863	176.75
253.096	191.75
253.329	209.75
253.562	188.75
253.795	202.75
254.028	191.75
254.261	198.75
254.494	195.75
254.727	234.75
254.96	245.75
255.193	234.75
255.426	208.75
255.659	200.75
255.892	194.75
256.124	186.75
256.357	192.75
256.59	212.75
256.823	191.75
257.056	197.75
257.289	188.75
257.521	195.75
257.754	185.75
257.987	178.75
258.22	186.75
258.452	179.75
258.685	191.75
258.918	188.75
259.151	202.75
259.383	190.75
259.616	191.75
259.849	194.75
260.081	203.75
260.314	213.75
260.547	216.75
260.779	218.75
261.012	208.75
261.244	200.75
261.477	207.75
261.71	201.75
261.942	186.75
262.175	206.75
262.407	219.75
262.64	174.75
262.872	188.75
263.105	206.75
263.337	182.75
263.57	182.75
263.802	180.75
264.035	184.75
264.267	174.75
264.499	189.75
264.732	186.75
264.964	196.75
265.197	194.75
265.429	185.75
265.661	196.75
265.894	184.75
266.126	173.75
266.358	167.75
266.591	204.75
266.823	210.75
267.055	199.75
267.287	190.75
267.52	189.75
267.752	206.75
267.984	193.75
268.216	201.75
268.448	191.75
268.681	211.75
268.913	196.75
269.145	232.75
269.377	248.75
269.609	238.75
269.841	242.75
270.073	250.75
270.306	255.75
270.538	267.75
270.77	280.75
271.002	259.75
271.234	260.75
271.466	254.75
271.698	267.75
271.93	268.75
272.162	285.75
272.394	269.75
272.626	267.75
272.858	250.75
273.09	248.75
273.322	242.75
273.553	233.75
273.785	225.75
274.017	227.75
274.249	233.75
274.481	239.75
274.713	262.75
274.945	221.75
275.176	227.75
275.408	228.75
275.64	230.75
275.872	224.75
276.104	235.75
276.335	229.75
276.567	244.75
276.799	247.75
277.031	262.75
277.262	287.75
277.494	284.75
277.726	270.75
277.957	271.75
278.189	234.75
278.421	250.75
278.652	237.75
278.884	244.75
279.115	253.75
279.347	232.75
279.579	216.75
279.81	230.75
280.042	231.75
280.273	238.75
280.505	238.75
280.736	250.75
280.968	250.75
281.199	240.75
281.431	239.75
281.662	243.75
281.894	235.75
282.125	246.75
282.356	236.75
282.588	263.75
282.819	260.75
283.051	245.75
283.282	223.75
283.513	245.75
283.745	252.75
283.976	266.75
284.207	262.75
284.439	249.75
284.67	249.75
284.901	232.75
285.132	243.75
285.364	262.75
285.595	256.75
285.826	246.75
286.057	248.75
286.288	254.75
286.52	237.75
286.751	231.75
286.982	263.75
287.213	243.75
287.444	263.75
287.675	269.75
287.906	273.75
288.138	272.75
288.369	286.75
288.6	271.75
288.831	271.75
289.062	261.75
289.293	262.75
289.524	256.75
289.755	232.75
289.986	255.75
290.217	245.75
290.448	229.75
290.679	251.75
290.91	255.75
291.141	267.75
291.371	226.75
291.602	269.75
291.833	249.75
292.064	254.75
292.295	260.75
292.526	266.75
292.757	264.75
292.987	261.75
293.218	262.75
293.449	261.75
293.68	241.75
293.91	256.75
294.141	269.75
294.372	250.75
294.603	268.75
294.833	263.75
295.064	281.75
295.295	257.75
295.525	262.75
295.756	276.75
295.987	267.75
296.217	281.75
296.448	293.75
296.679	275.75
296.909	264.75
297.14	275.75
297.37	267.75
297.601	251.75
297.831	261.75
298.062	246.75
298.292	261.75
298.523	283.75
298.753	288.75
298.984	254.75
299.214	275.75
299.445	276.75
299.675	267.75
299.905	282.75
300.136	283.75
300.366	262.75
300.597	259.75
300.827	268.75
301.057	268.75
301.288	272.75
301.518	293.75
301.748	298.75
301.979	287.75
302.209	296.75
302.439	294.75
302.669	284.75
302.9	271.75
303.13	271.75
303.36	296.75
303.59	279.75
303.82	293.75
304.051	290.75
304.281	315.75
304.511	293.75
304.741	300.75
304.971	286.75
305.201	282.75
305.431	296.75
305.661	293.75
305.891	282.75
306.121	300.75
306.352	304.75
306.582	310.75
306.812	300.75
307.042	296.75
307.272	281.75
307.502	274.75
307.731	278.75
307.961	290.75
308.191	296.75
308.421	298.75
308.651	299.75
308.881	296.75
309.111	314.75
309.341	306.75
309.571	315.75
309.8	303.75
310.03	318.75
310.26	338.75
310.49	333.75
310.72	322.75
310.949	348.75
311.179	323.75
311.409	339.75
311.639	340.75
311.868	326.75
312.098	330.75
312.328	332.75
312.557	351.75
312.787	372.75
313.017	353.75
313.246	346.75
313.476	340.75
313.706	314.75
313.935	357.75
314.165	324.75
314.394	330.75
314.624	340.75
314.853	350.75
315.083	328.75
315.312	340.75
315.542	332.75
315.771	325.75
316.001	317.75
316.23	302.75
316.46	320.75
316.689	334.75
316.919	338.75
317.148	356.75
317.377	349.75
317.607	356.75
317.836	348.75
318.065	327.75
318.295	337.75
318.524	342.75
318.753	326.75
318.983	333.75
319.212	338.75
319.441	335.75
319.67	340.75
319.9	340.75
320.129	323.75
320.358	338.75
320.587	325.75
320.816	338.75
321.046	337.75
321.275	370.75
321.504	359.75
321.733	356.75
321.962	371.75
322.191	362.75
322.42	381.75
322.649	388.75
322.878	388.75
323.108	413.75
323.337	444.75
323.566	420.75
323.795	464.75
324.024	525.75
324.253	609.75
324.482	875.75
324.71	1306.75
324.939	1748.75
325.168	1454.75
325.397	802.75
325.626	544.75
325.855	475.75
326.084	441.75
326.313	434.75
326.542	446.75
326.77	483.75
326.999	583.75
327.228	798.75
327.457	1119.75
327.686	1319.75
327.914	875.75
328.143	607.75
328.372	540.75
328.6	490.75
328.829	482.75
329.058	511.75
329.287	480.75
329.515	480.75
329.744	443.75
329.972	421.75
330.201	436.75
330.43	454.75
330.658	489.75
330.887	531.75
331.115	524.75
331.344	447.75
331.572	414.75
331.801	430.75
332.03	449.75
332.258	386.75
332.486	397.75
332.715	390.75
332.943	375.75
333.172	370.75
333.4	425.75
333.629	386.75
333.857	389.75
334.085	411.75
334.314	363.75
334.542	395.75
334.771	414.75
334.999	386.75
335.227	382.75
335.455	409.75
335.684	402.75
335.912	386.75
336.14	376.75
336.369	389.75
336.597	388.75
336.825	380.75
337.053	377.75
337.281	379.75
337.51	372.75
337.738	384.75
337.966	379.75
338.194	404.75
338.422	390.75
338.65	382.75
338.878	379.75
339.106	382.75
339.334	385.75
339.562	377.75
339.79	367.75
340.018	376.75
340.246	351.75
340.474	391.75
340.702	372.75
340.93	366.75
341.158	370.75
341.386	340.75
341.614	365.75
341.842	374.75
342.07	359.75
342.298	370.75
342.526	346.75
342.754	351.75
342.981	365.75
343.209	346.75
343.437	378.75
343.665	373.75
343.893	384.75
344.12	397.75
344.348	367.75
344.576	379.75
344.804	392.75
345.031	390.75
345.259	398.75
345.487	395.75
345.714	372.75
345.942	362.75
346.17	366.75
346.397	369.75
346.625	358.75
346.853	355.75
347.08	370.75
347.308	354.75
347.535	356.75
347.763	375.75
347.99	370.75
348.218	386.75
348.445	371.75
348.673	380.75
348.9	351.75
349.128	348.75
349.355	357.75
349.583	361.75
349.81	351.75
350.037	349.75
350.265	358.75
350.492	358.75
350.72	355.75
350.947	356.75
351.174	383.75
351.402	385.75
351.629	374.75
351.856	368.75
352.083	358.75
352.311	374.75
352.538	380.75
352.765	374.75
352.992	364.75
353.22	372.75
353.447	371.75
353.674	363.75
353.901	334.75
354.128	347.75
354.355	334.75
354.583	333.75
354.81	351.75
355.037	335.75
355.264	346.75
355.491	328.75
355.718	320.75
355.945	327.75
356.172	335.75
356.399	330.75
356.626	341.75
356.853	330.75
357.08	320.75
357.307	330.75
357.534	345.75
357.761	335.75
357.988	341.75
358.215	332.75
358.441	352.75
358.668	342.75
358.895	349.75
359.122	349.75
359.349	344.75
359.576	346.75
359.802	372.75
360.029	418.75
360.256	422.75
360.483	381.75
360.709	372.75
360.936	374.75
361.163	366.75
361.39	364.75
361.616	360.75
361.843	359.75
362.07	386.75
362.296	365.75
362.523	344.75
362.749	347.75
362.976	354.75
363.203	350.75
363.429	348.75
363.656	350.75
363.882	346.75
364.109	349.75
364.335	364.75
364.562	351.75
364.788	335.75
365.015	338.75
365.241	343.75
365.468	351.75
365.694	336.75
365.92	341.75
366.147	342.75
366.373	352.75
366.599	352.75
366.826	330.75
367.052	330.75
367.278	347.75
367.505	347.75
367.731	345.75
367.957	334.75
368.184	355.75
368.41	346.75
368.636	356.75
368.862	362.75
369.089	351.75
369.315	355.75
369.541	330.75
369.767	349.75
369.993	350.75
370.219	337.75
370.445	351.75
370.672	334.75
370.898	338.75
371.124	340.75
371.35	331.75
371.576	325.75
371.802	362.75
372.028	351.75
372.254	359.75
372.48	339.75
372.706	334.75
372.932	344.75
373.158	329.75
373.384	344.75
373.61	360.75
373.835	352.75
374.061	342.75
374.287	344.75
374.513	359.75
374.739	353.75
374.965	330.75
375.191	337.75
375.416	358.75
375.642	352.75
375.868	343.75
376.094	347.75
376.319	343.75
376.545	333.75
376.771	342.75
376.997	342.75
377.222	323.75
377.448	349.75
377.674	329.75
377.899	339.75
378.125	335.75
378.35	350.75
378.576	335.75
378.802	330.75
379.027	341.75
379.253	333.75
379.478	332.75
379.704	331.75
379.929	353.75
380.155	356.75
380.38	347.75
380.606	342.75
380.831	334.75
381.057	355.75
381.282	356.75
381.507	351.75
381.733	321.75
381.958	337.75
382.184	337.75
382.409	355.75
382.634	336.75
382.86	339.75
383.085	346.75
383.31	353.75
383.535	365.75
383.761	360.75
383.986	336.75
384.211	352.75
384.436	343.75
384.662	340.75
384.887	341.75
385.112	363.75
385.337	356.75
385.562	364.75
385.787	357.75
386.013	380.75
386.238	382.75
386.463	386.75
386.688	366.75
386.913	354.75
387.138	364.75
387.363	349.75
387.588	350.75
387.813	374.75
388.038	362.75
388.263	366.75
388.488	368.75
388.713	369.75
388.938	357.75
389.163	358.75
389.387	366.75
389.612	373.75
389.837	361.75
390.062	376.75
390.287	354.75
390.512	346.75
390.736	349.75
390.961	351.75
391.186	347.75
391.411	367.75
391.636	371.75
391.86	379.75
392.085	371.75
392.31	377.75
392.534	375.75
392.759	380.75
392.984	374.75
393.208	362.75
393.433	350.75
393.658	377.75
393.882	372.75
394.107	352.75
394.331	370.75
394.556	352.75
394.78	352.75
395.005	360.75
395.229	349.75
395.454	363.75
395.678	376.75
395.903	394.75
396.127	391.75
396.352	410.75
396.576	378.75
396.801	371.75
397.025	378.75
397.249	375.75
397.474	408.75
397.698	381.75
397.922	405.75
398.147	408.75
398.371	427.75
398.595	386.75
398.82	388.75
399.044	415.75
399.268	428.75
399.492	439.75
399.717	460.75
399.941	487.75
400.165	483.75
400.389	504.75
400.613	470.75
400.837	434.75
401.062	417.75
401.286	443.75
401.51	426.75
401.734	409.75
401.958	427.75
402.182	417.75
402.406	421.75
402.63	429.75
402.854	413.75
403.078	431.75
403.302	426.75
403.526	417.75
403.75	409.75
403.974	429.75
404.198	426.75
404.422	441.75
404.645	461.75
404.869	423.75
405.093	444.75
405.317	482.75
405.541	473.75
405.765	455.75
405.988	458.75
406.212	448.75
406.436	472.75
406.66	495.75
406.883	449.75
407.107	480.75
407.331	503.75
407.555	555.75
407.778	535.75
408.002	505.75
408.226	473.75
408.449	469.75
408.673	462.75
408.896	482.75
409.12	507.75
409.344	498.75
409.567	461.75
409.791	448.75
410.014	443.75
410.238	416.75
410.461	420.75
410.685	452.75
410.908	430.75
411.132	459.75
411.355	470.75
411.578	479.75
411.802	453.75
412.025	416.75
412.249	423.75
412.472	420.75
412.695	430.75
412.919	428.75
413.142	411.75
413.365	415.75
413.589	398.75
413.812	374.75
414.035	408.75
414.258	415.75
414.482	406.75
414.705	403.75
414.928	416.75
415.151	398.75
415.374	404.75
415.597	366.75
415.821	386.75
416.044	410.75
416.267	408.75
416.49	390.75
416.713	411.75
416.936	408.75
417.159	390.75
417.382	380.75
417.605	406.75
417.828	420.75
418.051	413.75
418.274	407.75
418.497	399.75
418.72	421.75
418.943	391.75
419.166	420.75
419.389	424.75
419.611	427.75
419.834	423.75
420.057	416.75
420.28	406.75
420.503	410.75
420.726	411.75
420.948	425.75
421.171	460.75
421.394	503.75
421.617	429.75
421.839	434.75
422.062	429.75
422.285	436.75
422.507	477.75
422.73	518.75
422.953	501.75
423.175	458.75
423.398	449.75
423.621	435.75
423.843	472.75
424.066	459.75
424.288	468.75
424.511	472.75
424.733	502.75
424.956	563.75
425.178	542.75
425.401	544.75
425.623	557.75
425.846	469.75
426.068	446.75
426.291	455.75
426.513	423.75
426.735	435.75
426.958	482.75
427.18	553.75
427.402	638.75
427.625	681.75
427.847	637.75
428.069	505.75
428.292	464.75
428.514	434.75
428.736	436.75
428.958	439.75
429.181	421.75
429.403	431.75
429.625	430.75
429.847	448.75
430.069	498.75
430.292	482.75
430.514	447.75
430.736	418.75
430.958	415.75
431.18	400.75
431.402	406.75
431.624	404.75
431.846	395.75
432.068	394.75
432.29	386.75
432.512	390.75
432.734	388.75
432.956	400.75
433.178	414.75
433.4	407.75
433.622	418.75
433.844	386.75
434.066	392.75
434.287	404.75
434.509	405.75
434.731	400.75
434.953	406.75
435.175	451.75
435.397	459.75
435.618	443.75
435.84	490.75
436.062	560.75
436.284	598.75
436.505	514.75
436.727	457.75
436.949	446.75
437.17	441.75
437.392	412.75
437.614	424.75
437.835	470.75
438.057	551.75
438.278	600.75
438.5	597.75
438.721	662.75
438.943	623.75
439.165	488.75
439.386	470.75
439.608	460.75
439.829	472.75
440.05	477.75
440.272	511.75
440.493	486.75
440.715	453.75
440.936	443.75
441.158	424.75
441.379	426.75
441.6	436.75
441.822	459.75
442.043	484.75
442.264	551.75
442.486	558.75
442.707	505.75
442.928	469.75
443.149	490.75
443.371	500.75
443.592	514.75
443.813	574.75
444.034	628.75
444.255	522.75
444.476	471.75
444.698	461.75
444.919	467.75
445.14	596.75
445.361	523.75
445.582	505.75
445.803	551.75
446.024	588.75
446.245	652.75
446.466	573.75
446.687	498.75
446.908	451.75
447.129	446.75
447.35	424.75
447.571	416.75
447.792	433.75
448.013	418.75
448.234	423.75
448.455	491.75
448.675	571.75
448.896	636.75
449.117	550.75
449.338	502.75
449.559	597.75
449.779	683.75
450	547.75
450.221	454.75
450.442	430.75
450.662	410.75
450.883	401.75
451.104	425.75
451.324	453.75
451.545	399.75
451.766	413.75
451.986	380.75
452.207	384.75
452.428	369.75
452.648	377.75
452.869	363.75
453.089	402.75
453.31	398.75
453.53	387.75
453.751	391.75
453.971	400.75
454.192	386.75
454.412	399.75
454.633	391.75
454.853	379.75
455.073	379.75
455.294	407.75
455.514	455.75
455.734	423.75
455.955	383.75
456.175	379.75
456.395	377.75
456.616	350.75
456.836	370.75
457.056	382.75
457.276	373.75
457.497	363.75
457.717	363.75
457.937	358.75
458.157	382.75
458.377	357.75
458.598	404.75
458.818	442.75
459.038	515.75
459.258	518.75
459.478	419.75
459.698	402.75
459.918	411.75
460.138	388.75
460.358	398.75
460.578	379.75
460.798	400.75
461.018	414.75
461.238	414.75
461.458	377.75
461.678	389.75
461.898	415.75
462.118	398.75
462.338	394.75
462.558	416.75
462.777	443.75
462.997	422.75
463.217	430.75
463.437	439.75
463.657	429.75
463.876	418.75
464.096	437.75
464.316	404.75
464.536	420.75
464.755	445.75
464.975	434.75
465.195	484.75
465.414	542.75
465.634	440.75
465.854	426.75
466.073	390.75
466.293	415.75
466.512	391.75
466.732	387.75
466.951	385.75
467.171	392.75
467.391	381.75
467.61	398.75
467.829	420.75
468.049	397.75
468.268	378.75
468.488	378.75
468.707	392.75
468.927	398.75
469.146	377.75
469.365	384.75
469.585	371.75
469.804	381.75
470.023	417.75
470.243	398.75
470.462	382.75
470.681	410.75
470.901	404.75
471.12	397.75
471.339	391.75
471.558	376.75
471.777	408.75
471.997	370.75
472.216	373.75
472.435	400.75
472.654	386.75
472.873	383.75
473.092	386.75
473.311	403.75
473.53	393.75
473.749	389.75
473.968	428.75
474.187	519.75
474.406	532.75
474.625	450.75
474.844	400.75
475.063	427.75
475.282	383.75
475.501	407.75
475.72	394.75
475.939	391.75
476.158	405.75
476.377	425.75
476.596	402.75
476.814	411.75
477.033	407.75
477.252	412.75
477.471	426.75
477.69	412.75
477.908	429.75
478.127	431.75
478.346	419.75
478.564	448.75
478.783	419.75
479.002	432.75
479.22	439.75
479.439	465.75
479.658	468.75
479.876	455.75
480.095	464.75
480.313	508.75
480.532	478.75
480.751	474.75
480.969	461.75
481.188	474.75
481.406	486.75
481.624	438.75
481.843	454.75
482.061	458.75
482.28	450.75
482.498	469.75
482.717	439.75
482.935	457.75
483.153	439.75
483.372	442.75
483.59	451.75
483.808	458.75
484.027	463.75
484.245	447.75
484.463	448.75
484.681	467.75
484.9	451.75
485.118	456.75
485.336	461.75
485.554	481.75
485.772	471.75
485.99	482.75
486.209	471.75
486.427	470.75
486.645	496.75
486.863	493.75
487.081	491.75
487.299	463.75
487.517	504.75
487.735	470.75
487.953	473.75
488.171	488.75
488.389	477.75
488.607	505.75
488.825	502.75
489.043	495.75
489.261	516.75
489.479	503.75
489.696	488.75
489.914	488.75
490.132	503.75
490.35	496.75
490.568	524.75
490.786	519.75
491.003	526.75
491.221	534.75
491.439	523.75
491.657	552.75
491.874	574.75
492.092	571.75
492.31	571.75
492.527	583.75
492.745	566.75
492.963	560.75
493.18	569.75
493.398	568.75
493.615	564.75
493.833	571.75
494.05	599.75
494.268	597.75
494.485	569.75
494.703	575.75
494.92	567.75
495.138	570.75
495.355	589.75
495.573	591.75
495.79	585.75
496.008	588.75
496.225	576.75
496.442	584.75
496.66	581.75
496.877	591.75
497.094	586.75
497.312	592.75
497.529	586.75
497.746	600.75
497.963	599.75
498.181	624.75
498.398	594.75
498.615	626.75
498.832	639.75
499.049	638.75
499.267	650.75
499.484	687.75
499.701	703.75
499.918	700.75
500.135	749.75
500.352	743.75
500.569	768.75
500.786	772.75
501.003	763.75
501.22	772.75
501.437	734.75
501.654	720.75
501.871	696.75
