Data from 1983.PennyLincolnUp.Lamp.En5.5.200Scan.071819.P1_HRD10591_16-52-28-965.txt Node
Date: Thu Jul 18 16:52:28 EDT 2019
User: cochatt
Spectrometer: HR+D1059
Trigger mode: 1
Integration Time (sec): 1.000000E-1
Scans to average: 1
Electric dark correction enabled: true
Nonlinearity correction enabled: false
Boxcar width: 0
XAxis mode: Wavelengths
Number of Pixels in Spectrum: 2048
>>>>>Begin Spectral Data<<<<<
223.165	-16.56
223.4	-16.56
223.635	-16.56
223.869	-12.56
224.104	-16.56
224.338	-16.56
224.573	-25.56
224.808	-3.56
225.042	-1.56
225.277	-12.56
225.511	-24.56
225.746	2.44
225.98	5.44
226.215	20.44
226.449	17.44
226.683	22.44
226.918	25.44
227.152	36.44
227.387	20.44
227.621	34.44
227.856	56.44
228.09	38.44
228.324	44.44
228.559	52.44
228.793	50.44
229.027	78.44
229.262	96.44
229.496	97.44
229.73	110.44
229.964	124.44
230.199	102.44
230.433	101.44
230.667	85.44
230.901	99.44
231.136	100.44
231.37	105.44
231.604	107.44
231.838	99.44
232.072	101.44
232.306	93.44
232.541	105.44
232.775	100.44
233.009	107.44
233.243	98.44
233.477	108.44
233.711	107.44
233.945	111.44
234.179	100.44
234.413	102.44
234.647	99.44
234.881	104.44
235.115	109.44
235.349	95.44
235.583	97.44
235.817	100.44
236.051	112.44
236.285	110.44
236.519	120.44
236.753	110.44
236.987	118.44
237.221	163.44
237.455	202.44
237.689	155.44
237.922	122.44
238.156	110.44
238.39	115.44
238.624	106.44
238.858	107.44
239.091	116.44
239.325	100.44
239.559	126.44
239.793	109.44
240.027	115.44
240.26	121.44
240.494	131.44
240.728	128.44
240.961	133.44
241.195	137.44
241.429	135.44
241.662	121.44
241.896	116.44
242.13	123.44
242.363	131.44
242.597	113.44
242.83	125.44
243.064	122.44
243.298	110.44
243.531	126.44
243.765	112.44
243.998	127.44
244.232	121.44
244.465	145.44
244.699	120.44
244.932	123.44
245.166	123.44
245.399	129.44
245.633	138.44
245.866	130.44
246.099	130.44
246.333	128.44
246.566	121.44
246.8	132.44
247.033	126.44
247.266	153.44
247.5	134.44
247.733	139.44
247.966	145.44
248.2	142.44
248.433	151.44
248.666	140.44
248.899	155.44
249.133	162.44
249.366	165.44
249.599	171.44
249.832	149.44
250.066	172.44
250.299	161.44
250.532	165.44
250.765	183.44
250.998	180.44
251.231	192.44
251.465	166.44
251.698	167.44
251.931	170.44
252.164	159.44
252.397	169.44
252.63	177.44
252.863	180.44
253.096	182.44
253.329	197.44
253.562	184.44
253.795	183.44
254.028	207.44
254.261	191.44
254.494	188.44
254.727	210.44
254.96	228.44
255.193	223.44
255.426	210.44
255.659	192.44
255.892	174.44
256.124	176.44
256.357	183.44
256.59	191.44
256.823	176.44
257.056	169.44
257.289	182.44
257.521	184.44
257.754	179.44
257.987	194.44
258.22	196.44
258.452	176.44
258.685	187.44
258.918	172.44
259.151	159.44
259.383	182.44
259.616	191.44
259.849	186.44
260.081	222.44
260.314	202.44
260.547	215.44
260.779	188.44
261.012	186.44
261.244	197.44
261.477	182.44
261.71	183.44
261.942	177.44
262.175	194.44
262.407	191.44
262.64	192.44
262.872	168.44
263.105	187.44
263.337	172.44
263.57	201.44
263.802	192.44
264.035	171.44
264.267	203.44
264.499	171.44
264.732	184.44
264.964	184.44
265.197	182.44
265.429	176.44
265.661	181.44
265.894	172.44
266.126	193.44
266.358	176.44
266.591	195.44
266.823	188.44
267.055	188.44
267.287	192.44
267.52	173.44
267.752	187.44
267.984	195.44
268.216	203.44
268.448	186.44
268.681	194.44
268.913	195.44
269.145	207.44
269.377	225.44
269.609	222.44
269.841	231.44
270.073	235.44
270.306	243.44
270.538	256.44
270.77	278.44
271.002	235.44
271.234	223.44
271.466	253.44
271.698	250.44
271.93	258.44
272.162	260.44
272.394	269.44
272.626	266.44
272.858	225.44
273.09	220.44
273.322	226.44
273.553	211.44
273.785	232.44
274.017	212.44
274.249	208.44
274.481	215.44
274.713	211.44
274.945	227.44
275.176	218.44
275.408	213.44
275.64	202.44
275.872	220.44
276.104	215.44
276.335	215.44
276.567	228.44
276.799	238.44
277.031	256.44
277.262	255.44
277.494	264.44
277.726	232.44
277.957	233.44
278.189	232.44
278.421	244.44
278.652	246.44
278.884	235.44
279.115	223.44
279.347	238.44
279.579	218.44
279.81	219.44
280.042	222.44
280.273	216.44
280.505	229.44
280.736	215.44
280.968	230.44
281.199	243.44
281.431	223.44
281.662	217.44
281.894	231.44
282.125	208.44
282.356	232.44
282.588	249.44
282.819	253.44
283.051	212.44
283.282	212.44
283.513	223.44
283.745	242.44
283.976	225.44
284.207	227.44
284.439	241.44
284.67	247.44
284.901	242.44
285.132	214.44
285.364	228.44
285.595	233.44
285.826	229.44
286.057	242.44
286.288	240.44
286.52	240.44
286.751	229.44
286.982	231.44
287.213	239.44
287.444	254.44
287.675	236.44
287.906	256.44
288.138	244.44
288.369	263.44
288.6	253.44
288.831	243.44
289.062	245.44
289.293	236.44
289.524	229.44
289.755	252.44
289.986	250.44
290.217	231.44
290.448	250.44
290.679	252.44
290.91	258.44
291.141	234.44
291.371	236.44
291.602	228.44
291.833	227.44
292.064	248.44
292.295	227.44
292.526	246.44
292.757	243.44
292.987	228.44
293.218	235.44
293.449	254.44
293.68	250.44
293.91	238.44
294.141	226.44
294.372	230.44
294.603	238.44
294.833	255.44
295.064	247.44
295.295	249.44
295.525	254.44
295.756	259.44
295.987	264.44
296.217	266.44
296.448	280.44
296.679	258.44
296.909	263.44
297.14	246.44
297.37	247.44
297.601	238.44
297.831	258.44
298.062	252.44
298.292	251.44
298.523	271.44
298.753	251.44
298.984	251.44
299.214	273.44
299.445	246.44
299.675	258.44
299.905	275.44
300.136	278.44
300.366	258.44
300.597	264.44
300.827	247.44
301.057	265.44
301.288	274.44
301.518	283.44
301.748	262.44
301.979	258.44
302.209	252.44
302.439	265.44
302.669	271.44
302.9	268.44
303.13	261.44
303.36	242.44
303.59	286.44
303.82	274.44
304.051	282.44
304.281	274.44
304.511	261.44
304.741	275.44
304.971	270.44
305.201	261.44
305.431	281.44
305.661	286.44
305.891	280.44
306.121	270.44
306.352	274.44
306.582	281.44
306.812	256.44
307.042	266.44
307.272	284.44
307.502	297.44
307.731	286.44
307.961	282.44
308.191	287.44
308.421	280.44
308.651	279.44
308.881	278.44
309.111	278.44
309.341	268.44
309.571	285.44
309.8	302.44
310.03	313.44
310.26	299.44
310.49	311.44
310.72	307.44
310.949	323.44
311.179	319.44
311.409	324.44
311.639	294.44
311.868	312.44
312.098	302.44
312.328	318.44
312.557	331.44
312.787	314.44
313.017	332.44
313.246	308.44
313.476	295.44
313.706	319.44
313.935	318.44
314.165	328.44
314.394	316.44
314.624	323.44
314.853	315.44
315.083	320.44
315.312	315.44
315.542	316.44
315.771	310.44
316.001	318.44
316.23	319.44
316.46	309.44
316.689	322.44
316.919	332.44
317.148	329.44
317.377	330.44
317.607	322.44
317.836	329.44
318.065	304.44
318.295	327.44
318.524	338.44
318.753	328.44
318.983	320.44
319.212	311.44
319.441	320.44
319.67	320.44
319.9	318.44
320.129	297.44
320.358	309.44
320.587	300.44
320.816	350.44
321.046	319.44
321.275	329.44
321.504	321.44
321.733	329.44
321.962	329.44
322.191	352.44
322.42	369.44
322.649	368.44
322.878	369.44
323.108	381.44
323.337	408.44
323.566	390.44
323.795	419.44
324.024	463.44
324.253	561.44
324.482	775.44
324.71	1148.44
324.939	1555.44
325.168	1302.44
325.397	684.44
325.626	515.44
325.855	430.44
326.084	404.44
326.313	408.44
326.542	403.44
326.77	447.44
326.999	533.44
327.228	695.44
327.457	1033.44
327.686	1138.44
327.914	778.44
328.143	518.44
328.372	481.44
328.6	454.44
328.829	448.44
329.058	458.44
329.287	453.44
329.515	442.44
329.744	393.44
329.972	378.44
330.201	404.44
330.43	421.44
330.658	436.44
330.887	480.44
331.115	457.44
331.344	402.44
331.572	416.44
331.801	396.44
332.03	396.44
332.258	374.44
332.486	377.44
332.715	366.44
332.943	367.44
333.172	377.44
333.4	362.44
333.629	357.44
333.857	357.44
334.085	370.44
334.314	363.44
334.542	386.44
334.771	377.44
334.999	357.44
335.227	390.44
335.455	378.44
335.684	367.44
335.912	362.44
336.14	370.44
336.369	348.44
336.597	372.44
336.825	390.44
337.053	360.44
337.281	376.44
337.51	368.44
337.738	360.44
337.966	361.44
338.194	350.44
338.422	360.44
338.65	376.44
338.878	360.44
339.106	353.44
339.334	336.44
339.562	342.44
339.79	340.44
340.018	349.44
340.246	354.44
340.474	345.44
340.702	364.44
340.93	357.44
341.158	356.44
341.386	356.44
341.614	354.44
341.842	360.44
342.07	338.44
342.298	353.44
342.526	351.44
342.754	339.44
342.981	337.44
343.209	345.44
343.437	339.44
343.665	342.44
343.893	346.44
344.12	375.44
344.348	363.44
344.576	366.44
344.804	360.44
345.031	348.44
345.259	383.44
345.487	356.44
345.714	359.44
345.942	334.44
346.17	349.44
346.397	353.44
346.625	340.44
346.853	364.44
347.08	333.44
347.308	340.44
347.535	342.44
347.763	375.44
347.99	362.44
348.218	331.44
348.445	347.44
348.673	366.44
348.9	332.44
349.128	354.44
349.355	360.44
349.583	316.44
349.81	321.44
350.037	331.44
350.265	330.44
350.492	332.44
350.72	323.44
350.947	329.44
351.174	336.44
351.402	325.44
351.629	359.44
351.856	360.44
352.083	332.44
352.311	343.44
352.538	343.44
352.765	373.44
352.992	374.44
353.22	351.44
353.447	329.44
353.674	340.44
353.901	336.44
354.128	330.44
354.355	322.44
354.583	328.44
354.81	313.44
355.037	324.44
355.264	330.44
355.491	315.44
355.718	307.44
355.945	314.44
356.172	317.44
356.399	320.44
356.626	316.44
356.853	315.44
357.08	314.44
357.307	297.44
357.534	308.44
357.761	323.44
357.988	328.44
358.215	331.44
358.441	317.44
358.668	336.44
358.895	333.44
359.122	309.44
359.349	336.44
359.576	360.44
359.802	363.44
360.029	371.44
360.256	390.44
360.483	377.44
360.709	343.44
360.936	342.44
361.163	347.44
361.39	352.44
361.616	339.44
361.843	326.44
362.07	348.44
362.296	354.44
362.523	339.44
362.749	315.44
362.976	347.44
363.203	351.44
363.429	341.44
363.656	322.44
363.882	305.44
364.109	327.44
364.335	306.44
364.562	334.44
364.788	332.44
365.015	321.44
365.241	346.44
365.468	338.44
365.694	335.44
365.92	331.44
366.147	318.44
366.373	318.44
366.599	350.44
366.826	310.44
367.052	332.44
367.278	326.44
367.505	316.44
367.731	336.44
367.957	323.44
368.184	339.44
368.41	323.44
368.636	325.44
368.862	329.44
369.089	343.44
369.315	336.44
369.541	335.44
369.767	333.44
369.993	350.44
370.219	316.44
370.445	302.44
370.672	329.44
370.898	326.44
371.124	342.44
371.35	343.44
371.576	346.44
371.802	313.44
372.028	334.44
372.254	327.44
372.48	323.44
372.706	294.44
372.932	328.44
373.158	323.44
373.384	333.44
373.61	316.44
373.835	337.44
374.061	342.44
374.287	326.44
374.513	320.44
374.739	339.44
374.965	332.44
375.191	315.44
375.416	314.44
375.642	314.44
375.868	336.44
376.094	325.44
376.319	324.44
376.545	321.44
376.771	326.44
376.997	322.44
377.222	332.44
377.448	311.44
377.674	337.44
377.899	319.44
378.125	310.44
378.35	321.44
378.576	327.44
378.802	332.44
379.027	328.44
379.253	336.44
379.478	327.44
379.704	324.44
379.929	312.44
380.155	322.44
380.38	340.44
380.606	322.44
380.831	331.44
381.057	328.44
381.282	334.44
381.507	311.44
381.733	324.44
381.958	300.44
382.184	315.44
382.409	339.44
382.634	327.44
382.86	324.44
383.085	322.44
383.31	310.44
383.535	330.44
383.761	333.44
383.986	343.44
384.211	346.44
384.436	341.44
384.662	333.44
384.887	351.44
385.112	363.44
385.337	365.44
385.562	346.44
385.787	371.44
386.013	361.44
386.238	366.44
386.463	381.44
386.688	371.44
386.913	350.44
387.138	369.44
387.363	362.44
387.588	359.44
387.813	357.44
388.038	344.44
388.263	351.44
388.488	356.44
388.713	353.44
388.938	347.44
389.163	358.44
389.387	345.44
389.612	343.44
389.837	343.44
390.062	351.44
390.287	349.44
390.512	353.44
390.736	373.44
390.961	346.44
391.186	356.44
391.411	348.44
391.636	344.44
391.86	364.44
392.085	358.44
392.31	358.44
392.534	367.44
392.759	361.44
392.984	354.44
393.208	350.44
393.433	344.44
393.658	362.44
393.882	367.44
394.107	352.44
394.331	366.44
394.556	360.44
394.78	346.44
395.005	375.44
395.229	357.44
395.454	351.44
395.678	374.44
395.903	376.44
396.127	377.44
396.352	374.44
396.576	374.44
396.801	363.44
397.025	366.44
397.249	357.44
397.474	374.44
397.698	388.44
397.922	386.44
398.147	404.44
398.371	392.44
398.595	375.44
398.82	390.44
399.044	393.44
399.268	401.44
399.492	402.44
399.717	448.44
399.941	444.44
400.165	478.44
400.389	472.44
400.613	452.44
400.837	415.44
401.062	407.44
401.286	402.44
401.51	408.44
401.734	393.44
401.958	401.44
402.182	413.44
402.406	397.44
402.63	405.44
402.854	411.44
403.078	408.44
403.302	406.44
403.526	400.44
403.75	400.44
403.974	420.44
404.198	402.44
404.422	407.44
404.645	417.44
404.869	403.44
405.093	400.44
405.317	433.44
405.541	433.44
405.765	437.44
405.988	428.44
406.212	426.44
406.436	445.44
406.66	452.44
406.883	450.44
407.107	473.44
407.331	483.44
407.555	536.44
407.778	522.44
408.002	475.44
408.226	472.44
408.449	453.44
408.673	457.44
408.896	443.44
409.12	500.44
409.344	459.44
409.567	420.44
409.791	416.44
410.014	419.44
410.238	401.44
410.461	411.44
410.685	419.44
410.908	435.44
411.132	442.44
411.355	446.44
411.578	444.44
411.802	406.44
412.025	402.44
412.249	417.44
412.472	403.44
412.695	404.44
412.919	407.44
413.142	391.44
413.365	394.44
413.589	383.44
413.812	411.44
414.035	382.44
414.258	388.44
414.482	398.44
414.705	397.44
414.928	397.44
415.151	353.44
415.374	376.44
415.597	400.44
415.821	390.44
416.044	389.44
416.267	406.44
416.49	377.44
416.713	374.44
416.936	355.44
417.159	386.44
417.382	370.44
417.605	380.44
417.828	388.44
418.051	389.44
418.274	409.44
418.497	399.44
418.72	391.44
418.943	397.44
419.166	408.44
419.389	410.44
419.611	410.44
419.834	425.44
420.057	417.44
420.28	402.44
420.503	394.44
420.726	414.44
420.948	398.44
421.171	445.44
421.394	462.44
421.617	400.44
421.839	388.44
422.062	399.44
422.285	388.44
422.507	461.44
422.73	521.44
422.953	483.44
423.175	440.44
423.398	440.44
423.621	414.44
423.843	440.44
424.066	426.44
424.288	436.44
424.511	416.44
424.733	460.44
424.956	526.44
425.178	518.44
425.401	524.44
425.623	513.44
425.846	456.44
426.068	435.44
426.291	434.44
426.513	439.44
426.735	432.44
426.958	459.44
427.18	528.44
427.402	634.44
427.625	665.44
427.847	593.44
428.069	497.44
428.292	458.44
428.514	425.44
428.736	408.44
428.958	436.44
429.181	400.44
429.403	389.44
429.625	389.44
429.847	417.44
430.069	481.44
430.292	458.44
430.514	402.44
430.736	385.44
430.958	388.44
431.18	379.44
431.402	395.44
431.624	369.44
431.846	363.44
432.068	386.44
432.29	398.44
432.512	413.44
432.734	400.44
432.956	399.44
433.178	410.44
433.4	396.44
433.622	374.44
433.844	377.44
434.066	405.44
434.287	400.44
434.509	387.44
434.731	388.44
434.953	388.44
435.175	435.44
435.397	418.44
435.618	426.44
435.84	471.44
436.062	509.44
436.284	570.44
436.505	470.44
436.727	437.44
436.949	427.44
437.17	395.44
437.392	406.44
437.614	418.44
437.835	442.44
438.057	516.44
438.278	580.44
438.5	570.44
438.721	631.44
438.943	583.44
439.165	494.44
439.386	448.44
439.608	438.44
439.829	440.44
440.05	446.44
440.272	484.44
440.493	443.44
440.715	424.44
440.936	396.44
441.158	386.44
441.379	395.44
441.6	409.44
441.822	412.44
442.043	469.44
442.264	530.44
442.486	534.44
442.707	469.44
442.928	468.44
443.149	450.44
443.371	443.44
443.592	520.44
443.813	558.44
444.034	594.44
444.255	484.44
444.476	446.44
444.698	454.44
444.919	420.44
445.14	562.44
445.361	488.44
445.582	469.44
445.803	487.44
446.024	594.44
446.245	587.44
446.466	547.44
446.687	450.44
446.908	418.44
447.129	415.44
447.35	400.44
447.571	413.44
447.792	410.44
448.013	416.44
448.234	437.44
448.455	443.44
448.675	540.44
448.896	588.44
449.117	508.44
449.338	485.44
449.559	570.44
449.779	640.44
450	524.44
450.221	429.44
450.442	395.44
450.662	397.44
450.883	400.44
451.104	410.44
451.324	389.44
451.545	385.44
451.766	370.44
451.986	366.44
452.207	360.44
452.428	376.44
452.648	372.44
452.869	375.44
453.089	360.44
453.31	382.44
453.53	362.44
453.751	361.44
453.971	367.44
454.192	399.44
454.412	373.44
454.633	340.44
454.853	357.44
455.073	349.44
455.294	376.44
455.514	437.44
455.734	409.44
455.955	352.44
456.175	332.44
456.395	358.44
456.616	329.44
456.836	331.44
457.056	330.44
457.276	334.44
457.497	340.44
457.717	356.44
457.937	355.44
458.157	366.44
458.377	366.44
458.598	377.44
458.818	438.44
459.038	467.44
459.258	484.44
459.478	410.44
459.698	388.44
459.918	387.44
460.138	387.44
460.358	377.44
460.578	377.44
460.798	402.44
461.018	379.44
461.238	381.44
461.458	387.44
461.678	395.44
461.898	409.44
462.118	382.44
462.338	390.44
462.558	394.44
462.777	393.44
462.997	424.44
463.217	416.44
463.437	425.44
463.657	385.44
463.876	410.44
464.096	390.44
464.316	408.44
464.536	394.44
464.755	424.44
464.975	411.44
465.195	447.44
465.414	500.44
465.634	438.44
465.854	397.44
466.073	372.44
466.293	406.44
466.512	374.44
466.732	370.44
466.951	373.44
467.171	362.44
467.391	368.44
467.61	368.44
467.829	391.44
468.049	384.44
468.268	375.44
468.488	361.44
468.707	366.44
468.927	357.44
469.146	372.44
469.365	356.44
469.585	354.44
469.804	383.44
470.023	384.44
470.243	373.44
470.462	392.44
470.681	395.44
470.901	392.44
471.12	370.44
471.339	393.44
471.558	385.44
471.777	371.44
471.997	372.44
472.216	373.44
472.435	367.44
472.654	386.44
472.873	378.44
473.092	377.44
473.311	359.44
473.53	388.44
473.749	380.44
473.968	415.44
474.187	478.44
474.406	498.44
474.625	396.44
474.844	388.44
475.063	384.44
475.282	386.44
475.501	394.44
475.72	384.44
475.939	387.44
476.158	390.44
476.377	385.44
476.596	380.44
476.814	383.44
477.033	380.44
477.252	400.44
477.471	404.44
477.69	394.44
477.908	412.44
478.127	418.44
478.346	397.44
478.564	408.44
478.783	418.44
479.002	403.44
479.22	416.44
479.439	436.44
479.658	431.44
479.876	439.44
480.095	452.44
480.313	448.44
480.532	455.44
480.751	438.44
480.969	446.44
481.188	443.44
481.406	454.44
481.624	441.44
481.843	441.44
482.061	439.44
482.28	450.44
482.498	439.44
482.717	455.44
482.935	418.44
483.153	418.44
483.372	425.44
483.59	426.44
483.808	432.44
484.027	443.44
484.245	434.44
484.463	438.44
484.681	436.44
484.9	450.44
485.118	430.44
485.336	452.44
485.554	452.44
485.772	460.44
485.99	439.44
486.209	424.44
486.427	427.44
486.645	470.44
486.863	473.44
487.081	475.44
487.299	465.44
487.517	462.44
487.735	443.44
487.953	477.44
488.171	474.44
488.389	463.44
488.607	473.44
488.825	462.44
489.043	470.44
489.261	478.44
489.479	459.44
489.696	492.44
489.914	464.44
490.132	475.44
490.35	504.44
490.568	491.44
490.786	487.44
491.003	500.44
491.221	499.44
491.439	532.44
491.657	518.44
491.874	513.44
492.092	514.44
492.31	547.44
492.527	535.44
492.745	558.44
492.963	546.44
493.18	546.44
493.398	550.44
493.615	542.44
493.833	555.44
494.05	540.44
494.268	542.44
494.485	546.44
494.703	538.44
494.92	562.44
495.138	545.44
495.355	547.44
495.573	553.44
495.79	540.44
496.008	537.44
496.225	590.44
496.442	536.44
496.66	540.44
496.877	551.44
497.094	548.44
497.312	575.44
497.529	567.44
497.746	584.44
497.963	576.44
498.181	596.44
498.398	606.44
498.615	598.44
498.832	600.44
499.049	626.44
499.267	638.44
499.484	644.44
499.701	656.44
499.918	675.44
500.135	726.44
500.352	753.44
500.569	734.44
500.786	727.44
501.003	728.44
501.22	729.44
501.437	723.44
501.654	700.44
501.871	686.44
502.088	656.44
