Data from 1983.PennyLincolnUp.Lamp.En5.5.200Scan.071819.P1_HRD10591_16-52-54-965.txt Node
Date: Thu Jul 18 16:52:54 EDT 2019
User: cochatt
Spectrometer: HR+D1059
Trigger mode: 1
Integration Time (sec): 1.000000E-1
Scans to average: 1
Electric dark correction enabled: true
Nonlinearity correction enabled: false
Boxcar width: 0
XAxis mode: Wavelengths
Number of Pixels in Spectrum: 2048
>>>>>Begin Spectral Data<<<<<
223.165	-2.56
223.4	-2.56
223.635	-2.56
223.869	-13.56
224.104	-26.56
224.338	-2.56
224.573	-4.56
224.808	-14.56
225.042	5.44
225.277	-10.56
225.511	-12.56
225.746	-10.56
225.98	-0.56
226.215	9.44
226.449	16.44
226.683	19.44
226.918	18.44
227.152	29.44
227.387	35.44
227.621	37.44
227.856	37.44
228.09	39.44
228.324	42.44
228.559	58.44
228.793	59.44
229.027	85.44
229.262	97.44
229.496	97.44
229.73	100.44
229.964	138.44
230.199	113.44
230.433	98.44
230.667	107.44
230.901	94.44
231.136	85.44
231.37	91.44
231.604	118.44
231.838	96.44
232.072	86.44
232.306	98.44
232.541	100.44
232.775	102.44
233.009	108.44
233.243	113.44
233.477	117.44
233.711	98.44
233.945	102.44
234.179	124.44
234.413	101.44
234.647	120.44
234.881	105.44
235.115	122.44
235.349	115.44
235.583	120.44
235.817	114.44
236.051	111.44
236.285	111.44
236.519	107.44
236.753	124.44
236.987	127.44
237.221	155.44
237.455	193.44
237.689	165.44
237.922	122.44
238.156	133.44
238.39	119.44
238.624	105.44
238.858	113.44
239.091	111.44
239.325	104.44
239.559	108.44
239.793	123.44
240.027	142.44
240.26	127.44
240.494	155.44
240.728	132.44
240.961	119.44
241.195	127.44
241.429	130.44
241.662	131.44
241.896	120.44
242.13	121.44
242.363	114.44
242.597	126.44
242.83	125.44
243.064	131.44
243.298	103.44
243.531	121.44
243.765	131.44
243.998	125.44
244.232	133.44
244.465	120.44
244.699	128.44
244.932	121.44
245.166	128.44
245.399	121.44
245.633	121.44
245.866	132.44
246.099	133.44
246.333	139.44
246.566	149.44
246.8	151.44
247.033	142.44
247.266	146.44
247.5	148.44
247.733	147.44
247.966	153.44
248.2	159.44
248.433	141.44
248.666	133.44
248.899	162.44
249.133	175.44
249.366	183.44
249.599	176.44
249.832	177.44
250.066	161.44
250.299	167.44
250.532	163.44
250.765	177.44
250.998	185.44
251.231	184.44
251.465	171.44
251.698	171.44
251.931	171.44
252.164	178.44
252.397	179.44
252.63	161.44
252.863	185.44
253.096	210.44
253.329	201.44
253.562	203.44
253.795	193.44
254.028	186.44
254.261	195.44
254.494	200.44
254.727	225.44
254.96	239.44
255.193	232.44
255.426	216.44
255.659	207.44
255.892	191.44
256.124	191.44
256.357	190.44
256.59	187.44
256.823	186.44
257.056	173.44
257.289	199.44
257.521	195.44
257.754	177.44
257.987	173.44
258.22	194.44
258.452	188.44
258.685	167.44
258.918	171.44
259.151	175.44
259.383	202.44
259.616	193.44
259.849	210.44
260.081	202.44
260.314	222.44
260.547	219.44
260.779	228.44
261.012	214.44
261.244	198.44
261.477	189.44
261.71	196.44
261.942	204.44
262.175	221.44
262.407	217.44
262.64	183.44
262.872	187.44
263.105	177.44
263.337	187.44
263.57	183.44
263.802	170.44
264.035	193.44
264.267	197.44
264.499	181.44
264.732	188.44
264.964	193.44
265.197	197.44
265.429	193.44
265.661	201.44
265.894	200.44
266.126	196.44
266.358	195.44
266.591	199.44
266.823	191.44
267.055	213.44
267.287	216.44
267.52	190.44
267.752	197.44
267.984	205.44
268.216	196.44
268.448	223.44
268.681	195.44
268.913	205.44
269.145	219.44
269.377	236.44
269.609	235.44
269.841	218.44
270.073	244.44
270.306	259.44
270.538	260.44
270.77	269.44
271.002	240.44
271.234	256.44
271.466	238.44
271.698	257.44
271.93	276.44
272.162	267.44
272.394	275.44
272.626	257.44
272.858	264.44
273.09	239.44
273.322	223.44
273.553	215.44
273.785	226.44
274.017	229.44
274.249	213.44
274.481	232.44
274.713	223.44
274.945	231.44
275.176	237.44
275.408	235.44
275.64	232.44
275.872	214.44
276.104	224.44
276.335	229.44
276.567	236.44
276.799	252.44
277.031	260.44
277.262	263.44
277.494	285.44
277.726	248.44
277.957	257.44
278.189	228.44
278.421	230.44
278.652	228.44
278.884	231.44
279.115	209.44
279.347	223.44
279.579	240.44
279.81	233.44
280.042	226.44
280.273	228.44
280.505	225.44
280.736	232.44
280.968	243.44
281.199	215.44
281.431	236.44
281.662	233.44
281.894	226.44
282.125	219.44
282.356	255.44
282.588	270.44
282.819	273.44
283.051	240.44
283.282	229.44
283.513	242.44
283.745	232.44
283.976	261.44
284.207	237.44
284.439	230.44
284.67	252.44
284.901	236.44
285.132	242.44
285.364	229.44
285.595	239.44
285.826	251.44
286.057	243.44
286.288	255.44
286.52	247.44
286.751	223.44
286.982	244.44
287.213	254.44
287.444	251.44
287.675	247.44
287.906	245.44
288.138	263.44
288.369	241.44
288.6	267.44
288.831	263.44
289.062	257.44
289.293	259.44
289.524	269.44
289.755	251.44
289.986	258.44
290.217	244.44
290.448	248.44
290.679	239.44
290.91	244.44
291.141	245.44
291.371	251.44
291.602	253.44
291.833	250.44
292.064	249.44
292.295	246.44
292.526	251.44
292.757	255.44
292.987	246.44
293.218	261.44
293.449	255.44
293.68	246.44
293.91	244.44
294.141	250.44
294.372	261.44
294.603	255.44
294.833	242.44
295.064	242.44
295.295	246.44
295.525	241.44
295.756	247.44
295.987	267.44
296.217	286.44
296.448	283.44
296.679	260.44
296.909	253.44
297.14	266.44
297.37	268.44
297.601	268.44
297.831	244.44
298.062	264.44
298.292	268.44
298.523	279.44
298.753	271.44
298.984	254.44
299.214	243.44
299.445	268.44
299.675	271.44
299.905	268.44
300.136	283.44
300.366	269.44
300.597	280.44
300.827	282.44
301.057	273.44
301.288	297.44
301.518	285.44
301.748	283.44
301.979	276.44
302.209	270.44
302.439	285.44
302.669	287.44
302.9	265.44
303.13	291.44
303.36	287.44
303.59	294.44
303.82	277.44
304.051	298.44
304.281	270.44
304.511	285.44
304.741	301.44
304.971	287.44
305.201	286.44
305.431	275.44
305.661	275.44
305.891	284.44
306.121	285.44
306.352	288.44
306.582	311.44
306.812	279.44
307.042	266.44
307.272	267.44
307.502	291.44
307.731	307.44
307.961	303.44
308.191	292.44
308.421	284.44
308.651	299.44
308.881	298.44
309.111	284.44
309.341	294.44
309.571	298.44
309.8	319.44
310.03	307.44
310.26	319.44
310.49	322.44
310.72	327.44
310.949	337.44
311.179	349.44
311.409	331.44
311.639	317.44
311.868	332.44
312.098	323.44
312.328	332.44
312.557	368.44
312.787	375.44
313.017	347.44
313.246	343.44
313.476	328.44
313.706	315.44
313.935	320.44
314.165	339.44
314.394	348.44
314.624	347.44
314.853	326.44
315.083	325.44
315.312	333.44
315.542	320.44
315.771	337.44
316.001	328.44
316.23	320.44
316.46	316.44
316.689	328.44
316.919	334.44
317.148	337.44
317.377	333.44
317.607	331.44
317.836	319.44
318.065	348.44
318.295	336.44
318.524	323.44
318.753	323.44
318.983	314.44
319.212	339.44
319.441	332.44
319.67	324.44
319.9	330.44
320.129	322.44
320.358	334.44
320.587	338.44
320.816	342.44
321.046	344.44
321.275	340.44
321.504	336.44
321.733	342.44
321.962	352.44
322.191	361.44
322.42	375.44
322.649	372.44
322.878	397.44
323.108	403.44
323.337	421.44
323.566	432.44
323.795	455.44
324.024	492.44
324.253	619.44
324.482	881.44
324.71	1340.44
324.939	1784.44
325.168	1494.44
325.397	809.44
325.626	569.44
325.855	467.44
326.084	455.44
326.313	429.44
326.542	442.44
326.77	495.44
326.999	576.44
327.228	787.44
327.457	1153.44
327.686	1319.44
327.914	904.44
328.143	616.44
328.372	521.44
328.6	500.44
328.829	515.44
329.058	495.44
329.287	487.44
329.515	478.44
329.744	394.44
329.972	409.44
330.201	430.44
330.43	439.44
330.658	476.44
330.887	530.44
331.115	508.44
331.344	443.44
331.572	431.44
331.801	424.44
332.03	415.44
332.258	402.44
332.486	380.44
332.715	377.44
332.943	377.44
333.172	378.44
333.4	393.44
333.629	380.44
333.857	367.44
334.085	375.44
334.314	381.44
334.542	390.44
334.771	407.44
334.999	384.44
335.227	388.44
335.455	405.44
335.684	371.44
335.912	389.44
336.14	378.44
336.369	376.44
336.597	370.44
336.825	376.44
337.053	386.44
337.281	378.44
337.51	383.44
337.738	360.44
337.966	369.44
338.194	401.44
338.422	375.44
338.65	380.44
338.878	352.44
339.106	364.44
339.334	371.44
339.562	371.44
339.79	362.44
340.018	375.44
340.246	364.44
340.474	395.44
340.702	376.44
340.93	365.44
341.158	371.44
341.386	367.44
341.614	385.44
341.842	357.44
342.07	361.44
342.298	352.44
342.526	368.44
342.754	351.44
342.981	352.44
343.209	352.44
343.437	354.44
343.665	372.44
343.893	374.44
344.12	384.44
344.348	371.44
344.576	364.44
344.804	381.44
345.031	373.44
345.259	405.44
345.487	395.44
345.714	341.44
345.942	351.44
346.17	378.44
346.397	347.44
346.625	346.44
346.853	373.44
347.08	345.44
347.308	371.44
347.535	359.44
347.763	336.44
347.99	368.44
348.218	357.44
348.445	384.44
348.673	379.44
348.9	353.44
349.128	357.44
349.355	366.44
349.583	331.44
349.81	311.44
350.037	339.44
350.265	338.44
350.492	335.44
350.72	345.44
350.947	346.44
351.174	348.44
351.402	367.44
351.629	357.44
351.856	353.44
352.083	367.44
352.311	368.44
352.538	371.44
352.765	374.44
352.992	369.44
353.22	359.44
353.447	351.44
353.674	340.44
353.901	348.44
354.128	329.44
354.355	343.44
354.583	333.44
354.81	324.44
355.037	317.44
355.264	324.44
355.491	317.44
355.718	336.44
355.945	329.44
356.172	339.44
356.399	319.44
356.626	332.44
356.853	325.44
357.08	339.44
357.307	311.44
357.534	332.44
357.761	335.44
357.988	330.44
358.215	338.44
358.441	323.44
358.668	322.44
358.895	331.44
359.122	341.44
359.349	324.44
359.576	362.44
359.802	374.44
360.029	391.44
360.256	419.44
360.483	367.44
360.709	356.44
360.936	362.44
361.163	340.44
361.39	363.44
361.616	363.44
361.843	345.44
362.07	336.44
362.296	354.44
362.523	367.44
362.749	351.44
362.976	342.44
363.203	352.44
363.429	338.44
363.656	344.44
363.882	330.44
364.109	333.44
364.335	340.44
364.562	344.44
364.788	351.44
365.015	336.44
365.241	329.44
365.468	365.44
365.694	361.44
365.92	340.44
366.147	328.44
366.373	333.44
366.599	346.44
366.826	343.44
367.052	341.44
367.278	327.44
367.505	334.44
367.731	337.44
367.957	340.44
368.184	337.44
368.41	341.44
368.636	335.44
368.862	349.44
369.089	349.44
369.315	320.44
369.541	337.44
369.767	315.44
369.993	325.44
370.219	321.44
370.445	337.44
370.672	330.44
370.898	345.44
371.124	332.44
371.35	345.44
371.576	331.44
371.802	309.44
372.028	329.44
372.254	341.44
372.48	355.44
372.706	330.44
372.932	335.44
373.158	346.44
373.384	346.44
373.61	334.44
373.835	347.44
374.061	357.44
374.287	328.44
374.513	342.44
374.739	344.44
374.965	347.44
375.191	354.44
375.416	327.44
375.642	345.44
375.868	338.44
376.094	325.44
376.319	338.44
376.545	319.44
376.771	326.44
376.997	329.44
377.222	348.44
377.448	339.44
377.674	330.44
377.899	327.44
378.125	309.44
378.35	323.44
378.576	311.44
378.802	315.44
379.027	316.44
379.253	319.44
379.478	321.44
379.704	324.44
379.929	333.44
380.155	341.44
380.38	323.44
380.606	351.44
380.831	331.44
381.057	343.44
381.282	330.44
381.507	328.44
381.733	341.44
381.958	337.44
382.184	348.44
382.409	339.44
382.634	326.44
382.86	341.44
383.085	337.44
383.31	317.44
383.535	354.44
383.761	353.44
383.986	349.44
384.211	363.44
384.436	343.44
384.662	331.44
384.887	348.44
385.112	348.44
385.337	352.44
385.562	349.44
385.787	364.44
386.013	354.44
386.238	340.44
386.463	341.44
386.688	337.44
386.913	357.44
387.138	369.44
387.363	343.44
387.588	361.44
387.813	343.44
388.038	356.44
388.263	355.44
388.488	363.44
388.713	367.44
388.938	359.44
389.163	356.44
389.387	372.44
389.612	355.44
389.837	342.44
390.062	340.44
390.287	362.44
390.512	342.44
390.736	351.44
390.961	339.44
391.186	364.44
391.411	360.44
391.636	378.44
391.86	356.44
392.085	360.44
392.31	360.44
392.534	349.44
392.759	355.44
392.984	359.44
393.208	371.44
393.433	359.44
393.658	361.44
393.882	360.44
394.107	352.44
394.331	347.44
394.556	342.44
394.78	368.44
395.005	364.44
395.229	370.44
395.454	367.44
395.678	377.44
395.903	381.44
396.127	400.44
396.352	381.44
396.576	364.44
396.801	374.44
397.025	355.44
397.249	356.44
397.474	381.44
397.698	373.44
397.922	402.44
398.147	392.44
398.371	407.44
398.595	401.44
398.82	395.44
399.044	403.44
399.268	428.44
399.492	416.44
399.717	444.44
399.941	453.44
400.165	489.44
400.389	513.44
400.613	452.44
400.837	444.44
401.062	428.44
401.286	410.44
401.51	413.44
401.734	401.44
401.958	401.44
402.182	400.44
402.406	397.44
402.63	418.44
402.854	406.44
403.078	431.44
403.302	407.44
403.526	426.44
403.75	410.44
403.974	407.44
404.198	402.44
404.422	421.44
404.645	433.44
404.869	413.44
405.093	433.44
405.317	433.44
405.541	455.44
405.765	425.44
405.988	442.44
406.212	441.44
406.436	460.44
406.66	487.44
406.883	466.44
407.107	464.44
407.331	493.44
407.555	525.44
407.778	510.44
408.002	511.44
408.226	450.44
408.449	449.44
408.673	459.44
408.896	467.44
409.12	513.44
409.344	460.44
409.567	465.44
409.791	413.44
410.014	425.44
410.238	401.44
410.461	411.44
410.685	411.44
410.908	419.44
411.132	469.44
411.355	481.44
411.578	467.44
411.802	413.44
412.025	417.44
412.249	422.44
412.472	395.44
412.695	424.44
412.919	437.44
413.142	419.44
413.365	409.44
413.589	391.44
413.812	394.44
414.035	378.44
414.258	390.44
414.482	401.44
414.705	401.44
414.928	408.44
415.151	387.44
415.374	392.44
415.597	387.44
415.821	386.44
416.044	384.44
416.267	399.44
416.49	401.44
416.713	397.44
416.936	409.44
417.159	392.44
417.382	377.44
417.605	392.44
417.828	394.44
418.051	416.44
418.274	396.44
418.497	407.44
418.72	391.44
418.943	394.44
419.166	382.44
419.389	433.44
419.611	403.44
419.834	401.44
420.057	415.44
420.28	420.44
420.503	390.44
420.726	387.44
420.948	410.44
421.171	441.44
421.394	459.44
421.617	411.44
421.839	420.44
422.062	431.44
422.285	398.44
422.507	462.44
422.73	510.44
422.953	488.44
423.175	444.44
423.398	440.44
423.621	412.44
423.843	434.44
424.066	453.44
424.288	459.44
424.511	460.44
424.733	477.44
424.956	548.44
425.178	537.44
425.401	532.44
425.623	539.44
425.846	463.44
426.068	465.44
426.291	464.44
426.513	436.44
426.735	449.44
426.958	475.44
427.18	536.44
427.402	636.44
427.625	691.44
427.847	618.44
428.069	531.44
428.292	476.44
428.514	413.44
428.736	421.44
428.958	442.44
429.181	425.44
429.403	394.44
429.625	414.44
429.847	439.44
430.069	475.44
430.292	487.44
430.514	431.44
430.736	415.44
430.958	415.44
431.18	396.44
431.402	382.44
431.624	395.44
431.846	377.44
432.068	386.44
432.29	381.44
432.512	373.44
432.734	397.44
432.956	393.44
433.178	407.44
433.4	402.44
433.622	391.44
433.844	397.44
434.066	378.44
434.287	402.44
434.509	384.44
434.731	408.44
434.953	407.44
435.175	417.44
435.397	431.44
435.618	459.44
435.84	485.44
436.062	518.44
436.284	601.44
436.505	481.44
436.727	436.44
436.949	443.44
437.17	425.44
437.392	407.44
437.614	446.44
437.835	459.44
438.057	556.44
438.278	590.44
438.5	590.44
438.721	615.44
438.943	601.44
439.165	501.44
439.386	467.44
439.608	452.44
439.829	460.44
440.05	462.44
440.272	483.44
440.493	498.44
440.715	435.44
440.936	426.44
441.158	419.44
441.379	423.44
441.6	435.44
441.822	449.44
442.043	495.44
442.264	549.44
442.486	553.44
442.707	497.44
442.928	448.44
443.149	451.44
443.371	466.44
443.592	516.44
443.813	570.44
444.034	612.44
444.255	503.44
444.476	481.44
444.698	458.44
444.919	434.44
445.14	560.44
445.361	501.44
445.582	491.44
445.803	537.44
446.024	608.44
446.245	603.44
446.466	564.44
446.687	482.44
446.908	460.44
447.129	418.44
447.35	422.44
447.571	419.44
447.792	408.44
448.013	406.44
448.234	441.44
448.455	464.44
448.675	573.44
448.896	634.44
449.117	537.44
449.338	515.44
449.559	609.44
449.779	627.44
450	537.44
450.221	457.44
450.442	417.44
450.662	407.44
450.883	426.44
451.104	434.44
451.324	408.44
451.545	391.44
451.766	375.44
451.986	377.44
452.207	375.44
452.428	361.44
452.648	363.44
452.869	355.44
453.089	392.44
453.31	389.44
453.53	378.44
453.751	377.44
453.971	380.44
454.192	384.44
454.412	376.44
454.633	384.44
454.853	350.44
455.073	383.44
455.294	396.44
455.514	449.44
455.734	416.44
455.955	387.44
456.175	343.44
456.395	361.44
456.616	351.44
456.836	331.44
457.056	348.44
457.276	356.44
457.497	357.44
457.717	358.44
457.937	351.44
458.157	357.44
458.377	371.44
458.598	375.44
458.818	436.44
459.038	520.44
459.258	494.44
459.478	435.44
459.698	401.44
459.918	393.44
460.138	406.44
460.358	379.44
460.578	386.44
460.798	390.44
461.018	377.44
461.238	384.44
461.458	383.44
461.678	388.44
461.898	387.44
462.118	389.44
462.338	394.44
462.558	402.44
462.777	399.44
462.997	411.44
463.217	408.44
463.437	404.44
463.657	421.44
463.876	405.44
464.096	420.44
464.316	413.44
464.536	431.44
464.755	433.44
464.975	432.44
465.195	471.44
465.414	538.44
465.634	469.44
465.854	426.44
466.073	403.44
466.293	385.44
466.512	368.44
466.732	379.44
466.951	388.44
467.171	389.44
467.391	385.44
467.61	386.44
467.829	398.44
468.049	363.44
468.268	379.44
468.488	378.44
468.707	354.44
468.927	359.44
469.146	363.44
469.365	363.44
469.585	375.44
469.804	364.44
470.023	389.44
470.243	391.44
470.462	372.44
470.681	405.44
470.901	397.44
471.12	384.44
471.339	394.44
471.558	403.44
471.777	393.44
471.997	385.44
472.216	357.44
472.435	373.44
472.654	383.44
472.873	384.44
473.092	372.44
473.311	390.44
473.53	372.44
473.749	375.44
473.968	448.44
474.187	481.44
474.406	499.44
474.625	435.44
474.844	393.44
475.063	385.44
475.282	391.44
475.501	371.44
475.72	389.44
475.939	393.44
476.158	413.44
476.377	403.44
476.596	374.44
476.814	397.44
477.033	394.44
477.252	416.44
477.471	404.44
477.69	403.44
477.908	403.44
478.127	437.44
478.346	421.44
478.564	409.44
478.783	411.44
479.002	428.44
479.22	433.44
479.439	450.44
479.658	442.44
479.876	445.44
480.095	424.44
480.313	498.44
480.532	471.44
480.751	467.44
480.969	450.44
481.188	477.44
481.406	466.44
481.624	455.44
481.843	443.44
482.061	454.44
482.28	455.44
482.498	427.44
482.717	431.44
482.935	439.44
483.153	424.44
483.372	444.44
483.59	461.44
483.808	455.44
484.027	454.44
484.245	449.44
484.463	453.44
484.681	466.44
484.9	436.44
485.118	453.44
485.336	466.44
485.554	471.44
485.772	475.44
485.99	453.44
486.209	443.44
486.427	480.44
486.645	464.44
486.863	482.44
487.081	477.44
487.299	478.44
487.517	473.44
487.735	486.44
487.953	478.44
488.171	476.44
488.389	468.44
488.607	484.44
488.825	470.44
489.043	479.44
489.261	477.44
489.479	471.44
489.696	481.44
489.914	481.44
490.132	506.44
490.35	500.44
490.568	470.44
490.786	530.44
491.003	504.44
491.221	499.44
491.439	519.44
491.657	524.44
491.874	555.44
492.092	536.44
492.31	551.44
492.527	530.44
492.745	571.44
492.963	556.44
493.18	555.44
493.398	525.44
493.615	544.44
493.833	548.44
494.05	576.44
494.268	556.44
494.485	541.44
494.703	544.44
494.92	551.44
495.138	563.44
495.355	568.44
495.573	573.44
495.79	568.44
496.008	573.44
496.225	556.44
496.442	575.44
496.66	551.44
496.877	566.44
497.094	590.44
497.312	575.44
497.529	591.44
497.746	573.44
497.963	572.44
498.181	595.44
498.398	607.44
498.615	630.44
498.832	639.44
499.049	644.44
499.267	633.44
499.484	661.44
499.701	668.44
499.918	700.44
500.135	705.44
500.352	734.44
500.569	749.44
500.786	738.44
501.003	767.44
501.22	736.44
501.437	713.44
501.654	750.44
501.871	715.44
502.088	676.44
