Data from 1983.PennyLincolnUp.Lamp.En5.5.200Scan.071819.P1_HRD10591_16-54-37-966.txt Node
Date: Thu Jul 18 16:54:37 EDT 2019
User: cochatt
Spectrometer: HR+D1059
Trigger mode: 1
Integration Time (sec): 1.000000E-1
Scans to average: 1
Electric dark correction enabled: true
Nonlinearity correction enabled: false
Boxcar width: 0
XAxis mode: Wavelengths
Number of Pixels in Spectrum: 2048
>>>>>Begin Spectral Data<<<<<
223.165	-13.19
223.4	-13.19
223.635	-13.19
223.869	-9.19
224.104	-25.19
224.338	-11.19
224.573	-6.19
224.808	-7.19
225.042	-2.19
225.277	-5.19
225.511	-21.19
225.746	-8.19
225.98	8.81
226.215	18.81
226.449	4.81
226.683	34.81
226.918	18.81
227.152	22.81
227.387	32.81
227.621	39.81
227.856	42.81
228.09	47.81
228.324	44.81
228.559	61.81
228.793	56.81
229.027	93.81
229.262	104.81
229.496	114.81
229.73	124.81
229.964	145.81
230.199	127.81
230.433	114.81
230.667	109.81
230.901	110.81
231.136	115.81
231.37	109.81
231.604	114.81
231.838	109.81
232.072	105.81
232.306	122.81
232.541	109.81
232.775	122.81
233.009	105.81
233.243	111.81
233.477	103.81
233.711	109.81
233.945	109.81
234.179	107.81
234.413	114.81
234.647	115.81
234.881	111.81
235.115	108.81
235.349	116.81
235.583	123.81
235.817	120.81
236.051	134.81
236.285	126.81
236.519	140.81
236.753	115.81
236.987	137.81
237.221	157.81
237.455	201.81
237.689	178.81
237.922	150.81
238.156	138.81
238.39	114.81
238.624	117.81
238.858	119.81
239.091	122.81
239.325	107.81
239.559	114.81
239.793	119.81
240.027	127.81
240.26	148.81
240.494	156.81
240.728	143.81
240.961	150.81
241.195	150.81
241.429	125.81
241.662	139.81
241.896	132.81
242.13	137.81
242.363	120.81
242.597	133.81
242.83	134.81
243.064	133.81
243.298	130.81
243.531	132.81
243.765	136.81
243.998	140.81
244.232	134.81
244.465	140.81
244.699	134.81
244.932	146.81
245.166	135.81
245.399	128.81
245.633	130.81
245.866	132.81
246.099	128.81
246.333	152.81
246.566	146.81
246.8	150.81
247.033	163.81
247.266	158.81
247.5	159.81
247.733	159.81
247.966	170.81
248.2	182.81
248.433	165.81
248.666	166.81
248.899	180.81
249.133	183.81
249.366	192.81
249.599	190.81
249.832	190.81
250.066	173.81
250.299	170.81
250.532	173.81
250.765	192.81
250.998	208.81
251.231	211.81
251.465	198.81
251.698	194.81
251.931	202.81
252.164	183.81
252.397	203.81
252.63	197.81
252.863	188.81
253.096	205.81
253.329	221.81
253.562	210.81
253.795	212.81
254.028	198.81
254.261	207.81
254.494	222.81
254.727	237.81
254.96	265.81
255.193	260.81
255.426	237.81
255.659	227.81
255.892	224.81
256.124	227.81
256.357	222.81
256.59	230.81
256.823	206.81
257.056	207.81
257.289	204.81
257.521	214.81
257.754	213.81
257.987	191.81
258.22	203.81
258.452	199.81
258.685	211.81
258.918	196.81
259.151	210.81
259.383	206.81
259.616	200.81
259.849	208.81
260.081	218.81
260.314	226.81
260.547	262.81
260.779	240.81
261.012	215.81
261.244	226.81
261.477	212.81
261.71	202.81
261.942	227.81
262.175	238.81
262.407	224.81
262.64	211.81
262.872	192.81
263.105	218.81
263.337	222.81
263.57	200.81
263.802	222.81
264.035	214.81
264.267	195.81
264.499	196.81
264.732	191.81
264.964	210.81
265.197	204.81
265.429	208.81
265.661	204.81
265.894	214.81
266.126	198.81
266.358	196.81
266.591	212.81
266.823	205.81
267.055	222.81
267.287	214.81
267.52	215.81
267.752	226.81
267.984	210.81
268.216	217.81
268.448	224.81
268.681	214.81
268.913	226.81
269.145	247.81
269.377	261.81
269.609	267.81
269.841	266.81
270.073	245.81
270.306	273.81
270.538	301.81
270.77	298.81
271.002	298.81
271.234	274.81
271.466	261.81
271.698	301.81
271.93	286.81
272.162	316.81
272.394	304.81
272.626	285.81
272.858	279.81
273.09	263.81
273.322	247.81
273.553	240.81
273.785	238.81
274.017	246.81
274.249	238.81
274.481	262.81
274.713	248.81
274.945	263.81
275.176	267.81
275.408	246.81
275.64	252.81
275.872	244.81
276.104	251.81
276.335	252.81
276.567	266.81
276.799	284.81
277.031	306.81
277.262	293.81
277.494	311.81
277.726	276.81
277.957	276.81
278.189	272.81
278.421	264.81
278.652	236.81
278.884	275.81
279.115	252.81
279.347	255.81
279.579	231.81
279.81	261.81
280.042	249.81
280.273	253.81
280.505	250.81
280.736	245.81
280.968	241.81
281.199	246.81
281.431	238.81
281.662	243.81
281.894	254.81
282.125	235.81
282.356	283.81
282.588	283.81
282.819	298.81
283.051	282.81
283.282	250.81
283.513	253.81
283.745	264.81
283.976	271.81
284.207	264.81
284.439	270.81
284.67	269.81
284.901	267.81
285.132	251.81
285.364	259.81
285.595	262.81
285.826	253.81
286.057	258.81
286.288	264.81
286.52	250.81
286.751	249.81
286.982	253.81
287.213	252.81
287.444	259.81
287.675	263.81
287.906	281.81
288.138	279.81
288.369	293.81
288.6	271.81
288.831	279.81
289.062	272.81
289.293	276.81
289.524	276.81
289.755	278.81
289.986	260.81
290.217	245.81
290.448	259.81
290.679	273.81
290.91	270.81
291.141	251.81
291.371	262.81
291.602	258.81
291.833	253.81
292.064	271.81
292.295	276.81
292.526	260.81
292.757	264.81
292.987	278.81
293.218	266.81
293.449	293.81
293.68	287.81
293.91	270.81
294.141	277.81
294.372	288.81
294.603	287.81
294.833	257.81
295.064	269.81
295.295	283.81
295.525	264.81
295.756	290.81
295.987	298.81
296.217	310.81
296.448	314.81
296.679	274.81
296.909	290.81
297.14	272.81
297.37	266.81
297.601	280.81
297.831	286.81
298.062	276.81
298.292	283.81
298.523	283.81
298.753	277.81
298.984	283.81
299.214	275.81
299.445	285.81
299.675	274.81
299.905	307.81
300.136	299.81
300.366	296.81
300.597	310.81
300.827	292.81
301.057	315.81
301.288	308.81
301.518	317.81
301.748	307.81
301.979	278.81
302.209	308.81
302.439	307.81
302.669	310.81
302.9	311.81
303.13	290.81
303.36	314.81
303.59	325.81
303.82	312.81
304.051	332.81
304.281	311.81
304.511	295.81
304.741	291.81
304.971	291.81
305.201	302.81
305.431	313.81
305.661	295.81
305.891	301.81
306.121	298.81
306.352	313.81
306.582	300.81
306.812	316.81
307.042	307.81
307.272	311.81
307.502	308.81
307.731	303.81
307.961	314.81
308.191	331.81
308.421	319.81
308.651	324.81
308.881	332.81
309.111	328.81
309.341	331.81
309.571	347.81
309.8	341.81
310.03	355.81
310.26	331.81
310.49	366.81
310.72	356.81
310.949	379.81
311.179	378.81
311.409	367.81
311.639	343.81
311.868	358.81
312.098	360.81
312.328	371.81
312.557	400.81
312.787	377.81
313.017	382.81
313.246	359.81
313.476	344.81
313.706	345.81
313.935	367.81
314.165	367.81
314.394	386.81
314.624	367.81
314.853	366.81
315.083	358.81
315.312	339.81
315.542	347.81
315.771	355.81
316.001	371.81
316.23	342.81
316.46	340.81
316.689	342.81
316.919	365.81
317.148	378.81
317.377	374.81
317.607	363.81
317.836	356.81
318.065	348.81
318.295	360.81
318.524	358.81
318.753	357.81
318.983	362.81
319.212	343.81
319.441	352.81
319.67	380.81
319.9	379.81
320.129	357.81
320.358	361.81
320.587	365.81
320.816	365.81
321.046	383.81
321.275	404.81
321.504	377.81
321.733	390.81
321.962	372.81
322.191	390.81
322.42	400.81
322.649	421.81
322.878	436.81
323.108	446.81
323.337	468.81
323.566	492.81
323.795	534.81
324.024	578.81
324.253	719.81
324.482	1034.81
324.71	1546.81
324.939	2065.81
325.168	1732.81
325.397	938.81
325.626	642.81
325.855	534.81
326.084	498.81
326.313	467.81
326.542	498.81
326.77	536.81
326.999	654.81
327.228	932.81
327.457	1345.81
327.686	1540.81
327.914	1032.81
328.143	716.81
328.372	612.81
328.6	595.81
328.829	568.81
329.058	572.81
329.287	586.81
329.515	541.81
329.744	499.81
329.972	488.81
330.201	529.81
330.43	546.81
330.658	573.81
330.887	594.81
331.115	565.81
331.344	494.81
331.572	472.81
331.801	495.81
332.03	480.81
332.258	458.81
332.486	429.81
332.715	412.81
332.943	415.81
333.172	436.81
333.4	434.81
333.629	441.81
333.857	447.81
334.085	457.81
334.314	482.81
334.542	516.81
334.771	533.81
334.999	476.81
335.227	446.81
335.455	422.81
335.684	439.81
335.912	392.81
336.14	394.81
336.369	402.81
336.597	425.81
336.825	420.81
337.053	396.81
337.281	397.81
337.51	377.81
337.738	424.81
337.966	418.81
338.194	401.81
338.422	400.81
338.65	405.81
338.878	386.81
339.106	390.81
339.334	401.81
339.562	407.81
339.79	394.81
340.018	382.81
340.246	391.81
340.474	417.81
340.702	404.81
340.93	394.81
341.158	391.81
341.386	382.81
341.614	393.81
341.842	402.81
342.07	377.81
342.298	411.81
342.526	393.81
342.754	375.81
342.981	378.81
343.209	378.81
343.437	375.81
343.665	370.81
343.893	395.81
344.12	389.81
344.348	380.81
344.576	377.81
344.804	408.81
345.031	406.81
345.259	399.81
345.487	384.81
345.714	396.81
345.942	392.81
346.17	388.81
346.397	376.81
346.625	388.81
346.853	385.81
347.08	380.81
347.308	390.81
347.535	392.81
347.763	414.81
347.99	395.81
348.218	386.81
348.445	412.81
348.673	404.81
348.9	386.81
349.128	368.81
349.355	356.81
349.583	363.81
349.81	380.81
350.037	384.81
350.265	378.81
350.492	376.81
350.72	355.81
350.947	375.81
351.174	380.81
351.402	386.81
351.629	387.81
351.856	383.81
352.083	404.81
352.311	414.81
352.538	398.81
352.765	423.81
352.992	406.81
353.22	399.81
353.447	386.81
353.674	397.81
353.901	365.81
354.128	376.81
354.355	376.81
354.583	370.81
354.81	362.81
355.037	368.81
355.264	332.81
355.491	346.81
355.718	332.81
355.945	355.81
356.172	351.81
356.399	337.81
356.626	349.81
356.853	355.81
357.08	368.81
357.307	349.81
357.534	345.81
357.761	339.81
357.988	352.81
358.215	365.81
358.441	354.81
358.668	361.81
358.895	374.81
359.122	380.81
359.349	381.81
359.576	382.81
359.802	415.81
360.029	437.81
360.256	448.81
360.483	430.81
360.709	390.81
360.936	396.81
361.163	391.81
361.39	388.81
361.616	371.81
361.843	384.81
362.07	398.81
362.296	379.81
362.523	375.81
362.749	365.81
362.976	359.81
363.203	379.81
363.429	357.81
363.656	370.81
363.882	378.81
364.109	376.81
364.335	370.81
364.562	358.81
364.788	380.81
365.015	383.81
365.241	355.81
365.468	374.81
365.694	382.81
365.92	374.81
366.147	364.81
366.373	356.81
366.599	360.81
366.826	370.81
367.052	367.81
367.278	354.81
367.505	371.81
367.731	359.81
367.957	377.81
368.184	406.81
368.41	378.81
368.636	362.81
368.862	357.81
369.089	381.81
369.315	353.81
369.541	349.81
369.767	362.81
369.993	358.81
370.219	367.81
370.445	373.81
370.672	354.81
370.898	375.81
371.124	356.81
371.35	358.81
371.576	340.81
371.802	346.81
372.028	382.81
372.254	361.81
372.48	344.81
372.706	344.81
372.932	359.81
373.158	363.81
373.384	350.81
373.61	363.81
373.835	361.81
374.061	353.81
374.287	361.81
374.513	353.81
374.739	342.81
374.965	357.81
375.191	364.81
375.416	370.81
375.642	355.81
375.868	361.81
376.094	353.81
376.319	363.81
376.545	357.81
376.771	374.81
376.997	352.81
377.222	346.81
377.448	345.81
377.674	341.81
377.899	344.81
378.125	359.81
378.35	352.81
378.576	356.81
378.802	361.81
379.027	336.81
379.253	349.81
379.478	347.81
379.704	367.81
379.929	357.81
380.155	342.81
380.38	339.81
380.606	358.81
380.831	374.81
381.057	362.81
381.282	344.81
381.507	363.81
381.733	355.81
381.958	376.81
382.184	363.81
382.409	338.81
382.634	348.81
382.86	364.81
383.085	346.81
383.31	351.81
383.535	377.81
383.761	376.81
383.986	354.81
384.211	388.81
384.436	374.81
384.662	354.81
384.887	367.81
385.112	343.81
385.337	367.81
385.562	362.81
385.787	367.81
386.013	386.81
386.238	398.81
386.463	378.81
386.688	388.81
386.913	362.81
387.138	386.81
387.363	376.81
387.588	383.81
387.813	377.81
388.038	396.81
388.263	371.81
388.488	386.81
388.713	379.81
388.938	366.81
389.163	398.81
389.387	374.81
389.612	355.81
389.837	368.81
390.062	372.81
390.287	375.81
390.512	369.81
390.736	354.81
390.961	355.81
391.186	374.81
391.411	382.81
391.636	386.81
391.86	388.81
392.085	400.81
392.31	386.81
392.534	396.81
392.759	387.81
392.984	397.81
393.208	379.81
393.433	375.81
393.658	398.81
393.882	381.81
394.107	373.81
394.331	378.81
394.556	386.81
394.78	367.81
395.005	382.81
395.229	353.81
395.454	382.81
395.678	381.81
395.903	411.81
396.127	398.81
396.352	398.81
396.576	389.81
396.801	380.81
397.025	389.81
397.249	396.81
397.474	407.81
397.698	382.81
397.922	396.81
398.147	412.81
398.371	433.81
398.595	415.81
398.82	431.81
399.044	422.81
399.268	445.81
399.492	462.81
399.717	476.81
399.941	490.81
400.165	504.81
400.389	506.81
400.613	464.81
400.837	474.81
401.062	430.81
401.286	421.81
401.51	431.81
401.734	426.81
401.958	429.81
402.182	433.81
402.406	420.81
402.63	459.81
402.854	423.81
403.078	424.81
403.302	441.81
403.526	451.81
403.75	447.81
403.974	440.81
404.198	438.81
404.422	474.81
404.645	459.81
404.869	442.81
405.093	465.81
405.317	494.81
405.541	516.81
405.765	493.81
405.988	484.81
406.212	469.81
406.436	494.81
406.66	509.81
406.883	479.81
407.107	506.81
407.331	516.81
407.555	597.81
407.778	584.81
408.002	517.81
408.226	499.81
408.449	492.81
408.673	466.81
408.896	492.81
409.12	516.81
409.344	506.81
409.567	455.81
409.791	466.81
410.014	468.81
410.238	430.81
410.461	426.81
410.685	446.81
410.908	464.81
411.132	492.81
411.355	521.81
411.578	483.81
411.802	466.81
412.025	430.81
412.249	454.81
412.472	468.81
412.695	489.81
412.919	482.81
413.142	451.81
413.365	451.81
413.589	444.81
413.812	420.81
414.035	425.81
414.258	440.81
414.482	423.81
414.705	424.81
414.928	420.81
415.151	394.81
415.374	420.81
415.597	418.81
415.821	416.81
416.044	419.81
416.267	430.81
416.49	406.81
416.713	419.81
416.936	430.81
417.159	437.81
417.382	432.81
417.605	412.81
417.828	413.81
418.051	437.81
418.274	411.81
418.497	427.81
418.72	436.81
418.943	417.81
419.166	443.81
419.389	461.81
419.611	442.81
419.834	456.81
420.057	455.81
420.28	436.81
420.503	452.81
420.726	444.81
420.948	476.81
421.171	485.81
421.394	492.81
421.617	456.81
421.839	420.81
422.062	455.81
422.285	464.81
422.507	514.81
422.73	541.81
422.953	522.81
423.175	453.81
423.398	459.81
423.621	458.81
423.843	483.81
424.066	468.81
424.288	485.81
424.511	490.81
424.733	502.81
424.956	586.81
425.178	556.81
425.401	559.81
425.623	551.81
425.846	508.81
426.068	471.81
426.291	479.81
426.513	465.81
426.735	486.81
426.958	523.81
427.18	590.81
427.402	668.81
427.625	755.81
427.847	676.81
428.069	600.81
428.292	508.81
428.514	457.81
428.736	458.81
428.958	461.81
429.181	436.81
429.403	436.81
429.625	441.81
429.847	461.81
430.069	518.81
430.292	542.81
430.514	465.81
430.736	435.81
430.958	427.81
431.18	414.81
431.402	418.81
431.624	408.81
431.846	426.81
432.068	411.81
432.29	412.81
432.512	410.81
432.734	422.81
432.956	428.81
433.178	414.81
433.4	429.81
433.622	414.81
433.844	419.81
434.066	408.81
434.287	397.81
434.509	413.81
434.731	429.81
434.953	423.81
435.175	424.81
435.397	471.81
435.618	463.81
435.84	516.81
436.062	588.81
436.284	605.81
436.505	523.81
436.727	508.81
436.949	435.81
437.17	440.81
437.392	439.81
437.614	439.81
437.835	494.81
438.057	564.81
438.278	646.81
438.5	649.81
438.721	685.81
438.943	636.81
439.165	526.81
439.386	483.81
439.608	492.81
439.829	483.81
440.05	519.81
440.272	532.81
440.493	528.81
440.715	482.81
440.936	449.81
441.158	463.81
441.379	444.81
441.6	459.81
441.822	464.81
442.043	512.81
442.264	578.81
442.486	612.81
442.707	503.81
442.928	491.81
443.149	499.81
443.371	499.81
443.592	549.81
443.813	621.81
444.034	663.81
444.255	535.81
444.476	495.81
444.698	482.81
444.919	471.81
445.14	587.81
445.361	541.81
445.582	504.81
445.803	569.81
446.024	654.81
446.245	640.81
446.466	592.81
446.687	518.81
446.908	477.81
447.129	460.81
447.35	436.81
447.571	441.81
447.792	459.81
448.013	463.81
448.234	455.81
448.455	482.81
448.675	627.81
448.896	655.81
449.117	596.81
449.338	555.81
449.559	629.81
449.779	696.81
450	575.81
450.221	476.81
450.442	456.81
450.662	431.81
450.883	444.81
451.104	470.81
451.324	446.81
451.545	407.81
451.766	437.81
451.986	416.81
452.207	389.81
452.428	396.81
452.648	395.81
452.869	410.81
453.089	422.81
453.31	430.81
453.53	414.81
453.751	406.81
453.971	407.81
454.192	430.81
454.412	401.81
454.633	396.81
454.853	398.81
455.073	404.81
455.294	405.81
455.514	492.81
455.734	477.81
455.955	404.81
456.175	363.81
456.395	391.81
456.616	374.81
456.836	377.81
457.056	367.81
457.276	362.81
457.497	381.81
457.717	365.81
457.937	398.81
458.157	388.81
458.377	412.81
458.598	413.81
458.818	490.81
459.038	539.81
459.258	550.81
459.478	465.81
459.698	420.81
459.918	404.81
460.138	406.81
460.358	420.81
460.578	418.81
460.798	396.81
461.018	412.81
461.238	414.81
461.458	420.81
461.678	423.81
461.898	411.81
462.118	402.81
462.338	422.81
462.558	445.81
462.777	436.81
462.997	415.81
463.217	448.81
463.437	453.81
463.657	424.81
463.876	444.81
464.096	447.81
464.316	432.81
464.536	450.81
464.755	436.81
464.975	459.81
465.195	522.81
465.414	598.81
465.634	514.81
465.854	455.81
466.073	427.81
466.293	410.81
466.512	419.81
466.732	413.81
466.951	411.81
467.171	403.81
467.391	412.81
467.61	415.81
467.829	427.81
468.049	435.81
468.268	434.81
468.488	420.81
468.707	383.81
468.927	390.81
469.146	366.81
469.365	396.81
469.585	399.81
469.804	410.81
470.023	405.81
470.243	415.81
470.462	411.81
470.681	445.81
470.901	442.81
471.12	414.81
471.339	394.81
471.558	407.81
471.777	426.81
471.997	405.81
472.216	409.81
472.435	445.81
472.654	431.81
472.873	400.81
473.092	411.81
473.311	403.81
473.53	406.81
473.749	409.81
473.968	471.81
474.187	540.81
474.406	549.81
474.625	455.81
474.844	431.81
475.063	414.81
475.282	380.81
475.501	410.81
475.72	415.81
475.939	431.81
476.158	430.81
476.377	425.81
476.596	428.81
476.814	443.81
477.033	436.81
477.252	454.81
477.471	433.81
477.69	440.81
477.908	432.81
478.127	438.81
478.346	432.81
478.564	455.81
478.783	420.81
479.002	447.81
479.22	453.81
479.439	487.81
479.658	491.81
479.876	487.81
480.095	483.81
480.313	515.81
480.532	503.81
480.751	498.81
480.969	523.81
481.188	584.81
481.406	634.81
481.624	516.81
481.843	501.81
482.061	493.81
482.28	491.81
482.498	492.81
482.717	490.81
482.935	475.81
483.153	473.81
483.372	475.81
483.59	477.81
483.808	478.81
484.027	477.81
484.245	473.81
484.463	484.81
484.681	513.81
484.9	462.81
485.118	484.81
485.336	476.81
485.554	489.81
485.772	499.81
485.99	500.81
486.209	485.81
486.427	504.81
486.645	510.81
486.863	534.81
487.081	534.81
487.299	515.81
487.517	504.81
487.735	516.81
487.953	514.81
488.171	519.81
488.389	524.81
488.607	515.81
488.825	534.81
489.043	532.81
489.261	516.81
489.479	528.81
489.696	509.81
489.914	522.81
490.132	520.81
490.35	559.81
490.568	562.81
490.786	550.81
491.003	560.81
491.221	573.81
491.439	578.81
491.657	604.81
491.874	597.81
492.092	611.81
492.31	628.81
492.527	610.81
492.745	602.81
492.963	599.81
493.18	579.81
493.398	609.81
493.615	610.81
493.833	623.81
494.05	636.81
494.268	608.81
494.485	597.81
494.703	612.81
494.92	616.81
495.138	618.81
495.355	607.81
495.573	620.81
495.79	640.81
496.008	620.81
496.225	619.81
496.442	602.81
496.66	584.81
496.877	594.81
497.094	628.81
497.312	634.81
497.529	615.81
497.746	646.81
497.963	631.81
498.181	635.81
498.398	640.81
498.615	658.81
498.832	660.81
499.049	655.81
499.267	697.81
499.484	722.81
499.701	735.81
499.918	742.81
500.135	757.81
500.352	809.81
500.569	818.81
500.786	784.81
501.003	809.81
501.22	790.81
501.437	765.81
501.654	749.81
501.871	774.81
