Data from 1983.PennyLincolnUp.Lamp.En5.5.200Scan.071819.P1_HRD10591_16-55-07-966.txt Node
Date: Thu Jul 18 16:55:07 EDT 2019
User: cochatt
Spectrometer: HR+D1059
Trigger mode: 1
Integration Time (sec): 1.000000E-1
Scans to average: 1
Electric dark correction enabled: true
Nonlinearity correction enabled: false
Boxcar width: 0
XAxis mode: Wavelengths
Number of Pixels in Spectrum: 2048
>>>>>Begin Spectral Data<<<<<
223.165	-5.75
223.4	-5.75
223.635	-5.75
223.869	-15.75
224.104	-20.75
224.338	-16.75
224.573	-22.75
224.808	-8.75
225.042	1.25
225.277	-3.75
225.511	3.25
225.746	5.25
225.98	3.25
226.215	5.25
226.449	13.25
226.683	22.25
226.918	15.25
227.152	25.25
227.387	25.25
227.621	30.25
227.856	53.25
228.09	55.25
228.324	57.25
228.559	51.25
228.793	67.25
229.027	110.25
229.262	94.25
229.496	115.25
229.73	119.25
229.964	159.25
230.199	132.25
230.433	100.25
230.667	106.25
230.901	103.25
231.136	106.25
231.37	103.25
231.604	113.25
231.838	107.25
232.072	110.25
232.306	112.25
232.541	115.25
232.775	114.25
233.009	116.25
233.243	106.25
233.477	100.25
233.711	94.25
233.945	119.25
234.179	103.25
234.413	120.25
234.647	114.25
234.881	111.25
235.115	120.25
235.349	112.25
235.583	107.25
235.817	107.25
236.051	130.25
236.285	125.25
236.519	127.25
236.753	131.25
236.987	119.25
237.221	159.25
237.455	204.25
237.689	161.25
237.922	134.25
238.156	127.25
238.39	111.25
238.624	137.25
238.858	133.25
239.091	133.25
239.325	129.25
239.559	105.25
239.793	120.25
240.027	140.25
240.26	142.25
240.494	145.25
240.728	148.25
240.961	146.25
241.195	140.25
241.429	115.25
241.662	131.25
241.896	133.25
242.13	134.25
242.363	126.25
242.597	127.25
242.83	132.25
243.064	139.25
243.298	135.25
243.531	114.25
243.765	139.25
243.998	120.25
244.232	137.25
244.465	149.25
244.699	132.25
244.932	117.25
245.166	146.25
245.399	157.25
245.633	136.25
245.866	140.25
246.099	150.25
246.333	147.25
246.566	146.25
246.8	134.25
247.033	147.25
247.266	144.25
247.5	151.25
247.733	168.25
247.966	165.25
248.2	171.25
248.433	173.25
248.666	158.25
248.899	159.25
249.133	201.25
249.366	199.25
249.599	171.25
249.832	178.25
250.066	180.25
250.299	170.25
250.532	176.25
250.765	199.25
250.998	208.25
251.231	203.25
251.465	206.25
251.698	188.25
251.931	186.25
252.164	196.25
252.397	168.25
252.63	185.25
252.863	187.25
253.096	203.25
253.329	221.25
253.562	185.25
253.795	230.25
254.028	209.25
254.261	213.25
254.494	236.25
254.727	251.25
254.96	257.25
255.193	252.25
255.426	234.25
255.659	211.25
255.892	207.25
256.124	236.25
256.357	235.25
256.59	234.25
256.823	207.25
257.056	209.25
257.289	199.25
257.521	186.25
257.754	196.25
257.987	192.25
258.22	192.25
258.452	174.25
258.685	193.25
258.918	204.25
259.151	205.25
259.383	198.25
259.616	209.25
259.849	212.25
260.081	196.25
260.314	226.25
260.547	239.25
260.779	215.25
261.012	222.25
261.244	204.25
261.477	209.25
261.71	207.25
261.942	212.25
262.175	216.25
262.407	225.25
262.64	200.25
262.872	210.25
263.105	213.25
263.337	213.25
263.57	203.25
263.802	199.25
264.035	179.25
264.267	184.25
264.499	196.25
264.732	201.25
264.964	183.25
265.197	194.25
265.429	200.25
265.661	221.25
265.894	205.25
266.126	208.25
266.358	197.25
266.591	220.25
266.823	211.25
267.055	213.25
267.287	224.25
267.52	202.25
267.752	208.25
267.984	217.25
268.216	215.25
268.448	210.25
268.681	229.25
268.913	213.25
269.145	234.25
269.377	261.25
269.609	268.25
269.841	261.25
270.073	244.25
270.306	271.25
270.538	289.25
270.77	283.25
271.002	293.25
271.234	292.25
271.466	283.25
271.698	289.25
271.93	290.25
272.162	296.25
272.394	301.25
272.626	282.25
272.858	252.25
273.09	264.25
273.322	243.25
273.553	235.25
273.785	232.25
274.017	243.25
274.249	249.25
274.481	238.25
274.713	236.25
274.945	251.25
275.176	263.25
275.408	248.25
275.64	240.25
275.872	244.25
276.104	261.25
276.335	241.25
276.567	252.25
276.799	274.25
277.031	286.25
277.262	298.25
277.494	308.25
277.726	283.25
277.957	274.25
278.189	247.25
278.421	255.25
278.652	223.25
278.884	266.25
279.115	236.25
279.347	246.25
279.579	255.25
279.81	255.25
280.042	260.25
280.273	235.25
280.505	243.25
280.736	236.25
280.968	240.25
281.199	229.25
281.431	245.25
281.662	247.25
281.894	257.25
282.125	256.25
282.356	259.25
282.588	292.25
282.819	265.25
283.051	256.25
283.282	248.25
283.513	249.25
283.745	253.25
283.976	261.25
284.207	264.25
284.439	257.25
284.67	271.25
284.901	259.25
285.132	238.25
285.364	239.25
285.595	237.25
285.826	259.25
286.057	266.25
286.288	252.25
286.52	247.25
286.751	279.25
286.982	271.25
287.213	251.25
287.444	271.25
287.675	267.25
287.906	273.25
288.138	286.25
288.369	278.25
288.6	294.25
288.831	262.25
289.062	267.25
289.293	272.25
289.524	256.25
289.755	284.25
289.986	264.25
290.217	277.25
290.448	265.25
290.679	256.25
290.91	270.25
291.141	281.25
291.371	283.25
291.602	264.25
291.833	246.25
292.064	256.25
292.295	257.25
292.526	254.25
292.757	275.25
292.987	265.25
293.218	270.25
293.449	267.25
293.68	250.25
293.91	265.25
294.141	262.25
294.372	273.25
294.603	286.25
294.833	247.25
295.064	272.25
295.295	252.25
295.525	262.25
295.756	269.25
295.987	275.25
296.217	281.25
296.448	318.25
296.679	287.25
296.909	263.25
297.14	271.25
297.37	283.25
297.601	279.25
297.831	283.25
298.062	264.25
298.292	264.25
298.523	283.25
298.753	275.25
298.984	279.25
299.214	280.25
299.445	274.25
299.675	274.25
299.905	286.25
300.136	277.25
300.366	284.25
300.597	280.25
300.827	281.25
301.057	297.25
301.288	300.25
301.518	292.25
301.748	300.25
301.979	292.25
302.209	310.25
302.439	282.25
302.669	296.25
302.9	281.25
303.13	296.25
303.36	299.25
303.59	315.25
303.82	297.25
304.051	315.25
304.281	291.25
304.511	300.25
304.741	301.25
304.971	296.25
305.201	288.25
305.431	292.25
305.661	295.25
305.891	281.25
306.121	301.25
306.352	304.25
306.582	306.25
306.812	297.25
307.042	309.25
307.272	310.25
307.502	291.25
307.731	294.25
307.961	312.25
308.191	315.25
308.421	301.25
308.651	308.25
308.881	309.25
309.111	306.25
309.341	321.25
309.571	327.25
309.8	319.25
310.03	349.25
310.26	342.25
310.49	358.25
310.72	357.25
310.949	363.25
311.179	371.25
311.409	351.25
311.639	345.25
311.868	345.25
312.098	345.25
312.328	331.25
312.557	362.25
312.787	380.25
313.017	373.25
313.246	358.25
313.476	334.25
313.706	330.25
313.935	343.25
314.165	364.25
314.394	367.25
314.624	353.25
314.853	361.25
315.083	364.25
315.312	352.25
315.542	338.25
315.771	343.25
316.001	348.25
316.23	332.25
316.46	336.25
316.689	327.25
316.919	350.25
317.148	345.25
317.377	353.25
317.607	359.25
317.836	351.25
318.065	364.25
318.295	341.25
318.524	337.25
318.753	327.25
318.983	343.25
319.212	348.25
319.441	364.25
319.67	365.25
319.9	360.25
320.129	380.25
320.358	349.25
320.587	349.25
320.816	347.25
321.046	371.25
321.275	346.25
321.504	373.25
321.733	383.25
321.962	388.25
322.191	421.25
322.42	399.25
322.649	410.25
322.878	444.25
323.108	424.25
323.337	460.25
323.566	472.25
323.795	498.25
324.024	555.25
324.253	687.25
324.482	1006.25
324.71	1486.25
324.939	2056.25
325.168	1683.25
325.397	892.25
325.626	641.25
325.855	530.25
326.084	505.25
326.313	475.25
326.542	491.25
326.77	543.25
326.999	655.25
327.228	876.25
327.457	1323.25
327.686	1497.25
327.914	1019.25
328.143	724.25
328.372	613.25
328.6	558.25
328.829	563.25
329.058	567.25
329.287	580.25
329.515	520.25
329.744	490.25
329.972	505.25
330.201	548.25
330.43	590.25
330.658	592.25
330.887	619.25
331.115	585.25
331.344	477.25
331.572	470.25
331.801	478.25
332.03	460.25
332.258	453.25
332.486	422.25
332.715	431.25
332.943	413.25
333.172	429.25
333.4	438.25
333.629	440.25
333.857	443.25
334.085	486.25
334.314	498.25
334.542	576.25
334.771	590.25
334.999	497.25
335.227	448.25
335.455	420.25
335.684	422.25
335.912	423.25
336.14	415.25
336.369	403.25
336.597	408.25
336.825	409.25
337.053	402.25
337.281	400.25
337.51	404.25
337.738	382.25
337.966	395.25
338.194	409.25
338.422	409.25
338.65	375.25
338.878	391.25
339.106	398.25
339.334	382.25
339.562	394.25
339.79	380.25
340.018	396.25
340.246	396.25
340.474	389.25
340.702	380.25
340.93	383.25
341.158	391.25
341.386	403.25
341.614	375.25
341.842	392.25
342.07	377.25
342.298	389.25
342.526	381.25
342.754	372.25
342.981	382.25
343.209	377.25
343.437	375.25
343.665	369.25
343.893	368.25
344.12	377.25
344.348	374.25
344.576	383.25
344.804	391.25
345.031	417.25
345.259	401.25
345.487	407.25
345.714	405.25
345.942	402.25
346.17	358.25
346.397	377.25
346.625	380.25
346.853	373.25
347.08	362.25
347.308	375.25
347.535	381.25
347.763	409.25
347.99	371.25
348.218	387.25
348.445	392.25
348.673	395.25
348.9	379.25
349.128	391.25
349.355	360.25
349.583	366.25
349.81	356.25
350.037	362.25
350.265	355.25
350.492	362.25
350.72	358.25
350.947	374.25
351.174	389.25
351.402	405.25
351.629	389.25
351.856	385.25
352.083	388.25
352.311	388.25
352.538	382.25
352.765	386.25
352.992	372.25
353.22	381.25
353.447	369.25
353.674	367.25
353.901	363.25
354.128	360.25
354.355	364.25
354.583	358.25
354.81	351.25
355.037	369.25
355.264	333.25
355.491	366.25
355.718	347.25
355.945	341.25
356.172	331.25
356.399	337.25
356.626	368.25
356.853	356.25
357.08	329.25
357.307	348.25
357.534	329.25
357.761	341.25
357.988	351.25
358.215	343.25
358.441	352.25
358.668	344.25
358.895	357.25
359.122	368.25
359.349	340.25
359.576	368.25
359.802	413.25
360.029	429.25
360.256	416.25
360.483	429.25
360.709	364.25
360.936	372.25
361.163	375.25
361.39	410.25
361.616	373.25
361.843	379.25
362.07	388.25
362.296	390.25
362.523	364.25
362.749	387.25
362.976	367.25
363.203	369.25
363.429	367.25
363.656	371.25
363.882	359.25
364.109	351.25
364.335	350.25
364.562	346.25
364.788	353.25
365.015	351.25
365.241	363.25
365.468	380.25
365.694	373.25
365.92	357.25
366.147	356.25
366.373	351.25
366.599	362.25
366.826	341.25
367.052	345.25
367.278	364.25
367.505	348.25
367.731	342.25
367.957	355.25
368.184	375.25
368.41	361.25
368.636	378.25
368.862	360.25
369.089	375.25
369.315	352.25
369.541	344.25
369.767	345.25
369.993	358.25
370.219	364.25
370.445	364.25
370.672	341.25
370.898	351.25
371.124	352.25
371.35	335.25
371.576	335.25
371.802	337.25
372.028	358.25
372.254	362.25
372.48	350.25
372.706	345.25
372.932	349.25
373.158	352.25
373.384	348.25
373.61	346.25
373.835	355.25
374.061	353.25
374.287	352.25
374.513	342.25
374.739	364.25
374.965	351.25
375.191	353.25
375.416	340.25
375.642	356.25
375.868	355.25
376.094	354.25
376.319	343.25
376.545	335.25
376.771	345.25
376.997	365.25
377.222	350.25
377.448	335.25
377.674	350.25
377.899	354.25
378.125	342.25
378.35	370.25
378.576	336.25
378.802	351.25
379.027	328.25
379.253	339.25
379.478	326.25
379.704	345.25
379.929	344.25
380.155	337.25
380.38	345.25
380.606	349.25
380.831	356.25
381.057	351.25
381.282	352.25
381.507	350.25
381.733	354.25
381.958	348.25
382.184	340.25
382.409	354.25
382.634	337.25
382.86	355.25
383.085	326.25
383.31	360.25
383.535	352.25
383.761	348.25
383.986	360.25
384.211	359.25
384.436	343.25
384.662	361.25
384.887	363.25
385.112	367.25
385.337	359.25
385.562	356.25
385.787	361.25
386.013	377.25
386.238	387.25
386.463	379.25
386.688	377.25
386.913	358.25
387.138	380.25
387.363	357.25
387.588	381.25
387.813	363.25
388.038	360.25
388.263	363.25
388.488	378.25
388.713	375.25
388.938	376.25
389.163	379.25
389.387	389.25
389.612	367.25
389.837	377.25
390.062	376.25
390.287	359.25
390.512	364.25
390.736	364.25
390.961	381.25
391.186	370.25
391.411	364.25
391.636	379.25
391.86	355.25
392.085	389.25
392.31	352.25
392.534	361.25
392.759	375.25
392.984	367.25
393.208	366.25
393.433	376.25
393.658	400.25
393.882	375.25
394.107	377.25
394.331	377.25
394.556	393.25
394.78	357.25
395.005	368.25
395.229	376.25
395.454	369.25
395.678	376.25
395.903	389.25
396.127	399.25
396.352	400.25
396.576	410.25
396.801	387.25
397.025	402.25
397.249	382.25
397.474	380.25
397.698	387.25
397.922	401.25
398.147	411.25
398.371	401.25
398.595	405.25
398.82	407.25
399.044	421.25
399.268	415.25
399.492	433.25
399.717	474.25
399.941	489.25
400.165	504.25
400.389	500.25
400.613	476.25
400.837	435.25
401.062	425.25
401.286	415.25
401.51	419.25
401.734	415.25
401.958	411.25
402.182	432.25
402.406	421.25
402.63	429.25
402.854	436.25
403.078	451.25
403.302	411.25
403.526	451.25
403.75	428.25
403.974	443.25
404.198	429.25
404.422	425.25
404.645	453.25
404.869	493.25
405.093	472.25
405.317	491.25
405.541	541.25
405.765	490.25
405.988	475.25
406.212	483.25
406.436	498.25
406.66	501.25
406.883	475.25
407.107	472.25
407.331	512.25
407.555	564.25
407.778	553.25
408.002	528.25
408.226	487.25
408.449	480.25
408.673	476.25
408.896	509.25
409.12	500.25
409.344	501.25
409.567	455.25
409.791	443.25
410.014	439.25
410.238	433.25
410.461	453.25
410.685	436.25
410.908	453.25
411.132	484.25
411.355	485.25
411.578	497.25
411.802	445.25
412.025	445.25
412.249	456.25
412.472	469.25
412.695	489.25
412.919	482.25
413.142	470.25
413.365	446.25
413.589	404.25
413.812	414.25
414.035	438.25
414.258	427.25
414.482	411.25
414.705	410.25
414.928	399.25
415.151	407.25
415.374	406.25
415.597	393.25
415.821	427.25
416.044	411.25
416.267	406.25
416.49	402.25
416.713	402.25
416.936	382.25
417.159	399.25
417.382	407.25
417.605	408.25
417.828	429.25
418.051	430.25
418.274	433.25
418.497	427.25
418.72	421.25
418.943	424.25
419.166	424.25
419.389	449.25
419.611	425.25
419.834	437.25
420.057	435.25
420.28	456.25
420.503	445.25
420.726	442.25
420.948	458.25
421.171	488.25
421.394	491.25
421.617	449.25
421.839	407.25
422.062	446.25
422.285	440.25
422.507	508.25
422.73	535.25
422.953	513.25
423.175	468.25
423.398	459.25
423.621	439.25
423.843	457.25
424.066	456.25
424.288	455.25
424.511	472.25
424.733	512.25
424.956	583.25
425.178	563.25
425.401	563.25
425.623	571.25
425.846	475.25
426.068	463.25
426.291	433.25
426.513	446.25
426.735	475.25
426.958	499.25
427.18	574.25
427.402	661.25
427.625	733.25
427.847	652.25
428.069	576.25
428.292	528.25
428.514	483.25
428.736	435.25
428.958	449.25
429.181	441.25
429.403	421.25
429.625	437.25
429.847	485.25
430.069	521.25
430.292	502.25
430.514	448.25
430.736	420.25
430.958	410.25
431.18	409.25
431.402	410.25
431.624	412.25
431.846	386.25
432.068	384.25
432.29	408.25
432.512	414.25
432.734	395.25
432.956	413.25
433.178	413.25
433.4	430.25
433.622	413.25
433.844	406.25
434.066	387.25
434.287	406.25
434.509	415.25
434.731	416.25
434.953	422.25
435.175	432.25
435.397	461.25
435.618	460.25
435.84	489.25
436.062	565.25
436.284	615.25
436.505	528.25
436.727	492.25
436.949	456.25
437.17	440.25
437.392	441.25
437.614	452.25
437.835	478.25
438.057	549.25
438.278	634.25
438.5	619.25
438.721	666.25
438.943	623.25
439.165	533.25
439.386	475.25
439.608	471.25
439.829	470.25
440.05	495.25
440.272	524.25
440.493	477.25
440.715	457.25
440.936	434.25
441.158	454.25
441.379	446.25
441.6	428.25
441.822	449.25
442.043	506.25
442.264	568.25
442.486	581.25
442.707	511.25
442.928	463.25
443.149	488.25
443.371	508.25
443.592	554.25
443.813	591.25
444.034	636.25
444.255	530.25
444.476	488.25
444.698	463.25
444.919	451.25
445.14	547.25
445.361	518.25
445.582	507.25
445.803	563.25
446.024	622.25
446.245	645.25
446.466	584.25
446.687	495.25
446.908	461.25
447.129	465.25
447.35	429.25
447.571	432.25
447.792	420.25
448.013	405.25
448.234	461.25
448.455	497.25
448.675	599.25
448.896	625.25
449.117	560.25
449.338	524.25
449.559	627.25
449.779	679.25
450	558.25
450.221	481.25
450.442	437.25
450.662	444.25
450.883	452.25
451.104	439.25
451.324	443.25
451.545	412.25
451.766	404.25
451.986	388.25
452.207	382.25
452.428	393.25
452.648	381.25
452.869	384.25
453.089	409.25
453.31	407.25
453.53	389.25
453.751	387.25
453.971	394.25
454.192	415.25
454.412	412.25
454.633	392.25
454.853	381.25
455.073	380.25
455.294	421.25
455.514	469.25
455.734	461.25
455.955	419.25
456.175	375.25
456.395	373.25
456.616	371.25
456.836	377.25
457.056	375.25
457.276	361.25
457.497	379.25
457.717	361.25
457.937	368.25
458.157	382.25
458.377	387.25
458.598	406.25
458.818	452.25
459.038	548.25
459.258	526.25
459.478	458.25
459.698	435.25
459.918	411.25
460.138	409.25
460.358	406.25
460.578	401.25
460.798	415.25
461.018	412.25
461.238	417.25
461.458	392.25
461.678	411.25
461.898	399.25
462.118	423.25
462.338	423.25
462.558	412.25
462.777	431.25
462.997	433.25
463.217	408.25
463.437	429.25
463.657	441.25
463.876	441.25
464.096	430.25
464.316	419.25
464.536	450.25
464.755	426.25
464.975	444.25
465.195	483.25
465.414	573.25
465.634	485.25
465.854	430.25
466.073	415.25
466.293	403.25
466.512	397.25
466.732	399.25
466.951	397.25
467.171	388.25
467.391	387.25
467.61	407.25
467.829	388.25
468.049	432.25
468.268	423.25
468.488	417.25
468.707	388.25
468.927	367.25
469.146	373.25
469.365	387.25
469.585	405.25
469.804	377.25
470.023	389.25
470.243	405.25
470.462	405.25
470.681	429.25
470.901	423.25
471.12	407.25
471.339	412.25
471.558	413.25
471.777	415.25
471.997	383.25
472.216	427.25
472.435	482.25
472.654	452.25
472.873	443.25
473.092	428.25
473.311	418.25
473.53	408.25
473.749	419.25
473.968	457.25
474.187	530.25
474.406	543.25
474.625	451.25
474.844	435.25
475.063	410.25
475.282	401.25
475.501	405.25
475.72	407.25
475.939	397.25
476.158	427.25
476.377	394.25
476.596	415.25
476.814	428.25
477.033	429.25
477.252	423.25
477.471	427.25
477.69	408.25
477.908	432.25
478.127	424.25
478.346	452.25
478.564	430.25
478.783	441.25
479.002	440.25
479.22	449.25
479.439	470.25
479.658	496.25
479.876	499.25
480.095	473.25
480.313	490.25
480.532	511.25
480.751	502.25
480.969	513.25
481.188	637.25
481.406	697.25
481.624	576.25
481.843	517.25
482.061	480.25
482.28	451.25
482.498	482.25
482.717	480.25
482.935	473.25
483.153	477.25
483.372	476.25
483.59	473.25
483.808	462.25
484.027	461.25
484.245	464.25
484.463	472.25
484.681	464.25
484.9	468.25
485.118	443.25
485.336	478.25
485.554	488.25
485.772	479.25
485.99	476.25
486.209	485.25
486.427	480.25
486.645	491.25
486.863	524.25
487.081	493.25
487.299	515.25
487.517	491.25
487.735	517.25
487.953	495.25
488.171	531.25
488.389	515.25
488.607	493.25
488.825	486.25
489.043	488.25
489.261	521.25
489.479	517.25
489.696	517.25
489.914	518.25
490.132	536.25
490.35	545.25
490.568	530.25
490.786	545.25
491.003	567.25
491.221	578.25
491.439	564.25
491.657	582.25
491.874	587.25
492.092	588.25
492.31	594.25
492.527	595.25
492.745	566.25
492.963	597.25
493.18	596.25
493.398	605.25
493.615	614.25
493.833	597.25
494.05	601.25
494.268	616.25
494.485	602.25
494.703	601.25
494.92	603.25
495.138	576.25
495.355	602.25
495.573	607.25
495.79	616.25
496.008	602.25
496.225	621.25
496.442	603.25
496.66	611.25
496.877	615.25
497.094	602.25
497.312	604.25
497.529	602.25
497.746	636.25
497.963	608.25
498.181	644.25
498.398	635.25
498.615	640.25
498.832	678.25
499.049	663.25
499.267	670.25
499.484	658.25
499.701	720.25
499.918	723.25
500.135	744.25
500.352	745.25
500.569	796.25
500.786	802.25
501.003	760.25
501.22	759.25
501.437	714.25
501.654	748.25
501.871	739.25
502.088	713.25
