Data from 1983.PennyLincolnUp.Lamp.En5.5.200Scan.071819.P1_HRD10591_16-55-23-966.txt Node
Date: Thu Jul 18 16:55:23 EDT 2019
User: cochatt
Spectrometer: HR+D1059
Trigger mode: 1
Integration Time (sec): 1.000000E-1
Scans to average: 1
Electric dark correction enabled: true
Nonlinearity correction enabled: false
Boxcar width: 0
XAxis mode: Wavelengths
Number of Pixels in Spectrum: 2048
>>>>>Begin Spectral Data<<<<<
223.165	-21.62
223.4	-21.62
223.635	-21.62
223.869	-18.62
224.104	-12.62
224.338	-11.62
224.573	-16.62
224.808	-13.62
225.042	-10.62
225.277	-9.62
225.511	12.38
225.746	0.38
225.98	3.38
226.215	19.38
226.449	15.38
226.683	18.38
226.918	24.38
227.152	21.38
227.387	40.38
227.621	23.38
227.856	31.38
228.09	51.38
228.324	47.38
228.559	50.38
228.793	71.38
229.027	82.38
229.262	92.38
229.496	114.38
229.73	123.38
229.964	131.38
230.199	130.38
230.433	118.38
230.667	106.38
230.901	115.38
231.136	98.38
231.37	108.38
231.604	99.38
231.838	105.38
232.072	116.38
232.306	119.38
232.541	116.38
232.775	122.38
233.009	115.38
233.243	108.38
233.477	120.38
233.711	118.38
233.945	116.38
234.179	115.38
234.413	114.38
234.647	126.38
234.881	106.38
235.115	125.38
235.349	107.38
235.583	122.38
235.817	120.38
236.051	111.38
236.285	126.38
236.519	111.38
236.753	138.38
236.987	134.38
237.221	178.38
237.455	222.38
237.689	178.38
237.922	125.38
238.156	137.38
238.39	143.38
238.624	113.38
238.858	126.38
239.091	123.38
239.325	115.38
239.559	133.38
239.793	129.38
240.027	144.38
240.26	138.38
240.494	168.38
240.728	151.38
240.961	148.38
241.195	127.38
241.429	131.38
241.662	118.38
241.896	134.38
242.13	131.38
242.363	130.38
242.597	132.38
242.83	134.38
243.064	134.38
243.298	143.38
243.531	142.38
243.765	134.38
243.998	143.38
244.232	138.38
244.465	138.38
244.699	127.38
244.932	130.38
245.166	134.38
245.399	147.38
245.633	139.38
245.866	130.38
246.099	157.38
246.333	132.38
246.566	149.38
246.8	145.38
247.033	158.38
247.266	152.38
247.5	147.38
247.733	162.38
247.966	146.38
248.2	163.38
248.433	151.38
248.666	166.38
248.899	170.38
249.133	190.38
249.366	212.38
249.599	206.38
249.832	145.38
250.066	166.38
250.299	167.38
250.532	188.38
250.765	207.38
250.998	228.38
251.231	204.38
251.465	194.38
251.698	196.38
251.931	189.38
252.164	172.38
252.397	170.38
252.63	195.38
252.863	206.38
253.096	221.38
253.329	217.38
253.562	208.38
253.795	216.38
254.028	195.38
254.261	203.38
254.494	214.38
254.727	252.38
254.96	273.38
255.193	243.38
255.426	220.38
255.659	213.38
255.892	231.38
256.124	261.38
256.357	247.38
256.59	232.38
256.823	215.38
257.056	202.38
257.289	206.38
257.521	203.38
257.754	205.38
257.987	189.38
258.22	194.38
258.452	205.38
258.685	196.38
258.918	205.38
259.151	190.38
259.383	220.38
259.616	197.38
259.849	200.38
260.081	204.38
260.314	242.38
260.547	242.38
260.779	234.38
261.012	217.38
261.244	217.38
261.477	220.38
261.71	223.38
261.942	218.38
262.175	220.38
262.407	218.38
262.64	205.38
262.872	187.38
263.105	206.38
263.337	214.38
263.57	201.38
263.802	210.38
264.035	199.38
264.267	216.38
264.499	197.38
264.732	205.38
264.964	199.38
265.197	212.38
265.429	198.38
265.661	218.38
265.894	222.38
266.126	185.38
266.358	201.38
266.591	198.38
266.823	221.38
267.055	230.38
267.287	217.38
267.52	215.38
267.752	223.38
267.984	214.38
268.216	215.38
268.448	228.38
268.681	219.38
268.913	223.38
269.145	243.38
269.377	256.38
269.609	256.38
269.841	248.38
270.073	245.38
270.306	265.38
270.538	270.38
270.77	274.38
271.002	270.38
271.234	272.38
271.466	267.38
271.698	312.38
271.93	288.38
272.162	303.38
272.394	288.38
272.626	254.38
272.858	277.38
273.09	254.38
273.322	260.38
273.553	266.38
273.785	238.38
274.017	250.38
274.249	249.38
274.481	243.38
274.713	232.38
274.945	240.38
275.176	247.38
275.408	246.38
275.64	267.38
275.872	242.38
276.104	252.38
276.335	261.38
276.567	247.38
276.799	247.38
277.031	266.38
277.262	306.38
277.494	294.38
277.726	298.38
277.957	255.38
278.189	274.38
278.421	239.38
278.652	247.38
278.884	233.38
279.115	239.38
279.347	238.38
279.579	247.38
279.81	255.38
280.042	268.38
280.273	246.38
280.505	256.38
280.736	250.38
280.968	249.38
281.199	246.38
281.431	241.38
281.662	252.38
281.894	247.38
282.125	245.38
282.356	265.38
282.588	290.38
282.819	282.38
283.051	272.38
283.282	254.38
283.513	260.38
283.745	258.38
283.976	266.38
284.207	263.38
284.439	272.38
284.67	255.38
284.901	262.38
285.132	261.38
285.364	264.38
285.595	264.38
285.826	247.38
286.057	269.38
286.288	261.38
286.52	278.38
286.751	263.38
286.982	250.38
287.213	251.38
287.444	252.38
287.675	271.38
287.906	277.38
288.138	267.38
288.369	287.38
288.6	294.38
288.831	272.38
289.062	270.38
289.293	269.38
289.524	249.38
289.755	258.38
289.986	269.38
290.217	281.38
290.448	283.38
290.679	291.38
290.91	286.38
291.141	267.38
291.371	251.38
291.602	285.38
291.833	272.38
292.064	277.38
292.295	258.38
292.526	278.38
292.757	267.38
292.987	260.38
293.218	278.38
293.449	271.38
293.68	270.38
293.91	281.38
294.141	270.38
294.372	294.38
294.603	250.38
294.833	266.38
295.064	263.38
295.295	258.38
295.525	277.38
295.756	292.38
295.987	281.38
296.217	297.38
296.448	315.38
296.679	296.38
296.909	277.38
297.14	274.38
297.37	276.38
297.601	291.38
297.831	267.38
298.062	276.38
298.292	277.38
298.523	284.38
298.753	296.38
298.984	277.38
299.214	297.38
299.445	269.38
299.675	277.38
299.905	295.38
300.136	292.38
300.366	289.38
300.597	280.38
300.827	302.38
301.057	303.38
301.288	314.38
301.518	289.38
301.748	291.38
301.979	307.38
302.209	302.38
302.439	312.38
302.669	321.38
302.9	322.38
303.13	307.38
303.36	299.38
303.59	311.38
303.82	323.38
304.051	304.38
304.281	299.38
304.511	301.38
304.741	307.38
304.971	297.38
305.201	314.38
305.431	301.38
305.661	286.38
305.891	290.38
306.121	300.38
306.352	319.38
306.582	314.38
306.812	301.38
307.042	294.38
307.272	319.38
307.502	326.38
307.731	318.38
307.961	310.38
308.191	294.38
308.421	303.38
308.651	322.38
308.881	308.38
309.111	315.38
309.341	306.38
309.571	326.38
309.8	346.38
310.03	332.38
310.26	348.38
310.49	353.38
310.72	353.38
310.949	366.38
311.179	362.38
311.409	349.38
311.639	352.38
311.868	358.38
312.098	355.38
312.328	357.38
312.557	377.38
312.787	380.38
313.017	378.38
313.246	351.38
313.476	338.38
313.706	345.38
313.935	350.38
314.165	378.38
314.394	379.38
314.624	388.38
314.853	360.38
315.083	342.38
315.312	360.38
315.542	355.38
315.771	359.38
316.001	342.38
316.23	346.38
316.46	343.38
316.689	343.38
316.919	352.38
317.148	359.38
317.377	358.38
317.607	358.38
317.836	383.38
318.065	347.38
318.295	340.38
318.524	344.38
318.753	374.38
318.983	353.38
319.212	342.38
319.441	361.38
319.67	376.38
319.9	372.38
320.129	341.38
320.358	342.38
320.587	346.38
320.816	374.38
321.046	360.38
321.275	383.38
321.504	374.38
321.733	381.38
321.962	398.38
322.191	408.38
322.42	382.38
322.649	424.38
322.878	425.38
323.108	443.38
323.337	444.38
323.566	476.38
323.795	482.38
324.024	562.38
324.253	652.38
324.482	966.38
324.71	1400.38
324.939	1863.38
325.168	1590.38
325.397	833.38
325.626	597.38
325.855	522.38
326.084	485.38
326.313	471.38
326.542	478.38
326.77	541.38
326.999	637.38
327.228	852.38
327.457	1231.38
327.686	1440.38
327.914	966.38
328.143	680.38
328.372	570.38
328.6	569.38
328.829	550.38
329.058	574.38
329.287	564.38
329.515	534.38
329.744	509.38
329.972	523.38
330.201	559.38
330.43	612.38
330.658	594.38
330.887	608.38
331.115	580.38
331.344	520.38
331.572	486.38
331.801	471.38
332.03	464.38
332.258	466.38
332.486	429.38
332.715	426.38
332.943	434.38
333.172	426.38
333.4	426.38
333.629	435.38
333.857	483.38
334.085	485.38
334.314	516.38
334.542	569.38
334.771	592.38
334.999	526.38
335.227	470.38
335.455	420.38
335.684	441.38
335.912	427.38
336.14	430.38
336.369	399.38
336.597	418.38
336.825	426.38
337.053	408.38
337.281	394.38
337.51	386.38
337.738	400.38
337.966	404.38
338.194	399.38
338.422	411.38
338.65	405.38
338.878	402.38
339.106	400.38
339.334	404.38
339.562	383.38
339.79	371.38
340.018	387.38
340.246	376.38
340.474	411.38
340.702	392.38
340.93	403.38
341.158	410.38
341.386	377.38
341.614	373.38
341.842	412.38
342.07	373.38
342.298	387.38
342.526	382.38
342.754	399.38
342.981	382.38
343.209	373.38
343.437	378.38
343.665	379.38
343.893	380.38
344.12	396.38
344.348	400.38
344.576	403.38
344.804	409.38
345.031	422.38
345.259	418.38
345.487	398.38
345.714	403.38
345.942	378.38
346.17	404.38
346.397	374.38
346.625	387.38
346.853	389.38
347.08	379.38
347.308	396.38
347.535	398.38
347.763	399.38
347.99	394.38
348.218	390.38
348.445	392.38
348.673	396.38
348.9	386.38
349.128	380.38
349.355	378.38
349.583	381.38
349.81	356.38
350.037	353.38
350.265	383.38
350.492	353.38
350.72	363.38
350.947	376.38
351.174	382.38
351.402	379.38
351.629	387.38
351.856	358.38
352.083	380.38
352.311	382.38
352.538	400.38
352.765	397.38
352.992	398.38
353.22	385.38
353.447	380.38
353.674	368.38
353.901	392.38
354.128	363.38
354.355	365.38
354.583	369.38
354.81	366.38
355.037	370.38
355.264	366.38
355.491	351.38
355.718	368.38
355.945	347.38
356.172	346.38
356.399	347.38
356.626	345.38
356.853	346.38
357.08	349.38
357.307	353.38
357.534	348.38
357.761	343.38
357.988	359.38
358.215	348.38
358.441	354.38
358.668	361.38
358.895	347.38
359.122	354.38
359.349	362.38
359.576	370.38
359.802	384.38
360.029	423.38
360.256	422.38
360.483	412.38
360.709	374.38
360.936	371.38
361.163	386.38
361.39	364.38
361.616	366.38
361.843	386.38
362.07	378.38
362.296	363.38
362.523	372.38
362.749	380.38
362.976	387.38
363.203	378.38
363.429	361.38
363.656	360.38
363.882	372.38
364.109	372.38
364.335	361.38
364.562	356.38
364.788	336.38
365.015	364.38
365.241	358.38
365.468	362.38
365.694	376.38
365.92	368.38
366.147	370.38
366.373	362.38
366.599	367.38
366.826	372.38
367.052	374.38
367.278	354.38
367.505	351.38
367.731	374.38
367.957	355.38
368.184	383.38
368.41	370.38
368.636	366.38
368.862	382.38
369.089	363.38
369.315	356.38
369.541	358.38
369.767	363.38
369.993	356.38
370.219	357.38
370.445	359.38
370.672	372.38
370.898	361.38
371.124	360.38
371.35	359.38
371.576	354.38
371.802	375.38
372.028	375.38
372.254	352.38
372.48	354.38
372.706	345.38
372.932	358.38
373.158	371.38
373.384	333.38
373.61	350.38
373.835	342.38
374.061	357.38
374.287	376.38
374.513	367.38
374.739	350.38
374.965	370.38
375.191	372.38
375.416	356.38
375.642	335.38
375.868	362.38
376.094	349.38
376.319	372.38
376.545	373.38
376.771	358.38
376.997	365.38
377.222	358.38
377.448	374.38
377.674	352.38
377.899	348.38
378.125	350.38
378.35	359.38
378.576	352.38
378.802	366.38
379.027	331.38
379.253	344.38
379.478	352.38
379.704	374.38
379.929	343.38
380.155	348.38
380.38	357.38
380.606	350.38
380.831	338.38
381.057	373.38
381.282	358.38
381.507	372.38
381.733	345.38
381.958	348.38
382.184	351.38
382.409	367.38
382.634	374.38
382.86	365.38
383.085	349.38
383.31	376.38
383.535	370.38
383.761	362.38
383.986	367.38
384.211	370.38
384.436	394.38
384.662	367.38
384.887	376.38
385.112	370.38
385.337	375.38
385.562	377.38
385.787	370.38
386.013	377.38
386.238	383.38
386.463	384.38
386.688	376.38
386.913	359.38
387.138	378.38
387.363	381.38
387.588	367.38
387.813	364.38
388.038	378.38
388.263	370.38
388.488	351.38
388.713	378.38
388.938	378.38
389.163	383.38
389.387	390.38
389.612	357.38
389.837	390.38
390.062	382.38
390.287	381.38
390.512	379.38
390.736	383.38
390.961	380.38
391.186	383.38
391.411	397.38
391.636	391.38
391.86	392.38
392.085	398.38
392.31	360.38
392.534	388.38
392.759	368.38
392.984	405.38
393.208	380.38
393.433	380.38
393.658	379.38
393.882	390.38
394.107	397.38
394.331	386.38
394.556	370.38
394.78	384.38
395.005	394.38
395.229	380.38
395.454	403.38
395.678	384.38
395.903	402.38
396.127	394.38
396.352	410.38
396.576	386.38
396.801	395.38
397.025	384.38
397.249	372.38
397.474	420.38
397.698	407.38
397.922	410.38
398.147	422.38
398.371	423.38
398.595	436.38
398.82	417.38
399.044	465.38
399.268	436.38
399.492	471.38
399.717	493.38
399.941	486.38
400.165	525.38
400.389	534.38
400.613	473.38
400.837	430.38
401.062	439.38
401.286	420.38
401.51	417.38
401.734	446.38
401.958	427.38
402.182	422.38
402.406	425.38
402.63	450.38
402.854	444.38
403.078	430.38
403.302	423.38
403.526	444.38
403.75	430.38
403.974	427.38
404.198	442.38
404.422	438.38
404.645	473.38
404.869	459.38
405.093	486.38
405.317	510.38
405.541	536.38
405.765	499.38
405.988	476.38
406.212	484.38
406.436	485.38
406.66	504.38
406.883	493.38
407.107	516.38
407.331	514.38
407.555	564.38
407.778	549.38
408.002	528.38
408.226	502.38
408.449	499.38
408.673	475.38
408.896	510.38
409.12	536.38
409.344	517.38
409.567	475.38
409.791	448.38
410.014	438.38
410.238	440.38
410.461	450.38
410.685	456.38
410.908	474.38
411.132	503.38
411.355	518.38
411.578	463.38
411.802	450.38
412.025	436.38
412.249	459.38
412.472	519.38
412.695	501.38
412.919	506.38
413.142	479.38
413.365	458.38
413.589	440.38
413.812	436.38
414.035	444.38
414.258	431.38
414.482	418.38
414.705	408.38
414.928	422.38
415.151	438.38
415.374	436.38
415.597	412.38
415.821	411.38
416.044	423.38
416.267	422.38
416.49	401.38
416.713	424.38
416.936	413.38
417.159	402.38
417.382	441.38
417.605	441.38
417.828	439.38
418.051	459.38
418.274	440.38
418.497	430.38
418.72	415.38
418.943	417.38
419.166	431.38
419.389	439.38
419.611	449.38
419.834	441.38
420.057	443.38
420.28	450.38
420.503	460.38
420.726	458.38
420.948	457.38
421.171	501.38
421.394	504.38
421.617	465.38
421.839	449.38
422.062	441.38
422.285	444.38
422.507	494.38
422.73	537.38
422.953	532.38
423.175	470.38
423.398	460.38
423.621	459.38
423.843	453.38
424.066	467.38
424.288	482.38
424.511	480.38
424.733	524.38
424.956	577.38
425.178	544.38
425.401	548.38
425.623	581.38
425.846	484.38
426.068	471.38
426.291	473.38
426.513	475.38
426.735	462.38
426.958	502.38
427.18	571.38
427.402	658.38
427.625	746.38
427.847	665.38
428.069	560.38
428.292	507.38
428.514	470.38
428.736	460.38
428.958	434.38
429.181	424.38
429.403	451.38
429.625	453.38
429.847	460.38
430.069	525.38
430.292	502.38
430.514	449.38
430.736	446.38
430.958	427.38
431.18	415.38
431.402	431.38
431.624	426.38
431.846	407.38
432.068	426.38
432.29	408.38
432.512	417.38
432.734	438.38
432.956	434.38
433.178	434.38
433.4	440.38
433.622	419.38
433.844	424.38
434.066	444.38
434.287	406.38
434.509	428.38
434.731	432.38
434.953	438.38
435.175	446.38
435.397	452.38
435.618	478.38
435.84	505.38
436.062	554.38
436.284	589.38
436.505	514.38
436.727	438.38
436.949	447.38
437.17	440.38
437.392	427.38
437.614	439.38
437.835	474.38
438.057	555.38
438.278	610.38
438.5	610.38
438.721	677.38
438.943	639.38
439.165	520.38
439.386	482.38
439.608	484.38
439.829	498.38
440.05	488.38
440.272	556.38
440.493	498.38
440.715	463.38
440.936	459.38
441.158	443.38
441.379	436.38
441.6	446.38
441.822	475.38
442.043	504.38
442.264	569.38
442.486	621.38
442.707	525.38
442.928	493.38
443.149	480.38
443.371	501.38
443.592	566.38
443.813	636.38
444.034	631.38
444.255	543.38
444.476	495.38
444.698	476.38
444.919	468.38
445.14	572.38
445.361	538.38
445.582	501.38
445.803	556.38
446.024	632.38
446.245	611.38
446.466	576.38
446.687	510.38
446.908	469.38
447.129	468.38
447.35	454.38
447.571	448.38
447.792	438.38
448.013	450.38
448.234	451.38
448.455	518.38
448.675	603.38
448.896	653.38
449.117	582.38
449.338	551.38
449.559	614.38
449.779	685.38
450	562.38
450.221	485.38
450.442	451.38
450.662	440.38
450.883	424.38
451.104	475.38
451.324	457.38
451.545	408.38
451.766	412.38
451.986	405.38
452.207	398.38
452.428	388.38
452.648	400.38
452.869	397.38
453.089	415.38
453.31	419.38
453.53	404.38
453.751	389.38
453.971	405.38
454.192	427.38
454.412	410.38
454.633	387.38
454.853	380.38
455.073	394.38
455.294	419.38
455.514	467.38
455.734	472.38
455.955	404.38
456.175	391.38
456.395	382.38
456.616	374.38
456.836	376.38
457.056	379.38
457.276	351.38
457.497	365.38
457.717	376.38
457.937	386.38
458.157	377.38
458.377	400.38
458.598	421.38
458.818	464.38
459.038	526.38
459.258	533.38
459.478	459.38
459.698	442.38
459.918	423.38
460.138	414.38
460.358	416.38
460.578	402.38
460.798	424.38
461.018	429.38
461.238	407.38
461.458	406.38
461.678	400.38
461.898	426.38
462.118	405.38
462.338	417.38
462.558	431.38
462.777	435.38
462.997	436.38
463.217	448.38
463.437	455.38
463.657	454.38
463.876	452.38
464.096	443.38
464.316	421.38
464.536	448.38
464.755	444.38
464.975	441.38
465.195	495.38
465.414	526.38
465.634	522.38
465.854	468.38
466.073	469.38
466.293	417.38
466.512	390.38
466.732	419.38
466.951	409.38
467.171	401.38
467.391	391.38
467.61	400.38
467.829	436.38
468.049	436.38
468.268	440.38
468.488	412.38
468.707	408.38
468.927	378.38
469.146	408.38
469.365	383.38
469.585	374.38
469.804	391.38
470.023	436.38
470.243	428.38
470.462	418.38
470.681	451.38
470.901	439.38
471.12	415.38
471.339	403.38
471.558	399.38
471.777	417.38
471.997	415.38
472.216	412.38
472.435	504.38
472.654	478.38
472.873	426.38
473.092	441.38
473.311	442.38
473.53	440.38
473.749	432.38
473.968	460.38
474.187	555.38
474.406	547.38
474.625	475.38
474.844	435.38
475.063	401.38
475.282	394.38
475.501	407.38
475.72	430.38
475.939	422.38
476.158	436.38
476.377	418.38
476.596	429.38
476.814	441.38
477.033	434.38
477.252	432.38
477.471	440.38
477.69	439.38
477.908	451.38
478.127	423.38
478.346	431.38
478.564	445.38
478.783	461.38
479.002	469.38
479.22	462.38
479.439	487.38
479.658	486.38
479.876	472.38
480.095	499.38
480.313	508.38
480.532	503.38
480.751	492.38
480.969	523.38
481.188	621.38
481.406	731.38
481.624	585.38
481.843	535.38
482.061	527.38
482.28	512.38
482.498	494.38
482.717	502.38
482.935	500.38
483.153	493.38
483.372	500.38
483.59	470.38
483.808	476.38
484.027	487.38
484.245	480.38
484.463	490.38
484.681	487.38
484.9	498.38
485.118	498.38
485.336	501.38
485.554	496.38
485.772	510.38
485.99	492.38
486.209	494.38
486.427	514.38
486.645	529.38
486.863	533.38
487.081	530.38
487.299	532.38
487.517	514.38
487.735	541.38
487.953	559.38
488.171	515.38
488.389	527.38
488.607	526.38
488.825	534.38
489.043	536.38
489.261	516.38
489.479	539.38
489.696	526.38
489.914	532.38
490.132	539.38
490.35	553.38
490.568	556.38
490.786	548.38
491.003	566.38
491.221	557.38
491.439	596.38
491.657	604.38
491.874	600.38
492.092	599.38
492.31	647.38
492.527	614.38
492.745	642.38
492.963	644.38
493.18	630.38
493.398	627.38
493.615	622.38
493.833	636.38
494.05	611.38
494.268	623.38
494.485	626.38
494.703	615.38
494.92	619.38
495.138	634.38
495.355	644.38
495.573	630.38
495.79	620.38
496.008	612.38
496.225	621.38
496.442	626.38
496.66	619.38
496.877	632.38
497.094	637.38
497.312	625.38
497.529	649.38
497.746	631.38
497.963	642.38
498.181	660.38
498.398	664.38
498.615	670.38
498.832	661.38
499.049	675.38
499.267	719.38
499.484	692.38
499.701	718.38
499.918	705.38
500.135	772.38
500.352	783.38
500.569	786.38
500.786	809.38
501.003	785.38
501.22	758.38
501.437	757.38
501.654	751.38
501.871	754.38
