Data from 1983.PennyLincolnUp.Lamp.En5.5.200Scan.071819.P1_HRD10591_16-53-46-965.txt Node
Date: Thu Jul 18 16:53:46 EDT 2019
User: cochatt
Spectrometer: HR+D1059
Trigger mode: 1
Integration Time (sec): 1.000000E-1
Scans to average: 1
Electric dark correction enabled: true
Nonlinearity correction enabled: false
Boxcar width: 0
XAxis mode: Wavelengths
Number of Pixels in Spectrum: 2048
>>>>>Begin Spectral Data<<<<<
223.165	2.81
223.4	2.81
223.635	2.81
223.869	-13.19
224.104	-23.19
224.338	-14.19
224.573	-6.19
224.808	-21.19
225.042	-22.19
225.277	0.81
225.511	11.81
225.746	-8.19
225.98	-0.19
226.215	14.81
226.449	13.81
226.683	2.81
226.918	20.81
227.152	40.81
227.387	27.81
227.621	39.81
227.856	43.81
228.09	43.81
228.324	48.81
228.559	70.81
228.793	66.81
229.027	99.81
229.262	102.81
229.496	113.81
229.73	118.81
229.964	137.81
230.199	112.81
230.433	106.81
230.667	107.81
230.901	112.81
231.136	105.81
231.37	113.81
231.604	103.81
231.838	89.81
232.072	102.81
232.306	105.81
232.541	94.81
232.775	108.81
233.009	92.81
233.243	102.81
233.477	98.81
233.711	113.81
233.945	99.81
234.179	112.81
234.413	119.81
234.647	95.81
234.881	109.81
235.115	117.81
235.349	112.81
235.583	124.81
235.817	101.81
236.051	121.81
236.285	111.81
236.519	111.81
236.753	110.81
236.987	138.81
237.221	163.81
237.455	195.81
237.689	162.81
237.922	119.81
238.156	125.81
238.39	132.81
238.624	115.81
238.858	129.81
239.091	117.81
239.325	120.81
239.559	102.81
239.793	117.81
240.027	106.81
240.26	125.81
240.494	143.81
240.728	127.81
240.961	120.81
241.195	113.81
241.429	120.81
241.662	125.81
241.896	122.81
242.13	115.81
242.363	122.81
242.597	130.81
242.83	125.81
243.064	129.81
243.298	127.81
243.531	131.81
243.765	135.81
243.998	108.81
244.232	117.81
244.465	127.81
244.699	133.81
244.932	127.81
245.166	119.81
245.399	129.81
245.633	129.81
245.866	131.81
246.099	141.81
246.333	132.81
246.566	132.81
246.8	142.81
247.033	143.81
247.266	146.81
247.5	146.81
247.733	141.81
247.966	140.81
248.2	161.81
248.433	141.81
248.666	159.81
248.899	176.81
249.133	187.81
249.366	197.81
249.599	182.81
249.832	150.81
250.066	170.81
250.299	165.81
250.532	163.81
250.765	177.81
250.998	205.81
251.231	212.81
251.465	195.81
251.698	198.81
251.931	184.81
252.164	169.81
252.397	179.81
252.63	169.81
252.863	190.81
253.096	191.81
253.329	201.81
253.562	210.81
253.795	194.81
254.028	197.81
254.261	184.81
254.494	201.81
254.727	224.81
254.96	249.81
255.193	235.81
255.426	232.81
255.659	212.81
255.892	211.81
256.124	190.81
256.357	191.81
256.59	211.81
256.823	188.81
257.056	210.81
257.289	176.81
257.521	187.81
257.754	186.81
257.987	180.81
258.22	193.81
258.452	186.81
258.685	195.81
258.918	186.81
259.151	203.81
259.383	209.81
259.616	186.81
259.849	203.81
260.081	200.81
260.314	219.81
260.547	227.81
260.779	209.81
261.012	201.81
261.244	219.81
261.477	199.81
261.71	211.81
261.942	216.81
262.175	221.81
262.407	210.81
262.64	180.81
262.872	194.81
263.105	185.81
263.337	184.81
263.57	198.81
263.802	194.81
264.035	192.81
264.267	200.81
264.499	186.81
264.732	185.81
264.964	209.81
265.197	202.81
265.429	205.81
265.661	189.81
265.894	176.81
266.126	199.81
266.358	205.81
266.591	198.81
266.823	210.81
267.055	202.81
267.287	197.81
267.52	202.81
267.752	208.81
267.984	192.81
268.216	193.81
268.448	195.81
268.681	210.81
268.913	219.81
269.145	234.81
269.377	231.81
269.609	254.81
269.841	236.81
270.073	237.81
270.306	252.81
270.538	272.81
270.77	279.81
271.002	290.81
271.234	277.81
271.466	279.81
271.698	257.81
271.93	271.81
272.162	279.81
272.394	268.81
272.626	269.81
272.858	258.81
273.09	266.81
273.322	237.81
273.553	226.81
273.785	226.81
274.017	224.81
274.249	227.81
274.481	224.81
274.713	232.81
274.945	242.81
275.176	257.81
275.408	227.81
275.64	246.81
275.872	268.81
276.104	243.81
276.335	230.81
276.567	237.81
276.799	276.81
277.031	287.81
277.262	250.81
277.494	282.81
277.726	273.81
277.957	263.81
278.189	242.81
278.421	241.81
278.652	242.81
278.884	253.81
279.115	246.81
279.347	252.81
279.579	239.81
279.81	246.81
280.042	250.81
280.273	234.81
280.505	243.81
280.736	245.81
280.968	239.81
281.199	234.81
281.431	227.81
281.662	258.81
281.894	228.81
282.125	245.81
282.356	261.81
282.588	278.81
282.819	285.81
283.051	253.81
283.282	244.81
283.513	257.81
283.745	267.81
283.976	273.81
284.207	245.81
284.439	241.81
284.67	229.81
284.901	244.81
285.132	253.81
285.364	232.81
285.595	225.81
285.826	239.81
286.057	251.81
286.288	241.81
286.52	251.81
286.751	241.81
286.982	261.81
287.213	240.81
287.444	253.81
287.675	269.81
287.906	272.81
288.138	259.81
288.369	261.81
288.6	277.81
288.831	267.81
289.062	267.81
289.293	240.81
289.524	253.81
289.755	252.81
289.986	257.81
290.217	256.81
290.448	250.81
290.679	246.81
290.91	247.81
291.141	265.81
291.371	248.81
291.602	269.81
291.833	264.81
292.064	263.81
292.295	250.81
292.526	240.81
292.757	277.81
292.987	259.81
293.218	255.81
293.449	265.81
293.68	263.81
293.91	242.81
294.141	236.81
294.372	259.81
294.603	254.81
294.833	259.81
295.064	250.81
295.295	262.81
295.525	267.81
295.756	287.81
295.987	270.81
296.217	280.81
296.448	309.81
296.679	282.81
296.909	271.81
297.14	268.81
297.37	272.81
297.601	264.81
297.831	286.81
298.062	263.81
298.292	279.81
298.523	267.81
298.753	276.81
298.984	271.81
299.214	259.81
299.445	281.81
299.675	271.81
299.905	279.81
300.136	285.81
300.366	261.81
300.597	294.81
300.827	289.81
301.057	275.81
301.288	291.81
301.518	307.81
301.748	304.81
301.979	305.81
302.209	294.81
302.439	303.81
302.669	292.81
302.9	300.81
303.13	286.81
303.36	299.81
303.59	307.81
303.82	305.81
304.051	303.81
304.281	275.81
304.511	287.81
304.741	275.81
304.971	293.81
305.201	303.81
305.431	296.81
305.661	299.81
305.891	278.81
306.121	295.81
306.352	288.81
306.582	293.81
306.812	311.81
307.042	298.81
307.272	290.81
307.502	312.81
307.731	288.81
307.961	294.81
308.191	291.81
308.421	287.81
308.651	292.81
308.881	295.81
309.111	307.81
309.341	302.81
309.571	313.81
309.8	333.81
310.03	343.81
310.26	359.81
310.49	352.81
310.72	341.81
310.949	358.81
311.179	362.81
311.409	344.81
311.639	340.81
311.868	353.81
312.098	340.81
312.328	339.81
312.557	371.81
312.787	362.81
313.017	377.81
313.246	342.81
313.476	344.81
313.706	338.81
313.935	341.81
314.165	362.81
314.394	361.81
314.624	371.81
314.853	349.81
315.083	351.81
315.312	345.81
315.542	328.81
315.771	343.81
316.001	333.81
316.23	332.81
316.46	324.81
316.689	327.81
316.919	357.81
317.148	333.81
317.377	341.81
317.607	360.81
317.836	335.81
318.065	356.81
318.295	332.81
318.524	337.81
318.753	332.81
318.983	331.81
319.212	346.81
319.441	348.81
319.67	352.81
319.9	328.81
320.129	343.81
320.358	337.81
320.587	344.81
320.816	359.81
321.046	348.81
321.275	342.81
321.504	364.81
321.733	370.81
321.962	361.81
322.191	385.81
322.42	387.81
322.649	416.81
322.878	433.81
323.108	434.81
323.337	446.81
323.566	461.81
323.795	498.81
324.024	547.81
324.253	696.81
324.482	930.81
324.71	1471.81
324.939	1937.81
325.168	1622.81
325.397	860.81
325.626	599.81
325.855	512.81
326.084	473.81
326.313	467.81
326.542	467.81
326.77	508.81
326.999	614.81
327.228	855.81
327.457	1287.81
327.686	1439.81
327.914	973.81
328.143	651.81
328.372	562.81
328.6	528.81
328.829	500.81
329.058	543.81
329.287	559.81
329.515	514.81
329.744	463.81
329.972	471.81
330.201	469.81
330.43	509.81
330.658	538.81
330.887	568.81
331.115	561.81
331.344	479.81
331.572	443.81
331.801	453.81
332.03	436.81
332.258	434.81
332.486	414.81
332.715	389.81
332.943	387.81
333.172	395.81
333.4	402.81
333.629	400.81
333.857	409.81
334.085	409.81
334.314	419.81
334.542	444.81
334.771	435.81
334.999	425.81
335.227	405.81
335.455	382.81
335.684	405.81
335.912	401.81
336.14	401.81
336.369	391.81
336.597	411.81
336.825	398.81
337.053	401.81
337.281	385.81
337.51	391.81
337.738	388.81
337.966	375.81
338.194	399.81
338.422	391.81
338.65	386.81
338.878	375.81
339.106	378.81
339.334	385.81
339.562	376.81
339.79	379.81
340.018	384.81
340.246	391.81
340.474	393.81
340.702	384.81
340.93	378.81
341.158	387.81
341.386	369.81
341.614	390.81
341.842	391.81
342.07	364.81
342.298	367.81
342.526	363.81
342.754	357.81
342.981	360.81
343.209	357.81
343.437	355.81
343.665	374.81
343.893	376.81
344.12	396.81
344.348	401.81
344.576	395.81
344.804	400.81
345.031	393.81
345.259	403.81
345.487	413.81
345.714	383.81
345.942	377.81
346.17	375.81
346.397	397.81
346.625	367.81
346.853	375.81
347.08	359.81
347.308	367.81
347.535	373.81
347.763	385.81
347.99	385.81
348.218	368.81
348.445	395.81
348.673	381.81
348.9	369.81
349.128	373.81
349.355	360.81
349.583	352.81
349.81	333.81
350.037	352.81
350.265	358.81
350.492	369.81
350.72	373.81
350.947	354.81
351.174	355.81
351.402	381.81
351.629	371.81
351.856	386.81
352.083	386.81
352.311	367.81
352.538	401.81
352.765	385.81
352.992	384.81
353.22	374.81
353.447	357.81
353.674	357.81
353.901	374.81
354.128	367.81
354.355	367.81
354.583	348.81
354.81	343.81
355.037	349.81
355.264	363.81
355.491	345.81
355.718	327.81
355.945	345.81
356.172	359.81
356.399	346.81
356.626	333.81
356.853	337.81
357.08	343.81
357.307	337.81
357.534	333.81
357.761	348.81
357.988	341.81
358.215	323.81
358.441	336.81
358.668	337.81
358.895	353.81
359.122	361.81
359.349	349.81
359.576	359.81
359.802	375.81
360.029	423.81
360.256	419.81
360.483	403.81
360.709	370.81
360.936	367.81
361.163	383.81
361.39	357.81
361.616	382.81
361.843	345.81
362.07	363.81
362.296	379.81
362.523	370.81
362.749	342.81
362.976	370.81
363.203	348.81
363.429	371.81
363.656	351.81
363.882	363.81
364.109	358.81
364.335	351.81
364.562	336.81
364.788	343.81
365.015	339.81
365.241	343.81
365.468	357.81
365.694	350.81
365.92	368.81
366.147	345.81
366.373	332.81
366.599	349.81
366.826	337.81
367.052	349.81
367.278	351.81
367.505	357.81
367.731	317.81
367.957	362.81
368.184	333.81
368.41	357.81
368.636	372.81
368.862	367.81
369.089	343.81
369.315	353.81
369.541	351.81
369.767	346.81
369.993	371.81
370.219	358.81
370.445	361.81
370.672	344.81
370.898	358.81
371.124	356.81
371.35	329.81
371.576	356.81
371.802	369.81
372.028	330.81
372.254	365.81
372.48	331.81
372.706	342.81
372.932	362.81
373.158	350.81
373.384	339.81
373.61	365.81
373.835	325.81
374.061	339.81
374.287	342.81
374.513	342.81
374.739	330.81
374.965	337.81
375.191	349.81
375.416	371.81
375.642	332.81
375.868	348.81
376.094	346.81
376.319	347.81
376.545	346.81
376.771	351.81
376.997	350.81
377.222	339.81
377.448	354.81
377.674	344.81
377.899	313.81
378.125	327.81
378.35	325.81
378.576	339.81
378.802	324.81
379.027	340.81
379.253	343.81
379.478	335.81
379.704	334.81
379.929	328.81
380.155	349.81
380.38	346.81
380.606	336.81
380.831	339.81
381.057	346.81
381.282	345.81
381.507	346.81
381.733	342.81
381.958	337.81
382.184	343.81
382.409	357.81
382.634	349.81
382.86	353.81
383.085	348.81
383.31	355.81
383.535	369.81
383.761	355.81
383.986	355.81
384.211	362.81
384.436	346.81
384.662	361.81
384.887	367.81
385.112	383.81
385.337	377.81
385.562	362.81
385.787	371.81
386.013	377.81
386.238	360.81
386.463	380.81
386.688	362.81
386.913	369.81
387.138	364.81
387.363	347.81
387.588	354.81
387.813	369.81
388.038	378.81
388.263	367.81
388.488	364.81
388.713	375.81
388.938	371.81
389.163	368.81
389.387	364.81
389.612	359.81
389.837	369.81
390.062	347.81
390.287	390.81
390.512	359.81
390.736	356.81
390.961	375.81
391.186	360.81
391.411	363.81
391.636	376.81
391.86	365.81
392.085	370.81
392.31	371.81
392.534	376.81
392.759	388.81
392.984	390.81
393.208	361.81
393.433	365.81
393.658	371.81
393.882	359.81
394.107	372.81
394.331	394.81
394.556	361.81
394.78	349.81
395.005	378.81
395.229	375.81
395.454	362.81
395.678	377.81
395.903	389.81
396.127	403.81
396.352	383.81
396.576	375.81
396.801	394.81
397.025	394.81
397.249	379.81
397.474	408.81
397.698	404.81
397.922	392.81
398.147	419.81
398.371	420.81
398.595	396.81
398.82	388.81
399.044	421.81
399.268	429.81
399.492	457.81
399.717	470.81
399.941	480.81
400.165	503.81
400.389	498.81
400.613	466.81
400.837	432.81
401.062	422.81
401.286	403.81
401.51	419.81
401.734	404.81
401.958	403.81
402.182	420.81
402.406	427.81
402.63	437.81
402.854	417.81
403.078	413.81
403.302	424.81
403.526	430.81
403.75	449.81
403.974	450.81
404.198	407.81
404.422	419.81
404.645	454.81
404.869	448.81
405.093	444.81
405.317	456.81
405.541	489.81
405.765	474.81
405.988	444.81
406.212	457.81
406.436	481.81
406.66	508.81
406.883	466.81
407.107	495.81
407.331	511.81
407.555	556.81
407.778	575.81
408.002	515.81
408.226	477.81
408.449	459.81
408.673	481.81
408.896	489.81
409.12	523.81
409.344	470.81
409.567	437.81
409.791	443.81
410.014	424.81
410.238	437.81
410.461	415.81
410.685	446.81
410.908	477.81
411.132	475.81
411.355	499.81
411.578	465.81
411.802	435.81
412.025	421.81
412.249	431.81
412.472	450.81
412.695	460.81
412.919	437.81
413.142	420.81
413.365	406.81
413.589	396.81
413.812	408.81
414.035	407.81
414.258	423.81
414.482	398.81
414.705	417.81
414.928	403.81
415.151	389.81
415.374	422.81
415.597	403.81
415.821	394.81
416.044	403.81
416.267	422.81
416.49	416.81
416.713	406.81
416.936	381.81
417.159	390.81
417.382	421.81
417.605	420.81
417.828	433.81
418.051	435.81
418.274	410.81
418.497	416.81
418.72	411.81
418.943	382.81
419.166	391.81
419.389	439.81
419.611	432.81
419.834	433.81
420.057	424.81
420.28	419.81
420.503	410.81
420.726	432.81
420.948	429.81
421.171	452.81
421.394	484.81
421.617	428.81
421.839	421.81
422.062	435.81
422.285	431.81
422.507	467.81
422.73	526.81
422.953	513.81
423.175	464.81
423.398	427.81
423.621	437.81
423.843	464.81
424.066	449.81
424.288	457.81
424.511	460.81
424.733	514.81
424.956	577.81
425.178	554.81
425.401	579.81
425.623	553.81
425.846	500.81
426.068	473.81
426.291	466.81
426.513	459.81
426.735	453.81
426.958	498.81
427.18	544.81
427.402	661.81
427.625	712.81
427.847	636.81
428.069	554.81
428.292	496.81
428.514	453.81
428.736	429.81
428.958	449.81
429.181	428.81
429.403	461.81
429.625	441.81
429.847	456.81
430.069	525.81
430.292	505.81
430.514	478.81
430.736	398.81
430.958	421.81
431.18	400.81
431.402	418.81
431.624	397.81
431.846	400.81
432.068	405.81
432.29	409.81
432.512	399.81
432.734	431.81
432.956	401.81
433.178	395.81
433.4	415.81
433.622	407.81
433.844	407.81
434.066	399.81
434.287	396.81
434.509	410.81
434.731	422.81
434.953	422.81
435.175	424.81
435.397	459.81
435.618	465.81
435.84	479.81
436.062	562.81
436.284	612.81
436.505	511.81
436.727	476.81
436.949	439.81
437.17	437.81
437.392	435.81
437.614	444.81
437.835	481.81
438.057	567.81
438.278	631.81
438.5	607.81
438.721	654.81
438.943	633.81
439.165	529.81
439.386	487.81
439.608	462.81
439.829	460.81
440.05	486.81
440.272	533.81
440.493	513.81
440.715	466.81
440.936	441.81
441.158	461.81
441.379	427.81
441.6	441.81
441.822	463.81
442.043	492.81
442.264	561.81
442.486	557.81
442.707	501.81
442.928	479.81
443.149	482.81
443.371	489.81
443.592	530.81
443.813	593.81
444.034	662.81
444.255	527.81
444.476	477.81
444.698	453.81
444.919	445.81
445.14	541.81
445.361	511.81
445.582	511.81
445.803	525.81
446.024	610.81
446.245	641.81
446.466	567.81
446.687	497.81
446.908	467.81
447.129	442.81
447.35	429.81
447.571	434.81
447.792	439.81
448.013	431.81
448.234	435.81
448.455	484.81
448.675	588.81
448.896	631.81
449.117	564.81
449.338	551.81
449.559	618.81
449.779	683.81
450	573.81
450.221	465.81
450.442	423.81
450.662	417.81
450.883	453.81
451.104	454.81
451.324	420.81
451.545	422.81
451.766	401.81
451.986	385.81
452.207	368.81
452.428	389.81
452.648	388.81
452.869	395.81
453.089	404.81
453.31	418.81
453.53	420.81
453.751	381.81
453.971	397.81
454.192	417.81
454.412	388.81
454.633	379.81
454.853	405.81
455.073	373.81
455.294	400.81
455.514	445.81
455.734	456.81
455.955	391.81
456.175	365.81
456.395	373.81
456.616	353.81
456.836	353.81
457.056	378.81
457.276	357.81
457.497	377.81
457.717	347.81
457.937	371.81
458.157	376.81
458.377	382.81
458.598	395.81
458.818	436.81
459.038	521.81
459.258	529.81
459.478	428.81
459.698	381.81
459.918	400.81
460.138	392.81
460.358	413.81
460.578	403.81
460.798	410.81
461.018	407.81
461.238	401.81
461.458	419.81
461.678	397.81
461.898	391.81
462.118	401.81
462.338	439.81
462.558	410.81
462.777	426.81
462.997	432.81
463.217	433.81
463.437	437.81
463.657	431.81
463.876	429.81
464.096	433.81
464.316	445.81
464.536	453.81
464.755	435.81
464.975	437.81
465.195	496.81
465.414	579.81
465.634	477.81
465.854	429.81
466.073	417.81
466.293	421.81
466.512	384.81
466.732	392.81
466.951	383.81
467.171	394.81
467.391	396.81
467.61	400.81
467.829	416.81
468.049	399.81
468.268	395.81
468.488	363.81
468.707	383.81
468.927	376.81
469.146	358.81
469.365	394.81
469.585	357.81
469.804	387.81
470.023	407.81
470.243	393.81
470.462	395.81
470.681	411.81
470.901	414.81
471.12	380.81
471.339	399.81
471.558	411.81
471.777	389.81
471.997	397.81
472.216	401.81
472.435	411.81
472.654	397.81
472.873	383.81
473.092	394.81
473.311	389.81
473.53	381.81
473.749	378.81
473.968	439.81
474.187	546.81
474.406	521.81
474.625	435.81
474.844	401.81
475.063	385.81
475.282	412.81
475.501	389.81
475.72	413.81
475.939	392.81
476.158	412.81
476.377	416.81
476.596	405.81
476.814	399.81
477.033	429.81
477.252	413.81
477.471	428.81
477.69	425.81
477.908	427.81
478.127	411.81
478.346	426.81
478.564	449.81
478.783	458.81
479.002	435.81
479.22	451.81
479.439	467.81
479.658	479.81
479.876	474.81
480.095	479.81
480.313	483.81
480.532	459.81
480.751	490.81
480.969	498.81
481.188	533.81
481.406	522.81
481.624	491.81
481.843	463.81
482.061	452.81
482.28	464.81
482.498	477.81
482.717	457.81
482.935	453.81
483.153	466.81
483.372	461.81
483.59	457.81
483.808	453.81
484.027	451.81
484.245	452.81
484.463	474.81
484.681	468.81
484.9	464.81
485.118	467.81
485.336	473.81
485.554	459.81
485.772	479.81
485.99	475.81
486.209	486.81
486.427	471.81
486.645	486.81
486.863	511.81
487.081	511.81
487.299	510.81
487.517	493.81
487.735	485.81
487.953	495.81
488.171	494.81
488.389	471.81
488.607	489.81
488.825	501.81
489.043	497.81
489.261	517.81
489.479	515.81
489.696	518.81
489.914	499.81
490.132	505.81
490.35	524.81
490.568	515.81
490.786	539.81
491.003	549.81
491.221	563.81
491.439	538.81
491.657	528.81
491.874	566.81
492.092	577.81
492.31	532.81
492.527	570.81
492.745	577.81
492.963	561.81
493.18	605.81
493.398	591.81
493.615	572.81
493.833	584.81
494.05	583.81
494.268	595.81
494.485	584.81
494.703	584.81
494.92	585.81
495.138	575.81
495.355	594.81
495.573	619.81
495.79	583.81
496.008	599.81
496.225	596.81
496.442	579.81
496.66	586.81
496.877	604.81
497.094	590.81
497.312	604.81
497.529	611.81
497.746	583.81
497.963	635.81
498.181	636.81
498.398	627.81
498.615	652.81
498.832	662.81
499.049	671.81
499.267	672.81
499.484	690.81
499.701	690.81
499.918	710.81
500.135	728.81
500.352	754.81
500.569	773.81
500.786	775.81
501.003	792.81
501.22	756.81
501.437	735.81
501.654	734.81
501.871	710.81
502.088	682.81
