Data from 1983.PennyLincolnUp.Lamp.En5.5.200Scan.071819.P1_HRD10591_16-53-19-967.txt Node
Date: Thu Jul 18 16:53:19 EDT 2019
User: cochatt
Spectrometer: HR+D1059
Trigger mode: 1
Integration Time (sec): 1.000000E-1
Scans to average: 1
Electric dark correction enabled: true
Nonlinearity correction enabled: false
Boxcar width: 0
XAxis mode: Wavelengths
Number of Pixels in Spectrum: 2048
>>>>>Begin Spectral Data<<<<<
223.165	-1.25
223.4	-1.25
223.635	-1.25
223.869	-32.25
224.104	-29.25
224.338	-21.25
224.573	-16.25
224.808	-2.25
225.042	-10.25
225.277	-17.25
225.511	7.75
225.746	-2.25
225.98	-0.25
226.215	12.75
226.449	25.75
226.683	25.75
226.918	28.75
227.152	31.75
227.387	39.75
227.621	53.75
227.856	36.75
228.09	39.75
228.324	52.75
228.559	54.75
228.793	69.75
229.027	101.75
229.262	104.75
229.496	127.75
229.73	135.75
229.964	132.75
230.199	140.75
230.433	105.75
230.667	108.75
230.901	116.75
231.136	115.75
231.37	117.75
231.604	108.75
231.838	110.75
232.072	91.75
232.306	117.75
232.541	112.75
232.775	109.75
233.009	112.75
233.243	106.75
233.477	106.75
233.711	102.75
233.945	116.75
234.179	113.75
234.413	119.75
234.647	115.75
234.881	120.75
235.115	103.75
235.349	108.75
235.583	113.75
235.817	115.75
236.051	109.75
236.285	113.75
236.519	103.75
236.753	132.75
236.987	145.75
237.221	180.75
237.455	187.75
237.689	169.75
237.922	134.75
238.156	124.75
238.39	111.75
238.624	110.75
238.858	116.75
239.091	125.75
239.325	126.75
239.559	122.75
239.793	121.75
240.027	125.75
240.26	124.75
240.494	149.75
240.728	135.75
240.961	139.75
241.195	125.75
241.429	130.75
241.662	123.75
241.896	123.75
242.13	122.75
242.363	127.75
242.597	135.75
242.83	130.75
243.064	122.75
243.298	125.75
243.531	139.75
243.765	134.75
243.998	128.75
244.232	131.75
244.465	125.75
244.699	135.75
244.932	136.75
245.166	131.75
245.399	135.75
245.633	147.75
245.866	132.75
246.099	136.75
246.333	135.75
246.566	135.75
246.8	152.75
247.033	155.75
247.266	145.75
247.5	164.75
247.733	153.75
247.966	157.75
248.2	177.75
248.433	159.75
248.666	160.75
248.899	176.75
249.133	191.75
249.366	155.75
249.599	183.75
249.832	163.75
250.066	162.75
250.299	168.75
250.532	181.75
250.765	171.75
250.998	200.75
251.231	201.75
251.465	194.75
251.698	187.75
251.931	192.75
252.164	190.75
252.397	179.75
252.63	184.75
252.863	197.75
253.096	206.75
253.329	200.75
253.562	203.75
253.795	206.75
254.028	201.75
254.261	226.75
254.494	208.75
254.727	224.75
254.96	236.75
255.193	248.75
255.426	215.75
255.659	215.75
255.892	199.75
256.124	197.75
256.357	197.75
256.59	190.75
256.823	193.75
257.056	192.75
257.289	189.75
257.521	180.75
257.754	207.75
257.987	195.75
258.22	190.75
258.452	185.75
258.685	201.75
258.918	188.75
259.151	186.75
259.383	195.75
259.616	203.75
259.849	188.75
260.081	213.75
260.314	219.75
260.547	228.75
260.779	205.75
261.012	201.75
261.244	205.75
261.477	197.75
261.71	200.75
261.942	214.75
262.175	214.75
262.407	202.75
262.64	214.75
262.872	201.75
263.105	197.75
263.337	182.75
263.57	189.75
263.802	197.75
264.035	177.75
264.267	199.75
264.499	191.75
264.732	196.75
264.964	198.75
265.197	189.75
265.429	190.75
265.661	183.75
265.894	198.75
266.126	202.75
266.358	200.75
266.591	187.75
266.823	183.75
267.055	231.75
267.287	203.75
267.52	201.75
267.752	206.75
267.984	216.75
268.216	201.75
268.448	201.75
268.681	222.75
268.913	238.75
269.145	230.75
269.377	225.75
269.609	252.75
269.841	238.75
270.073	244.75
270.306	271.75
270.538	309.75
270.77	304.75
271.002	271.75
271.234	256.75
271.466	275.75
271.698	283.75
271.93	276.75
272.162	280.75
272.394	273.75
272.626	270.75
272.858	246.75
273.09	243.75
273.322	239.75
273.553	247.75
273.785	237.75
274.017	232.75
274.249	223.75
274.481	241.75
274.713	220.75
274.945	253.75
275.176	247.75
275.408	244.75
275.64	238.75
275.872	243.75
276.104	238.75
276.335	252.75
276.567	255.75
276.799	274.75
277.031	278.75
277.262	286.75
277.494	272.75
277.726	267.75
277.957	270.75
278.189	263.75
278.421	249.75
278.652	233.75
278.884	247.75
279.115	235.75
279.347	240.75
279.579	260.75
279.81	247.75
280.042	217.75
280.273	230.75
280.505	253.75
280.736	228.75
280.968	238.75
281.199	241.75
281.431	233.75
281.662	235.75
281.894	229.75
282.125	245.75
282.356	263.75
282.588	275.75
282.819	260.75
283.051	232.75
283.282	231.75
283.513	228.75
283.745	270.75
283.976	255.75
284.207	245.75
284.439	261.75
284.67	244.75
284.901	241.75
285.132	256.75
285.364	230.75
285.595	272.75
285.826	249.75
286.057	236.75
286.288	260.75
286.52	236.75
286.751	245.75
286.982	253.75
287.213	236.75
287.444	272.75
287.675	274.75
287.906	263.75
288.138	263.75
288.369	264.75
288.6	280.75
288.831	269.75
289.062	272.75
289.293	271.75
289.524	260.75
289.755	244.75
289.986	256.75
290.217	257.75
290.448	246.75
290.679	269.75
290.91	251.75
291.141	267.75
291.371	254.75
291.602	259.75
291.833	255.75
292.064	265.75
292.295	272.75
292.526	263.75
292.757	252.75
292.987	272.75
293.218	248.75
293.449	269.75
293.68	268.75
293.91	252.75
294.141	252.75
294.372	254.75
294.603	252.75
294.833	256.75
295.064	267.75
295.295	264.75
295.525	265.75
295.756	272.75
295.987	288.75
296.217	301.75
296.448	297.75
296.679	268.75
296.909	265.75
297.14	277.75
297.37	297.75
297.601	293.75
297.831	261.75
298.062	267.75
298.292	262.75
298.523	279.75
298.753	272.75
298.984	283.75
299.214	269.75
299.445	271.75
299.675	264.75
299.905	274.75
300.136	267.75
300.366	258.75
300.597	272.75
300.827	292.75
301.057	299.75
301.288	282.75
301.518	297.75
301.748	283.75
301.979	292.75
302.209	276.75
302.439	302.75
302.669	290.75
302.9	297.75
303.13	297.75
303.36	294.75
303.59	300.75
303.82	305.75
304.051	305.75
304.281	282.75
304.511	288.75
304.741	287.75
304.971	285.75
305.201	289.75
305.431	296.75
305.661	297.75
305.891	301.75
306.121	299.75
306.352	295.75
306.582	319.75
306.812	311.75
307.042	295.75
307.272	295.75
307.502	300.75
307.731	308.75
307.961	288.75
308.191	286.75
308.421	296.75
308.651	300.75
308.881	307.75
309.111	308.75
309.341	319.75
309.571	315.75
309.8	336.75
310.03	348.75
310.26	346.75
310.49	320.75
310.72	337.75
310.949	368.75
311.179	364.75
311.409	340.75
311.639	327.75
311.868	334.75
312.098	340.75
312.328	363.75
312.557	368.75
312.787	363.75
313.017	352.75
313.246	350.75
313.476	346.75
313.706	329.75
313.935	355.75
314.165	351.75
314.394	361.75
314.624	368.75
314.853	367.75
315.083	344.75
315.312	334.75
315.542	313.75
315.771	328.75
316.001	336.75
316.23	322.75
316.46	335.75
316.689	343.75
316.919	333.75
317.148	348.75
317.377	372.75
317.607	337.75
317.836	330.75
318.065	332.75
318.295	334.75
318.524	345.75
318.753	336.75
318.983	317.75
319.212	340.75
319.441	349.75
319.67	361.75
319.9	350.75
320.129	347.75
320.358	335.75
320.587	323.75
320.816	355.75
321.046	344.75
321.275	364.75
321.504	373.75
321.733	362.75
321.962	378.75
322.191	374.75
322.42	400.75
322.649	393.75
322.878	399.75
323.108	412.75
323.337	445.75
323.566	463.75
323.795	485.75
324.024	542.75
324.253	665.75
324.482	937.75
324.71	1412.75
324.939	1900.75
325.168	1611.75
325.397	876.75
325.626	608.75
325.855	496.75
326.084	475.75
326.313	459.75
326.542	465.75
326.77	490.75
326.999	585.75
327.228	819.75
327.457	1213.75
327.686	1385.75
327.914	923.75
328.143	615.75
328.372	567.75
328.6	522.75
328.829	517.75
329.058	515.75
329.287	521.75
329.515	508.75
329.744	451.75
329.972	458.75
330.201	432.75
330.43	465.75
330.658	513.75
330.887	551.75
331.115	543.75
331.344	491.75
331.572	441.75
331.801	434.75
332.03	429.75
332.258	407.75
332.486	420.75
332.715	388.75
332.943	371.75
333.172	388.75
333.4	409.75
333.629	399.75
333.857	400.75
334.085	411.75
334.314	407.75
334.542	424.75
334.771	417.75
334.999	407.75
335.227	406.75
335.455	401.75
335.684	383.75
335.912	399.75
336.14	390.75
336.369	401.75
336.597	381.75
336.825	400.75
337.053	409.75
337.281	383.75
337.51	375.75
337.738	359.75
337.966	397.75
338.194	379.75
338.422	397.75
338.65	395.75
338.878	366.75
339.106	360.75
339.334	373.75
339.562	381.75
339.79	373.75
340.018	388.75
340.246	376.75
340.474	383.75
340.702	372.75
340.93	384.75
341.158	375.75
341.386	375.75
341.614	382.75
341.842	375.75
342.07	358.75
342.298	360.75
342.526	368.75
342.754	349.75
342.981	365.75
343.209	364.75
343.437	359.75
343.665	400.75
343.893	380.75
344.12	391.75
344.348	354.75
344.576	364.75
344.804	407.75
345.031	387.75
345.259	391.75
345.487	382.75
345.714	387.75
345.942	360.75
346.17	378.75
346.397	366.75
346.625	364.75
346.853	369.75
347.08	371.75
347.308	365.75
347.535	380.75
347.763	395.75
347.99	387.75
348.218	394.75
348.445	386.75
348.673	380.75
348.9	382.75
349.128	374.75
349.355	364.75
349.583	360.75
349.81	366.75
350.037	372.75
350.265	365.75
350.492	374.75
350.72	347.75
350.947	366.75
351.174	371.75
351.402	387.75
351.629	372.75
351.856	369.75
352.083	375.75
352.311	385.75
352.538	397.75
352.765	402.75
352.992	399.75
353.22	386.75
353.447	367.75
353.674	355.75
353.901	355.75
354.128	356.75
354.355	341.75
354.583	343.75
354.81	344.75
355.037	327.75
355.264	327.75
355.491	336.75
355.718	350.75
355.945	351.75
356.172	345.75
356.399	324.75
356.626	349.75
356.853	328.75
357.08	317.75
357.307	337.75
357.534	346.75
357.761	324.75
357.988	355.75
358.215	333.75
358.441	350.75
358.668	358.75
358.895	360.75
359.122	339.75
359.349	362.75
359.576	353.75
359.802	391.75
360.029	427.75
360.256	430.75
360.483	418.75
360.709	383.75
360.936	370.75
361.163	381.75
361.39	379.75
361.616	350.75
361.843	371.75
362.07	356.75
362.296	369.75
362.523	373.75
362.749	355.75
362.976	355.75
363.203	357.75
363.429	340.75
363.656	352.75
363.882	354.75
364.109	333.75
364.335	342.75
364.562	353.75
364.788	335.75
365.015	345.75
365.241	344.75
365.468	347.75
365.694	357.75
365.92	379.75
366.147	341.75
366.373	345.75
366.599	332.75
366.826	348.75
367.052	336.75
367.278	349.75
367.505	341.75
367.731	342.75
367.957	331.75
368.184	336.75
368.41	377.75
368.636	367.75
368.862	381.75
369.089	367.75
369.315	339.75
369.541	332.75
369.767	359.75
369.993	367.75
370.219	365.75
370.445	364.75
370.672	347.75
370.898	352.75
371.124	349.75
371.35	335.75
371.576	352.75
371.802	338.75
372.028	347.75
372.254	323.75
372.48	337.75
372.706	341.75
372.932	340.75
373.158	331.75
373.384	343.75
373.61	353.75
373.835	364.75
374.061	325.75
374.287	346.75
374.513	341.75
374.739	353.75
374.965	345.75
375.191	350.75
375.416	342.75
375.642	344.75
375.868	351.75
376.094	366.75
376.319	343.75
376.545	344.75
376.771	360.75
376.997	323.75
377.222	347.75
377.448	346.75
377.674	336.75
377.899	328.75
378.125	351.75
378.35	325.75
378.576	354.75
378.802	343.75
379.027	329.75
379.253	355.75
379.478	326.75
379.704	334.75
379.929	312.75
380.155	337.75
380.38	350.75
380.606	354.75
380.831	365.75
381.057	364.75
381.282	357.75
381.507	355.75
381.733	346.75
381.958	352.75
382.184	359.75
382.409	346.75
382.634	350.75
382.86	349.75
383.085	347.75
383.31	359.75
383.535	337.75
383.761	344.75
383.986	350.75
384.211	344.75
384.436	349.75
384.662	357.75
384.887	359.75
385.112	364.75
385.337	363.75
385.562	371.75
385.787	360.75
386.013	368.75
386.238	371.75
386.463	373.75
386.688	377.75
386.913	362.75
387.138	347.75
387.363	360.75
387.588	341.75
387.813	372.75
388.038	355.75
388.263	371.75
388.488	362.75
388.713	363.75
388.938	353.75
389.163	389.75
389.387	367.75
389.612	358.75
389.837	357.75
390.062	351.75
390.287	371.75
390.512	374.75
390.736	361.75
390.961	367.75
391.186	359.75
391.411	365.75
391.636	356.75
391.86	355.75
392.085	355.75
392.31	356.75
392.534	371.75
392.759	369.75
392.984	380.75
393.208	367.75
393.433	371.75
393.658	371.75
393.882	364.75
394.107	363.75
394.331	372.75
394.556	360.75
394.78	363.75
395.005	347.75
395.229	348.75
395.454	358.75
395.678	383.75
395.903	378.75
396.127	395.75
396.352	404.75
396.576	377.75
396.801	385.75
397.025	374.75
397.249	360.75
397.474	391.75
397.698	375.75
397.922	390.75
398.147	417.75
398.371	405.75
398.595	390.75
398.82	416.75
399.044	420.75
399.268	438.75
399.492	445.75
399.717	443.75
399.941	463.75
400.165	501.75
400.389	501.75
400.613	459.75
400.837	431.75
401.062	425.75
401.286	411.75
401.51	415.75
401.734	414.75
401.958	425.75
402.182	426.75
402.406	433.75
402.63	424.75
402.854	429.75
403.078	428.75
403.302	425.75
403.526	438.75
403.75	404.75
403.974	426.75
404.198	426.75
404.422	420.75
404.645	413.75
404.869	453.75
405.093	443.75
405.317	463.75
405.541	469.75
405.765	451.75
405.988	427.75
406.212	447.75
406.436	484.75
406.66	488.75
406.883	468.75
407.107	494.75
407.331	528.75
407.555	545.75
407.778	552.75
408.002	495.75
408.226	481.75
408.449	459.75
408.673	463.75
408.896	489.75
409.12	534.75
409.344	495.75
409.567	466.75
409.791	439.75
410.014	411.75
410.238	431.75
410.461	435.75
410.685	435.75
410.908	445.75
411.132	474.75
411.355	491.75
411.578	481.75
411.802	432.75
412.025	410.75
412.249	403.75
412.472	428.75
412.695	433.75
412.919	448.75
413.142	429.75
413.365	415.75
413.589	406.75
413.812	407.75
414.035	402.75
414.258	395.75
414.482	392.75
414.705	397.75
414.928	394.75
415.151	400.75
415.374	393.75
415.597	400.75
415.821	397.75
416.044	411.75
416.267	403.75
416.49	411.75
416.713	407.75
416.936	384.75
417.159	395.75
417.382	395.75
417.605	399.75
417.828	429.75
418.051	417.75
418.274	424.75
418.497	401.75
418.72	400.75
418.943	383.75
419.166	417.75
419.389	418.75
419.611	437.75
419.834	430.75
420.057	441.75
420.28	422.75
420.503	431.75
420.726	407.75
420.948	448.75
421.171	462.75
421.394	490.75
421.617	444.75
421.839	437.75
422.062	425.75
422.285	443.75
422.507	490.75
422.73	518.75
422.953	508.75
423.175	446.75
423.398	441.75
423.621	424.75
423.843	448.75
424.066	441.75
424.288	437.75
424.511	457.75
424.733	514.75
424.956	531.75
425.178	554.75
425.401	554.75
425.623	548.75
425.846	505.75
426.068	471.75
426.291	458.75
426.513	457.75
426.735	453.75
426.958	495.75
427.18	580.75
427.402	647.75
427.625	693.75
427.847	640.75
428.069	534.75
428.292	470.75
428.514	470.75
428.736	428.75
428.958	423.75
429.181	430.75
429.403	422.75
429.625	428.75
429.847	457.75
430.069	499.75
430.292	500.75
430.514	442.75
430.736	425.75
430.958	427.75
431.18	394.75
431.402	393.75
431.624	389.75
431.846	383.75
432.068	403.75
432.29	398.75
432.512	405.75
432.734	406.75
432.956	411.75
433.178	427.75
433.4	432.75
433.622	385.75
433.844	397.75
434.066	383.75
434.287	384.75
434.509	415.75
434.731	415.75
434.953	416.75
435.175	432.75
435.397	456.75
435.618	448.75
435.84	492.75
436.062	556.75
436.284	587.75
436.505	499.75
436.727	453.75
436.949	447.75
437.17	447.75
437.392	440.75
437.614	444.75
437.835	491.75
438.057	547.75
438.278	628.75
438.5	599.75
438.721	634.75
438.943	629.75
439.165	534.75
439.386	470.75
439.608	469.75
439.829	456.75
440.05	476.75
440.272	541.75
440.493	513.75
440.715	466.75
440.936	441.75
441.158	439.75
441.379	421.75
441.6	444.75
441.822	470.75
442.043	492.75
442.264	523.75
442.486	575.75
442.707	504.75
442.928	462.75
443.149	503.75
443.371	479.75
443.592	531.75
443.813	603.75
444.034	649.75
444.255	516.75
444.476	485.75
444.698	470.75
444.919	462.75
445.14	579.75
445.361	519.75
445.582	500.75
445.803	555.75
446.024	600.75
446.245	624.75
446.466	556.75
446.687	492.75
446.908	462.75
447.129	437.75
447.35	421.75
447.571	442.75
447.792	437.75
448.013	422.75
448.234	443.75
448.455	502.75
448.675	570.75
448.896	666.75
449.117	571.75
449.338	537.75
449.559	618.75
449.779	676.75
450	553.75
450.221	477.75
450.442	447.75
450.662	421.75
450.883	425.75
451.104	450.75
451.324	426.75
451.545	407.75
451.766	410.75
451.986	395.75
452.207	351.75
452.428	389.75
452.648	398.75
452.869	401.75
453.089	401.75
453.31	406.75
453.53	388.75
453.751	364.75
453.971	387.75
454.192	425.75
454.412	406.75
454.633	389.75
454.853	384.75
455.073	395.75
455.294	412.75
455.514	489.75
455.734	437.75
455.955	383.75
456.175	366.75
456.395	354.75
456.616	362.75
456.836	353.75
457.056	373.75
457.276	348.75
457.497	355.75
457.717	376.75
457.937	376.75
458.157	379.75
458.377	397.75
458.598	385.75
458.818	453.75
459.038	524.75
459.258	512.75
459.478	455.75
459.698	425.75
459.918	402.75
460.138	395.75
460.358	396.75
460.578	414.75
460.798	402.75
461.018	402.75
461.238	410.75
461.458	396.75
461.678	384.75
461.898	411.75
462.118	402.75
462.338	399.75
462.558	423.75
462.777	407.75
462.997	425.75
463.217	435.75
463.437	429.75
463.657	430.75
463.876	423.75
464.096	416.75
464.316	415.75
464.536	411.75
464.755	428.75
464.975	432.75
465.195	493.75
465.414	566.75
465.634	478.75
465.854	426.75
466.073	420.75
466.293	410.75
466.512	407.75
466.732	392.75
466.951	405.75
467.171	394.75
467.391	398.75
467.61	415.75
467.829	423.75
468.049	414.75
468.268	372.75
468.488	366.75
468.707	375.75
468.927	380.75
469.146	388.75
469.365	382.75
469.585	365.75
469.804	377.75
470.023	403.75
470.243	391.75
470.462	400.75
470.681	437.75
470.901	435.75
471.12	391.75
471.339	386.75
471.558	376.75
471.777	371.75
471.997	372.75
472.216	399.75
472.435	407.75
472.654	376.75
472.873	392.75
473.092	391.75
473.311	407.75
473.53	395.75
473.749	409.75
473.968	447.75
474.187	525.75
474.406	552.75
474.625	431.75
474.844	395.75
475.063	410.75
475.282	405.75
475.501	381.75
475.72	403.75
475.939	384.75
476.158	415.75
476.377	397.75
476.596	411.75
476.814	434.75
477.033	411.75
477.252	422.75
477.471	416.75
477.69	429.75
477.908	424.75
478.127	400.75
478.346	423.75
478.564	453.75
478.783	449.75
479.002	443.75
479.22	449.75
479.439	443.75
479.658	481.75
479.876	473.75
480.095	487.75
480.313	497.75
480.532	471.75
480.751	439.75
480.969	474.75
481.188	500.75
481.406	503.75
481.624	451.75
481.843	455.75
482.061	443.75
482.28	457.75
482.498	455.75
482.717	441.75
482.935	469.75
483.153	457.75
483.372	454.75
483.59	472.75
483.808	448.75
484.027	449.75
484.245	483.75
484.463	477.75
484.681	458.75
484.9	483.75
485.118	465.75
485.336	476.75
485.554	476.75
485.772	471.75
485.99	459.75
486.209	464.75
486.427	474.75
486.645	488.75
486.863	501.75
487.081	496.75
487.299	488.75
487.517	518.75
487.735	493.75
487.953	495.75
488.171	510.75
488.389	510.75
488.607	471.75
488.825	475.75
489.043	504.75
489.261	507.75
489.479	498.75
489.696	486.75
489.914	515.75
490.132	528.75
490.35	526.75
490.568	513.75
490.786	537.75
491.003	527.75
491.221	565.75
491.439	577.75
491.657	571.75
491.874	551.75
492.092	572.75
492.31	554.75
492.527	572.75
492.745	561.75
492.963	559.75
493.18	588.75
493.398	573.75
493.615	579.75
493.833	594.75
494.05	599.75
494.268	572.75
494.485	575.75
494.703	578.75
494.92	569.75
495.138	581.75
495.355	588.75
495.573	565.75
495.79	569.75
496.008	558.75
496.225	572.75
496.442	575.75
496.66	591.75
496.877	588.75
497.094	579.75
497.312	600.75
497.529	597.75
497.746	600.75
497.963	637.75
498.181	645.75
498.398	631.75
498.615	636.75
498.832	654.75
499.049	660.75
499.267	675.75
499.484	686.75
499.701	699.75
499.918	694.75
500.135	742.75
500.352	775.75
500.569	776.75
500.786	776.75
501.003	760.75
501.22	761.75
501.437	742.75
501.654	740.75
501.871	736.75
