Data from 1983.PennyLincolnUp.Lamp.En5.5.200Scan.071819.P1_HRD10591_16-54-24-966.txt Node
Date: Thu Jul 18 16:54:24 EDT 2019
User: cochatt
Spectrometer: HR+D1059
Trigger mode: 1
Integration Time (sec): 1.000000E-1
Scans to average: 1
Electric dark correction enabled: true
Nonlinearity correction enabled: false
Boxcar width: 0
XAxis mode: Wavelengths
Number of Pixels in Spectrum: 2048
>>>>>Begin Spectral Data<<<<<
223.165	-17.38
223.4	-17.38
223.635	-17.38
223.869	-9.38
224.104	-17.38
224.338	-19.38
224.573	-22.38
224.808	-12.38
225.042	-28.38
225.277	5.62
225.511	-1.38
225.746	12.62
225.98	11.62
226.215	13.62
226.449	19.62
226.683	17.62
226.918	24.62
227.152	22.62
227.387	25.62
227.621	41.62
227.856	45.62
228.09	39.62
228.324	48.62
228.559	41.62
228.793	65.62
229.027	74.62
229.262	99.62
229.496	106.62
229.73	128.62
229.964	144.62
230.199	120.62
230.433	114.62
230.667	103.62
230.901	120.62
231.136	107.62
231.37	99.62
231.604	108.62
231.838	112.62
232.072	94.62
232.306	92.62
232.541	113.62
232.775	103.62
233.009	103.62
233.243	120.62
233.477	107.62
233.711	118.62
233.945	103.62
234.179	107.62
234.413	106.62
234.647	115.62
234.881	106.62
235.115	112.62
235.349	114.62
235.583	105.62
235.817	110.62
236.051	112.62
236.285	122.62
236.519	130.62
236.753	119.62
236.987	128.62
237.221	172.62
237.455	205.62
237.689	171.62
237.922	133.62
238.156	137.62
238.39	109.62
238.624	124.62
238.858	120.62
239.091	126.62
239.325	131.62
239.559	122.62
239.793	112.62
240.027	114.62
240.26	140.62
240.494	135.62
240.728	144.62
240.961	138.62
241.195	140.62
241.429	133.62
241.662	141.62
241.896	122.62
242.13	131.62
242.363	116.62
242.597	121.62
242.83	138.62
243.064	124.62
243.298	128.62
243.531	116.62
243.765	131.62
243.998	126.62
244.232	123.62
244.465	134.62
244.699	146.62
244.932	145.62
245.166	136.62
245.399	134.62
245.633	146.62
245.866	139.62
246.099	137.62
246.333	128.62
246.566	143.62
246.8	144.62
247.033	137.62
247.266	147.62
247.5	166.62
247.733	150.62
247.966	152.62
248.2	169.62
248.433	160.62
248.666	152.62
248.899	167.62
249.133	179.62
249.366	192.62
249.599	180.62
249.832	173.62
250.066	170.62
250.299	177.62
250.532	167.62
250.765	200.62
250.998	193.62
251.231	202.62
251.465	194.62
251.698	196.62
251.931	193.62
252.164	183.62
252.397	163.62
252.63	184.62
252.863	180.62
253.096	200.62
253.329	212.62
253.562	205.62
253.795	203.62
254.028	203.62
254.261	207.62
254.494	204.62
254.727	211.62
254.96	238.62
255.193	226.62
255.426	223.62
255.659	207.62
255.892	208.62
256.124	214.62
256.357	213.62
256.59	215.62
256.823	198.62
257.056	206.62
257.289	194.62
257.521	202.62
257.754	196.62
257.987	182.62
258.22	192.62
258.452	200.62
258.685	202.62
258.918	181.62
259.151	193.62
259.383	191.62
259.616	204.62
259.849	204.62
260.081	206.62
260.314	214.62
260.547	240.62
260.779	221.62
261.012	201.62
261.244	186.62
261.477	193.62
261.71	201.62
261.942	197.62
262.175	223.62
262.407	202.62
262.64	190.62
262.872	191.62
263.105	184.62
263.337	191.62
263.57	199.62
263.802	187.62
264.035	186.62
264.267	193.62
264.499	194.62
264.732	187.62
264.964	205.62
265.197	200.62
265.429	187.62
265.661	188.62
265.894	193.62
266.126	185.62
266.358	186.62
266.591	198.62
266.823	189.62
267.055	207.62
267.287	209.62
267.52	212.62
267.752	209.62
267.984	211.62
268.216	201.62
268.448	215.62
268.681	212.62
268.913	220.62
269.145	235.62
269.377	258.62
269.609	233.62
269.841	229.62
270.073	244.62
270.306	267.62
270.538	290.62
270.77	276.62
271.002	269.62
271.234	269.62
271.466	271.62
271.698	267.62
271.93	278.62
272.162	278.62
272.394	295.62
272.626	274.62
272.858	256.62
273.09	246.62
273.322	255.62
273.553	238.62
273.785	242.62
274.017	223.62
274.249	231.62
274.481	230.62
274.713	243.62
274.945	252.62
275.176	246.62
275.408	251.62
275.64	233.62
275.872	228.62
276.104	236.62
276.335	255.62
276.567	245.62
276.799	276.62
277.031	274.62
277.262	314.62
277.494	305.62
277.726	280.62
277.957	273.62
278.189	256.62
278.421	239.62
278.652	248.62
278.884	242.62
279.115	230.62
279.347	254.62
279.579	236.62
279.81	242.62
280.042	238.62
280.273	241.62
280.505	236.62
280.736	246.62
280.968	242.62
281.199	225.62
281.431	243.62
281.662	228.62
281.894	220.62
282.125	251.62
282.356	263.62
282.588	266.62
282.819	273.62
283.051	255.62
283.282	254.62
283.513	252.62
283.745	248.62
283.976	235.62
284.207	254.62
284.439	227.62
284.67	250.62
284.901	239.62
285.132	235.62
285.364	241.62
285.595	261.62
285.826	243.62
286.057	289.62
286.288	245.62
286.52	263.62
286.751	258.62
286.982	257.62
287.213	241.62
287.444	245.62
287.675	268.62
287.906	270.62
288.138	283.62
288.369	265.62
288.6	276.62
288.831	280.62
289.062	247.62
289.293	265.62
289.524	288.62
289.755	253.62
289.986	251.62
290.217	246.62
290.448	262.62
290.679	266.62
290.91	258.62
291.141	259.62
291.371	246.62
291.602	250.62
291.833	257.62
292.064	269.62
292.295	248.62
292.526	255.62
292.757	267.62
292.987	246.62
293.218	279.62
293.449	264.62
293.68	269.62
293.91	255.62
294.141	256.62
294.372	267.62
294.603	244.62
294.833	267.62
295.064	274.62
295.295	251.62
295.525	258.62
295.756	292.62
295.987	265.62
296.217	324.62
296.448	317.62
296.679	267.62
296.909	250.62
297.14	266.62
297.37	274.62
297.601	296.62
297.831	264.62
298.062	266.62
298.292	274.62
298.523	260.62
298.753	276.62
298.984	273.62
299.214	283.62
299.445	281.62
299.675	270.62
299.905	275.62
300.136	265.62
300.366	268.62
300.597	282.62
300.827	297.62
301.057	263.62
301.288	297.62
301.518	298.62
301.748	290.62
301.979	283.62
302.209	279.62
302.439	323.62
302.669	311.62
302.9	289.62
303.13	295.62
303.36	298.62
303.59	305.62
303.82	302.62
304.051	320.62
304.281	293.62
304.511	299.62
304.741	297.62
304.971	291.62
305.201	272.62
305.431	297.62
305.661	288.62
305.891	295.62
306.121	287.62
306.352	292.62
306.582	295.62
306.812	312.62
307.042	323.62
307.272	298.62
307.502	303.62
307.731	305.62
307.961	295.62
308.191	290.62
308.421	312.62
308.651	302.62
308.881	303.62
309.111	303.62
309.341	303.62
309.571	318.62
309.8	329.62
310.03	335.62
310.26	335.62
310.49	341.62
310.72	339.62
310.949	367.62
311.179	361.62
311.409	337.62
311.639	336.62
311.868	334.62
312.098	351.62
312.328	344.62
312.557	343.62
312.787	368.62
313.017	370.62
313.246	353.62
313.476	330.62
313.706	338.62
313.935	338.62
314.165	361.62
314.394	383.62
314.624	363.62
314.853	345.62
315.083	350.62
315.312	334.62
315.542	340.62
315.771	319.62
316.001	318.62
316.23	336.62
316.46	345.62
316.689	341.62
316.919	344.62
317.148	345.62
317.377	363.62
317.607	355.62
317.836	340.62
318.065	333.62
318.295	331.62
318.524	347.62
318.753	338.62
318.983	332.62
319.212	346.62
319.441	348.62
319.67	351.62
319.9	375.62
320.129	352.62
320.358	348.62
320.587	360.62
320.816	358.62
321.046	362.62
321.275	372.62
321.504	372.62
321.733	351.62
321.962	378.62
322.191	388.62
322.42	402.62
322.649	423.62
322.878	430.62
323.108	416.62
323.337	460.62
323.566	461.62
323.795	515.62
324.024	559.62
324.253	687.62
324.482	1007.62
324.71	1518.62
324.939	2014.62
325.168	1689.62
325.397	929.62
325.626	630.62
325.855	515.62
326.084	484.62
326.313	478.62
326.542	476.62
326.77	516.62
326.999	646.62
327.228	879.62
327.457	1315.62
327.686	1511.62
327.914	1012.62
328.143	700.62
328.372	610.62
328.6	544.62
328.829	544.62
329.058	556.62
329.287	563.62
329.515	514.62
329.744	472.62
329.972	484.62
330.201	492.62
330.43	534.62
330.658	592.62
330.887	592.62
331.115	544.62
331.344	487.62
331.572	449.62
331.801	443.62
332.03	461.62
332.258	422.62
332.486	402.62
332.715	395.62
332.943	412.62
333.172	411.62
333.4	425.62
333.629	408.62
333.857	427.62
334.085	422.62
334.314	460.62
334.542	484.62
334.771	496.62
334.999	466.62
335.227	434.62
335.455	420.62
335.684	410.62
335.912	384.62
336.14	376.62
336.369	399.62
336.597	414.62
336.825	404.62
337.053	402.62
337.281	391.62
337.51	386.62
337.738	382.62
337.966	374.62
338.194	387.62
338.422	405.62
338.65	412.62
338.878	393.62
339.106	382.62
339.334	376.62
339.562	384.62
339.79	388.62
340.018	370.62
340.246	370.62
340.474	381.62
340.702	406.62
340.93	378.62
341.158	370.62
341.386	373.62
341.614	393.62
341.842	382.62
342.07	395.62
342.298	380.62
342.526	364.62
342.754	363.62
342.981	371.62
343.209	370.62
343.437	364.62
343.665	380.62
343.893	381.62
344.12	386.62
344.348	392.62
344.576	400.62
344.804	386.62
345.031	406.62
345.259	402.62
345.487	403.62
345.714	394.62
345.942	362.62
346.17	384.62
346.397	361.62
346.625	370.62
346.853	382.62
347.08	389.62
347.308	391.62
347.535	373.62
347.763	372.62
347.99	373.62
348.218	396.62
348.445	381.62
348.673	410.62
348.9	378.62
349.128	369.62
349.355	351.62
349.583	376.62
349.81	376.62
350.037	379.62
350.265	360.62
350.492	372.62
350.72	349.62
350.947	342.62
351.174	384.62
351.402	384.62
351.629	384.62
351.856	393.62
352.083	387.62
352.311	389.62
352.538	394.62
352.765	401.62
352.992	386.62
353.22	377.62
353.447	380.62
353.674	364.62
353.901	350.62
354.128	345.62
354.355	344.62
354.583	337.62
354.81	351.62
355.037	353.62
355.264	350.62
355.491	336.62
355.718	375.62
355.945	340.62
356.172	330.62
356.399	334.62
356.626	332.62
356.853	342.62
357.08	356.62
357.307	344.62
357.534	342.62
357.761	345.62
357.988	323.62
358.215	346.62
358.441	354.62
358.668	341.62
358.895	351.62
359.122	354.62
359.349	369.62
359.576	370.62
359.802	396.62
360.029	423.62
360.256	434.62
360.483	404.62
360.709	372.62
360.936	361.62
361.163	363.62
361.39	362.62
361.616	372.62
361.843	363.62
362.07	384.62
362.296	365.62
362.523	373.62
362.749	389.62
362.976	372.62
363.203	363.62
363.429	348.62
363.656	370.62
363.882	374.62
364.109	356.62
364.335	363.62
364.562	343.62
364.788	355.62
365.015	330.62
365.241	363.62
365.468	335.62
365.694	350.62
365.92	368.62
366.147	368.62
366.373	344.62
366.599	353.62
366.826	351.62
367.052	344.62
367.278	342.62
367.505	355.62
367.731	357.62
367.957	371.62
368.184	348.62
368.41	352.62
368.636	378.62
368.862	348.62
369.089	371.62
369.315	366.62
369.541	353.62
369.767	369.62
369.993	334.62
370.219	344.62
370.445	351.62
370.672	358.62
370.898	337.62
371.124	316.62
371.35	331.62
371.576	344.62
371.802	331.62
372.028	331.62
372.254	346.62
372.48	336.62
372.706	359.62
372.932	332.62
373.158	348.62
373.384	357.62
373.61	350.62
373.835	352.62
374.061	352.62
374.287	355.62
374.513	352.62
374.739	374.62
374.965	351.62
375.191	358.62
375.416	358.62
375.642	343.62
375.868	352.62
376.094	360.62
376.319	344.62
376.545	335.62
376.771	353.62
376.997	330.62
377.222	348.62
377.448	350.62
377.674	342.62
377.899	326.62
378.125	329.62
378.35	316.62
378.576	317.62
378.802	331.62
379.027	318.62
379.253	347.62
379.478	341.62
379.704	339.62
379.929	339.62
380.155	360.62
380.38	352.62
380.606	332.62
380.831	357.62
381.057	358.62
381.282	350.62
381.507	348.62
381.733	346.62
381.958	364.62
382.184	342.62
382.409	347.62
382.634	350.62
382.86	342.62
383.085	368.62
383.31	358.62
383.535	336.62
383.761	357.62
383.986	362.62
384.211	348.62
384.436	352.62
384.662	366.62
384.887	358.62
385.112	362.62
385.337	359.62
385.562	361.62
385.787	364.62
386.013	383.62
386.238	350.62
386.463	376.62
386.688	357.62
386.913	366.62
387.138	355.62
387.363	361.62
387.588	374.62
387.813	363.62
388.038	370.62
388.263	347.62
388.488	339.62
388.713	366.62
388.938	360.62
389.163	363.62
389.387	381.62
389.612	362.62
389.837	390.62
390.062	370.62
390.287	368.62
390.512	361.62
390.736	359.62
390.961	337.62
391.186	352.62
391.411	340.62
391.636	349.62
391.86	358.62
392.085	374.62
392.31	371.62
392.534	367.62
392.759	372.62
392.984	382.62
393.208	367.62
393.433	379.62
393.658	360.62
393.882	367.62
394.107	354.62
394.331	378.62
394.556	376.62
394.78	366.62
395.005	369.62
395.229	370.62
395.454	392.62
395.678	402.62
395.903	384.62
396.127	402.62
396.352	391.62
396.576	382.62
396.801	376.62
397.025	370.62
397.249	384.62
397.474	395.62
397.698	389.62
397.922	417.62
398.147	414.62
398.371	419.62
398.595	411.62
398.82	410.62
399.044	414.62
399.268	417.62
399.492	441.62
399.717	454.62
399.941	488.62
400.165	512.62
400.389	510.62
400.613	447.62
400.837	424.62
401.062	425.62
401.286	431.62
401.51	426.62
401.734	395.62
401.958	428.62
402.182	420.62
402.406	435.62
402.63	419.62
402.854	432.62
403.078	454.62
403.302	431.62
403.526	439.62
403.75	437.62
403.974	442.62
404.198	425.62
404.422	420.62
404.645	415.62
404.869	436.62
405.093	453.62
405.317	498.62
405.541	508.62
405.765	482.62
405.988	464.62
406.212	474.62
406.436	486.62
406.66	489.62
406.883	476.62
407.107	479.62
407.331	506.62
407.555	562.62
407.778	547.62
408.002	521.62
408.226	482.62
408.449	462.62
408.673	462.62
408.896	487.62
409.12	519.62
409.344	502.62
409.567	450.62
409.791	432.62
410.014	423.62
410.238	436.62
410.461	458.62
410.685	423.62
410.908	471.62
411.132	473.62
411.355	494.62
411.578	487.62
411.802	431.62
412.025	435.62
412.249	415.62
412.472	449.62
412.695	478.62
412.919	454.62
413.142	452.62
413.365	446.62
413.589	425.62
413.812	416.62
414.035	416.62
414.258	406.62
414.482	389.62
414.705	406.62
414.928	407.62
415.151	408.62
415.374	410.62
415.597	388.62
415.821	402.62
416.044	401.62
416.267	418.62
416.49	410.62
416.713	401.62
416.936	414.62
417.159	421.62
417.382	417.62
417.605	415.62
417.828	419.62
418.051	417.62
418.274	426.62
418.497	417.62
418.72	406.62
418.943	394.62
419.166	423.62
419.389	420.62
419.611	434.62
419.834	434.62
420.057	443.62
420.28	435.62
420.503	419.62
420.726	431.62
420.948	430.62
421.171	457.62
421.394	481.62
421.617	440.62
421.839	451.62
422.062	435.62
422.285	449.62
422.507	472.62
422.73	555.62
422.953	512.62
423.175	458.62
423.398	421.62
423.621	438.62
423.843	458.62
424.066	467.62
424.288	438.62
424.511	472.62
424.733	521.62
424.956	560.62
425.178	544.62
425.401	543.62
425.623	552.62
425.846	503.62
426.068	464.62
426.291	474.62
426.513	479.62
426.735	466.62
426.958	517.62
427.18	562.62
427.402	656.62
427.625	731.62
427.847	645.62
428.069	582.62
428.292	517.62
428.514	485.62
428.736	446.62
428.958	458.62
429.181	426.62
429.403	422.62
429.625	433.62
429.847	473.62
430.069	520.62
430.292	516.62
430.514	451.62
430.736	445.62
430.958	406.62
431.18	417.62
431.402	408.62
431.624	391.62
431.846	402.62
432.068	401.62
432.29	410.62
432.512	412.62
432.734	406.62
432.956	406.62
433.178	391.62
433.4	404.62
433.622	396.62
433.844	410.62
434.066	395.62
434.287	384.62
434.509	410.62
434.731	427.62
434.953	426.62
435.175	424.62
435.397	458.62
435.618	458.62
435.84	507.62
436.062	563.62
436.284	599.62
436.505	539.62
436.727	478.62
436.949	462.62
437.17	440.62
437.392	434.62
437.614	446.62
437.835	461.62
438.057	556.62
438.278	626.62
438.5	617.62
438.721	669.62
438.943	636.62
439.165	522.62
439.386	516.62
439.608	484.62
439.829	470.62
440.05	528.62
440.272	529.62
440.493	506.62
440.715	443.62
440.936	458.62
441.158	447.62
441.379	440.62
441.6	455.62
441.822	450.62
442.043	502.62
442.264	555.62
442.486	603.62
442.707	516.62
442.928	472.62
443.149	481.62
443.371	489.62
443.592	537.62
443.813	595.62
444.034	641.62
444.255	556.62
444.476	472.62
444.698	464.62
444.919	455.62
445.14	595.62
445.361	533.62
445.582	506.62
445.803	547.62
446.024	629.62
446.245	650.62
446.466	576.62
446.687	509.62
446.908	446.62
447.129	446.62
447.35	410.62
447.571	423.62
447.792	417.62
448.013	430.62
448.234	454.62
448.455	521.62
448.675	574.62
448.896	663.62
449.117	558.62
449.338	546.62
449.559	631.62
449.779	676.62
450	572.62
450.221	466.62
450.442	430.62
450.662	403.62
450.883	434.62
451.104	442.62
451.324	444.62
451.545	402.62
451.766	400.62
451.986	396.62
452.207	366.62
452.428	380.62
452.648	379.62
452.869	382.62
453.089	398.62
453.31	413.62
453.53	386.62
453.751	380.62
453.971	403.62
454.192	414.62
454.412	402.62
454.633	387.62
454.853	388.62
455.073	396.62
455.294	418.62
455.514	460.62
455.734	451.62
455.955	392.62
456.175	359.62
456.395	353.62
456.616	374.62
456.836	359.62
457.056	345.62
457.276	343.62
457.497	356.62
457.717	350.62
457.937	369.62
458.157	388.62
458.377	392.62
458.598	398.62
458.818	453.62
459.038	530.62
459.258	514.62
459.478	455.62
459.698	424.62
459.918	395.62
460.138	412.62
460.358	404.62
460.578	426.62
460.798	398.62
461.018	397.62
461.238	396.62
461.458	388.62
461.678	390.62
461.898	414.62
462.118	390.62
462.338	385.62
462.558	402.62
462.777	410.62
462.997	447.62
463.217	422.62
463.437	460.62
463.657	439.62
463.876	429.62
464.096	424.62
464.316	430.62
464.536	452.62
464.755	425.62
464.975	444.62
465.195	489.62
465.414	569.62
465.634	475.62
465.854	432.62
466.073	411.62
466.293	419.62
466.512	419.62
466.732	415.62
466.951	408.62
467.171	383.62
467.391	391.62
467.61	400.62
467.829	426.62
468.049	412.62
468.268	413.62
468.488	402.62
468.707	380.62
468.927	390.62
469.146	404.62
469.365	404.62
469.585	388.62
469.804	402.62
470.023	401.62
470.243	415.62
470.462	390.62
470.681	408.62
470.901	408.62
471.12	400.62
471.339	399.62
471.558	386.62
471.777	394.62
471.997	386.62
472.216	390.62
472.435	441.62
472.654	427.62
472.873	410.62
473.092	416.62
473.311	424.62
473.53	392.62
473.749	438.62
473.968	432.62
474.187	538.62
474.406	537.62
474.625	439.62
474.844	424.62
475.063	408.62
475.282	416.62
475.501	407.62
475.72	405.62
475.939	410.62
476.158	418.62
476.377	407.62
476.596	428.62
476.814	446.62
477.033	414.62
477.252	413.62
477.471	428.62
477.69	434.62
477.908	424.62
478.127	415.62
478.346	450.62
478.564	431.62
478.783	435.62
479.002	447.62
479.22	482.62
479.439	473.62
479.658	464.62
479.876	506.62
480.095	487.62
480.313	508.62
480.532	502.62
480.751	476.62
480.969	494.62
481.188	538.62
481.406	590.62
481.624	508.62
481.843	464.62
482.061	472.62
482.28	476.62
482.498	442.62
482.717	473.62
482.935	457.62
483.153	481.62
483.372	467.62
483.59	480.62
483.808	469.62
484.027	479.62
484.245	453.62
484.463	470.62
484.681	475.62
484.9	495.62
485.118	489.62
485.336	460.62
485.554	490.62
485.772	481.62
485.99	479.62
486.209	507.62
486.427	496.62
486.645	478.62
486.863	501.62
487.081	518.62
487.299	514.62
487.517	514.62
487.735	495.62
487.953	502.62
488.171	509.62
488.389	499.62
488.607	524.62
488.825	507.62
489.043	487.62
489.261	532.62
489.479	496.62
489.696	547.62
489.914	525.62
490.132	525.62
490.35	522.62
490.568	529.62
490.786	525.62
491.003	543.62
491.221	567.62
491.439	588.62
491.657	570.62
491.874	599.62
492.092	590.62
492.31	594.62
492.527	574.62
492.745	579.62
492.963	571.62
493.18	584.62
493.398	578.62
493.615	626.62
493.833	612.62
494.05	598.62
494.268	600.62
494.485	596.62
494.703	591.62
494.92	574.62
495.138	590.62
495.355	593.62
495.573	605.62
495.79	594.62
496.008	607.62
496.225	586.62
496.442	614.62
496.66	600.62
496.877	603.62
497.094	598.62
497.312	618.62
497.529	614.62
497.746	633.62
497.963	640.62
498.181	667.62
498.398	649.62
498.615	659.62
498.832	646.62
499.049	672.62
499.267	676.62
499.484	698.62
499.701	727.62
499.918	707.62
500.135	747.62
500.352	799.62
500.569	786.62
500.786	789.62
501.003	771.62
501.22	750.62
501.437	735.62
501.654	748.62
501.871	737.62
