Data from 1983.PennyLincolnUp.Lamp.En5.5.200Scan.071819.P1_HRD10591_16-52-37-964.txt Node
Date: Thu Jul 18 16:52:37 EDT 2019
User: cochatt
Spectrometer: HR+D1059
Trigger mode: 1
Integration Time (sec): 1.000000E-1
Scans to average: 1
Electric dark correction enabled: true
Nonlinearity correction enabled: false
Boxcar width: 0
XAxis mode: Wavelengths
Number of Pixels in Spectrum: 2048
>>>>>Begin Spectral Data<<<<<
223.165	-19.44
223.4	-19.44
223.635	-19.44
223.869	-19.44
224.104	-25.44
224.338	-10.44
224.573	-5.44
224.808	-3.44
225.042	-3.44
225.277	-12.44
225.511	-13.44
225.746	10.56
225.98	14.56
226.215	11.56
226.449	19.56
226.683	17.56
226.918	14.56
227.152	24.56
227.387	40.56
227.621	35.56
227.856	41.56
228.09	44.56
228.324	69.56
228.559	54.56
228.793	68.56
229.027	96.56
229.262	95.56
229.496	107.56
229.73	123.56
229.964	138.56
230.199	115.56
230.433	90.56
230.667	104.56
230.901	98.56
231.136	111.56
231.37	99.56
231.604	111.56
231.838	109.56
232.072	103.56
232.306	112.56
232.541	118.56
232.775	108.56
233.009	102.56
233.243	109.56
233.477	116.56
233.711	94.56
233.945	116.56
234.179	121.56
234.413	116.56
234.647	115.56
234.881	130.56
235.115	109.56
235.349	116.56
235.583	122.56
235.817	108.56
236.051	121.56
236.285	116.56
236.519	114.56
236.753	123.56
236.987	141.56
237.221	164.56
237.455	203.56
237.689	182.56
237.922	138.56
238.156	120.56
238.39	121.56
238.624	112.56
238.858	110.56
239.091	122.56
239.325	140.56
239.559	126.56
239.793	114.56
240.027	135.56
240.26	130.56
240.494	137.56
240.728	126.56
240.961	139.56
241.195	132.56
241.429	126.56
241.662	126.56
241.896	130.56
242.13	140.56
242.363	113.56
242.597	118.56
242.83	128.56
243.064	131.56
243.298	132.56
243.531	134.56
243.765	134.56
243.998	123.56
244.232	128.56
244.465	138.56
244.699	122.56
244.932	140.56
245.166	135.56
245.399	119.56
245.633	132.56
245.866	139.56
246.099	139.56
246.333	134.56
246.566	140.56
246.8	141.56
247.033	142.56
247.266	140.56
247.5	144.56
247.733	149.56
247.966	164.56
248.2	139.56
248.433	158.56
248.666	155.56
248.899	163.56
249.133	164.56
249.366	168.56
249.599	200.56
249.832	162.56
250.066	143.56
250.299	160.56
250.532	154.56
250.765	164.56
250.998	196.56
251.231	205.56
251.465	188.56
251.698	167.56
251.931	171.56
252.164	183.56
252.397	184.56
252.63	182.56
252.863	173.56
253.096	202.56
253.329	183.56
253.562	199.56
253.795	195.56
254.028	209.56
254.261	194.56
254.494	208.56
254.727	235.56
254.96	228.56
255.193	236.56
255.426	230.56
255.659	211.56
255.892	188.56
256.124	196.56
256.357	182.56
256.59	189.56
256.823	186.56
257.056	191.56
257.289	182.56
257.521	185.56
257.754	175.56
257.987	203.56
258.22	170.56
258.452	180.56
258.685	184.56
258.918	176.56
259.151	194.56
259.383	184.56
259.616	191.56
259.849	212.56
260.081	195.56
260.314	221.56
260.547	243.56
260.779	215.56
261.012	204.56
261.244	196.56
261.477	200.56
261.71	196.56
261.942	206.56
262.175	186.56
262.407	207.56
262.64	208.56
262.872	182.56
263.105	193.56
263.337	186.56
263.57	180.56
263.802	184.56
264.035	196.56
264.267	195.56
264.499	180.56
264.732	191.56
264.964	189.56
265.197	186.56
265.429	188.56
265.661	199.56
265.894	194.56
266.126	189.56
266.358	203.56
266.591	199.56
266.823	196.56
267.055	189.56
267.287	202.56
267.52	200.56
267.752	212.56
267.984	201.56
268.216	206.56
268.448	202.56
268.681	192.56
268.913	213.56
269.145	235.56
269.377	240.56
269.609	248.56
269.841	226.56
270.073	215.56
270.306	256.56
270.538	271.56
270.77	269.56
271.002	246.56
271.234	259.56
271.466	259.56
271.698	267.56
271.93	259.56
272.162	249.56
272.394	281.56
272.626	241.56
272.858	260.56
273.09	245.56
273.322	222.56
273.553	229.56
273.785	228.56
274.017	233.56
274.249	236.56
274.481	256.56
274.713	222.56
274.945	241.56
275.176	237.56
275.408	240.56
275.64	226.56
275.872	237.56
276.104	233.56
276.335	226.56
276.567	226.56
276.799	267.56
277.031	263.56
277.262	290.56
277.494	281.56
277.726	279.56
277.957	253.56
278.189	245.56
278.421	255.56
278.652	248.56
278.884	229.56
279.115	242.56
279.347	227.56
279.579	243.56
279.81	232.56
280.042	244.56
280.273	220.56
280.505	234.56
280.736	225.56
280.968	222.56
281.199	229.56
281.431	243.56
281.662	223.56
281.894	227.56
282.125	252.56
282.356	238.56
282.588	255.56
282.819	255.56
283.051	244.56
283.282	226.56
283.513	242.56
283.745	234.56
283.976	239.56
284.207	247.56
284.439	245.56
284.67	254.56
284.901	236.56
285.132	235.56
285.364	246.56
285.595	231.56
285.826	244.56
286.057	246.56
286.288	248.56
286.52	239.56
286.751	243.56
286.982	245.56
287.213	244.56
287.444	249.56
287.675	260.56
287.906	236.56
288.138	248.56
288.369	248.56
288.6	255.56
288.831	269.56
289.062	250.56
289.293	242.56
289.524	259.56
289.755	248.56
289.986	258.56
290.217	258.56
290.448	236.56
290.679	265.56
290.91	266.56
291.141	235.56
291.371	240.56
291.602	271.56
291.833	254.56
292.064	237.56
292.295	250.56
292.526	258.56
292.757	256.56
292.987	248.56
293.218	242.56
293.449	264.56
293.68	254.56
293.91	247.56
294.141	262.56
294.372	263.56
294.603	261.56
294.833	245.56
295.064	247.56
295.295	266.56
295.525	262.56
295.756	252.56
295.987	276.56
296.217	286.56
296.448	303.56
296.679	253.56
296.909	271.56
297.14	260.56
297.37	252.56
297.601	253.56
297.831	243.56
298.062	269.56
298.292	270.56
298.523	243.56
298.753	275.56
298.984	268.56
299.214	264.56
299.445	266.56
299.675	271.56
299.905	261.56
300.136	271.56
300.366	264.56
300.597	260.56
300.827	281.56
301.057	268.56
301.288	289.56
301.518	275.56
301.748	270.56
301.979	280.56
302.209	275.56
302.439	278.56
302.669	294.56
302.9	304.56
303.13	280.56
303.36	290.56
303.59	289.56
303.82	293.56
304.051	285.56
304.281	279.56
304.511	285.56
304.741	287.56
304.971	270.56
305.201	270.56
305.431	290.56
305.661	284.56
305.891	284.56
306.121	267.56
306.352	286.56
306.582	299.56
306.812	277.56
307.042	292.56
307.272	293.56
307.502	291.56
307.731	280.56
307.961	280.56
308.191	288.56
308.421	294.56
308.651	289.56
308.881	282.56
309.111	312.56
309.341	295.56
309.571	308.56
309.8	302.56
310.03	335.56
310.26	332.56
310.49	312.56
310.72	327.56
310.949	336.56
311.179	345.56
311.409	331.56
311.639	315.56
311.868	319.56
312.098	358.56
312.328	338.56
312.557	346.56
312.787	365.56
313.017	339.56
313.246	339.56
313.476	326.56
313.706	340.56
313.935	324.56
314.165	338.56
314.394	332.56
314.624	359.56
314.853	359.56
315.083	335.56
315.312	321.56
315.542	339.56
315.771	311.56
316.001	330.56
316.23	330.56
316.46	340.56
316.689	323.56
316.919	327.56
317.148	331.56
317.377	340.56
317.607	340.56
317.836	343.56
318.065	326.56
318.295	332.56
318.524	337.56
318.753	318.56
318.983	335.56
319.212	326.56
319.441	319.56
319.67	342.56
319.9	327.56
320.129	318.56
320.358	330.56
320.587	327.56
320.816	339.56
321.046	352.56
321.275	329.56
321.504	336.56
321.733	347.56
321.962	338.56
322.191	366.56
322.42	359.56
322.649	386.56
322.878	390.56
323.108	385.56
323.337	409.56
323.566	416.56
323.795	445.56
324.024	498.56
324.253	589.56
324.482	818.56
324.71	1277.56
324.939	1704.56
325.168	1407.56
325.397	774.56
325.626	529.56
325.855	443.56
326.084	415.56
326.313	419.56
326.542	442.56
326.77	452.56
326.999	557.56
327.228	772.56
327.457	1121.56
327.686	1213.56
327.914	861.56
328.143	582.56
328.372	526.56
328.6	504.56
328.829	459.56
329.058	485.56
329.287	492.56
329.515	452.56
329.744	424.56
329.972	416.56
330.201	424.56
330.43	444.56
330.658	456.56
330.887	521.56
331.115	514.56
331.344	442.56
331.572	423.56
331.801	411.56
332.03	417.56
332.258	400.56
332.486	408.56
332.715	388.56
332.943	382.56
333.172	373.56
333.4	382.56
333.629	384.56
333.857	390.56
334.085	390.56
334.314	373.56
334.542	410.56
334.771	401.56
334.999	386.56
335.227	395.56
335.455	382.56
335.684	390.56
335.912	383.56
336.14	374.56
336.369	380.56
336.597	400.56
336.825	387.56
337.053	377.56
337.281	380.56
337.51	364.56
337.738	393.56
337.966	370.56
338.194	374.56
338.422	395.56
338.65	387.56
338.878	385.56
339.106	355.56
339.334	374.56
339.562	348.56
339.79	365.56
340.018	365.56
340.246	363.56
340.474	375.56
340.702	365.56
340.93	348.56
341.158	370.56
341.386	363.56
341.614	376.56
341.842	368.56
342.07	367.56
342.298	378.56
342.526	365.56
342.754	356.56
342.981	344.56
343.209	326.56
343.437	345.56
343.665	367.56
343.893	386.56
344.12	377.56
344.348	366.56
344.576	386.56
344.804	380.56
345.031	378.56
345.259	395.56
345.487	395.56
345.714	348.56
345.942	342.56
346.17	361.56
346.397	358.56
346.625	352.56
346.853	341.56
347.08	374.56
347.308	378.56
347.535	366.56
347.763	380.56
347.99	359.56
348.218	367.56
348.445	355.56
348.673	370.56
348.9	356.56
349.128	354.56
349.355	352.56
349.583	365.56
349.81	342.56
350.037	362.56
350.265	340.56
350.492	359.56
350.72	356.56
350.947	359.56
351.174	358.56
351.402	366.56
351.629	367.56
351.856	363.56
352.083	370.56
352.311	382.56
352.538	362.56
352.765	350.56
352.992	349.56
353.22	364.56
353.447	331.56
353.674	348.56
353.901	328.56
354.128	328.56
354.355	343.56
354.583	338.56
354.81	335.56
355.037	341.56
355.264	344.56
355.491	322.56
355.718	312.56
355.945	334.56
356.172	338.56
356.399	336.56
356.626	331.56
356.853	326.56
357.08	322.56
357.307	352.56
357.534	327.56
357.761	324.56
357.988	330.56
358.215	340.56
358.441	339.56
358.668	337.56
358.895	329.56
359.122	348.56
359.349	343.56
359.576	359.56
359.802	367.56
360.029	379.56
360.256	394.56
360.483	381.56
360.709	350.56
360.936	362.56
361.163	365.56
361.39	362.56
361.616	349.56
361.843	375.56
362.07	350.56
362.296	360.56
362.523	360.56
362.749	358.56
362.976	367.56
363.203	340.56
363.429	354.56
363.656	356.56
363.882	340.56
364.109	343.56
364.335	344.56
364.562	335.56
364.788	333.56
365.015	341.56
365.241	352.56
365.468	336.56
365.694	350.56
365.92	340.56
366.147	348.56
366.373	346.56
366.599	341.56
366.826	333.56
367.052	319.56
367.278	351.56
367.505	325.56
367.731	326.56
367.957	343.56
368.184	312.56
368.41	349.56
368.636	350.56
368.862	359.56
369.089	362.56
369.315	351.56
369.541	346.56
369.767	341.56
369.993	336.56
370.219	361.56
370.445	349.56
370.672	329.56
370.898	311.56
371.124	335.56
371.35	367.56
371.576	332.56
371.802	322.56
372.028	333.56
372.254	348.56
372.48	354.56
372.706	342.56
372.932	351.56
373.158	344.56
373.384	343.56
373.61	339.56
373.835	346.56
374.061	330.56
374.287	362.56
374.513	347.56
374.739	333.56
374.965	348.56
375.191	332.56
375.416	333.56
375.642	327.56
375.868	342.56
376.094	322.56
376.319	343.56
376.545	334.56
376.771	335.56
376.997	342.56
377.222	340.56
377.448	352.56
377.674	326.56
377.899	332.56
378.125	341.56
378.35	344.56
378.576	345.56
378.802	341.56
379.027	331.56
379.253	356.56
379.478	326.56
379.704	327.56
379.929	324.56
380.155	359.56
380.38	344.56
380.606	347.56
380.831	334.56
381.057	346.56
381.282	326.56
381.507	343.56
381.733	339.56
381.958	326.56
382.184	342.56
382.409	332.56
382.634	336.56
382.86	346.56
383.085	359.56
383.31	335.56
383.535	338.56
383.761	354.56
383.986	357.56
384.211	341.56
384.436	353.56
384.662	342.56
384.887	367.56
385.112	362.56
385.337	351.56
385.562	374.56
385.787	374.56
386.013	403.56
386.238	390.56
386.463	350.56
386.688	344.56
386.913	346.56
387.138	336.56
387.363	372.56
387.588	348.56
387.813	372.56
388.038	374.56
388.263	348.56
388.488	365.56
388.713	341.56
388.938	352.56
389.163	356.56
389.387	385.56
389.612	359.56
389.837	356.56
390.062	347.56
390.287	357.56
390.512	354.56
390.736	366.56
390.961	348.56
391.186	355.56
391.411	364.56
391.636	364.56
391.86	377.56
392.085	358.56
392.31	363.56
392.534	348.56
392.759	371.56
392.984	372.56
393.208	374.56
393.433	370.56
393.658	355.56
393.882	350.56
394.107	381.56
394.331	364.56
394.556	363.56
394.78	346.56
395.005	375.56
395.229	374.56
395.454	372.56
395.678	370.56
395.903	394.56
396.127	401.56
396.352	385.56
396.576	383.56
396.801	375.56
397.025	382.56
397.249	356.56
397.474	384.56
397.698	390.56
397.922	396.56
398.147	392.56
398.371	422.56
398.595	395.56
398.82	407.56
399.044	416.56
399.268	400.56
399.492	443.56
399.717	446.56
399.941	476.56
400.165	506.56
400.389	488.56
400.613	452.56
400.837	423.56
401.062	427.56
401.286	415.56
401.51	405.56
401.734	401.56
401.958	420.56
402.182	406.56
402.406	404.56
402.63	410.56
402.854	416.56
403.078	424.56
403.302	423.56
403.526	425.56
403.75	438.56
403.974	437.56
404.198	429.56
404.422	420.56
404.645	416.56
404.869	435.56
405.093	442.56
405.317	463.56
405.541	477.56
405.765	445.56
405.988	429.56
406.212	451.56
406.436	463.56
406.66	486.56
406.883	458.56
407.107	479.56
407.331	505.56
407.555	548.56
407.778	530.56
408.002	517.56
408.226	480.56
408.449	468.56
408.673	464.56
408.896	457.56
409.12	494.56
409.344	483.56
409.567	434.56
409.791	439.56
410.014	415.56
410.238	435.56
410.461	427.56
410.685	432.56
410.908	444.56
411.132	472.56
411.355	496.56
411.578	463.56
411.802	443.56
412.025	414.56
412.249	415.56
412.472	414.56
412.695	417.56
412.919	415.56
413.142	395.56
413.365	400.56
413.589	391.56
413.812	410.56
414.035	399.56
414.258	403.56
414.482	380.56
414.705	393.56
414.928	391.56
415.151	401.56
415.374	415.56
415.597	395.56
415.821	399.56
416.044	407.56
416.267	400.56
416.49	387.56
416.713	381.56
416.936	388.56
417.159	400.56
417.382	407.56
417.605	412.56
417.828	422.56
418.051	402.56
418.274	390.56
418.497	403.56
418.72	409.56
418.943	402.56
419.166	423.56
419.389	419.56
419.611	403.56
419.834	418.56
420.057	422.56
420.28	396.56
420.503	410.56
420.726	406.56
420.948	425.56
421.171	449.56
421.394	475.56
421.617	450.56
421.839	414.56
422.062	415.56
422.285	434.56
422.507	474.56
422.73	503.56
422.953	502.56
423.175	453.56
423.398	452.56
423.621	452.56
423.843	463.56
424.066	471.56
424.288	462.56
424.511	469.56
424.733	477.56
424.956	538.56
425.178	526.56
425.401	517.56
425.623	562.56
425.846	453.56
426.068	453.56
426.291	435.56
426.513	434.56
426.735	455.56
426.958	480.56
427.18	529.56
427.402	616.56
427.625	692.56
427.847	607.56
428.069	524.56
428.292	465.56
428.514	449.56
428.736	421.56
428.958	423.56
429.181	410.56
429.403	408.56
429.625	414.56
429.847	463.56
430.069	516.56
430.292	502.56
430.514	434.56
430.736	407.56
430.958	386.56
431.18	398.56
431.402	396.56
431.624	379.56
431.846	372.56
432.068	404.56
432.29	375.56
432.512	410.56
432.734	404.56
432.956	401.56
433.178	413.56
433.4	411.56
433.622	396.56
433.844	408.56
434.066	375.56
434.287	406.56
434.509	407.56
434.731	396.56
434.953	408.56
435.175	423.56
435.397	421.56
435.618	458.56
435.84	463.56
436.062	559.56
436.284	607.56
436.505	486.56
436.727	452.56
436.949	419.56
437.17	413.56
437.392	402.56
437.614	440.56
437.835	480.56
438.057	525.56
438.278	618.56
438.5	602.56
438.721	624.56
438.943	620.56
439.165	506.56
439.386	470.56
439.608	445.56
439.829	473.56
440.05	469.56
440.272	508.56
440.493	495.56
440.715	447.56
440.936	445.56
441.158	409.56
441.379	411.56
441.6	422.56
441.822	436.56
442.043	468.56
442.264	553.56
442.486	586.56
442.707	486.56
442.928	466.56
443.149	476.56
443.371	481.56
443.592	491.56
443.813	579.56
444.034	614.56
444.255	515.56
444.476	472.56
444.698	439.56
444.919	449.56
445.14	564.56
445.361	518.56
445.582	490.56
445.803	540.56
446.024	620.56
446.245	615.56
446.466	539.56
446.687	487.56
446.908	438.56
447.129	425.56
447.35	405.56
447.571	417.56
447.792	420.56
448.013	410.56
448.234	447.56
448.455	474.56
448.675	581.56
448.896	623.56
449.117	560.56
449.338	544.56
449.559	591.56
449.779	666.56
450	532.56
450.221	461.56
450.442	430.56
450.662	409.56
450.883	423.56
451.104	428.56
451.324	413.56
451.545	411.56
451.766	380.56
451.986	376.56
452.207	374.56
452.428	380.56
452.648	367.56
452.869	357.56
453.089	361.56
453.31	388.56
453.53	370.56
453.751	373.56
453.971	381.56
454.192	399.56
454.412	396.56
454.633	382.56
454.853	378.56
455.073	359.56
455.294	406.56
455.514	440.56
455.734	447.56
455.955	371.56
456.175	356.56
456.395	372.56
456.616	346.56
456.836	351.56
457.056	359.56
457.276	358.56
457.497	366.56
457.717	362.56
457.937	355.56
458.157	377.56
458.377	366.56
458.598	398.56
458.818	434.56
459.038	485.56
459.258	518.56
459.478	431.56
459.698	396.56
459.918	387.56
460.138	388.56
460.358	365.56
460.578	386.56
460.798	403.56
461.018	398.56
461.238	405.56
461.458	367.56
461.678	381.56
461.898	396.56
462.118	394.56
462.338	391.56
462.558	407.56
462.777	418.56
462.997	438.56
463.217	406.56
463.437	421.56
463.657	429.56
463.876	447.56
464.096	424.56
464.316	410.56
464.536	426.56
464.755	419.56
464.975	435.56
465.195	461.56
465.414	529.56
465.634	450.56
465.854	434.56
466.073	404.56
466.293	382.56
466.512	386.56
466.732	390.56
466.951	379.56
467.171	366.56
467.391	382.56
467.61	400.56
467.829	400.56
468.049	385.56
468.268	380.56
468.488	375.56
468.707	372.56
468.927	378.56
469.146	357.56
469.365	375.56
469.585	377.56
469.804	375.56
470.023	382.56
470.243	386.56
470.462	386.56
470.681	420.56
470.901	403.56
471.12	387.56
471.339	392.56
471.558	384.56
471.777	379.56
471.997	367.56
472.216	366.56
472.435	378.56
472.654	376.56
472.873	378.56
473.092	391.56
473.311	404.56
473.53	388.56
473.749	384.56
473.968	430.56
474.187	518.56
474.406	524.56
474.625	426.56
474.844	394.56
475.063	376.56
475.282	379.56
475.501	380.56
475.72	394.56
475.939	389.56
476.158	401.56
476.377	393.56
476.596	391.56
476.814	413.56
477.033	402.56
477.252	408.56
477.471	426.56
477.69	427.56
477.908	434.56
478.127	419.56
478.346	417.56
478.564	420.56
478.783	424.56
479.002	441.56
479.22	428.56
479.439	457.56
479.658	473.56
479.876	461.56
480.095	454.56
480.313	480.56
480.532	483.56
480.751	475.56
480.969	462.56
481.188	470.56
481.406	469.56
481.624	464.56
481.843	455.56
482.061	438.56
482.28	439.56
482.498	462.56
482.717	458.56
482.935	441.56
483.153	448.56
483.372	454.56
483.59	451.56
483.808	444.56
484.027	446.56
484.245	456.56
484.463	448.56
484.681	457.56
484.9	453.56
485.118	450.56
485.336	455.56
485.554	459.56
485.772	471.56
485.99	476.56
486.209	484.56
486.427	478.56
486.645	476.56
486.863	484.56
487.081	511.56
487.299	477.56
487.517	478.56
487.735	468.56
487.953	479.56
488.171	478.56
488.389	478.56
488.607	465.56
488.825	504.56
489.043	472.56
489.261	481.56
489.479	498.56
489.696	502.56
489.914	486.56
490.132	511.56
490.35	503.56
490.568	503.56
490.786	509.56
491.003	520.56
491.221	533.56
491.439	523.56
491.657	532.56
491.874	552.56
492.092	549.56
492.31	562.56
492.527	559.56
492.745	554.56
492.963	563.56
493.18	558.56
493.398	559.56
493.615	560.56
493.833	574.56
494.05	572.56
494.268	570.56
494.485	591.56
494.703	605.56
494.92	564.56
495.138	571.56
495.355	555.56
495.573	576.56
495.79	560.56
496.008	560.56
496.225	569.56
496.442	536.56
496.66	577.56
496.877	574.56
497.094	583.56
497.312	591.56
497.529	579.56
497.746	590.56
497.963	577.56
498.181	594.56
498.398	616.56
498.615	613.56
498.832	612.56
499.049	641.56
499.267	654.56
499.484	671.56
499.701	688.56
499.918	716.56
500.135	749.56
500.352	747.56
500.569	730.56
500.786	749.56
501.003	733.56
501.22	718.56
501.437	715.56
501.654	711.56
501.871	687.56
502.088	657.56
