Data from 1983.PennyLincolnUp.Lamp.En5.5.200Scan.071819.P1_HRD10591_16-54-06-965.txt Node
Date: Thu Jul 18 16:54:06 EDT 2019
User: cochatt
Spectrometer: HR+D1059
Trigger mode: 1
Integration Time (sec): 1.000000E-1
Scans to average: 1
Electric dark correction enabled: true
Nonlinearity correction enabled: false
Boxcar width: 0
XAxis mode: Wavelengths
Number of Pixels in Spectrum: 2048
>>>>>Begin Spectral Data<<<<<
223.165	-15.62
223.4	-15.62
223.635	-15.62
223.869	-21.62
224.104	-22.62
224.338	-9.62
224.573	-18.62
224.808	-15.62
225.042	-10.62
225.277	-4.62
225.511	-10.62
225.746	13.38
225.98	22.38
226.215	5.38
226.449	13.38
226.683	8.38
226.918	22.38
227.152	44.38
227.387	22.38
227.621	37.38
227.856	42.38
228.09	40.38
228.324	43.38
228.559	38.38
228.793	64.38
229.027	83.38
229.262	101.38
229.496	124.38
229.73	130.38
229.964	143.38
230.199	128.38
230.433	118.38
230.667	121.38
230.901	101.38
231.136	106.38
231.37	104.38
231.604	119.38
231.838	113.38
232.072	107.38
232.306	110.38
232.541	103.38
232.775	111.38
233.009	96.38
233.243	108.38
233.477	105.38
233.711	102.38
233.945	122.38
234.179	114.38
234.413	104.38
234.647	112.38
234.881	105.38
235.115	106.38
235.349	112.38
235.583	108.38
235.817	123.38
236.051	122.38
236.285	111.38
236.519	110.38
236.753	132.38
236.987	128.38
237.221	167.38
237.455	204.38
237.689	168.38
237.922	134.38
238.156	141.38
238.39	141.38
238.624	129.38
238.858	98.38
239.091	112.38
239.325	112.38
239.559	135.38
239.793	122.38
240.027	127.38
240.26	124.38
240.494	144.38
240.728	146.38
240.961	143.38
241.195	147.38
241.429	133.38
241.662	140.38
241.896	118.38
242.13	140.38
242.363	122.38
242.597	125.38
242.83	129.38
243.064	108.38
243.298	116.38
243.531	124.38
243.765	122.38
243.998	130.38
244.232	138.38
244.465	146.38
244.699	134.38
244.932	121.38
245.166	134.38
245.399	110.38
245.633	123.38
245.866	138.38
246.099	123.38
246.333	156.38
246.566	128.38
246.8	144.38
247.033	147.38
247.266	144.38
247.5	146.38
247.733	147.38
247.966	157.38
248.2	157.38
248.433	148.38
248.666	143.38
248.899	162.38
249.133	192.38
249.366	173.38
249.599	183.38
249.832	172.38
250.066	160.38
250.299	166.38
250.532	180.38
250.765	182.38
250.998	195.38
251.231	200.38
251.465	201.38
251.698	172.38
251.931	172.38
252.164	171.38
252.397	177.38
252.63	178.38
252.863	175.38
253.096	195.38
253.329	190.38
253.562	221.38
253.795	189.38
254.028	205.38
254.261	202.38
254.494	192.38
254.727	241.38
254.96	243.38
255.193	234.38
255.426	219.38
255.659	218.38
255.892	226.38
256.124	205.38
256.357	190.38
256.59	202.38
256.823	202.38
257.056	186.38
257.289	187.38
257.521	208.38
257.754	188.38
257.987	200.38
258.22	190.38
258.452	189.38
258.685	188.38
258.918	180.38
259.151	194.38
259.383	197.38
259.616	206.38
259.849	202.38
260.081	218.38
260.314	229.38
260.547	220.38
260.779	209.38
261.012	224.38
261.244	195.38
261.477	200.38
261.71	198.38
261.942	204.38
262.175	222.38
262.407	211.38
262.64	205.38
262.872	201.38
263.105	199.38
263.337	197.38
263.57	201.38
263.802	204.38
264.035	183.38
264.267	185.38
264.499	202.38
264.732	180.38
264.964	179.38
265.197	183.38
265.429	197.38
265.661	190.38
265.894	189.38
266.126	202.38
266.358	213.38
266.591	207.38
266.823	211.38
267.055	205.38
267.287	196.38
267.52	200.38
267.752	197.38
267.984	210.38
268.216	211.38
268.448	210.38
268.681	211.38
268.913	227.38
269.145	223.38
269.377	249.38
269.609	244.38
269.841	249.38
270.073	258.38
270.306	275.38
270.538	283.38
270.77	272.38
271.002	277.38
271.234	258.38
271.466	278.38
271.698	285.38
271.93	264.38
272.162	286.38
272.394	288.38
272.626	271.38
272.858	275.38
273.09	244.38
273.322	257.38
273.553	247.38
273.785	229.38
274.017	220.38
274.249	230.38
274.481	256.38
274.713	216.38
274.945	231.38
275.176	233.38
275.408	229.38
275.64	253.38
275.872	236.38
276.104	235.38
276.335	237.38
276.567	254.38
276.799	252.38
277.031	289.38
277.262	276.38
277.494	265.38
277.726	246.38
277.957	262.38
278.189	258.38
278.421	241.38
278.652	249.38
278.884	233.38
279.115	253.38
279.347	233.38
279.579	248.38
279.81	211.38
280.042	230.38
280.273	256.38
280.505	242.38
280.736	233.38
280.968	218.38
281.199	227.38
281.431	240.38
281.662	238.38
281.894	244.38
282.125	244.38
282.356	264.38
282.588	281.38
282.819	264.38
283.051	256.38
283.282	238.38
283.513	252.38
283.745	254.38
283.976	242.38
284.207	257.38
284.439	260.38
284.67	259.38
284.901	246.38
285.132	256.38
285.364	242.38
285.595	258.38
285.826	243.38
286.057	235.38
286.288	253.38
286.52	235.38
286.751	246.38
286.982	244.38
287.213	243.38
287.444	245.38
287.675	255.38
287.906	274.38
288.138	265.38
288.369	272.38
288.6	278.38
288.831	275.38
289.062	253.38
289.293	271.38
289.524	256.38
289.755	264.38
289.986	258.38
290.217	257.38
290.448	273.38
290.679	258.38
290.91	264.38
291.141	266.38
291.371	254.38
291.602	259.38
291.833	247.38
292.064	243.38
292.295	247.38
292.526	264.38
292.757	266.38
292.987	262.38
293.218	244.38
293.449	260.38
293.68	247.38
293.91	259.38
294.141	254.38
294.372	251.38
294.603	236.38
294.833	269.38
295.064	262.38
295.295	251.38
295.525	288.38
295.756	256.38
295.987	273.38
296.217	287.38
296.448	289.38
296.679	276.38
296.909	261.38
297.14	237.38
297.37	263.38
297.601	266.38
297.831	277.38
298.062	276.38
298.292	273.38
298.523	275.38
298.753	283.38
298.984	264.38
299.214	263.38
299.445	273.38
299.675	276.38
299.905	288.38
300.136	294.38
300.366	288.38
300.597	273.38
300.827	278.38
301.057	282.38
301.288	296.38
301.518	289.38
301.748	278.38
301.979	291.38
302.209	302.38
302.439	285.38
302.669	290.38
302.9	283.38
303.13	285.38
303.36	318.38
303.59	296.38
303.82	300.38
304.051	304.38
304.281	288.38
304.511	306.38
304.741	287.38
304.971	282.38
305.201	267.38
305.431	292.38
305.661	287.38
305.891	294.38
306.121	278.38
306.352	299.38
306.582	301.38
306.812	314.38
307.042	296.38
307.272	294.38
307.502	306.38
307.731	296.38
307.961	306.38
308.191	296.38
308.421	307.38
308.651	296.38
308.881	301.38
309.111	316.38
309.341	297.38
309.571	316.38
309.8	324.38
310.03	342.38
310.26	369.38
310.49	347.38
310.72	354.38
310.949	367.38
311.179	377.38
311.409	332.38
311.639	324.38
311.868	329.38
312.098	345.38
312.328	349.38
312.557	371.38
312.787	378.38
313.017	370.38
313.246	374.38
313.476	349.38
313.706	333.38
313.935	337.38
314.165	365.38
314.394	360.38
314.624	352.38
314.853	352.38
315.083	337.38
315.312	341.38
315.542	334.38
315.771	336.38
316.001	314.38
316.23	338.38
316.46	325.38
316.689	348.38
316.919	348.38
317.148	339.38
317.377	346.38
317.607	347.38
317.836	321.38
318.065	332.38
318.295	338.38
318.524	339.38
318.753	336.38
318.983	328.38
319.212	346.38
319.441	352.38
319.67	369.38
319.9	345.38
320.129	348.38
320.358	337.38
320.587	338.38
320.816	349.38
321.046	345.38
321.275	362.38
321.504	387.38
321.733	361.38
321.962	386.38
322.191	391.38
322.42	397.38
322.649	401.38
322.878	420.38
323.108	432.38
323.337	452.38
323.566	466.38
323.795	507.38
324.024	537.38
324.253	678.38
324.482	995.38
324.71	1501.38
324.939	1986.38
325.168	1629.38
325.397	894.38
325.626	590.38
325.855	510.38
326.084	503.38
326.313	450.38
326.542	480.38
326.77	518.38
326.999	626.38
327.228	892.38
327.457	1302.38
327.686	1484.38
327.914	999.38
328.143	689.38
328.372	592.38
328.6	569.38
328.829	538.38
329.058	566.38
329.287	553.38
329.515	476.38
329.744	462.38
329.972	466.38
330.201	485.38
330.43	498.38
330.658	553.38
330.887	566.38
331.115	553.38
331.344	484.38
331.572	430.38
331.801	429.38
332.03	428.38
332.258	424.38
332.486	404.38
332.715	400.38
332.943	406.38
333.172	396.38
333.4	397.38
333.629	410.38
333.857	416.38
334.085	394.38
334.314	444.38
334.542	467.38
334.771	458.38
334.999	446.38
335.227	414.38
335.455	389.38
335.684	386.38
335.912	386.38
336.14	389.38
336.369	396.38
336.597	384.38
336.825	403.38
337.053	387.38
337.281	379.38
337.51	386.38
337.738	406.38
337.966	386.38
338.194	404.38
338.422	391.38
338.65	383.38
338.878	386.38
339.106	358.38
339.334	373.38
339.562	376.38
339.79	363.38
340.018	370.38
340.246	366.38
340.474	388.38
340.702	396.38
340.93	379.38
341.158	369.38
341.386	369.38
341.614	377.38
341.842	371.38
342.07	384.38
342.298	383.38
342.526	384.38
342.754	358.38
342.981	358.38
343.209	343.38
343.437	376.38
343.665	364.38
343.893	387.38
344.12	363.38
344.348	376.38
344.576	390.38
344.804	400.38
345.031	392.38
345.259	396.38
345.487	375.38
345.714	374.38
345.942	372.38
346.17	359.38
346.397	346.38
346.625	368.38
346.853	374.38
347.08	366.38
347.308	362.38
347.535	368.38
347.763	368.38
347.99	386.38
348.218	392.38
348.445	371.38
348.673	388.38
348.9	382.38
349.128	358.38
349.355	361.38
349.583	369.38
349.81	357.38
350.037	363.38
350.265	350.38
350.492	369.38
350.72	350.38
350.947	368.38
351.174	390.38
351.402	378.38
351.629	388.38
351.856	372.38
352.083	382.38
352.311	404.38
352.538	401.38
352.765	370.38
352.992	370.38
353.22	345.38
353.447	366.38
353.674	353.38
353.901	340.38
354.128	355.38
354.355	362.38
354.583	354.38
354.81	348.38
355.037	330.38
355.264	352.38
355.491	339.38
355.718	340.38
355.945	352.38
356.172	338.38
356.399	342.38
356.626	331.38
356.853	332.38
357.08	331.38
357.307	343.38
357.534	332.38
357.761	330.38
357.988	336.38
358.215	334.38
358.441	355.38
358.668	339.38
358.895	328.38
359.122	349.38
359.349	365.38
359.576	384.38
359.802	391.38
360.029	424.38
360.256	432.38
360.483	403.38
360.709	380.38
360.936	377.38
361.163	356.38
361.39	376.38
361.616	363.38
361.843	368.38
362.07	350.38
362.296	375.38
362.523	372.38
362.749	363.38
362.976	346.38
363.203	353.38
363.429	353.38
363.656	346.38
363.882	349.38
364.109	345.38
364.335	351.38
364.562	344.38
364.788	344.38
365.015	334.38
365.241	350.38
365.468	355.38
365.694	351.38
365.92	366.38
366.147	364.38
366.373	349.38
366.599	345.38
366.826	339.38
367.052	337.38
367.278	324.38
367.505	357.38
367.731	360.38
367.957	353.38
368.184	343.38
368.41	348.38
368.636	370.38
368.862	382.38
369.089	362.38
369.315	343.38
369.541	341.38
369.767	341.38
369.993	353.38
370.219	345.38
370.445	349.38
370.672	341.38
370.898	340.38
371.124	337.38
371.35	334.38
371.576	341.38
371.802	361.38
372.028	345.38
372.254	328.38
372.48	345.38
372.706	330.38
372.932	355.38
373.158	325.38
373.384	342.38
373.61	356.38
373.835	361.38
374.061	344.38
374.287	354.38
374.513	349.38
374.739	346.38
374.965	370.38
375.191	342.38
375.416	349.38
375.642	338.38
375.868	342.38
376.094	337.38
376.319	340.38
376.545	350.38
376.771	344.38
376.997	337.38
377.222	328.38
377.448	335.38
377.674	337.38
377.899	334.38
378.125	347.38
378.35	331.38
378.576	344.38
378.802	332.38
379.027	325.38
379.253	320.38
379.478	330.38
379.704	334.38
379.929	332.38
380.155	347.38
380.38	352.38
380.606	329.38
380.831	341.38
381.057	334.38
381.282	331.38
381.507	324.38
381.733	326.38
381.958	327.38
382.184	336.38
382.409	334.38
382.634	341.38
382.86	331.38
383.085	353.38
383.31	344.38
383.535	344.38
383.761	340.38
383.986	350.38
384.211	347.38
384.436	338.38
384.662	348.38
384.887	345.38
385.112	332.38
385.337	339.38
385.562	356.38
385.787	365.38
386.013	363.38
386.238	364.38
386.463	376.38
386.688	361.38
386.913	373.38
387.138	378.38
387.363	382.38
387.588	358.38
387.813	368.38
388.038	361.38
388.263	354.38
388.488	368.38
388.713	346.38
388.938	381.38
389.163	355.38
389.387	365.38
389.612	358.38
389.837	363.38
390.062	355.38
390.287	359.38
390.512	345.38
390.736	361.38
390.961	375.38
391.186	359.38
391.411	358.38
391.636	365.38
391.86	376.38
392.085	372.38
392.31	378.38
392.534	378.38
392.759	379.38
392.984	359.38
393.208	364.38
393.433	363.38
393.658	354.38
393.882	358.38
394.107	374.38
394.331	363.38
394.556	358.38
394.78	381.38
395.005	362.38
395.229	374.38
395.454	390.38
395.678	359.38
395.903	387.38
396.127	384.38
396.352	407.38
396.576	365.38
396.801	352.38
397.025	356.38
397.249	394.38
397.474	368.38
397.698	377.38
397.922	398.38
398.147	385.38
398.371	397.38
398.595	392.38
398.82	388.38
399.044	404.38
399.268	422.38
399.492	441.38
399.717	450.38
399.941	464.38
400.165	484.38
400.389	476.38
400.613	469.38
400.837	417.38
401.062	403.38
401.286	414.38
401.51	400.38
401.734	406.38
401.958	409.38
402.182	410.38
402.406	458.38
402.63	436.38
402.854	424.38
403.078	430.38
403.302	420.38
403.526	439.38
403.75	420.38
403.974	420.38
404.198	413.38
404.422	421.38
404.645	408.38
404.869	414.38
405.093	462.38
405.317	466.38
405.541	498.38
405.765	467.38
405.988	447.38
406.212	452.38
406.436	460.38
406.66	461.38
406.883	459.38
407.107	478.38
407.331	508.38
407.555	554.38
407.778	575.38
408.002	490.38
408.226	471.38
408.449	482.38
408.673	452.38
408.896	466.38
409.12	506.38
409.344	496.38
409.567	431.38
409.791	416.38
410.014	413.38
410.238	422.38
410.461	431.38
410.685	427.38
410.908	443.38
411.132	462.38
411.355	462.38
411.578	462.38
411.802	426.38
412.025	425.38
412.249	419.38
412.472	429.38
412.695	461.38
412.919	453.38
413.142	406.38
413.365	398.38
413.589	424.38
413.812	410.38
414.035	379.38
414.258	407.38
414.482	404.38
414.705	399.38
414.928	392.38
415.151	398.38
415.374	406.38
415.597	388.38
415.821	395.38
416.044	383.38
416.267	412.38
416.49	397.38
416.713	383.38
416.936	379.38
417.159	403.38
417.382	380.38
417.605	393.38
417.828	419.38
418.051	434.38
418.274	428.38
418.497	412.38
418.72	420.38
418.943	399.38
419.166	423.38
419.389	423.38
419.611	421.38
419.834	427.38
420.057	418.38
420.28	420.38
420.503	404.38
420.726	421.38
420.948	431.38
421.171	472.38
421.394	484.38
421.617	428.38
421.839	396.38
422.062	406.38
422.285	442.38
422.507	458.38
422.73	539.38
422.953	523.38
423.175	453.38
423.398	437.38
423.621	414.38
423.843	449.38
424.066	465.38
424.288	466.38
424.511	462.38
424.733	492.38
424.956	567.38
425.178	548.38
425.401	546.38
425.623	545.38
425.846	476.38
426.068	479.38
426.291	436.38
426.513	455.38
426.735	453.38
426.958	487.38
427.18	549.38
427.402	648.38
427.625	710.38
427.847	625.38
428.069	543.38
428.292	511.38
428.514	459.38
428.736	426.38
428.958	426.38
429.181	431.38
429.403	394.38
429.625	440.38
429.847	455.38
430.069	497.38
430.292	501.38
430.514	417.38
430.736	410.38
430.958	396.38
431.18	399.38
431.402	384.38
431.624	380.38
431.846	402.38
432.068	393.38
432.29	390.38
432.512	389.38
432.734	416.38
432.956	399.38
433.178	408.38
433.4	425.38
433.622	389.38
433.844	399.38
434.066	400.38
434.287	413.38
434.509	392.38
434.731	404.38
434.953	418.38
435.175	438.38
435.397	437.38
435.618	452.38
435.84	483.38
436.062	546.38
436.284	586.38
436.505	542.38
436.727	450.38
436.949	440.38
437.17	403.38
437.392	408.38
437.614	428.38
437.835	474.38
438.057	547.38
438.278	608.38
438.5	607.38
438.721	657.38
438.943	618.38
439.165	515.38
439.386	458.38
439.608	455.38
439.829	476.38
440.05	479.38
440.272	502.38
440.493	478.38
440.715	448.38
440.936	458.38
441.158	426.38
441.379	431.38
441.6	438.38
441.822	461.38
442.043	487.38
442.264	561.38
442.486	584.38
442.707	504.38
442.928	458.38
443.149	455.38
443.371	501.38
443.592	516.38
443.813	604.38
444.034	624.38
444.255	534.38
444.476	469.38
444.698	452.38
444.919	464.38
445.14	560.38
445.361	482.38
445.582	490.38
445.803	526.38
446.024	614.38
446.245	625.38
446.466	590.38
446.687	473.38
446.908	466.38
447.129	453.38
447.35	431.38
447.571	416.38
447.792	437.38
448.013	423.38
448.234	458.38
448.455	473.38
448.675	584.38
448.896	634.38
449.117	570.38
449.338	533.38
449.559	610.38
449.779	661.38
450	541.38
450.221	461.38
450.442	441.38
450.662	420.38
450.883	430.38
451.104	444.38
451.324	421.38
451.545	448.38
451.766	414.38
451.986	370.38
452.207	377.38
452.428	380.38
452.648	375.38
452.869	398.38
453.089	388.38
453.31	410.38
453.53	394.38
453.751	365.38
453.971	388.38
454.192	400.38
454.412	404.38
454.633	405.38
454.853	390.38
455.073	384.38
455.294	394.38
455.514	437.38
455.734	436.38
455.955	385.38
456.175	368.38
456.395	338.38
456.616	372.38
456.836	351.38
457.056	350.38
457.276	354.38
457.497	360.38
457.717	361.38
457.937	349.38
458.157	365.38
458.377	377.38
458.598	399.38
458.818	463.38
459.038	545.38
459.258	503.38
459.478	457.38
459.698	404.38
459.918	388.38
460.138	401.38
460.358	374.38
460.578	386.38
460.798	400.38
461.018	408.38
461.238	393.38
461.458	388.38
461.678	384.38
461.898	402.38
462.118	394.38
462.338	406.38
462.558	417.38
462.777	425.38
462.997	425.38
463.217	430.38
463.437	406.38
463.657	422.38
463.876	418.38
464.096	435.38
464.316	412.38
464.536	442.38
464.755	427.38
464.975	420.38
465.195	499.38
465.414	562.38
465.634	501.38
465.854	452.38
466.073	432.38
466.293	403.38
466.512	404.38
466.732	385.38
466.951	384.38
467.171	379.38
467.391	391.38
467.61	397.38
467.829	412.38
468.049	420.38
468.268	392.38
468.488	398.38
468.707	368.38
468.927	356.38
469.146	362.38
469.365	369.38
469.585	394.38
469.804	380.38
470.023	380.38
470.243	383.38
470.462	404.38
470.681	420.38
470.901	420.38
471.12	397.38
471.339	385.38
471.558	384.38
471.777	409.38
471.997	390.38
472.216	402.38
472.435	427.38
472.654	391.38
472.873	388.38
473.092	371.38
473.311	412.38
473.53	396.38
473.749	420.38
473.968	446.38
474.187	528.38
474.406	500.38
474.625	434.38
474.844	410.38
475.063	382.38
475.282	387.38
475.501	384.38
475.72	409.38
475.939	391.38
476.158	411.38
476.377	394.38
476.596	402.38
476.814	404.38
477.033	414.38
477.252	429.38
477.471	410.38
477.69	435.38
477.908	408.38
478.127	438.38
478.346	428.38
478.564	406.38
478.783	432.38
479.002	438.38
479.22	459.38
479.439	451.38
479.658	461.38
479.876	505.38
480.095	475.38
480.313	489.38
480.532	463.38
480.751	457.38
480.969	498.38
481.188	518.38
481.406	541.38
481.624	496.38
481.843	468.38
482.061	453.38
482.28	485.38
482.498	453.38
482.717	442.38
482.935	450.38
483.153	461.38
483.372	459.38
483.59	454.38
483.808	447.38
484.027	448.38
484.245	470.38
484.463	473.38
484.681	497.38
484.9	468.38
485.118	453.38
485.336	460.38
485.554	473.38
485.772	469.38
485.99	476.38
486.209	473.38
486.427	502.38
486.645	493.38
486.863	509.38
487.081	512.38
487.299	493.38
487.517	466.38
487.735	510.38
487.953	481.38
488.171	485.38
488.389	478.38
488.607	484.38
488.825	487.38
489.043	488.38
489.261	507.38
489.479	487.38
489.696	491.38
489.914	498.38
490.132	511.38
490.35	523.38
490.568	505.38
490.786	533.38
491.003	523.38
491.221	539.38
491.439	547.38
491.657	548.38
491.874	569.38
492.092	578.38
492.31	571.38
492.527	585.38
492.745	590.38
492.963	566.38
493.18	564.38
493.398	615.38
493.615	598.38
493.833	591.38
494.05	572.38
494.268	576.38
494.485	563.38
494.703	576.38
494.92	582.38
495.138	597.38
495.355	592.38
495.573	547.38
495.79	588.38
496.008	589.38
496.225	592.38
496.442	587.38
496.66	586.38
496.877	585.38
497.094	580.38
497.312	598.38
497.529	636.38
497.746	599.38
497.963	619.38
498.181	631.38
498.398	624.38
498.615	629.38
498.832	642.38
499.049	643.38
499.267	676.38
499.484	654.38
499.701	682.38
499.918	708.38
500.135	730.38
500.352	741.38
500.569	758.38
500.786	737.38
501.003	742.38
501.22	760.38
501.437	740.38
501.654	695.38
501.871	713.38
