Data from 1983.PennyLincolnUp.Lamp.En5.5.200Scan.071819.P1_HRD10591_16-52-09-964.txt Node
Date: Thu Jul 18 16:52:09 EDT 2019
User: cochatt
Spectrometer: HR+D1059
Trigger mode: 1
Integration Time (sec): 1.000000E-1
Scans to average: 1
Electric dark correction enabled: true
Nonlinearity correction enabled: false
Boxcar width: 0
XAxis mode: Wavelengths
Number of Pixels in Spectrum: 2048
>>>>>Begin Spectral Data<<<<<
223.165	-4.44
223.4	-4.44
223.635	-4.44
223.869	-16.44
224.104	-24.44
224.338	-21.44
224.573	-15.44
224.808	-8.44
225.042	7.56
225.277	-13.44
225.511	-1.44
225.746	-10.44
225.98	7.56
226.215	9.56
226.449	17.56
226.683	15.56
226.918	24.56
227.152	33.56
227.387	22.56
227.621	38.56
227.856	37.56
228.09	43.56
228.324	42.56
228.559	51.56
228.793	56.56
229.027	77.56
229.262	94.56
229.496	96.56
229.73	108.56
229.964	106.56
230.199	89.56
230.433	107.56
230.667	86.56
230.901	98.56
231.136	99.56
231.37	90.56
231.604	119.56
231.838	106.56
232.072	100.56
232.306	104.56
232.541	97.56
232.775	95.56
233.009	99.56
233.243	103.56
233.477	95.56
233.711	99.56
233.945	102.56
234.179	102.56
234.413	100.56
234.647	99.56
234.881	114.56
235.115	110.56
235.349	103.56
235.583	114.56
235.817	103.56
236.051	101.56
236.285	111.56
236.519	105.56
236.753	103.56
236.987	114.56
237.221	138.56
237.455	135.56
237.689	124.56
237.922	118.56
238.156	114.56
238.39	104.56
238.624	103.56
238.858	107.56
239.091	106.56
239.325	91.56
239.559	114.56
239.793	97.56
240.027	114.56
240.26	117.56
240.494	112.56
240.728	105.56
240.961	124.56
241.195	121.56
241.429	121.56
241.662	99.56
241.896	101.56
242.13	115.56
242.363	105.56
242.597	113.56
242.83	118.56
243.064	129.56
243.298	117.56
243.531	131.56
243.765	117.56
243.998	122.56
244.232	119.56
244.465	138.56
244.699	118.56
244.932	111.56
245.166	121.56
245.399	118.56
245.633	118.56
245.866	119.56
246.099	115.56
246.333	118.56
246.566	129.56
246.8	121.56
247.033	125.56
247.266	128.56
247.5	134.56
247.733	139.56
247.966	134.56
248.2	136.56
248.433	139.56
248.666	152.56
248.899	140.56
249.133	141.56
249.366	163.56
249.599	137.56
249.832	135.56
250.066	139.56
250.299	150.56
250.532	159.56
250.765	158.56
250.998	163.56
251.231	172.56
251.465	164.56
251.698	153.56
251.931	167.56
252.164	152.56
252.397	152.56
252.63	163.56
252.863	156.56
253.096	157.56
253.329	176.56
253.562	176.56
253.795	177.56
254.028	168.56
254.261	169.56
254.494	160.56
254.727	177.56
254.96	205.56
255.193	193.56
255.426	172.56
255.659	176.56
255.892	177.56
256.124	172.56
256.357	173.56
256.59	161.56
256.823	161.56
257.056	156.56
257.289	172.56
257.521	167.56
257.754	168.56
257.987	164.56
258.22	167.56
258.452	171.56
258.685	162.56
258.918	161.56
259.151	169.56
259.383	175.56
259.616	159.56
259.849	190.56
260.081	170.56
260.314	193.56
260.547	188.56
260.779	178.56
261.012	181.56
261.244	163.56
261.477	191.56
261.71	164.56
261.942	183.56
262.175	196.56
262.407	193.56
262.64	168.56
262.872	165.56
263.105	161.56
263.337	170.56
263.57	172.56
263.802	179.56
264.035	187.56
264.267	148.56
264.499	169.56
264.732	168.56
264.964	168.56
265.197	164.56
265.429	168.56
265.661	196.56
265.894	156.56
266.126	162.56
266.358	175.56
266.591	168.56
266.823	173.56
267.055	182.56
267.287	187.56
267.52	169.56
267.752	198.56
267.984	156.56
268.216	178.56
268.448	172.56
268.681	173.56
268.913	187.56
269.145	193.56
269.377	199.56
269.609	192.56
269.841	197.56
270.073	205.56
270.306	228.56
270.538	213.56
270.77	211.56
271.002	204.56
271.234	209.56
271.466	211.56
271.698	214.56
271.93	231.56
272.162	220.56
272.394	207.56
272.626	206.56
272.858	214.56
273.09	211.56
273.322	203.56
273.553	192.56
273.785	208.56
274.017	202.56
274.249	195.56
274.481	195.56
274.713	199.56
274.945	222.56
275.176	195.56
275.408	201.56
275.64	203.56
275.872	207.56
276.104	197.56
276.335	198.56
276.567	217.56
276.799	211.56
277.031	234.56
277.262	230.56
277.494	230.56
277.726	217.56
277.957	230.56
278.189	203.56
278.421	193.56
278.652	199.56
278.884	208.56
279.115	191.56
279.347	200.56
279.579	215.56
279.81	238.56
280.042	204.56
280.273	191.56
280.505	210.56
280.736	202.56
280.968	198.56
281.199	210.56
281.431	192.56
281.662	201.56
281.894	215.56
282.125	208.56
282.356	235.56
282.588	228.56
282.819	226.56
283.051	231.56
283.282	209.56
283.513	201.56
283.745	214.56
283.976	213.56
284.207	236.56
284.439	211.56
284.67	199.56
284.901	219.56
285.132	210.56
285.364	204.56
285.595	218.56
285.826	202.56
286.057	208.56
286.288	201.56
286.52	225.56
286.751	217.56
286.982	202.56
287.213	214.56
287.444	212.56
287.675	222.56
287.906	218.56
288.138	230.56
288.369	239.56
288.6	236.56
288.831	201.56
289.062	231.56
289.293	226.56
289.524	218.56
289.755	227.56
289.986	205.56
290.217	228.56
290.448	211.56
290.679	206.56
290.91	216.56
291.141	218.56
291.371	221.56
291.602	227.56
291.833	213.56
292.064	212.56
292.295	214.56
292.526	241.56
292.757	207.56
292.987	224.56
293.218	229.56
293.449	231.56
293.68	201.56
293.91	207.56
294.141	209.56
294.372	241.56
294.603	213.56
294.833	221.56
295.064	220.56
295.295	223.56
295.525	228.56
295.756	246.56
295.987	228.56
296.217	242.56
296.448	233.56
296.679	235.56
296.909	233.56
297.14	246.56
297.37	228.56
297.601	222.56
297.831	218.56
298.062	217.56
298.292	239.56
298.523	235.56
298.753	235.56
298.984	227.56
299.214	231.56
299.445	245.56
299.675	237.56
299.905	239.56
300.136	249.56
300.366	243.56
300.597	216.56
300.827	245.56
301.057	232.56
301.288	259.56
301.518	251.56
301.748	244.56
301.979	237.56
302.209	243.56
302.439	248.56
302.669	228.56
302.9	247.56
303.13	247.56
303.36	233.56
303.59	249.56
303.82	249.56
304.051	257.56
304.281	267.56
304.511	239.56
304.741	228.56
304.971	234.56
305.201	241.56
305.431	249.56
305.661	263.56
305.891	254.56
306.121	236.56
306.352	257.56
306.582	260.56
306.812	243.56
307.042	259.56
307.272	252.56
307.502	251.56
307.731	254.56
307.961	262.56
308.191	266.56
308.421	236.56
308.651	251.56
308.881	258.56
309.111	272.56
309.341	267.56
309.571	261.56
309.8	277.56
310.03	268.56
310.26	267.56
310.49	277.56
310.72	273.56
310.949	291.56
311.179	291.56
311.409	276.56
311.639	260.56
311.868	279.56
312.098	297.56
312.328	281.56
312.557	277.56
312.787	289.56
313.017	299.56
313.246	261.56
313.476	259.56
313.706	279.56
313.935	280.56
314.165	283.56
314.394	275.56
314.624	298.56
314.853	290.56
315.083	279.56
315.312	283.56
315.542	289.56
315.771	288.56
316.001	269.56
316.23	284.56
316.46	277.56
316.689	263.56
316.919	305.56
317.148	312.56
317.377	300.56
317.607	285.56
317.836	292.56
318.065	276.56
318.295	281.56
318.524	279.56
318.753	253.56
318.983	290.56
319.212	300.56
319.441	284.56
319.67	267.56
319.9	292.56
320.129	274.56
320.358	290.56
320.587	296.56
320.816	294.56
321.046	296.56
321.275	296.56
321.504	294.56
321.733	298.56
321.962	278.56
322.191	307.56
322.42	319.56
322.649	327.56
322.878	320.56
323.108	338.56
323.337	351.56
323.566	356.56
323.795	361.56
324.024	390.56
324.253	452.56
324.482	634.56
324.71	898.56
324.939	1218.56
325.168	1021.56
325.397	579.56
325.626	408.56
325.855	348.56
326.084	337.56
326.313	327.56
326.542	344.56
326.77	381.56
326.999	430.56
327.228	579.56
327.457	792.56
327.686	875.56
327.914	629.56
328.143	433.56
328.372	398.56
328.6	385.56
328.829	377.56
329.058	389.56
329.287	383.56
329.515	359.56
329.744	328.56
329.972	345.56
330.201	348.56
330.43	343.56
330.658	375.56
330.887	400.56
331.115	389.56
331.344	348.56
331.572	343.56
331.801	331.56
332.03	344.56
332.258	336.56
332.486	328.56
332.715	307.56
332.943	336.56
333.172	333.56
333.4	317.56
333.629	331.56
333.857	337.56
334.085	343.56
334.314	346.56
334.542	333.56
334.771	340.56
334.999	330.56
335.227	346.56
335.455	344.56
335.684	338.56
335.912	334.56
336.14	327.56
336.369	355.56
336.597	340.56
336.825	320.56
337.053	316.56
337.281	327.56
337.51	309.56
337.738	331.56
337.966	324.56
338.194	340.56
338.422	304.56
338.65	348.56
338.878	319.56
339.106	288.56
339.334	330.56
339.562	319.56
339.79	311.56
340.018	322.56
340.246	332.56
340.474	344.56
340.702	310.56
340.93	307.56
341.158	312.56
341.386	322.56
341.614	316.56
341.842	303.56
342.07	318.56
342.298	313.56
342.526	316.56
342.754	299.56
342.981	310.56
343.209	303.56
343.437	318.56
343.665	316.56
343.893	335.56
344.12	308.56
344.348	317.56
344.576	317.56
344.804	330.56
345.031	329.56
345.259	331.56
345.487	304.56
345.714	321.56
345.942	330.56
346.17	324.56
346.397	296.56
346.625	315.56
346.853	321.56
347.08	306.56
347.308	323.56
347.535	317.56
347.763	316.56
347.99	328.56
348.218	313.56
348.445	312.56
348.673	319.56
348.9	332.56
349.128	308.56
349.355	300.56
349.583	294.56
349.81	286.56
350.037	289.56
350.265	291.56
350.492	307.56
350.72	310.56
350.947	308.56
351.174	311.56
351.402	309.56
351.629	322.56
351.856	306.56
352.083	325.56
352.311	309.56
352.538	297.56
352.765	321.56
352.992	311.56
353.22	317.56
353.447	299.56
353.674	312.56
353.901	311.56
354.128	289.56
354.355	294.56
354.583	307.56
354.81	285.56
355.037	309.56
355.264	275.56
355.491	284.56
355.718	279.56
355.945	291.56
356.172	303.56
356.399	279.56
356.626	296.56
356.853	296.56
357.08	294.56
357.307	291.56
357.534	294.56
357.761	299.56
357.988	287.56
358.215	289.56
358.441	303.56
358.668	309.56
358.895	299.56
359.122	303.56
359.349	291.56
359.576	291.56
359.802	319.56
360.029	339.56
360.256	340.56
360.483	306.56
360.709	316.56
360.936	297.56
361.163	319.56
361.39	312.56
361.616	306.56
361.843	279.56
362.07	307.56
362.296	299.56
362.523	310.56
362.749	310.56
362.976	321.56
363.203	313.56
363.429	300.56
363.656	287.56
363.882	289.56
364.109	300.56
364.335	278.56
364.562	291.56
364.788	291.56
365.015	298.56
365.241	298.56
365.468	297.56
365.694	310.56
365.92	294.56
366.147	293.56
366.373	305.56
366.599	299.56
366.826	290.56
367.052	303.56
367.278	275.56
367.505	319.56
367.731	315.56
367.957	302.56
368.184	316.56
368.41	299.56
368.636	332.56
368.862	324.56
369.089	292.56
369.315	289.56
369.541	289.56
369.767	303.56
369.993	284.56
370.219	284.56
370.445	311.56
370.672	293.56
370.898	303.56
371.124	303.56
371.35	303.56
371.576	314.56
371.802	296.56
372.028	298.56
372.254	298.56
372.48	303.56
372.706	304.56
372.932	300.56
373.158	307.56
373.384	307.56
373.61	315.56
373.835	307.56
374.061	313.56
374.287	315.56
374.513	320.56
374.739	314.56
374.965	288.56
375.191	313.56
375.416	316.56
375.642	310.56
375.868	303.56
376.094	312.56
376.319	299.56
376.545	297.56
376.771	306.56
376.997	311.56
377.222	311.56
377.448	315.56
377.674	304.56
377.899	284.56
378.125	298.56
378.35	284.56
378.576	309.56
378.802	301.56
379.027	311.56
379.253	295.56
379.478	298.56
379.704	309.56
379.929	299.56
380.155	309.56
380.38	310.56
380.606	301.56
380.831	312.56
381.057	303.56
381.282	304.56
381.507	324.56
381.733	316.56
381.958	298.56
382.184	311.56
382.409	321.56
382.634	335.56
382.86	323.56
383.085	345.56
383.31	321.56
383.535	307.56
383.761	332.56
383.986	322.56
384.211	335.56
384.436	323.56
384.662	314.56
384.887	340.56
385.112	339.56
385.337	339.56
385.562	340.56
385.787	344.56
386.013	356.56
386.238	361.56
386.463	348.56
386.688	332.56
386.913	335.56
387.138	354.56
387.363	339.56
387.588	332.56
387.813	325.56
388.038	361.56
388.263	339.56
388.488	331.56
388.713	347.56
388.938	297.56
389.163	319.56
389.387	331.56
389.612	321.56
389.837	323.56
390.062	324.56
390.287	315.56
390.512	320.56
390.736	328.56
390.961	324.56
391.186	317.56
391.411	332.56
391.636	345.56
391.86	337.56
392.085	332.56
392.31	364.56
392.534	338.56
392.759	359.56
392.984	346.56
393.208	348.56
393.433	370.56
393.658	375.56
393.882	346.56
394.107	329.56
394.331	344.56
394.556	325.56
394.78	340.56
395.005	348.56
395.229	339.56
395.454	353.56
395.678	352.56
395.903	343.56
396.127	377.56
396.352	343.56
396.576	344.56
396.801	371.56
397.025	364.56
397.249	367.56
397.474	358.56
397.698	349.56
397.922	371.56
398.147	353.56
398.371	379.56
398.595	371.56
398.82	369.56
399.044	372.56
399.268	377.56
399.492	397.56
399.717	414.56
399.941	438.56
400.165	467.56
400.389	435.56
400.613	397.56
400.837	389.56
401.062	389.56
401.286	386.56
401.51	371.56
401.734	364.56
401.958	393.56
402.182	374.56
402.406	386.56
402.63	366.56
402.854	371.56
403.078	373.56
403.302	374.56
403.526	372.56
403.75	373.56
403.974	377.56
404.198	368.56
404.422	380.56
404.645	353.56
404.869	370.56
405.093	397.56
405.317	404.56
405.541	403.56
405.765	393.56
405.988	393.56
406.212	402.56
406.436	431.56
406.66	415.56
406.883	408.56
407.107	426.56
407.331	448.56
407.555	468.56
407.778	475.56
408.002	437.56
408.226	423.56
408.449	412.56
408.673	413.56
408.896	419.56
409.12	443.56
409.344	422.56
409.567	397.56
409.791	394.56
410.014	386.56
410.238	376.56
410.461	389.56
410.685	402.56
410.908	378.56
411.132	427.56
411.355	442.56
411.578	403.56
411.802	391.56
412.025	383.56
412.249	374.56
412.472	387.56
412.695	376.56
412.919	384.56
413.142	371.56
413.365	371.56
413.589	363.56
413.812	372.56
414.035	375.56
414.258	360.56
414.482	353.56
414.705	370.56
414.928	366.56
415.151	347.56
415.374	351.56
415.597	361.56
415.821	368.56
416.044	375.56
416.267	361.56
416.49	346.56
416.713	359.56
416.936	372.56
417.159	358.56
417.382	375.56
417.605	367.56
417.828	370.56
418.051	360.56
418.274	363.56
418.497	347.56
418.72	352.56
418.943	359.56
419.166	377.56
419.389	383.56
419.611	383.56
419.834	381.56
420.057	375.56
420.28	343.56
420.503	359.56
420.726	380.56
420.948	361.56
421.171	409.56
421.394	406.56
421.617	379.56
421.839	369.56
422.062	378.56
422.285	384.56
422.507	417.56
422.73	464.56
422.953	456.56
423.175	396.56
423.398	402.56
423.621	388.56
423.843	395.56
424.066	389.56
424.288	384.56
424.511	399.56
424.733	428.56
424.956	484.56
425.178	475.56
425.401	452.56
425.623	500.56
425.846	417.56
426.068	406.56
426.291	387.56
426.513	426.56
426.735	423.56
426.958	426.56
427.18	468.56
427.402	555.56
427.625	585.56
427.847	515.56
428.069	425.56
428.292	415.56
428.514	378.56
428.736	370.56
428.958	384.56
429.181	362.56
429.403	359.56
429.625	378.56
429.847	389.56
430.069	445.56
430.292	409.56
430.514	371.56
430.736	377.56
430.958	354.56
431.18	350.56
431.402	377.56
431.624	367.56
431.846	360.56
432.068	358.56
432.29	362.56
432.512	363.56
432.734	390.56
432.956	350.56
433.178	365.56
433.4	369.56
433.622	372.56
433.844	362.56
434.066	364.56
434.287	348.56
434.509	371.56
434.731	353.56
434.953	349.56
435.175	376.56
435.397	387.56
435.618	393.56
435.84	417.56
436.062	463.56
436.284	509.56
436.505	433.56
436.727	408.56
436.949	368.56
437.17	360.56
437.392	375.56
437.614	373.56
437.835	382.56
438.057	438.56
438.278	491.56
438.5	504.56
438.721	559.56
438.943	514.56
439.165	430.56
439.386	391.56
439.608	400.56
439.829	410.56
440.05	421.56
440.272	433.56
440.493	394.56
440.715	389.56
440.936	415.56
441.158	377.56
441.379	384.56
441.6	407.56
441.822	386.56
442.043	423.56
442.264	459.56
442.486	477.56
442.707	399.56
442.928	386.56
443.149	409.56
443.371	397.56
443.592	445.56
443.813	489.56
444.034	498.56
444.255	447.56
444.476	403.56
444.698	393.56
444.919	398.56
445.14	524.56
445.361	467.56
445.582	436.56
445.803	448.56
446.024	485.56
446.245	493.56
446.466	454.56
446.687	403.56
446.908	378.56
447.129	371.56
447.35	346.56
447.571	383.56
447.792	369.56
448.013	360.56
448.234	373.56
448.455	410.56
448.675	486.56
448.896	527.56
449.117	450.56
449.338	439.56
449.559	503.56
449.779	548.56
450	454.56
450.221	387.56
450.442	369.56
450.662	361.56
450.883	358.56
451.104	367.56
451.324	375.56
451.545	367.56
451.766	343.56
451.986	322.56
452.207	340.56
452.428	342.56
452.648	340.56
452.869	347.56
453.089	335.56
453.31	352.56
453.53	341.56
453.751	339.56
453.971	332.56
454.192	335.56
454.412	329.56
454.633	320.56
454.853	353.56
455.073	325.56
455.294	343.56
455.514	377.56
455.734	388.56
455.955	341.56
456.175	335.56
456.395	321.56
456.616	317.56
456.836	330.56
457.056	317.56
457.276	307.56
457.497	326.56
457.717	325.56
457.937	314.56
458.157	326.56
458.377	323.56
458.598	351.56
458.818	372.56
459.038	431.56
459.258	421.56
459.478	378.56
459.698	342.56
459.918	362.56
460.138	362.56
460.358	354.56
460.578	362.56
460.798	367.56
461.018	373.56
461.238	383.56
461.458	373.56
461.678	361.56
461.898	372.56
462.118	364.56
462.338	363.56
462.558	364.56
462.777	359.56
462.997	401.56
463.217	379.56
463.437	403.56
463.657	388.56
463.876	396.56
464.096	371.56
464.316	387.56
464.536	370.56
464.755	405.56
464.975	397.56
465.195	395.56
465.414	435.56
465.634	389.56
465.854	354.56
466.073	343.56
466.293	360.56
466.512	340.56
466.732	352.56
466.951	343.56
467.171	333.56
467.391	355.56
467.61	362.56
467.829	345.56
468.049	349.56
468.268	345.56
468.488	324.56
468.707	338.56
468.927	331.56
469.146	329.56
469.365	346.56
469.585	354.56
469.804	336.56
470.023	358.56
470.243	345.56
470.462	353.56
470.681	359.56
470.901	369.56
471.12	335.56
471.339	350.56
471.558	355.56
471.777	346.56
471.997	359.56
472.216	350.56
472.435	352.56
472.654	321.56
472.873	340.56
473.092	340.56
473.311	326.56
473.53	347.56
473.749	354.56
473.968	371.56
474.187	443.56
474.406	423.56
474.625	389.56
474.844	357.56
475.063	351.56
475.282	338.56
475.501	366.56
475.72	361.56
475.939	339.56
476.158	356.56
476.377	363.56
476.596	354.56
476.814	360.56
477.033	371.56
477.252	375.56
477.471	365.56
477.69	364.56
477.908	365.56
478.127	380.56
478.346	371.56
478.564	375.56
478.783	400.56
479.002	384.56
479.22	392.56
479.439	416.56
479.658	401.56
479.876	406.56
480.095	405.56
480.313	428.56
480.532	436.56
480.751	435.56
480.969	401.56
481.188	447.56
481.406	415.56
481.624	412.56
481.843	395.56
482.061	384.56
482.28	392.56
482.498	406.56
482.717	412.56
482.935	412.56
483.153	397.56
483.372	407.56
483.59	407.56
483.808	417.56
484.027	407.56
484.245	395.56
484.463	412.56
484.681	425.56
484.9	414.56
485.118	412.56
485.336	425.56
485.554	416.56
485.772	423.56
485.99	407.56
486.209	405.56
486.427	428.56
486.645	418.56
486.863	434.56
487.081	435.56
487.299	433.56
487.517	452.56
487.735	444.56
487.953	431.56
488.171	439.56
488.389	420.56
488.607	444.56
488.825	419.56
489.043	423.56
489.261	473.56
489.479	428.56
489.696	426.56
489.914	440.56
490.132	443.56
490.35	432.56
490.568	466.56
490.786	468.56
491.003	455.56
491.221	445.56
491.439	467.56
491.657	475.56
491.874	491.56
492.092	463.56
492.31	477.56
492.527	480.56
492.745	499.56
492.963	482.56
493.18	488.56
493.398	486.56
493.615	493.56
493.833	495.56
494.05	475.56
494.268	503.56
494.485	490.56
494.703	476.56
494.92	472.56
495.138	501.56
495.355	497.56
495.573	511.56
495.79	500.56
496.008	491.56
496.225	508.56
496.442	483.56
496.66	488.56
496.877	502.56
497.094	505.56
497.312	522.56
497.529	515.56
497.746	541.56
497.963	522.56
498.181	571.56
498.398	551.56
498.615	547.56
498.832	547.56
499.049	548.56
499.267	590.56
499.484	603.56
499.701	620.56
499.918	630.56
500.135	668.56
500.352	715.56
500.569	694.56
500.786	700.56
501.003	675.56
501.22	674.56
501.437	670.56
501.654	647.56
501.871	606.56
502.088	612.56
502.305	573.56
