Data from 1983.PennyLincolnUp.Lamp.En5.5.200Scan.071819.P1_HRD10591_16-55-20-966.txt Node
Date: Thu Jul 18 16:55:20 EDT 2019
User: cochatt
Spectrometer: HR+D1059
Trigger mode: 1
Integration Time (sec): 1.000000E-1
Scans to average: 1
Electric dark correction enabled: true
Nonlinearity correction enabled: false
Boxcar width: 0
XAxis mode: Wavelengths
Number of Pixels in Spectrum: 2048
>>>>>Begin Spectral Data<<<<<
223.165	-28.5
223.4	-28.5
223.635	-28.5
223.869	-15.5
224.104	-13.5
224.338	-15.5
224.573	-9.5
224.808	-20.5
225.042	-3.5
225.277	2.5
225.511	-11.5
225.746	15.5
225.98	13.5
226.215	-6.5
226.449	13.5
226.683	19.5
226.918	22.5
227.152	37.5
227.387	37.5
227.621	44.5
227.856	37.5
228.09	38.5
228.324	59.5
228.559	63.5
228.793	62.5
229.027	95.5
229.262	121.5
229.496	106.5
229.73	126.5
229.964	157.5
230.199	115.5
230.433	112.5
230.667	123.5
230.901	100.5
231.136	112.5
231.37	102.5
231.604	88.5
231.838	111.5
232.072	112.5
232.306	112.5
232.541	109.5
232.775	102.5
233.009	120.5
233.243	97.5
233.477	100.5
233.711	99.5
233.945	127.5
234.179	120.5
234.413	101.5
234.647	99.5
234.881	119.5
235.115	119.5
235.349	119.5
235.583	111.5
235.817	114.5
236.051	115.5
236.285	119.5
236.519	108.5
236.753	118.5
236.987	136.5
237.221	181.5
237.455	218.5
237.689	174.5
237.922	146.5
238.156	137.5
238.39	114.5
238.624	120.5
238.858	115.5
239.091	105.5
239.325	112.5
239.559	112.5
239.793	129.5
240.027	127.5
240.26	130.5
240.494	135.5
240.728	117.5
240.961	131.5
241.195	127.5
241.429	123.5
241.662	133.5
241.896	134.5
242.13	132.5
242.363	122.5
242.597	126.5
242.83	121.5
243.064	128.5
243.298	116.5
243.531	128.5
243.765	133.5
243.998	148.5
244.232	124.5
244.465	134.5
244.699	146.5
244.932	122.5
245.166	149.5
245.399	144.5
245.633	128.5
245.866	132.5
246.099	133.5
246.333	143.5
246.566	130.5
246.8	141.5
247.033	154.5
247.266	144.5
247.5	150.5
247.733	149.5
247.966	151.5
248.2	163.5
248.433	179.5
248.666	152.5
248.899	159.5
249.133	175.5
249.366	188.5
249.599	195.5
249.832	174.5
250.066	179.5
250.299	166.5
250.532	194.5
250.765	199.5
250.998	218.5
251.231	208.5
251.465	205.5
251.698	182.5
251.931	186.5
252.164	194.5
252.397	184.5
252.63	189.5
252.863	207.5
253.096	200.5
253.329	206.5
253.562	193.5
253.795	199.5
254.028	228.5
254.261	204.5
254.494	202.5
254.727	235.5
254.96	241.5
255.193	239.5
255.426	243.5
255.659	214.5
255.892	250.5
256.124	252.5
256.357	242.5
256.59	234.5
256.823	213.5
257.056	204.5
257.289	188.5
257.521	215.5
257.754	199.5
257.987	186.5
258.22	194.5
258.452	191.5
258.685	180.5
258.918	184.5
259.151	186.5
259.383	204.5
259.616	203.5
259.849	222.5
260.081	224.5
260.314	242.5
260.547	242.5
260.779	233.5
261.012	232.5
261.244	218.5
261.477	199.5
261.71	200.5
261.942	221.5
262.175	228.5
262.407	220.5
262.64	201.5
262.872	215.5
263.105	208.5
263.337	188.5
263.57	190.5
263.802	204.5
264.035	184.5
264.267	196.5
264.499	189.5
264.732	204.5
264.964	192.5
265.197	218.5
265.429	207.5
265.661	188.5
265.894	206.5
266.126	200.5
266.358	204.5
266.591	203.5
266.823	207.5
267.055	212.5
267.287	207.5
267.52	217.5
267.752	217.5
267.984	214.5
268.216	214.5
268.448	226.5
268.681	212.5
268.913	233.5
269.145	247.5
269.377	250.5
269.609	238.5
269.841	255.5
270.073	268.5
270.306	275.5
270.538	281.5
270.77	275.5
271.002	272.5
271.234	278.5
271.466	264.5
271.698	286.5
271.93	294.5
272.162	308.5
272.394	291.5
272.626	283.5
272.858	274.5
273.09	260.5
273.322	258.5
273.553	244.5
273.785	246.5
274.017	257.5
274.249	234.5
274.481	243.5
274.713	258.5
274.945	257.5
275.176	246.5
275.408	260.5
275.64	257.5
275.872	251.5
276.104	259.5
276.335	236.5
276.567	249.5
276.799	276.5
277.031	284.5
277.262	289.5
277.494	276.5
277.726	276.5
277.957	276.5
278.189	239.5
278.421	264.5
278.652	258.5
278.884	225.5
279.115	256.5
279.347	241.5
279.579	240.5
279.81	221.5
280.042	254.5
280.273	259.5
280.505	258.5
280.736	263.5
280.968	256.5
281.199	248.5
281.431	255.5
281.662	260.5
281.894	245.5
282.125	261.5
282.356	248.5
282.588	293.5
282.819	287.5
283.051	234.5
283.282	236.5
283.513	245.5
283.745	264.5
283.976	247.5
284.207	254.5
284.439	256.5
284.67	257.5
284.901	246.5
285.132	246.5
285.364	266.5
285.595	268.5
285.826	245.5
286.057	247.5
286.288	260.5
286.52	253.5
286.751	268.5
286.982	265.5
287.213	239.5
287.444	256.5
287.675	266.5
287.906	274.5
288.138	265.5
288.369	275.5
288.6	260.5
288.831	287.5
289.062	274.5
289.293	267.5
289.524	265.5
289.755	270.5
289.986	260.5
290.217	270.5
290.448	270.5
290.679	254.5
290.91	273.5
291.141	261.5
291.371	282.5
291.602	264.5
291.833	267.5
292.064	259.5
292.295	264.5
292.526	265.5
292.757	256.5
292.987	264.5
293.218	246.5
293.449	279.5
293.68	291.5
293.91	280.5
294.141	262.5
294.372	278.5
294.603	283.5
294.833	271.5
295.064	285.5
295.295	273.5
295.525	271.5
295.756	267.5
295.987	264.5
296.217	313.5
296.448	306.5
296.679	285.5
296.909	278.5
297.14	286.5
297.37	297.5
297.601	282.5
297.831	279.5
298.062	259.5
298.292	282.5
298.523	287.5
298.753	276.5
298.984	288.5
299.214	282.5
299.445	272.5
299.675	283.5
299.905	276.5
300.136	270.5
300.366	286.5
300.597	273.5
300.827	300.5
301.057	296.5
301.288	309.5
301.518	293.5
301.748	306.5
301.979	295.5
302.209	297.5
302.439	299.5
302.669	298.5
302.9	303.5
303.13	290.5
303.36	318.5
303.59	287.5
303.82	319.5
304.051	314.5
304.281	315.5
304.511	307.5
304.741	301.5
304.971	307.5
305.201	298.5
305.431	302.5
305.661	296.5
305.891	309.5
306.121	305.5
306.352	321.5
306.582	318.5
306.812	317.5
307.042	314.5
307.272	308.5
307.502	291.5
307.731	306.5
307.961	296.5
308.191	294.5
308.421	302.5
308.651	297.5
308.881	310.5
309.111	312.5
309.341	311.5
309.571	325.5
309.8	349.5
310.03	334.5
310.26	353.5
310.49	338.5
310.72	348.5
310.949	373.5
311.179	390.5
311.409	365.5
311.639	359.5
311.868	360.5
312.098	346.5
312.328	356.5
312.557	405.5
312.787	398.5
313.017	371.5
313.246	350.5
313.476	366.5
313.706	343.5
313.935	374.5
314.165	345.5
314.394	378.5
314.624	352.5
314.853	374.5
315.083	356.5
315.312	345.5
315.542	348.5
315.771	335.5
316.001	346.5
316.23	343.5
316.46	329.5
316.689	352.5
316.919	359.5
317.148	359.5
317.377	359.5
317.607	354.5
317.836	368.5
318.065	371.5
318.295	339.5
318.524	334.5
318.753	344.5
318.983	343.5
319.212	351.5
319.441	353.5
319.67	363.5
319.9	371.5
320.129	356.5
320.358	363.5
320.587	360.5
320.816	338.5
321.046	372.5
321.275	384.5
321.504	375.5
321.733	389.5
321.962	386.5
322.191	408.5
322.42	414.5
322.649	434.5
322.878	420.5
323.108	430.5
323.337	479.5
323.566	464.5
323.795	510.5
324.024	570.5
324.253	697.5
324.482	1033.5
324.71	1516.5
324.939	2088.5
325.168	1699.5
325.397	916.5
325.626	641.5
325.855	534.5
326.084	499.5
326.313	497.5
326.542	523.5
326.77	531.5
326.999	656.5
327.228	891.5
327.457	1313.5
327.686	1545.5
327.914	1022.5
328.143	712.5
328.372	658.5
328.6	596.5
328.829	564.5
329.058	560.5
329.287	576.5
329.515	531.5
329.744	500.5
329.972	502.5
330.201	599.5
330.43	625.5
330.658	637.5
330.887	610.5
331.115	591.5
331.344	499.5
331.572	491.5
331.801	465.5
332.03	476.5
332.258	436.5
332.486	439.5
332.715	431.5
332.943	416.5
333.172	436.5
333.4	440.5
333.629	471.5
333.857	455.5
334.085	506.5
334.314	502.5
334.542	604.5
334.771	631.5
334.999	524.5
335.227	467.5
335.455	450.5
335.684	422.5
335.912	421.5
336.14	415.5
336.369	420.5
336.597	400.5
336.825	417.5
337.053	419.5
337.281	409.5
337.51	415.5
337.738	411.5
337.966	402.5
338.194	400.5
338.422	385.5
338.65	419.5
338.878	397.5
339.106	364.5
339.334	378.5
339.562	402.5
339.79	385.5
340.018	396.5
340.246	406.5
340.474	401.5
340.702	400.5
340.93	381.5
341.158	382.5
341.386	386.5
341.614	394.5
341.842	379.5
342.07	394.5
342.298	379.5
342.526	389.5
342.754	366.5
342.981	378.5
343.209	384.5
343.437	390.5
343.665	370.5
343.893	402.5
344.12	392.5
344.348	376.5
344.576	396.5
344.804	397.5
345.031	409.5
345.259	414.5
345.487	388.5
345.714	394.5
345.942	402.5
346.17	391.5
346.397	383.5
346.625	400.5
346.853	384.5
347.08	376.5
347.308	382.5
347.535	384.5
347.763	401.5
347.99	388.5
348.218	394.5
348.445	398.5
348.673	414.5
348.9	390.5
349.128	383.5
349.355	375.5
349.583	343.5
349.81	364.5
350.037	373.5
350.265	382.5
350.492	372.5
350.72	354.5
350.947	374.5
351.174	424.5
351.402	388.5
351.629	390.5
351.856	408.5
352.083	402.5
352.311	390.5
352.538	397.5
352.765	407.5
352.992	395.5
353.22	381.5
353.447	370.5
353.674	371.5
353.901	357.5
354.128	351.5
354.355	343.5
354.583	368.5
354.81	362.5
355.037	344.5
355.264	358.5
355.491	343.5
355.718	354.5
355.945	354.5
356.172	324.5
356.399	348.5
356.626	348.5
356.853	330.5
357.08	347.5
357.307	347.5
357.534	326.5
357.761	327.5
357.988	350.5
358.215	353.5
358.441	361.5
358.668	336.5
358.895	346.5
359.122	362.5
359.349	368.5
359.576	388.5
359.802	409.5
360.029	426.5
360.256	422.5
360.483	423.5
360.709	410.5
360.936	390.5
361.163	372.5
361.39	397.5
361.616	375.5
361.843	372.5
362.07	372.5
362.296	383.5
362.523	400.5
362.749	391.5
362.976	359.5
363.203	354.5
363.429	366.5
363.656	375.5
363.882	344.5
364.109	355.5
364.335	351.5
364.562	369.5
364.788	356.5
365.015	353.5
365.241	342.5
365.468	369.5
365.694	356.5
365.92	363.5
366.147	361.5
366.373	359.5
366.599	370.5
366.826	356.5
367.052	364.5
367.278	362.5
367.505	391.5
367.731	370.5
367.957	367.5
368.184	364.5
368.41	370.5
368.636	361.5
368.862	400.5
369.089	376.5
369.315	351.5
369.541	371.5
369.767	350.5
369.993	360.5
370.219	361.5
370.445	337.5
370.672	351.5
370.898	352.5
371.124	354.5
371.35	353.5
371.576	352.5
371.802	344.5
372.028	371.5
372.254	350.5
372.48	345.5
372.706	341.5
372.932	352.5
373.158	336.5
373.384	361.5
373.61	350.5
373.835	362.5
374.061	342.5
374.287	379.5
374.513	366.5
374.739	376.5
374.965	360.5
375.191	354.5
375.416	359.5
375.642	353.5
375.868	368.5
376.094	364.5
376.319	346.5
376.545	347.5
376.771	339.5
376.997	326.5
377.222	336.5
377.448	344.5
377.674	348.5
377.899	356.5
378.125	356.5
378.35	345.5
378.576	346.5
378.802	344.5
379.027	352.5
379.253	341.5
379.478	329.5
379.704	347.5
379.929	347.5
380.155	364.5
380.38	357.5
380.606	352.5
380.831	353.5
381.057	348.5
381.282	347.5
381.507	351.5
381.733	363.5
381.958	348.5
382.184	327.5
382.409	353.5
382.634	340.5
382.86	345.5
383.085	352.5
383.31	347.5
383.535	355.5
383.761	366.5
383.986	359.5
384.211	351.5
384.436	353.5
384.662	359.5
384.887	372.5
385.112	375.5
385.337	344.5
385.562	351.5
385.787	374.5
386.013	397.5
386.238	380.5
386.463	362.5
386.688	363.5
386.913	386.5
387.138	378.5
387.363	376.5
387.588	372.5
387.813	396.5
388.038	377.5
388.263	375.5
388.488	382.5
388.713	382.5
388.938	384.5
389.163	366.5
389.387	351.5
389.612	358.5
389.837	370.5
390.062	374.5
390.287	360.5
390.512	382.5
390.736	362.5
390.961	353.5
391.186	373.5
391.411	384.5
391.636	370.5
391.86	370.5
392.085	370.5
392.31	397.5
392.534	381.5
392.759	355.5
392.984	370.5
393.208	349.5
393.433	390.5
393.658	391.5
393.882	364.5
394.107	392.5
394.331	386.5
394.556	388.5
394.78	369.5
395.005	361.5
395.229	366.5
395.454	376.5
395.678	379.5
395.903	369.5
396.127	423.5
396.352	404.5
396.576	412.5
396.801	384.5
397.025	399.5
397.249	382.5
397.474	402.5
397.698	393.5
397.922	414.5
398.147	410.5
398.371	422.5
398.595	401.5
398.82	407.5
399.044	435.5
399.268	446.5
399.492	448.5
399.717	458.5
399.941	497.5
400.165	514.5
400.389	497.5
400.613	474.5
400.837	450.5
401.062	444.5
401.286	442.5
401.51	438.5
401.734	434.5
401.958	435.5
402.182	441.5
402.406	433.5
402.63	446.5
402.854	443.5
403.078	435.5
403.302	448.5
403.526	448.5
403.75	447.5
403.974	418.5
404.198	412.5
404.422	457.5
404.645	443.5
404.869	449.5
405.093	490.5
405.317	527.5
405.541	539.5
405.765	496.5
405.988	458.5
406.212	486.5
406.436	510.5
406.66	519.5
406.883	477.5
407.107	500.5
407.331	526.5
407.555	568.5
407.778	540.5
408.002	530.5
408.226	484.5
408.449	488.5
408.673	494.5
408.896	506.5
409.12	532.5
409.344	500.5
409.567	457.5
409.791	458.5
410.014	453.5
410.238	446.5
410.461	436.5
410.685	449.5
410.908	443.5
411.132	479.5
411.355	494.5
411.578	480.5
411.802	432.5
412.025	447.5
412.249	470.5
412.472	488.5
412.695	525.5
412.919	533.5
413.142	458.5
413.365	470.5
413.589	434.5
413.812	435.5
414.035	432.5
414.258	420.5
414.482	424.5
414.705	417.5
414.928	401.5
415.151	426.5
415.374	421.5
415.597	420.5
415.821	419.5
416.044	435.5
416.267	414.5
416.49	416.5
416.713	433.5
416.936	420.5
417.159	414.5
417.382	429.5
417.605	432.5
417.828	422.5
418.051	422.5
418.274	431.5
418.497	427.5
418.72	440.5
418.943	420.5
419.166	426.5
419.389	430.5
419.611	451.5
419.834	451.5
420.057	447.5
420.28	443.5
420.503	443.5
420.726	443.5
420.948	481.5
421.171	492.5
421.394	480.5
421.617	474.5
421.839	443.5
422.062	441.5
422.285	451.5
422.507	518.5
422.73	560.5
422.953	528.5
423.175	461.5
423.398	467.5
423.621	452.5
423.843	467.5
424.066	449.5
424.288	475.5
424.511	471.5
424.733	507.5
424.956	579.5
425.178	554.5
425.401	572.5
425.623	566.5
425.846	504.5
426.068	465.5
426.291	455.5
426.513	484.5
426.735	488.5
426.958	503.5
427.18	564.5
427.402	654.5
427.625	760.5
427.847	648.5
428.069	588.5
428.292	535.5
428.514	466.5
428.736	463.5
428.958	453.5
429.181	428.5
429.403	427.5
429.625	454.5
429.847	459.5
430.069	491.5
430.292	490.5
430.514	450.5
430.736	450.5
430.958	433.5
431.18	445.5
431.402	427.5
431.624	424.5
431.846	401.5
432.068	384.5
432.29	399.5
432.512	396.5
432.734	397.5
432.956	418.5
433.178	426.5
433.4	434.5
433.622	427.5
433.844	406.5
434.066	412.5
434.287	416.5
434.509	406.5
434.731	409.5
434.953	450.5
435.175	434.5
435.397	454.5
435.618	463.5
435.84	502.5
436.062	580.5
436.284	615.5
436.505	526.5
436.727	484.5
436.949	449.5
437.17	432.5
437.392	448.5
437.614	445.5
437.835	483.5
438.057	560.5
438.278	650.5
438.5	638.5
438.721	669.5
438.943	643.5
439.165	531.5
439.386	466.5
439.608	468.5
439.829	470.5
440.05	530.5
440.272	541.5
440.493	516.5
440.715	483.5
440.936	467.5
441.158	457.5
441.379	448.5
441.6	450.5
441.822	457.5
442.043	515.5
442.264	582.5
442.486	581.5
442.707	499.5
442.928	492.5
443.149	498.5
443.371	522.5
443.592	539.5
443.813	621.5
444.034	666.5
444.255	551.5
444.476	474.5
444.698	468.5
444.919	444.5
445.14	550.5
445.361	514.5
445.582	514.5
445.803	589.5
446.024	633.5
446.245	624.5
446.466	595.5
446.687	512.5
446.908	478.5
447.129	456.5
447.35	426.5
447.571	449.5
447.792	437.5
448.013	440.5
448.234	464.5
448.455	495.5
448.675	588.5
448.896	674.5
449.117	586.5
449.338	566.5
449.559	640.5
449.779	700.5
450	546.5
450.221	475.5
450.442	426.5
450.662	435.5
450.883	416.5
451.104	459.5
451.324	454.5
451.545	454.5
451.766	407.5
451.986	415.5
452.207	391.5
452.428	385.5
452.648	406.5
452.869	391.5
453.089	417.5
453.31	415.5
453.53	412.5
453.751	414.5
453.971	380.5
454.192	434.5
454.412	415.5
454.633	388.5
454.853	385.5
455.073	384.5
455.294	412.5
455.514	479.5
455.734	470.5
455.955	396.5
456.175	371.5
456.395	367.5
456.616	368.5
456.836	350.5
457.056	371.5
457.276	375.5
457.497	364.5
457.717	370.5
457.937	378.5
458.157	404.5
458.377	402.5
458.598	409.5
458.818	454.5
459.038	529.5
459.258	550.5
459.478	442.5
459.698	417.5
459.918	419.5
460.138	408.5
460.358	405.5
460.578	407.5
460.798	405.5
461.018	422.5
461.238	402.5
461.458	396.5
461.678	418.5
461.898	420.5
462.118	423.5
462.338	434.5
462.558	421.5
462.777	418.5
462.997	420.5
463.217	457.5
463.437	456.5
463.657	426.5
463.876	438.5
464.096	453.5
464.316	443.5
464.536	457.5
464.755	465.5
464.975	443.5
465.195	512.5
465.414	573.5
465.634	488.5
465.854	456.5
466.073	437.5
466.293	408.5
466.512	386.5
466.732	402.5
466.951	396.5
467.171	393.5
467.391	389.5
467.61	408.5
467.829	404.5
468.049	420.5
468.268	426.5
468.488	416.5
468.707	401.5
468.927	392.5
469.146	371.5
469.365	407.5
469.585	372.5
469.804	403.5
470.023	407.5
470.243	417.5
470.462	430.5
470.681	452.5
470.901	439.5
471.12	419.5
471.339	404.5
471.558	414.5
471.777	409.5
471.997	418.5
472.216	441.5
472.435	520.5
472.654	473.5
472.873	432.5
473.092	414.5
473.311	408.5
473.53	413.5
473.749	414.5
473.968	458.5
474.187	566.5
474.406	552.5
474.625	473.5
474.844	443.5
475.063	406.5
475.282	412.5
475.501	422.5
475.72	402.5
475.939	432.5
476.158	432.5
476.377	402.5
476.596	422.5
476.814	428.5
477.033	417.5
477.252	446.5
477.471	433.5
477.69	448.5
477.908	430.5
478.127	452.5
478.346	443.5
478.564	454.5
478.783	447.5
479.002	462.5
479.22	466.5
479.439	483.5
479.658	481.5
479.876	502.5
480.095	518.5
480.313	537.5
480.532	506.5
480.751	509.5
480.969	526.5
481.188	628.5
481.406	741.5
481.624	599.5
481.843	542.5
482.061	492.5
482.28	502.5
482.498	474.5
482.717	468.5
482.935	466.5
483.153	474.5
483.372	465.5
483.59	478.5
483.808	484.5
484.027	492.5
484.245	476.5
484.463	468.5
484.681	502.5
484.9	496.5
485.118	499.5
485.336	465.5
485.554	499.5
485.772	508.5
485.99	482.5
486.209	507.5
486.427	493.5
486.645	510.5
486.863	529.5
487.081	532.5
487.299	527.5
487.517	522.5
487.735	518.5
487.953	520.5
488.171	536.5
488.389	525.5
488.607	521.5
488.825	522.5
489.043	494.5
489.261	533.5
489.479	520.5
489.696	522.5
489.914	541.5
490.132	528.5
490.35	546.5
490.568	565.5
490.786	546.5
491.003	578.5
491.221	579.5
491.439	591.5
491.657	604.5
491.874	608.5
492.092	614.5
492.31	623.5
492.527	618.5
492.745	620.5
492.963	612.5
493.18	614.5
493.398	650.5
493.615	635.5
493.833	651.5
494.05	636.5
494.268	623.5
494.485	618.5
494.703	619.5
494.92	616.5
495.138	619.5
495.355	600.5
495.573	624.5
495.79	617.5
496.008	652.5
496.225	606.5
496.442	597.5
496.66	598.5
496.877	618.5
497.094	604.5
497.312	602.5
497.529	638.5
497.746	649.5
497.963	622.5
498.181	666.5
498.398	659.5
498.615	635.5
498.832	677.5
499.049	684.5
499.267	679.5
499.484	700.5
499.701	725.5
499.918	727.5
500.135	766.5
500.352	786.5
500.569	791.5
500.786	818.5
501.003	761.5
501.22	778.5
501.437	739.5
501.654	744.5
501.871	751.5
502.088	720.5
502.305	706.5
502.522	679.5
502.739	650.5
502.956	636.5
503.172	635.5
503.389	630.5
503.606	624.5
503.823	619.5
504.04	606.5
504.256	613.5
504.473	615.5
504.69	605.5
504.907	580.5
505.123	607.5
505.34	611.5
505.557	578.5
505.773	569.5
505.99	578.5
506.207	572.5
506.423	600.5
506.64	578.5
506.856	574.5
507.073	573.5
507.289	575.5
507.506	565.5
507.722	587.5
507.939	618.5
508.155	587.5
508.372	555.5
508.588	546.5
508.805	551.5
509.021	543.5
509.238	576.5
509.454	574.5
509.67	567.5
509.887	578.5
510.103	546.5
510.319	571.5
510.536	692.5
510.752	1178.5
510.968	903.5
511.184	590.5
511.401	546.5
511.617	558.5
511.833	543.5
512.049	537.5
512.265	532.5
512.481	544.5
512.698	528.5
512.914	537.5
513.13	514.5
513.346	542.5
513.562	538.5
513.778	519.5
513.994	514.5
514.21	561.5
514.426	569.5
514.642	626.5
514.858	640.5
515.074	676.5
515.29	831.5
515.506	1314.5
515.721	1065.5
515.937	686.5
516.153	591.5
516.369	598.5
516.585	541.5
516.801	546.5
517.016	544.5
517.232	528.5
517.448	555.5
517.664	559.5
517.879	532.5
518.095	552.5
518.311	528.5
518.527	546.5
518.742	514.5
518.958	505.5
519.173	515.5
519.389	521.5
519.605	512.5
519.82	524.5
