Data from 1983.PennyLincolnUp.Lamp.En5.5.200Scan.071819.P1_HRD10591_16-54-33-965.txt Node
Date: Thu Jul 18 16:54:33 EDT 2019
User: cochatt
Spectrometer: HR+D1059
Trigger mode: 1
Integration Time (sec): 1.000000E-1
Scans to average: 1
Electric dark correction enabled: true
Nonlinearity correction enabled: false
Boxcar width: 0
XAxis mode: Wavelengths
Number of Pixels in Spectrum: 2048
>>>>>Begin Spectral Data<<<<<
223.165	-24.38
223.4	-24.38
223.635	-24.38
223.869	-6.38
224.104	-8.38
224.338	-17.38
224.573	-5.38
224.808	-7.38
225.042	-14.38
225.277	-1.38
225.511	1.62
225.746	1.62
225.98	-4.38
226.215	15.62
226.449	18.62
226.683	12.62
226.918	13.62
227.152	25.62
227.387	27.62
227.621	44.62
227.856	41.62
228.09	56.62
228.324	49.62
228.559	58.62
228.793	66.62
229.027	94.62
229.262	97.62
229.496	89.62
229.73	123.62
229.964	143.62
230.199	128.62
230.433	110.62
230.667	122.62
230.901	108.62
231.136	116.62
231.37	93.62
231.604	95.62
231.838	105.62
232.072	104.62
232.306	116.62
232.541	114.62
232.775	103.62
233.009	116.62
233.243	119.62
233.477	111.62
233.711	120.62
233.945	119.62
234.179	121.62
234.413	118.62
234.647	105.62
234.881	115.62
235.115	110.62
235.349	110.62
235.583	125.62
235.817	131.62
236.051	110.62
236.285	133.62
236.519	127.62
236.753	118.62
236.987	142.62
237.221	172.62
237.455	211.62
237.689	171.62
237.922	140.62
238.156	138.62
238.39	122.62
238.624	104.62
238.858	139.62
239.091	114.62
239.325	113.62
239.559	127.62
239.793	123.62
240.027	134.62
240.26	132.62
240.494	162.62
240.728	127.62
240.961	132.62
241.195	136.62
241.429	122.62
241.662	117.62
241.896	120.62
242.13	118.62
242.363	117.62
242.597	127.62
242.83	117.62
243.064	120.62
243.298	125.62
243.531	123.62
243.765	121.62
243.998	132.62
244.232	138.62
244.465	128.62
244.699	143.62
244.932	134.62
245.166	153.62
245.399	143.62
245.633	126.62
245.866	143.62
246.099	141.62
246.333	146.62
246.566	131.62
246.8	138.62
247.033	139.62
247.266	160.62
247.5	158.62
247.733	147.62
247.966	135.62
248.2	144.62
248.433	164.62
248.666	180.62
248.899	174.62
249.133	191.62
249.366	187.62
249.599	184.62
249.832	171.62
250.066	156.62
250.299	167.62
250.532	161.62
250.765	194.62
250.998	208.62
251.231	206.62
251.465	189.62
251.698	184.62
251.931	192.62
252.164	177.62
252.397	182.62
252.63	187.62
252.863	192.62
253.096	209.62
253.329	206.62
253.562	223.62
253.795	212.62
254.028	191.62
254.261	209.62
254.494	217.62
254.727	252.62
254.96	265.62
255.193	225.62
255.426	229.62
255.659	214.62
255.892	227.62
256.124	216.62
256.357	206.62
256.59	210.62
256.823	203.62
257.056	196.62
257.289	198.62
257.521	190.62
257.754	195.62
257.987	196.62
258.22	205.62
258.452	211.62
258.685	204.62
258.918	187.62
259.151	197.62
259.383	199.62
259.616	198.62
259.849	214.62
260.081	235.62
260.314	244.62
260.547	238.62
260.779	229.62
261.012	209.62
261.244	217.62
261.477	186.62
261.71	189.62
261.942	209.62
262.175	218.62
262.407	210.62
262.64	203.62
262.872	204.62
263.105	196.62
263.337	194.62
263.57	201.62
263.802	209.62
264.035	200.62
264.267	199.62
264.499	185.62
264.732	191.62
264.964	198.62
265.197	195.62
265.429	186.62
265.661	195.62
265.894	204.62
266.126	195.62
266.358	191.62
266.591	197.62
266.823	195.62
267.055	220.62
267.287	198.62
267.52	202.62
267.752	214.62
267.984	215.62
268.216	217.62
268.448	213.62
268.681	218.62
268.913	234.62
269.145	247.62
269.377	247.62
269.609	241.62
269.841	264.62
270.073	248.62
270.306	242.62
270.538	298.62
270.77	277.62
271.002	278.62
271.234	277.62
271.466	281.62
271.698	276.62
271.93	293.62
272.162	285.62
272.394	265.62
272.626	291.62
272.858	276.62
273.09	253.62
273.322	259.62
273.553	239.62
273.785	235.62
274.017	232.62
274.249	229.62
274.481	238.62
274.713	241.62
274.945	259.62
275.176	268.62
275.408	245.62
275.64	237.62
275.872	238.62
276.104	230.62
276.335	245.62
276.567	251.62
276.799	276.62
277.031	286.62
277.262	305.62
277.494	282.62
277.726	275.62
277.957	266.62
278.189	247.62
278.421	250.62
278.652	253.62
278.884	247.62
279.115	251.62
279.347	247.62
279.579	236.62
279.81	229.62
280.042	228.62
280.273	245.62
280.505	226.62
280.736	230.62
280.968	241.62
281.199	254.62
281.431	246.62
281.662	254.62
281.894	254.62
282.125	255.62
282.356	279.62
282.588	300.62
282.819	269.62
283.051	258.62
283.282	221.62
283.513	235.62
283.745	254.62
283.976	256.62
284.207	239.62
284.439	248.62
284.67	258.62
284.901	266.62
285.132	250.62
285.364	257.62
285.595	240.62
285.826	264.62
286.057	263.62
286.288	263.62
286.52	245.62
286.751	254.62
286.982	248.62
287.213	264.62
287.444	248.62
287.675	270.62
287.906	264.62
288.138	280.62
288.369	278.62
288.6	291.62
288.831	286.62
289.062	272.62
289.293	257.62
289.524	257.62
289.755	254.62
289.986	273.62
290.217	263.62
290.448	267.62
290.679	241.62
290.91	254.62
291.141	251.62
291.371	252.62
291.602	271.62
291.833	263.62
292.064	252.62
292.295	264.62
292.526	276.62
292.757	258.62
292.987	272.62
293.218	270.62
293.449	270.62
293.68	280.62
293.91	250.62
294.141	259.62
294.372	271.62
294.603	263.62
294.833	263.62
295.064	266.62
295.295	272.62
295.525	255.62
295.756	271.62
295.987	287.62
296.217	296.62
296.448	306.62
296.679	273.62
296.909	261.62
297.14	274.62
297.37	259.62
297.601	273.62
297.831	269.62
298.062	282.62
298.292	301.62
298.523	276.62
298.753	279.62
298.984	263.62
299.214	296.62
299.445	290.62
299.675	288.62
299.905	276.62
300.136	282.62
300.366	285.62
300.597	279.62
300.827	285.62
301.057	294.62
301.288	293.62
301.518	295.62
301.748	301.62
301.979	307.62
302.209	285.62
302.439	307.62
302.669	286.62
302.9	299.62
303.13	290.62
303.36	314.62
303.59	296.62
303.82	326.62
304.051	315.62
304.281	304.62
304.511	293.62
304.741	285.62
304.971	278.62
305.201	291.62
305.431	293.62
305.661	312.62
305.891	297.62
306.121	295.62
306.352	307.62
306.582	291.62
306.812	293.62
307.042	310.62
307.272	309.62
307.502	293.62
307.731	283.62
307.961	278.62
308.191	296.62
308.421	301.62
308.651	315.62
308.881	297.62
309.111	303.62
309.341	301.62
309.571	326.62
309.8	338.62
310.03	347.62
310.26	359.62
310.49	351.62
310.72	362.62
310.949	361.62
311.179	355.62
311.409	343.62
311.639	330.62
311.868	350.62
312.098	336.62
312.328	377.62
312.557	363.62
312.787	387.62
313.017	394.62
313.246	356.62
313.476	348.62
313.706	336.62
313.935	350.62
314.165	374.62
314.394	389.62
314.624	379.62
314.853	362.62
315.083	343.62
315.312	348.62
315.542	328.62
315.771	339.62
316.001	329.62
316.23	349.62
316.46	350.62
316.689	349.62
316.919	340.62
317.148	336.62
317.377	361.62
317.607	349.62
317.836	335.62
318.065	357.62
318.295	345.62
318.524	351.62
318.753	344.62
318.983	356.62
319.212	339.62
319.441	349.62
319.67	358.62
319.9	340.62
320.129	363.62
320.358	352.62
320.587	343.62
320.816	371.62
321.046	366.62
321.275	369.62
321.504	366.62
321.733	365.62
321.962	374.62
322.191	414.62
322.42	406.62
322.649	415.62
322.878	428.62
323.108	437.62
323.337	454.62
323.566	476.62
323.795	512.62
324.024	567.62
324.253	697.62
324.482	1016.62
324.71	1486.62
324.939	2027.62
325.168	1692.62
325.397	929.62
325.626	632.62
325.855	511.62
326.084	480.62
326.313	451.62
326.542	478.62
326.77	535.62
326.999	633.62
327.228	875.62
327.457	1305.62
327.686	1472.62
327.914	1041.62
328.143	667.62
328.372	597.62
328.6	565.62
328.829	551.62
329.058	564.62
329.287	565.62
329.515	525.62
329.744	507.62
329.972	449.62
330.201	486.62
330.43	544.62
330.658	570.62
330.887	579.62
331.115	576.62
331.344	484.62
331.572	445.62
331.801	457.62
332.03	462.62
332.258	422.62
332.486	407.62
332.715	420.62
332.943	417.62
333.172	415.62
333.4	411.62
333.629	434.62
333.857	444.62
334.085	453.62
334.314	451.62
334.542	498.62
334.771	514.62
334.999	476.62
335.227	447.62
335.455	403.62
335.684	419.62
335.912	403.62
336.14	393.62
336.369	392.62
336.597	412.62
336.825	411.62
337.053	398.62
337.281	392.62
337.51	403.62
337.738	398.62
337.966	392.62
338.194	412.62
338.422	393.62
338.65	397.62
338.878	388.62
339.106	391.62
339.334	383.62
339.562	377.62
339.79	382.62
340.018	378.62
340.246	399.62
340.474	401.62
340.702	387.62
340.93	399.62
341.158	372.62
341.386	371.62
341.614	397.62
341.842	395.62
342.07	385.62
342.298	381.62
342.526	376.62
342.754	376.62
342.981	374.62
343.209	381.62
343.437	372.62
343.665	387.62
343.893	395.62
344.12	394.62
344.348	389.62
344.576	401.62
344.804	372.62
345.031	401.62
345.259	421.62
345.487	412.62
345.714	387.62
345.942	377.62
346.17	383.62
346.397	375.62
346.625	373.62
346.853	368.62
347.08	365.62
347.308	378.62
347.535	381.62
347.763	397.62
347.99	419.62
348.218	390.62
348.445	375.62
348.673	364.62
348.9	390.62
349.128	377.62
349.355	356.62
349.583	346.62
349.81	377.62
350.037	363.62
350.265	361.62
350.492	357.62
350.72	333.62
350.947	358.62
351.174	369.62
351.402	397.62
351.629	369.62
351.856	371.62
352.083	391.62
352.311	402.62
352.538	390.62
352.765	415.62
352.992	383.62
353.22	385.62
353.447	379.62
353.674	358.62
353.901	350.62
354.128	362.62
354.355	365.62
354.583	350.62
354.81	358.62
355.037	353.62
355.264	354.62
355.491	335.62
355.718	346.62
355.945	331.62
356.172	354.62
356.399	332.62
356.626	338.62
356.853	338.62
357.08	340.62
357.307	347.62
357.534	321.62
357.761	356.62
357.988	349.62
358.215	344.62
358.441	339.62
358.668	350.62
358.895	363.62
359.122	349.62
359.349	371.62
359.576	405.62
359.802	414.62
360.029	453.62
360.256	446.62
360.483	399.62
360.709	379.62
360.936	375.62
361.163	400.62
361.39	393.62
361.616	384.62
361.843	377.62
362.07	375.62
362.296	362.62
362.523	381.62
362.749	374.62
362.976	374.62
363.203	385.62
363.429	355.62
363.656	360.62
363.882	358.62
364.109	360.62
364.335	348.62
364.562	355.62
364.788	357.62
365.015	375.62
365.241	360.62
365.468	366.62
365.694	363.62
365.92	362.62
366.147	349.62
366.373	378.62
366.599	343.62
366.826	357.62
367.052	330.62
367.278	350.62
367.505	343.62
367.731	337.62
367.957	350.62
368.184	351.62
368.41	349.62
368.636	372.62
368.862	360.62
369.089	365.62
369.315	360.62
369.541	355.62
369.767	361.62
369.993	359.62
370.219	342.62
370.445	354.62
370.672	348.62
370.898	331.62
371.124	353.62
371.35	344.62
371.576	358.62
371.802	359.62
372.028	341.62
372.254	349.62
372.48	349.62
372.706	355.62
372.932	353.62
373.158	369.62
373.384	350.62
373.61	361.62
373.835	351.62
374.061	343.62
374.287	356.62
374.513	349.62
374.739	359.62
374.965	360.62
375.191	323.62
375.416	351.62
375.642	356.62
375.868	342.62
376.094	358.62
376.319	354.62
376.545	365.62
376.771	337.62
376.997	341.62
377.222	341.62
377.448	344.62
377.674	337.62
377.899	373.62
378.125	339.62
378.35	349.62
378.576	333.62
378.802	340.62
379.027	347.62
379.253	366.62
379.478	348.62
379.704	333.62
379.929	338.62
380.155	345.62
380.38	358.62
380.606	353.62
380.831	346.62
381.057	343.62
381.282	328.62
381.507	362.62
381.733	352.62
381.958	350.62
382.184	354.62
382.409	343.62
382.634	347.62
382.86	331.62
383.085	344.62
383.31	359.62
383.535	356.62
383.761	350.62
383.986	365.62
384.211	366.62
384.436	359.62
384.662	365.62
384.887	376.62
385.112	361.62
385.337	357.62
385.562	366.62
385.787	366.62
386.013	376.62
386.238	375.62
386.463	375.62
386.688	377.62
386.913	356.62
387.138	362.62
387.363	352.62
387.588	366.62
387.813	363.62
388.038	380.62
388.263	397.62
388.488	369.62
388.713	352.62
388.938	347.62
389.163	366.62
389.387	382.62
389.612	364.62
389.837	375.62
390.062	361.62
390.287	357.62
390.512	375.62
390.736	372.62
390.961	362.62
391.186	370.62
391.411	365.62
391.636	391.62
391.86	383.62
392.085	394.62
392.31	389.62
392.534	371.62
392.759	373.62
392.984	364.62
393.208	370.62
393.433	371.62
393.658	378.62
393.882	371.62
394.107	372.62
394.331	356.62
394.556	389.62
394.78	379.62
395.005	381.62
395.229	361.62
395.454	348.62
395.678	379.62
395.903	397.62
396.127	407.62
396.352	407.62
396.576	388.62
396.801	359.62
397.025	397.62
397.249	379.62
397.474	381.62
397.698	389.62
397.922	411.62
398.147	419.62
398.371	416.62
398.595	425.62
398.82	414.62
399.044	429.62
399.268	431.62
399.492	463.62
399.717	461.62
399.941	475.62
400.165	501.62
400.389	502.62
400.613	458.62
400.837	437.62
401.062	444.62
401.286	425.62
401.51	427.62
401.734	429.62
401.958	421.62
402.182	410.62
402.406	442.62
402.63	445.62
402.854	437.62
403.078	404.62
403.302	439.62
403.526	434.62
403.75	441.62
403.974	429.62
404.198	449.62
404.422	428.62
404.645	445.62
404.869	459.62
405.093	444.62
405.317	488.62
405.541	504.62
405.765	491.62
405.988	460.62
406.212	461.62
406.436	475.62
406.66	497.62
406.883	478.62
407.107	481.62
407.331	494.62
407.555	570.62
407.778	550.62
408.002	489.62
408.226	484.62
408.449	475.62
408.673	482.62
408.896	509.62
409.12	521.62
409.344	481.62
409.567	464.62
409.791	440.62
410.014	426.62
410.238	426.62
410.461	420.62
410.685	438.62
410.908	429.62
411.132	469.62
411.355	512.62
411.578	477.62
411.802	437.62
412.025	442.62
412.249	433.62
412.472	472.62
412.695	491.62
412.919	487.62
413.142	453.62
413.365	445.62
413.589	409.62
413.812	415.62
414.035	406.62
414.258	442.62
414.482	400.62
414.705	389.62
414.928	399.62
415.151	409.62
415.374	404.62
415.597	405.62
415.821	418.62
416.044	400.62
416.267	396.62
416.49	413.62
416.713	419.62
416.936	406.62
417.159	403.62
417.382	422.62
417.605	413.62
417.828	414.62
418.051	439.62
418.274	441.62
418.497	395.62
418.72	413.62
418.943	412.62
419.166	436.62
419.389	434.62
419.611	442.62
419.834	457.62
420.057	426.62
420.28	422.62
420.503	419.62
420.726	413.62
420.948	446.62
421.171	451.62
421.394	494.62
421.617	454.62
421.839	432.62
422.062	413.62
422.285	443.62
422.507	491.62
422.73	511.62
422.953	520.62
423.175	478.62
423.398	446.62
423.621	446.62
423.843	460.62
424.066	462.62
424.288	452.62
424.511	468.62
424.733	506.62
424.956	570.62
425.178	562.62
425.401	566.62
425.623	578.62
425.846	494.62
426.068	469.62
426.291	460.62
426.513	457.62
426.735	474.62
426.958	501.62
427.18	549.62
427.402	659.62
427.625	761.62
427.847	653.62
428.069	574.62
428.292	506.62
428.514	482.62
428.736	461.62
428.958	438.62
429.181	430.62
429.403	425.62
429.625	457.62
429.847	459.62
430.069	514.62
430.292	491.62
430.514	460.62
430.736	455.62
430.958	414.62
431.18	413.62
431.402	410.62
431.624	402.62
431.846	396.62
432.068	382.62
432.29	391.62
432.512	414.62
432.734	396.62
432.956	403.62
433.178	409.62
433.4	405.62
433.622	415.62
433.844	404.62
434.066	409.62
434.287	397.62
434.509	412.62
434.731	410.62
434.953	431.62
435.175	442.62
435.397	457.62
435.618	462.62
435.84	510.62
436.062	574.62
436.284	603.62
436.505	517.62
436.727	470.62
436.949	447.62
437.17	423.62
437.392	443.62
437.614	458.62
437.835	474.62
438.057	555.62
438.278	625.62
438.5	625.62
438.721	654.62
438.943	633.62
439.165	509.62
439.386	475.62
439.608	469.62
439.829	492.62
440.05	496.62
440.272	552.62
440.493	516.62
440.715	463.62
440.936	458.62
441.158	443.62
441.379	437.62
441.6	445.62
441.822	475.62
442.043	470.62
442.264	559.62
442.486	593.62
442.707	491.62
442.928	489.62
443.149	498.62
443.371	503.62
443.592	518.62
443.813	584.62
444.034	645.62
444.255	530.62
444.476	456.62
444.698	464.62
444.919	459.62
445.14	618.62
445.361	551.62
445.582	522.62
445.803	546.62
446.024	612.62
446.245	616.62
446.466	558.62
446.687	519.62
446.908	474.62
447.129	442.62
447.35	431.62
447.571	451.62
447.792	426.62
448.013	426.62
448.234	450.62
448.455	492.62
448.675	577.62
448.896	649.62
449.117	579.62
449.338	532.62
449.559	635.62
449.779	677.62
450	552.62
450.221	487.62
450.442	443.62
450.662	421.62
450.883	457.62
451.104	453.62
451.324	426.62
451.545	403.62
451.766	411.62
451.986	385.62
452.207	376.62
452.428	385.62
452.648	394.62
452.869	404.62
453.089	398.62
453.31	406.62
453.53	403.62
453.751	396.62
453.971	402.62
454.192	430.62
454.412	418.62
454.633	400.62
454.853	396.62
455.073	409.62
455.294	431.62
455.514	463.62
455.734	442.62
455.955	391.62
456.175	365.62
456.395	373.62
456.616	369.62
456.836	365.62
457.056	362.62
457.276	356.62
457.497	359.62
457.717	367.62
457.937	373.62
458.157	364.62
458.377	368.62
458.598	412.62
458.818	462.62
459.038	541.62
459.258	529.62
459.478	453.62
459.698	428.62
459.918	430.62
460.138	411.62
460.358	415.62
460.578	394.62
460.798	417.62
461.018	410.62
461.238	392.62
461.458	411.62
461.678	402.62
461.898	420.62
462.118	410.62
462.338	406.62
462.558	427.62
462.777	441.62
462.997	426.62
463.217	430.62
463.437	441.62
463.657	427.62
463.876	433.62
464.096	442.62
464.316	441.62
464.536	445.62
464.755	462.62
464.975	456.62
465.195	490.62
465.414	573.62
465.634	454.62
465.854	444.62
466.073	425.62
466.293	421.62
466.512	422.62
466.732	398.62
466.951	385.62
467.171	386.62
467.391	402.62
467.61	424.62
467.829	434.62
468.049	406.62
468.268	415.62
468.488	397.62
468.707	387.62
468.927	374.62
469.146	389.62
469.365	409.62
469.585	393.62
469.804	396.62
470.023	412.62
470.243	395.62
470.462	412.62
470.681	431.62
470.901	441.62
471.12	410.62
471.339	413.62
471.558	416.62
471.777	392.62
471.997	381.62
472.216	430.62
472.435	444.62
472.654	454.62
472.873	405.62
473.092	418.62
473.311	411.62
473.53	399.62
473.749	421.62
473.968	444.62
474.187	540.62
474.406	533.62
474.625	445.62
474.844	407.62
475.063	395.62
475.282	420.62
475.501	412.62
475.72	426.62
475.939	406.62
476.158	424.62
476.377	431.62
476.596	393.62
476.814	407.62
477.033	421.62
477.252	426.62
477.471	421.62
477.69	426.62
477.908	428.62
478.127	410.62
478.346	443.62
478.564	444.62
478.783	456.62
479.002	443.62
479.22	463.62
479.439	471.62
479.658	503.62
479.876	492.62
480.095	489.62
480.313	514.62
480.532	497.62
480.751	470.62
480.969	523.62
481.188	561.62
481.406	606.62
481.624	525.62
481.843	506.62
482.061	488.62
482.28	491.62
482.498	489.62
482.717	460.62
482.935	490.62
483.153	463.62
483.372	470.62
483.59	467.62
483.808	474.62
484.027	476.62
484.245	466.62
484.463	465.62
484.681	503.62
484.9	478.62
485.118	481.62
485.336	462.62
485.554	473.62
485.772	481.62
485.99	492.62
486.209	488.62
486.427	486.62
486.645	497.62
486.863	517.62
487.081	516.62
487.299	527.62
487.517	497.62
487.735	516.62
487.953	506.62
488.171	497.62
488.389	499.62
488.607	503.62
488.825	501.62
489.043	523.62
489.261	502.62
489.479	531.62
489.696	503.62
489.914	535.62
490.132	535.62
490.35	529.62
490.568	547.62
490.786	558.62
491.003	558.62
491.221	573.62
491.439	585.62
491.657	581.62
491.874	602.62
492.092	595.62
492.31	598.62
492.527	590.62
492.745	589.62
492.963	577.62
493.18	585.62
493.398	599.62
493.615	612.62
493.833	613.62
494.05	603.62
494.268	584.62
494.485	595.62
494.703	597.62
494.92	616.62
495.138	591.62
495.355	589.62
495.573	598.62
495.79	609.62
496.008	613.62
496.225	592.62
496.442	585.62
496.66	608.62
496.877	609.62
497.094	601.62
497.312	594.62
497.529	606.62
497.746	619.62
497.963	595.62
498.181	620.62
498.398	645.62
498.615	639.62
498.832	647.62
499.049	635.62
499.267	666.62
499.484	708.62
499.701	687.62
499.918	717.62
500.135	740.62
500.352	789.62
500.569	791.62
500.786	795.62
501.003	802.62
501.22	773.62
501.437	743.62
501.654	722.62
501.871	746.62
502.088	711.62
