Data from 1983.PennyLincolnUp.Lamp.En5.5.200Scan.071819.P1_HRD10591_16-52-52-965.txt Node
Date: Thu Jul 18 16:52:52 EDT 2019
User: cochatt
Spectrometer: HR+D1059
Trigger mode: 1
Integration Time (sec): 1.000000E-1
Scans to average: 1
Electric dark correction enabled: true
Nonlinearity correction enabled: false
Boxcar width: 0
XAxis mode: Wavelengths
Number of Pixels in Spectrum: 2048
>>>>>Begin Spectral Data<<<<<
223.165	-8.94
223.4	-8.94
223.635	-8.94
223.869	-16.94
224.104	-20.94
224.338	-10.94
224.573	-10.94
224.808	-6.94
225.042	-5.94
225.277	-23.94
225.511	-0.94
225.746	-0.94
225.98	20.06
226.215	1.06
226.449	22.06
226.683	13.06
226.918	28.06
227.152	23.06
227.387	41.06
227.621	39.06
227.856	45.06
228.09	44.06
228.324	47.06
228.559	51.06
228.793	67.06
229.027	81.06
229.262	110.06
229.496	111.06
229.73	117.06
229.964	131.06
230.199	108.06
230.433	105.06
230.667	95.06
230.901	117.06
231.136	107.06
231.37	110.06
231.604	109.06
231.838	116.06
232.072	114.06
232.306	113.06
232.541	106.06
232.775	114.06
233.009	101.06
233.243	108.06
233.477	117.06
233.711	113.06
233.945	115.06
234.179	114.06
234.413	107.06
234.647	109.06
234.881	113.06
235.115	123.06
235.349	114.06
235.583	108.06
235.817	111.06
236.051	109.06
236.285	113.06
236.519	100.06
236.753	135.06
236.987	145.06
237.221	159.06
237.455	202.06
237.689	169.06
237.922	130.06
238.156	127.06
238.39	115.06
238.624	124.06
238.858	123.06
239.091	122.06
239.325	101.06
239.559	119.06
239.793	111.06
240.027	121.06
240.26	132.06
240.494	143.06
240.728	155.06
240.961	135.06
241.195	132.06
241.429	137.06
241.662	113.06
241.896	121.06
242.13	126.06
242.363	122.06
242.597	138.06
242.83	127.06
243.064	122.06
243.298	124.06
243.531	114.06
243.765	139.06
243.998	124.06
244.232	138.06
244.465	136.06
244.699	123.06
244.932	130.06
245.166	115.06
245.399	131.06
245.633	128.06
245.866	128.06
246.099	130.06
246.333	154.06
246.566	154.06
246.8	143.06
247.033	146.06
247.266	152.06
247.5	140.06
247.733	155.06
247.966	156.06
248.2	142.06
248.433	154.06
248.666	146.06
248.899	159.06
249.133	171.06
249.366	184.06
249.599	174.06
249.832	164.06
250.066	155.06
250.299	161.06
250.532	168.06
250.765	179.06
250.998	203.06
251.231	193.06
251.465	187.06
251.698	184.06
251.931	177.06
252.164	172.06
252.397	186.06
252.63	181.06
252.863	176.06
253.096	203.06
253.329	206.06
253.562	188.06
253.795	195.06
254.028	187.06
254.261	205.06
254.494	214.06
254.727	222.06
254.96	224.06
255.193	246.06
255.426	212.06
255.659	207.06
255.892	186.06
256.124	193.06
256.357	196.06
256.59	178.06
256.823	162.06
257.056	197.06
257.289	181.06
257.521	178.06
257.754	197.06
257.987	186.06
258.22	209.06
258.452	192.06
258.685	185.06
258.918	177.06
259.151	193.06
259.383	201.06
259.616	197.06
259.849	229.06
260.081	218.06
260.314	233.06
260.547	219.06
260.779	214.06
261.012	227.06
261.244	195.06
261.477	203.06
261.71	208.06
261.942	209.06
262.175	217.06
262.407	201.06
262.64	189.06
262.872	201.06
263.105	188.06
263.337	187.06
263.57	190.06
263.802	181.06
264.035	205.06
264.267	189.06
264.499	193.06
264.732	203.06
264.964	201.06
265.197	208.06
265.429	179.06
265.661	197.06
265.894	201.06
266.126	183.06
266.358	190.06
266.591	191.06
266.823	197.06
267.055	203.06
267.287	209.06
267.52	215.06
267.752	219.06
267.984	204.06
268.216	207.06
268.448	202.06
268.681	200.06
268.913	216.06
269.145	239.06
269.377	230.06
269.609	238.06
269.841	258.06
270.073	236.06
270.306	275.06
270.538	279.06
270.77	287.06
271.002	258.06
271.234	267.06
271.466	263.06
271.698	281.06
271.93	286.06
272.162	285.06
272.394	272.06
272.626	246.06
272.858	265.06
273.09	252.06
273.322	259.06
273.553	234.06
273.785	237.06
274.017	223.06
274.249	243.06
274.481	238.06
274.713	236.06
274.945	219.06
275.176	231.06
275.408	221.06
275.64	233.06
275.872	227.06
276.104	239.06
276.335	234.06
276.567	229.06
276.799	248.06
277.031	267.06
277.262	286.06
277.494	262.06
277.726	267.06
277.957	259.06
278.189	230.06
278.421	227.06
278.652	262.06
278.884	223.06
279.115	236.06
279.347	242.06
279.579	230.06
279.81	247.06
280.042	213.06
280.273	229.06
280.505	217.06
280.736	260.06
280.968	249.06
281.199	235.06
281.431	225.06
281.662	235.06
281.894	233.06
282.125	246.06
282.356	262.06
282.588	274.06
282.819	273.06
283.051	254.06
283.282	242.06
283.513	232.06
283.745	243.06
283.976	240.06
284.207	234.06
284.439	241.06
284.67	235.06
284.901	250.06
285.132	258.06
285.364	247.06
285.595	242.06
285.826	247.06
286.057	244.06
286.288	261.06
286.52	255.06
286.751	247.06
286.982	265.06
287.213	245.06
287.444	258.06
287.675	269.06
287.906	281.06
288.138	265.06
288.369	267.06
288.6	265.06
288.831	256.06
289.062	262.06
289.293	265.06
289.524	254.06
289.755	252.06
289.986	259.06
290.217	261.06
290.448	259.06
290.679	249.06
290.91	258.06
291.141	271.06
291.371	245.06
291.602	253.06
291.833	266.06
292.064	249.06
292.295	269.06
292.526	284.06
292.757	256.06
292.987	253.06
293.218	259.06
293.449	264.06
293.68	253.06
293.91	277.06
294.141	260.06
294.372	282.06
294.603	261.06
294.833	267.06
295.064	265.06
295.295	260.06
295.525	244.06
295.756	260.06
295.987	284.06
296.217	310.06
296.448	307.06
296.679	279.06
296.909	263.06
297.14	249.06
297.37	265.06
297.601	260.06
297.831	271.06
298.062	266.06
298.292	274.06
298.523	270.06
298.753	256.06
298.984	263.06
299.214	267.06
299.445	283.06
299.675	283.06
299.905	281.06
300.136	274.06
300.366	282.06
300.597	273.06
300.827	283.06
301.057	306.06
301.288	285.06
301.518	298.06
301.748	288.06
301.979	280.06
302.209	295.06
302.439	293.06
302.669	266.06
302.9	271.06
303.13	263.06
303.36	280.06
303.59	291.06
303.82	286.06
304.051	289.06
304.281	298.06
304.511	309.06
304.741	290.06
304.971	300.06
305.201	298.06
305.431	281.06
305.661	294.06
305.891	298.06
306.121	295.06
306.352	309.06
306.582	313.06
306.812	286.06
307.042	289.06
307.272	289.06
307.502	297.06
307.731	299.06
307.961	277.06
308.191	290.06
308.421	295.06
308.651	295.06
308.881	309.06
309.111	307.06
309.341	294.06
309.571	291.06
309.8	328.06
310.03	315.06
310.26	343.06
310.49	333.06
310.72	344.06
310.949	357.06
311.179	341.06
311.409	349.06
311.639	341.06
311.868	342.06
312.098	341.06
312.328	354.06
312.557	352.06
312.787	365.06
313.017	357.06
313.246	353.06
313.476	334.06
313.706	324.06
313.935	344.06
314.165	357.06
314.394	353.06
314.624	349.06
314.853	366.06
315.083	323.06
315.312	338.06
315.542	329.06
315.771	331.06
316.001	338.06
316.23	323.06
316.46	322.06
316.689	333.06
316.919	334.06
317.148	349.06
317.377	342.06
317.607	359.06
317.836	339.06
318.065	341.06
318.295	325.06
318.524	343.06
318.753	321.06
318.983	322.06
319.212	334.06
319.441	351.06
319.67	310.06
319.9	332.06
320.129	335.06
320.358	349.06
320.587	347.06
320.816	350.06
321.046	364.06
321.275	369.06
321.504	337.06
321.733	366.06
321.962	372.06
322.191	362.06
322.42	381.06
322.649	418.06
322.878	408.06
323.108	409.06
323.337	437.06
323.566	435.06
323.795	468.06
324.024	518.06
324.253	625.06
324.482	917.06
324.71	1371.06
324.939	1801.06
325.168	1489.06
325.397	825.06
325.626	582.06
325.855	499.06
326.084	457.06
326.313	468.06
326.542	449.06
326.77	513.06
326.999	570.06
327.228	812.06
327.457	1164.06
327.686	1351.06
327.914	893.06
328.143	614.06
328.372	535.06
328.6	512.06
328.829	509.06
329.058	505.06
329.287	509.06
329.515	487.06
329.744	421.06
329.972	436.06
330.201	433.06
330.43	453.06
330.658	501.06
330.887	513.06
331.115	504.06
331.344	456.06
331.572	427.06
331.801	445.06
332.03	435.06
332.258	422.06
332.486	405.06
332.715	404.06
332.943	387.06
333.172	393.06
333.4	396.06
333.629	409.06
333.857	397.06
334.085	389.06
334.314	407.06
334.542	403.06
334.771	405.06
334.999	408.06
335.227	414.06
335.455	399.06
335.684	376.06
335.912	373.06
336.14	396.06
336.369	381.06
336.597	376.06
336.825	411.06
337.053	390.06
337.281	375.06
337.51	368.06
337.738	389.06
337.966	375.06
338.194	381.06
338.422	383.06
338.65	377.06
338.878	379.06
339.106	377.06
339.334	377.06
339.562	354.06
339.79	385.06
340.018	382.06
340.246	371.06
340.474	392.06
340.702	368.06
340.93	372.06
341.158	379.06
341.386	372.06
341.614	393.06
341.842	373.06
342.07	366.06
342.298	362.06
342.526	361.06
342.754	349.06
342.981	355.06
343.209	358.06
343.437	352.06
343.665	366.06
343.893	377.06
344.12	397.06
344.348	358.06
344.576	393.06
344.804	378.06
345.031	381.06
345.259	380.06
345.487	371.06
345.714	399.06
345.942	376.06
346.17	372.06
346.397	357.06
346.625	393.06
346.853	373.06
347.08	366.06
347.308	389.06
347.535	373.06
347.763	379.06
347.99	367.06
348.218	364.06
348.445	362.06
348.673	372.06
348.9	373.06
349.128	370.06
349.355	359.06
349.583	375.06
349.81	356.06
350.037	359.06
350.265	335.06
350.492	364.06
350.72	372.06
350.947	361.06
351.174	365.06
351.402	358.06
351.629	382.06
351.856	364.06
352.083	369.06
352.311	372.06
352.538	378.06
352.765	392.06
352.992	374.06
353.22	363.06
353.447	365.06
353.674	358.06
353.901	352.06
354.128	359.06
354.355	341.06
354.583	360.06
354.81	350.06
355.037	348.06
355.264	345.06
355.491	357.06
355.718	329.06
355.945	348.06
356.172	332.06
356.399	317.06
356.626	342.06
356.853	371.06
357.08	345.06
357.307	361.06
357.534	347.06
357.761	333.06
357.988	360.06
358.215	371.06
358.441	348.06
358.668	353.06
358.895	340.06
359.122	354.06
359.349	382.06
359.576	378.06
359.802	377.06
360.029	400.06
360.256	409.06
360.483	418.06
360.709	378.06
360.936	371.06
361.163	389.06
361.39	363.06
361.616	356.06
361.843	368.06
362.07	373.06
362.296	351.06
362.523	339.06
362.749	364.06
362.976	354.06
363.203	366.06
363.429	344.06
363.656	355.06
363.882	371.06
364.109	362.06
364.335	341.06
364.562	370.06
364.788	353.06
365.015	341.06
365.241	338.06
365.468	351.06
365.694	353.06
365.92	341.06
366.147	332.06
366.373	356.06
366.599	344.06
366.826	351.06
367.052	345.06
367.278	332.06
367.505	353.06
367.731	349.06
367.957	353.06
368.184	349.06
368.41	366.06
368.636	356.06
368.862	356.06
369.089	363.06
369.315	350.06
369.541	353.06
369.767	349.06
369.993	348.06
370.219	357.06
370.445	339.06
370.672	346.06
370.898	346.06
371.124	347.06
371.35	342.06
371.576	367.06
371.802	349.06
372.028	348.06
372.254	361.06
372.48	341.06
372.706	348.06
372.932	346.06
373.158	360.06
373.384	365.06
373.61	340.06
373.835	336.06
374.061	346.06
374.287	330.06
374.513	336.06
374.739	349.06
374.965	357.06
375.191	348.06
375.416	363.06
375.642	357.06
375.868	370.06
376.094	341.06
376.319	353.06
376.545	338.06
376.771	339.06
376.997	354.06
377.222	344.06
377.448	333.06
377.674	332.06
377.899	337.06
378.125	327.06
378.35	336.06
378.576	322.06
378.802	336.06
379.027	342.06
379.253	348.06
379.478	336.06
379.704	345.06
379.929	339.06
380.155	349.06
380.38	354.06
380.606	347.06
380.831	347.06
381.057	333.06
381.282	350.06
381.507	345.06
381.733	353.06
381.958	369.06
382.184	339.06
382.409	342.06
382.634	345.06
382.86	366.06
383.085	366.06
383.31	365.06
383.535	383.06
383.761	357.06
383.986	347.06
384.211	356.06
384.436	376.06
384.662	351.06
384.887	359.06
385.112	363.06
385.337	374.06
385.562	343.06
385.787	373.06
386.013	375.06
386.238	382.06
386.463	379.06
386.688	383.06
386.913	366.06
387.138	377.06
387.363	352.06
387.588	364.06
387.813	357.06
388.038	360.06
388.263	349.06
388.488	374.06
388.713	367.06
388.938	353.06
389.163	381.06
389.387	364.06
389.612	365.06
389.837	369.06
390.062	359.06
390.287	378.06
390.512	379.06
390.736	357.06
390.961	385.06
391.186	357.06
391.411	375.06
391.636	363.06
391.86	379.06
392.085	381.06
392.31	351.06
392.534	384.06
392.759	354.06
392.984	372.06
393.208	377.06
393.433	358.06
393.658	369.06
393.882	393.06
394.107	381.06
394.331	384.06
394.556	378.06
394.78	350.06
395.005	359.06
395.229	378.06
395.454	387.06
395.678	395.06
395.903	378.06
396.127	405.06
396.352	409.06
396.576	408.06
396.801	381.06
397.025	385.06
397.249	377.06
397.474	406.06
397.698	395.06
397.922	404.06
398.147	403.06
398.371	402.06
398.595	398.06
398.82	398.06
399.044	430.06
399.268	408.06
399.492	469.06
399.717	461.06
399.941	493.06
400.165	518.06
400.389	529.06
400.613	467.06
400.837	414.06
401.062	429.06
401.286	410.06
401.51	416.06
401.734	406.06
401.958	399.06
402.182	405.06
402.406	411.06
402.63	437.06
402.854	429.06
403.078	426.06
403.302	429.06
403.526	422.06
403.75	425.06
403.974	437.06
404.198	440.06
404.422	433.06
404.645	452.06
404.869	430.06
405.093	451.06
405.317	467.06
405.541	477.06
405.765	454.06
405.988	452.06
406.212	454.06
406.436	493.06
406.66	497.06
406.883	472.06
407.107	500.06
407.331	517.06
407.555	581.06
407.778	563.06
408.002	519.06
408.226	473.06
408.449	470.06
408.673	456.06
408.896	486.06
409.12	515.06
409.344	507.06
409.567	456.06
409.791	457.06
410.014	442.06
410.238	441.06
410.461	443.06
410.685	428.06
410.908	442.06
411.132	463.06
411.355	485.06
411.578	466.06
411.802	445.06
412.025	464.06
412.249	429.06
412.472	449.06
412.695	429.06
412.919	433.06
413.142	409.06
413.365	419.06
413.589	446.06
413.812	405.06
414.035	417.06
414.258	412.06
414.482	399.06
414.705	393.06
414.928	404.06
415.151	389.06
415.374	396.06
415.597	397.06
415.821	386.06
416.044	406.06
416.267	409.06
416.49	421.06
416.713	418.06
416.936	396.06
417.159	410.06
417.382	404.06
417.605	394.06
417.828	406.06
418.051	417.06
418.274	434.06
418.497	402.06
418.72	443.06
418.943	414.06
419.166	421.06
419.389	431.06
419.611	419.06
419.834	411.06
420.057	433.06
420.28	412.06
420.503	430.06
420.726	431.06
420.948	442.06
421.171	460.06
421.394	490.06
421.617	442.06
421.839	418.06
422.062	409.06
422.285	430.06
422.507	483.06
422.73	514.06
422.953	514.06
423.175	482.06
423.398	440.06
423.621	460.06
423.843	452.06
424.066	474.06
424.288	454.06
424.511	465.06
424.733	503.06
424.956	561.06
425.178	543.06
425.401	542.06
425.623	583.06
425.846	501.06
426.068	463.06
426.291	442.06
426.513	466.06
426.735	473.06
426.958	487.06
427.18	542.06
427.402	646.06
427.625	725.06
427.847	650.06
428.069	537.06
428.292	494.06
428.514	458.06
428.736	409.06
428.958	458.06
429.181	421.06
429.403	391.06
429.625	423.06
429.847	448.06
430.069	505.06
430.292	513.06
430.514	455.06
430.736	433.06
430.958	419.06
431.18	397.06
431.402	411.06
431.624	379.06
431.846	403.06
432.068	417.06
432.29	398.06
432.512	409.06
432.734	403.06
432.956	417.06
433.178	424.06
433.4	413.06
433.622	415.06
433.844	404.06
434.066	401.06
434.287	430.06
434.509	414.06
434.731	427.06
434.953	432.06
435.175	438.06
435.397	451.06
435.618	439.06
435.84	481.06
436.062	550.06
436.284	589.06
436.505	530.06
436.727	462.06
436.949	446.06
437.17	443.06
437.392	425.06
437.614	436.06
437.835	473.06
438.057	548.06
438.278	609.06
438.5	628.06
438.721	661.06
438.943	635.06
439.165	512.06
439.386	477.06
439.608	478.06
439.829	467.06
440.05	500.06
440.272	534.06
440.493	509.06
440.715	446.06
440.936	450.06
441.158	426.06
441.379	425.06
441.6	457.06
441.822	468.06
442.043	479.06
442.264	552.06
442.486	590.06
442.707	506.06
442.928	483.06
443.149	482.06
443.371	489.06
443.592	539.06
443.813	611.06
444.034	627.06
444.255	526.06
444.476	484.06
444.698	465.06
444.919	441.06
445.14	555.06
445.361	526.06
445.582	508.06
445.803	553.06
446.024	610.06
446.245	631.06
446.466	585.06
446.687	490.06
446.908	462.06
447.129	440.06
447.35	418.06
447.571	413.06
447.792	431.06
448.013	420.06
448.234	447.06
448.455	504.06
448.675	581.06
448.896	650.06
449.117	559.06
449.338	541.06
449.559	589.06
449.779	671.06
450	549.06
450.221	460.06
450.442	448.06
450.662	412.06
450.883	425.06
451.104	438.06
451.324	445.06
451.545	409.06
451.766	399.06
451.986	394.06
452.207	389.06
452.428	369.06
452.648	402.06
452.869	388.06
453.089	405.06
453.31	400.06
453.53	390.06
453.751	369.06
453.971	389.06
454.192	428.06
454.412	406.06
454.633	363.06
454.853	375.06
455.073	387.06
455.294	398.06
455.514	468.06
455.734	444.06
455.955	395.06
456.175	379.06
456.395	373.06
456.616	363.06
456.836	346.06
457.056	350.06
457.276	361.06
457.497	352.06
457.717	360.06
457.937	357.06
458.157	385.06
458.377	373.06
458.598	391.06
458.818	447.06
459.038	510.06
459.258	518.06
459.478	436.06
459.698	421.06
459.918	399.06
460.138	419.06
460.358	399.06
460.578	423.06
460.798	407.06
461.018	391.06
461.238	409.06
461.458	390.06
461.678	389.06
461.898	435.06
462.118	412.06
462.338	414.06
462.558	409.06
462.777	419.06
462.997	414.06
463.217	445.06
463.437	441.06
463.657	405.06
463.876	433.06
464.096	427.06
464.316	422.06
464.536	469.06
464.755	445.06
464.975	452.06
465.195	480.06
465.414	557.06
465.634	480.06
465.854	422.06
466.073	421.06
466.293	413.06
466.512	370.06
466.732	382.06
466.951	382.06
467.171	408.06
467.391	399.06
467.61	391.06
467.829	407.06
468.049	393.06
468.268	389.06
468.488	386.06
468.707	394.06
468.927	386.06
469.146	369.06
469.365	371.06
469.585	372.06
469.804	375.06
470.023	404.06
470.243	411.06
470.462	391.06
470.681	433.06
470.901	420.06
471.12	415.06
471.339	391.06
471.558	412.06
471.777	401.06
471.997	400.06
472.216	370.06
472.435	395.06
472.654	380.06
472.873	403.06
473.092	388.06
473.311	368.06
473.53	388.06
473.749	419.06
473.968	447.06
474.187	522.06
474.406	506.06
474.625	434.06
474.844	398.06
475.063	388.06
475.282	392.06
475.501	420.06
475.72	407.06
475.939	396.06
476.158	403.06
476.377	413.06
476.596	411.06
476.814	399.06
477.033	417.06
477.252	407.06
477.471	417.06
477.69	429.06
477.908	435.06
478.127	429.06
478.346	421.06
478.564	430.06
478.783	441.06
479.002	454.06
479.22	467.06
479.439	464.06
479.658	459.06
479.876	460.06
480.095	459.06
480.313	502.06
480.532	484.06
480.751	487.06
480.969	460.06
481.188	484.06
481.406	491.06
481.624	473.06
481.843	454.06
482.061	453.06
482.28	454.06
482.498	460.06
482.717	465.06
482.935	462.06
483.153	448.06
483.372	439.06
483.59	455.06
483.808	455.06
484.027	489.06
484.245	467.06
484.463	443.06
484.681	482.06
484.9	470.06
485.118	458.06
485.336	472.06
485.554	467.06
485.772	475.06
485.99	469.06
486.209	473.06
486.427	481.06
486.645	500.06
486.863	486.06
487.081	504.06
487.299	483.06
487.517	507.06
487.735	507.06
487.953	504.06
488.171	493.06
488.389	486.06
488.607	509.06
488.825	474.06
489.043	497.06
489.261	491.06
489.479	505.06
489.696	513.06
489.914	530.06
490.132	538.06
490.35	509.06
490.568	513.06
490.786	523.06
491.003	505.06
491.221	535.06
491.439	563.06
491.657	547.06
491.874	574.06
492.092	591.06
492.31	572.06
492.527	573.06
492.745	557.06
492.963	551.06
493.18	611.06
493.398	577.06
493.615	580.06
493.833	595.06
494.05	598.06
494.268	575.06
494.485	597.06
494.703	578.06
494.92	575.06
495.138	563.06
495.355	603.06
495.573	571.06
495.79	590.06
496.008	591.06
496.225	586.06
496.442	590.06
496.66	629.06
496.877	597.06
497.094	588.06
497.312	598.06
497.529	587.06
497.746	603.06
497.963	604.06
498.181	635.06
498.398	627.06
498.615	626.06
498.832	650.06
499.049	669.06
499.267	684.06
499.484	699.06
499.701	699.06
499.918	699.06
500.135	769.06
500.352	773.06
500.569	795.06
500.786	791.06
501.003	779.06
501.22	765.06
501.437	741.06
501.654	727.06
501.871	732.06
502.088	706.06
