Data from 1983.PennyLincolnUp.Lamp.En5.5.200Scan.071819.P1_HRD10591_16-53-25-966.txt Node
Date: Thu Jul 18 16:53:25 EDT 2019
User: cochatt
Spectrometer: HR+D1059
Trigger mode: 1
Integration Time (sec): 1.000000E-1
Scans to average: 1
Electric dark correction enabled: true
Nonlinearity correction enabled: false
Boxcar width: 0
XAxis mode: Wavelengths
Number of Pixels in Spectrum: 2048
>>>>>Begin Spectral Data<<<<<
223.165	-9.69
223.4	-9.69
223.635	-9.69
223.869	-9.69
224.104	-28.69
224.338	0.31
224.573	-4.69
224.808	4.31
225.042	-10.69
225.277	6.31
225.511	-8.69
225.746	-6.69
225.98	-1.69
226.215	9.31
226.449	5.31
226.683	11.31
226.918	7.31
227.152	36.31
227.387	29.31
227.621	40.31
227.856	46.31
228.09	32.31
228.324	31.31
228.559	51.31
228.793	50.31
229.027	86.31
229.262	101.31
229.496	93.31
229.73	103.31
229.964	123.31
230.199	116.31
230.433	97.31
230.667	105.31
230.901	116.31
231.136	97.31
231.37	103.31
231.604	104.31
231.838	103.31
232.072	114.31
232.306	106.31
232.541	105.31
232.775	113.31
233.009	112.31
233.243	94.31
233.477	100.31
233.711	117.31
233.945	96.31
234.179	115.31
234.413	112.31
234.647	104.31
234.881	110.31
235.115	116.31
235.349	124.31
235.583	114.31
235.817	113.31
236.051	95.31
236.285	110.31
236.519	107.31
236.753	128.31
236.987	120.31
237.221	156.31
237.455	200.31
237.689	155.31
237.922	142.31
238.156	134.31
238.39	118.31
238.624	111.31
238.858	122.31
239.091	118.31
239.325	113.31
239.559	117.31
239.793	122.31
240.027	107.31
240.26	122.31
240.494	151.31
240.728	139.31
240.961	139.31
241.195	138.31
241.429	117.31
241.662	108.31
241.896	122.31
242.13	122.31
242.363	120.31
242.597	120.31
242.83	135.31
243.064	125.31
243.298	127.31
243.531	136.31
243.765	131.31
243.998	130.31
244.232	143.31
244.465	124.31
244.699	130.31
244.932	123.31
245.166	142.31
245.399	139.31
245.633	116.31
245.866	134.31
246.099	137.31
246.333	122.31
246.566	148.31
246.8	137.31
247.033	143.31
247.266	146.31
247.5	135.31
247.733	152.31
247.966	164.31
248.2	154.31
248.433	150.31
248.666	153.31
248.899	146.31
249.133	166.31
249.366	175.31
249.599	174.31
249.832	175.31
250.066	166.31
250.299	160.31
250.532	160.31
250.765	183.31
250.998	162.31
251.231	201.31
251.465	183.31
251.698	181.31
251.931	176.31
252.164	169.31
252.397	165.31
252.63	165.31
252.863	190.31
253.096	178.31
253.329	214.31
253.562	191.31
253.795	192.31
254.028	176.31
254.261	190.31
254.494	197.31
254.727	216.31
254.96	240.31
255.193	232.31
255.426	218.31
255.659	203.31
255.892	199.31
256.124	209.31
256.357	188.31
256.59	208.31
256.823	205.31
257.056	176.31
257.289	196.31
257.521	191.31
257.754	185.31
257.987	171.31
258.22	181.31
258.452	191.31
258.685	188.31
258.918	179.31
259.151	188.31
259.383	184.31
259.616	192.31
259.849	200.31
260.081	201.31
260.314	229.31
260.547	236.31
260.779	200.31
261.012	219.31
261.244	200.31
261.477	209.31
261.71	189.31
261.942	203.31
262.175	196.31
262.407	226.31
262.64	197.31
262.872	194.31
263.105	194.31
263.337	200.31
263.57	194.31
263.802	186.31
264.035	197.31
264.267	193.31
264.499	186.31
264.732	191.31
264.964	200.31
265.197	209.31
265.429	186.31
265.661	197.31
265.894	184.31
266.126	193.31
266.358	204.31
266.591	196.31
266.823	203.31
267.055	210.31
267.287	200.31
267.52	196.31
267.752	182.31
267.984	213.31
268.216	220.31
268.448	201.31
268.681	217.31
268.913	203.31
269.145	247.31
269.377	242.31
269.609	226.31
269.841	228.31
270.073	230.31
270.306	264.31
270.538	283.31
270.77	260.31
271.002	256.31
271.234	254.31
271.466	274.31
271.698	273.31
271.93	293.31
272.162	271.31
272.394	268.31
272.626	260.31
272.858	262.31
273.09	251.31
273.322	237.31
273.553	225.31
273.785	256.31
274.017	244.31
274.249	236.31
274.481	240.31
274.713	238.31
274.945	236.31
275.176	241.31
275.408	247.31
275.64	232.31
275.872	225.31
276.104	242.31
276.335	250.31
276.567	244.31
276.799	254.31
277.031	283.31
277.262	264.31
277.494	286.31
277.726	256.31
277.957	247.31
278.189	246.31
278.421	254.31
278.652	219.31
278.884	225.31
279.115	256.31
279.347	225.31
279.579	234.31
279.81	242.31
280.042	229.31
280.273	222.31
280.505	241.31
280.736	235.31
280.968	241.31
281.199	243.31
281.431	230.31
281.662	227.31
281.894	229.31
282.125	228.31
282.356	244.31
282.588	268.31
282.819	280.31
283.051	240.31
283.282	245.31
283.513	242.31
283.745	232.31
283.976	254.31
284.207	225.31
284.439	235.31
284.67	243.31
284.901	241.31
285.132	244.31
285.364	255.31
285.595	238.31
285.826	242.31
286.057	241.31
286.288	256.31
286.52	236.31
286.751	222.31
286.982	240.31
287.213	251.31
287.444	240.31
287.675	247.31
287.906	278.31
288.138	263.31
288.369	271.31
288.6	267.31
288.831	269.31
289.062	242.31
289.293	254.31
289.524	262.31
289.755	266.31
289.986	264.31
290.217	263.31
290.448	248.31
290.679	258.31
290.91	256.31
291.141	254.31
291.371	255.31
291.602	244.31
291.833	248.31
292.064	255.31
292.295	250.31
292.526	269.31
292.757	261.31
292.987	262.31
293.218	271.31
293.449	256.31
293.68	249.31
293.91	263.31
294.141	243.31
294.372	245.31
294.603	267.31
294.833	256.31
295.064	256.31
295.295	272.31
295.525	263.31
295.756	275.31
295.987	270.31
296.217	285.31
296.448	286.31
296.679	269.31
296.909	260.31
297.14	256.31
297.37	272.31
297.601	275.31
297.831	266.31
298.062	270.31
298.292	276.31
298.523	267.31
298.753	260.31
298.984	273.31
299.214	260.31
299.445	253.31
299.675	281.31
299.905	269.31
300.136	270.31
300.366	284.31
300.597	271.31
300.827	274.31
301.057	288.31
301.288	290.31
301.518	282.31
301.748	304.31
301.979	291.31
302.209	287.31
302.439	292.31
302.669	288.31
302.9	283.31
303.13	278.31
303.36	289.31
303.59	307.31
303.82	296.31
304.051	282.31
304.281	287.31
304.511	296.31
304.741	287.31
304.971	289.31
305.201	291.31
305.431	284.31
305.661	286.31
305.891	294.31
306.121	283.31
306.352	283.31
306.582	322.31
306.812	299.31
307.042	302.31
307.272	307.31
307.502	308.31
307.731	304.31
307.961	299.31
308.191	313.31
308.421	306.31
308.651	290.31
308.881	303.31
309.111	287.31
309.341	310.31
309.571	310.31
309.8	315.31
310.03	328.31
310.26	325.31
310.49	323.31
310.72	347.31
310.949	353.31
311.179	359.31
311.409	335.31
311.639	335.31
311.868	344.31
312.098	348.31
312.328	345.31
312.557	344.31
312.787	361.31
313.017	353.31
313.246	345.31
313.476	343.31
313.706	333.31
313.935	341.31
314.165	337.31
314.394	356.31
314.624	353.31
314.853	349.31
315.083	343.31
315.312	339.31
315.542	336.31
315.771	320.31
316.001	306.31
316.23	357.31
316.46	332.31
316.689	338.31
316.919	332.31
317.148	360.31
317.377	344.31
317.607	354.31
317.836	323.31
318.065	349.31
318.295	340.31
318.524	353.31
318.753	329.31
318.983	346.31
319.212	324.31
319.441	345.31
319.67	359.31
319.9	344.31
320.129	355.31
320.358	345.31
320.587	353.31
320.816	349.31
321.046	347.31
321.275	364.31
321.504	360.31
321.733	352.31
321.962	358.31
322.191	374.31
322.42	408.31
322.649	409.31
322.878	410.31
323.108	421.31
323.337	447.31
323.566	449.31
323.795	491.31
324.024	533.31
324.253	647.31
324.482	945.31
324.71	1386.31
324.939	1905.31
325.168	1545.31
325.397	843.31
325.626	602.31
325.855	485.31
326.084	474.31
326.313	459.31
326.542	453.31
326.77	507.31
326.999	624.31
327.228	826.31
327.457	1223.31
327.686	1394.31
327.914	959.31
328.143	657.31
328.372	541.31
328.6	531.31
328.829	513.31
329.058	523.31
329.287	521.31
329.515	481.31
329.744	450.31
329.972	455.31
330.201	458.31
330.43	464.31
330.658	507.31
330.887	538.31
331.115	534.31
331.344	476.31
331.572	442.31
331.801	434.31
332.03	447.31
332.258	424.31
332.486	421.31
332.715	394.31
332.943	413.31
333.172	382.31
333.4	389.31
333.629	414.31
333.857	410.31
334.085	427.31
334.314	414.31
334.542	432.31
334.771	410.31
334.999	400.31
335.227	402.31
335.455	411.31
335.684	387.31
335.912	401.31
336.14	385.31
336.369	397.31
336.597	407.31
336.825	374.31
337.053	382.31
337.281	386.31
337.51	389.31
337.738	382.31
337.966	383.31
338.194	393.31
338.422	400.31
338.65	376.31
338.878	384.31
339.106	359.31
339.334	375.31
339.562	380.31
339.79	383.31
340.018	386.31
340.246	370.31
340.474	366.31
340.702	376.31
340.93	380.31
341.158	359.31
341.386	371.31
341.614	386.31
341.842	383.31
342.07	376.31
342.298	347.31
342.526	384.31
342.754	354.31
342.981	366.31
343.209	368.31
343.437	385.31
343.665	367.31
343.893	390.31
344.12	361.31
344.348	404.31
344.576	380.31
344.804	380.31
345.031	403.31
345.259	403.31
345.487	409.31
345.714	382.31
345.942	374.31
346.17	366.31
346.397	382.31
346.625	372.31
346.853	350.31
347.08	370.31
347.308	361.31
347.535	366.31
347.763	373.31
347.99	372.31
348.218	375.31
348.445	398.31
348.673	389.31
348.9	360.31
349.128	362.31
349.355	374.31
349.583	353.31
349.81	347.31
350.037	342.31
350.265	339.31
350.492	354.31
350.72	352.31
350.947	346.31
351.174	384.31
351.402	376.31
351.629	372.31
351.856	374.31
352.083	396.31
352.311	393.31
352.538	407.31
352.765	382.31
352.992	374.31
353.22	361.31
353.447	364.31
353.674	360.31
353.901	351.31
354.128	330.31
354.355	340.31
354.583	348.31
354.81	344.31
355.037	346.31
355.264	328.31
355.491	346.31
355.718	336.31
355.945	329.31
356.172	334.31
356.399	346.31
356.626	334.31
356.853	330.31
357.08	321.31
357.307	341.31
357.534	338.31
357.761	328.31
357.988	330.31
358.215	339.31
358.441	338.31
358.668	337.31
358.895	335.31
359.122	364.31
359.349	355.31
359.576	367.31
359.802	387.31
360.029	402.31
360.256	416.31
360.483	404.31
360.709	383.31
360.936	366.31
361.163	369.31
361.39	367.31
361.616	370.31
361.843	362.31
362.07	363.31
362.296	366.31
362.523	363.31
362.749	375.31
362.976	348.31
363.203	365.31
363.429	352.31
363.656	350.31
363.882	354.31
364.109	340.31
364.335	344.31
364.562	363.31
364.788	356.31
365.015	352.31
365.241	337.31
365.468	344.31
365.694	341.31
365.92	350.31
366.147	361.31
366.373	346.31
366.599	361.31
366.826	354.31
367.052	335.31
367.278	361.31
367.505	358.31
367.731	356.31
367.957	344.31
368.184	342.31
368.41	359.31
368.636	363.31
368.862	364.31
369.089	351.31
369.315	338.31
369.541	333.31
369.767	346.31
369.993	349.31
370.219	363.31
370.445	346.31
370.672	352.31
370.898	326.31
371.124	323.31
371.35	345.31
371.576	351.31
371.802	339.31
372.028	346.31
372.254	325.31
372.48	347.31
372.706	355.31
372.932	348.31
373.158	346.31
373.384	352.31
373.61	350.31
373.835	346.31
374.061	333.31
374.287	354.31
374.513	336.31
374.739	355.31
374.965	365.31
375.191	352.31
375.416	355.31
375.642	337.31
375.868	345.31
376.094	342.31
376.319	353.31
376.545	332.31
376.771	351.31
376.997	332.31
377.222	373.31
377.448	338.31
377.674	331.31
377.899	347.31
378.125	354.31
378.35	328.31
378.576	318.31
378.802	338.31
379.027	329.31
379.253	347.31
379.478	343.31
379.704	342.31
379.929	336.31
380.155	335.31
380.38	347.31
380.606	351.31
380.831	334.31
381.057	334.31
381.282	325.31
381.507	340.31
381.733	343.31
381.958	342.31
382.184	339.31
382.409	367.31
382.634	350.31
382.86	346.31
383.085	348.31
383.31	356.31
383.535	342.31
383.761	347.31
383.986	358.31
384.211	343.31
384.436	356.31
384.662	359.31
384.887	350.31
385.112	345.31
385.337	361.31
385.562	350.31
385.787	358.31
386.013	370.31
386.238	373.31
386.463	379.31
386.688	376.31
386.913	358.31
387.138	357.31
387.363	359.31
387.588	363.31
387.813	375.31
388.038	374.31
388.263	354.31
388.488	372.31
388.713	380.31
388.938	362.31
389.163	363.31
389.387	375.31
389.612	384.31
389.837	375.31
390.062	359.31
390.287	359.31
390.512	360.31
390.736	367.31
390.961	374.31
391.186	377.31
391.411	379.31
391.636	378.31
391.86	384.31
392.085	361.31
392.31	386.31
392.534	376.31
392.759	361.31
392.984	367.31
393.208	370.31
393.433	375.31
393.658	362.31
393.882	355.31
394.107	351.31
394.331	368.31
394.556	367.31
394.78	363.31
395.005	359.31
395.229	369.31
395.454	382.31
395.678	385.31
395.903	394.31
396.127	394.31
396.352	396.31
396.576	386.31
396.801	378.31
397.025	379.31
397.249	374.31
397.474	395.31
397.698	374.31
397.922	381.31
398.147	392.31
398.371	402.31
398.595	408.31
398.82	404.31
399.044	426.31
399.268	456.31
399.492	449.31
399.717	486.31
399.941	501.31
400.165	502.31
400.389	486.31
400.613	465.31
400.837	464.31
401.062	435.31
401.286	411.31
401.51	430.31
401.734	392.31
401.958	419.31
402.182	422.31
402.406	440.31
402.63	430.31
402.854	417.31
403.078	428.31
403.302	430.31
403.526	440.31
403.75	423.31
403.974	411.31
404.198	418.31
404.422	408.31
404.645	438.31
404.869	427.31
405.093	442.31
405.317	473.31
405.541	499.31
405.765	457.31
405.988	430.31
406.212	463.31
406.436	490.31
406.66	510.31
406.883	466.31
407.107	482.31
407.331	492.31
407.555	572.31
407.778	554.31
408.002	529.31
408.226	490.31
408.449	467.31
408.673	471.31
408.896	491.31
409.12	526.31
409.344	501.31
409.567	440.31
409.791	452.31
410.014	411.31
410.238	420.31
410.461	428.31
410.685	415.31
410.908	446.31
411.132	457.31
411.355	466.31
411.578	482.31
411.802	417.31
412.025	439.31
412.249	450.31
412.472	438.31
412.695	428.31
412.919	423.31
413.142	450.31
413.365	393.31
413.589	403.31
413.812	416.31
414.035	418.31
414.258	400.31
414.482	414.31
414.705	404.31
414.928	394.31
415.151	418.31
415.374	406.31
415.597	387.31
415.821	394.31
416.044	402.31
416.267	393.31
416.49	418.31
416.713	384.31
416.936	409.31
417.159	405.31
417.382	421.31
417.605	407.31
417.828	415.31
418.051	420.31
418.274	415.31
418.497	400.31
418.72	398.31
418.943	415.31
419.166	419.31
419.389	419.31
419.611	444.31
419.834	416.31
420.057	410.31
420.28	420.31
420.503	403.31
420.726	409.31
420.948	424.31
421.171	454.31
421.394	480.31
421.617	441.31
421.839	434.31
422.062	437.31
422.285	422.31
422.507	467.31
422.73	540.31
422.953	516.31
423.175	451.31
423.398	436.31
423.621	448.31
423.843	444.31
424.066	472.31
424.288	481.31
424.511	457.31
424.733	501.31
424.956	587.31
425.178	550.31
425.401	538.31
425.623	578.31
425.846	503.31
426.068	458.31
426.291	451.31
426.513	450.31
426.735	461.31
426.958	491.31
427.18	550.31
427.402	646.31
427.625	695.31
427.847	622.31
428.069	530.31
428.292	484.31
428.514	454.31
428.736	424.31
428.958	437.31
429.181	441.31
429.403	428.31
429.625	438.31
429.847	472.31
430.069	493.31
430.292	475.31
430.514	432.31
430.736	438.31
430.958	412.31
431.18	394.31
431.402	392.31
431.624	402.31
431.846	393.31
432.068	396.31
432.29	390.31
432.512	379.31
432.734	417.31
432.956	400.31
433.178	398.31
433.4	407.31
433.622	419.31
433.844	402.31
434.066	409.31
434.287	418.31
434.509	408.31
434.731	426.31
434.953	422.31
435.175	430.31
435.397	449.31
435.618	460.31
435.84	475.31
436.062	570.31
436.284	612.31
436.505	515.31
436.727	462.31
436.949	426.31
437.17	426.31
437.392	416.31
437.614	449.31
437.835	472.31
438.057	540.31
438.278	587.31
438.5	599.31
438.721	659.31
438.943	615.31
439.165	529.31
439.386	474.31
439.608	468.31
439.829	505.31
440.05	499.31
440.272	529.31
440.493	482.31
440.715	448.31
440.936	443.31
441.158	441.31
441.379	423.31
441.6	444.31
441.822	465.31
442.043	479.31
442.264	562.31
442.486	569.31
442.707	500.31
442.928	478.31
443.149	502.31
443.371	494.31
443.592	520.31
443.813	593.31
444.034	620.31
444.255	526.31
444.476	483.31
444.698	441.31
444.919	448.31
445.14	576.31
445.361	532.31
445.582	491.31
445.803	544.31
446.024	632.31
446.245	611.31
446.466	568.31
446.687	508.31
446.908	467.31
447.129	446.31
447.35	425.31
447.571	420.31
447.792	423.31
448.013	404.31
448.234	466.31
448.455	488.31
448.675	579.31
448.896	642.31
449.117	567.31
449.338	526.31
449.559	618.31
449.779	653.31
450	553.31
450.221	465.31
450.442	434.31
450.662	444.31
450.883	434.31
451.104	433.31
451.324	450.31
451.545	419.31
451.766	386.31
451.986	383.31
452.207	368.31
452.428	392.31
452.648	403.31
452.869	387.31
453.089	388.31
453.31	398.31
453.53	408.31
453.751	391.31
453.971	379.31
454.192	414.31
454.412	388.31
454.633	408.31
454.853	397.31
455.073	382.31
455.294	388.31
455.514	461.31
455.734	433.31
455.955	401.31
456.175	375.31
456.395	368.31
456.616	349.31
456.836	343.31
457.056	377.31
457.276	366.31
457.497	367.31
457.717	356.31
457.937	353.31
458.157	364.31
458.377	376.31
458.598	392.31
458.818	445.31
459.038	520.31
459.258	516.31
459.478	455.31
459.698	418.31
459.918	408.31
460.138	393.31
460.358	388.31
460.578	415.31
460.798	400.31
461.018	427.31
461.238	427.31
461.458	420.31
461.678	397.31
461.898	400.31
462.118	417.31
462.338	409.31
462.558	409.31
462.777	433.31
462.997	426.31
463.217	421.31
463.437	438.31
463.657	419.31
463.876	425.31
464.096	434.31
464.316	414.31
464.536	425.31
464.755	448.31
464.975	454.31
465.195	487.31
465.414	553.31
465.634	478.31
465.854	436.31
466.073	430.31
466.293	404.31
466.512	381.31
466.732	408.31
466.951	393.31
467.171	394.31
467.391	379.31
467.61	390.31
467.829	406.31
468.049	402.31
468.268	382.31
468.488	374.31
468.707	383.31
468.927	378.31
469.146	370.31
469.365	376.31
469.585	373.31
469.804	402.31
470.023	406.31
470.243	416.31
470.462	393.31
470.681	403.31
470.901	417.31
471.12	375.31
471.339	398.31
471.558	393.31
471.777	392.31
471.997	376.31
472.216	393.31
472.435	418.31
472.654	376.31
472.873	378.31
473.092	374.31
473.311	374.31
473.53	386.31
473.749	393.31
473.968	442.31
474.187	529.31
474.406	533.31
474.625	430.31
474.844	405.31
475.063	388.31
475.282	394.31
475.501	398.31
475.72	394.31
475.939	393.31
476.158	406.31
476.377	399.31
476.596	406.31
476.814	409.31
477.033	420.31
477.252	411.31
477.471	416.31
477.69	432.31
477.908	436.31
478.127	428.31
478.346	442.31
478.564	440.31
478.783	451.31
479.002	435.31
479.22	443.31
479.439	462.31
479.658	478.31
479.876	479.31
480.095	474.31
480.313	491.31
480.532	462.31
480.751	480.31
480.969	494.31
481.188	492.31
481.406	504.31
481.624	483.31
481.843	486.31
482.061	452.31
482.28	453.31
482.498	460.31
482.717	456.31
482.935	440.31
483.153	474.31
483.372	458.31
483.59	458.31
483.808	471.31
484.027	450.31
484.245	462.31
484.463	460.31
484.681	471.31
484.9	482.31
485.118	457.31
485.336	457.31
485.554	456.31
485.772	475.31
485.99	474.31
486.209	478.31
486.427	473.31
486.645	467.31
486.863	489.31
487.081	506.31
487.299	498.31
487.517	490.31
487.735	483.31
487.953	489.31
488.171	514.31
488.389	495.31
488.607	490.31
488.825	489.31
489.043	513.31
489.261	480.31
489.479	494.31
489.696	495.31
489.914	499.31
490.132	518.31
490.35	537.31
490.568	530.31
490.786	523.31
491.003	495.31
491.221	529.31
491.439	559.31
491.657	552.31
491.874	566.31
492.092	546.31
492.31	562.31
492.527	569.31
492.745	566.31
492.963	587.31
493.18	559.31
493.398	577.31
493.615	570.31
493.833	583.31
494.05	584.31
494.268	563.31
494.485	570.31
494.703	584.31
494.92	576.31
495.138	585.31
495.355	572.31
495.573	595.31
495.79	569.31
496.008	612.31
496.225	585.31
496.442	603.31
496.66	587.31
496.877	576.31
497.094	586.31
497.312	602.31
497.529	590.31
497.746	608.31
497.963	620.31
498.181	613.31
498.398	615.31
498.615	638.31
498.832	646.31
499.049	675.31
499.267	668.31
499.484	699.31
499.701	699.31
499.918	720.31
500.135	740.31
500.352	754.31
500.569	797.31
500.786	759.31
501.003	758.31
501.22	796.31
501.437	757.31
501.654	718.31
501.871	714.31
502.088	707.31
