Data from 1983.PennyLincolnUp.Lamp.En5.5.200Scan.071819.P1_HRD10591_16-55-12-966.txt Node
Date: Thu Jul 18 16:55:12 EDT 2019
User: cochatt
Spectrometer: HR+D1059
Trigger mode: 1
Integration Time (sec): 1.000000E-1
Scans to average: 1
Electric dark correction enabled: true
Nonlinearity correction enabled: false
Boxcar width: 0
XAxis mode: Wavelengths
Number of Pixels in Spectrum: 2048
>>>>>Begin Spectral Data<<<<<
223.165	-10.62
223.4	-10.62
223.635	-10.62
223.869	-19.62
224.104	-22.62
224.338	-9.62
224.573	-11.62
224.808	-16.62
225.042	-7.62
225.277	6.38
225.511	-6.62
225.746	-0.62
225.98	1.38
226.215	14.38
226.449	16.38
226.683	22.38
226.918	18.38
227.152	26.38
227.387	36.38
227.621	35.38
227.856	42.38
228.09	55.38
228.324	37.38
228.559	58.38
228.793	68.38
229.027	95.38
229.262	108.38
229.496	117.38
229.73	116.38
229.964	138.38
230.199	126.38
230.433	120.38
230.667	113.38
230.901	119.38
231.136	95.38
231.37	114.38
231.604	110.38
231.838	109.38
232.072	108.38
232.306	118.38
232.541	109.38
232.775	117.38
233.009	125.38
233.243	113.38
233.477	125.38
233.711	115.38
233.945	100.38
234.179	109.38
234.413	119.38
234.647	119.38
234.881	121.38
235.115	106.38
235.349	124.38
235.583	109.38
235.817	101.38
236.051	121.38
236.285	121.38
236.519	110.38
236.753	132.38
236.987	138.38
237.221	172.38
237.455	210.38
237.689	162.38
237.922	126.38
238.156	131.38
238.39	128.38
238.624	119.38
238.858	122.38
239.091	126.38
239.325	126.38
239.559	138.38
239.793	131.38
240.027	136.38
240.26	131.38
240.494	148.38
240.728	135.38
240.961	133.38
241.195	136.38
241.429	136.38
241.662	127.38
241.896	126.38
242.13	122.38
242.363	134.38
242.597	124.38
242.83	132.38
243.064	132.38
243.298	121.38
243.531	143.38
243.765	146.38
243.998	130.38
244.232	144.38
244.465	132.38
244.699	134.38
244.932	132.38
245.166	142.38
245.399	140.38
245.633	153.38
245.866	136.38
246.099	130.38
246.333	134.38
246.566	140.38
246.8	140.38
247.033	150.38
247.266	151.38
247.5	152.38
247.733	165.38
247.966	155.38
248.2	175.38
248.433	167.38
248.666	162.38
248.899	182.38
249.133	182.38
249.366	189.38
249.599	188.38
249.832	183.38
250.066	178.38
250.299	182.38
250.532	188.38
250.765	220.38
250.998	208.38
251.231	214.38
251.465	191.38
251.698	173.38
251.931	176.38
252.164	186.38
252.397	186.38
252.63	190.38
252.863	190.38
253.096	190.38
253.329	226.38
253.562	211.38
253.795	189.38
254.028	210.38
254.261	203.38
254.494	214.38
254.727	254.38
254.96	278.38
255.193	252.38
255.426	240.38
255.659	235.38
255.892	231.38
256.124	226.38
256.357	243.38
256.59	250.38
256.823	211.38
257.056	195.38
257.289	210.38
257.521	204.38
257.754	215.38
257.987	184.38
258.22	204.38
258.452	176.38
258.685	205.38
258.918	183.38
259.151	201.38
259.383	207.38
259.616	215.38
259.849	223.38
260.081	224.38
260.314	227.38
260.547	239.38
260.779	230.38
261.012	204.38
261.244	212.38
261.477	224.38
261.71	219.38
261.942	199.38
262.175	212.38
262.407	224.38
262.64	214.38
262.872	205.38
263.105	198.38
263.337	189.38
263.57	203.38
263.802	208.38
264.035	199.38
264.267	202.38
264.499	190.38
264.732	198.38
264.964	196.38
265.197	191.38
265.429	203.38
265.661	195.38
265.894	203.38
266.126	212.38
266.358	210.38
266.591	210.38
266.823	219.38
267.055	219.38
267.287	199.38
267.52	215.38
267.752	202.38
267.984	207.38
268.216	212.38
268.448	226.38
268.681	213.38
268.913	227.38
269.145	248.38
269.377	252.38
269.609	257.38
269.841	235.38
270.073	253.38
270.306	273.38
270.538	272.38
270.77	286.38
271.002	278.38
271.234	275.38
271.466	287.38
271.698	307.38
271.93	282.38
272.162	295.38
272.394	285.38
272.626	282.38
272.858	278.38
273.09	254.38
273.322	266.38
273.553	252.38
273.785	243.38
274.017	242.38
274.249	244.38
274.481	258.38
274.713	256.38
274.945	266.38
275.176	242.38
275.408	244.38
275.64	261.38
275.872	262.38
276.104	236.38
276.335	232.38
276.567	233.38
276.799	279.38
277.031	290.38
277.262	291.38
277.494	312.38
277.726	298.38
277.957	286.38
278.189	269.38
278.421	253.38
278.652	245.38
278.884	264.38
279.115	247.38
279.347	262.38
279.579	262.38
279.81	230.38
280.042	248.38
280.273	247.38
280.505	253.38
280.736	244.38
280.968	250.38
281.199	267.38
281.431	247.38
281.662	228.38
281.894	257.38
282.125	246.38
282.356	269.38
282.588	281.38
282.819	282.38
283.051	247.38
283.282	236.38
283.513	259.38
283.745	255.38
283.976	276.38
284.207	269.38
284.439	269.38
284.67	269.38
284.901	250.38
285.132	258.38
285.364	239.38
285.595	256.38
285.826	242.38
286.057	250.38
286.288	266.38
286.52	257.38
286.751	267.38
286.982	265.38
287.213	268.38
287.444	288.38
287.675	271.38
287.906	279.38
288.138	285.38
288.369	271.38
288.6	277.38
288.831	260.38
289.062	278.38
289.293	261.38
289.524	275.38
289.755	244.38
289.986	271.38
290.217	269.38
290.448	258.38
290.679	272.38
290.91	257.38
291.141	286.38
291.371	273.38
291.602	258.38
291.833	266.38
292.064	265.38
292.295	275.38
292.526	267.38
292.757	277.38
292.987	269.38
293.218	262.38
293.449	264.38
293.68	265.38
293.91	262.38
294.141	277.38
294.372	262.38
294.603	288.38
294.833	272.38
295.064	267.38
295.295	284.38
295.525	285.38
295.756	280.38
295.987	285.38
296.217	315.38
296.448	329.38
296.679	299.38
296.909	282.38
297.14	269.38
297.37	278.38
297.601	255.38
297.831	274.38
298.062	291.38
298.292	287.38
298.523	288.38
298.753	283.38
298.984	280.38
299.214	289.38
299.445	269.38
299.675	282.38
299.905	271.38
300.136	280.38
300.366	273.38
300.597	292.38
300.827	308.38
301.057	296.38
301.288	310.38
301.518	293.38
301.748	286.38
301.979	303.38
302.209	302.38
302.439	309.38
302.669	310.38
302.9	306.38
303.13	295.38
303.36	318.38
303.59	325.38
303.82	323.38
304.051	301.38
304.281	310.38
304.511	292.38
304.741	310.38
304.971	299.38
305.201	307.38
305.431	317.38
305.661	299.38
305.891	320.38
306.121	308.38
306.352	314.38
306.582	294.38
306.812	306.38
307.042	304.38
307.272	318.38
307.502	317.38
307.731	340.38
307.961	321.38
308.191	311.38
308.421	306.38
308.651	316.38
308.881	314.38
309.111	316.38
309.341	341.38
309.571	335.38
309.8	325.38
310.03	347.38
310.26	354.38
310.49	349.38
310.72	368.38
310.949	356.38
311.179	370.38
311.409	346.38
311.639	338.38
311.868	354.38
312.098	332.38
312.328	358.38
312.557	384.38
312.787	390.38
313.017	417.38
313.246	365.38
313.476	357.38
313.706	343.38
313.935	362.38
314.165	388.38
314.394	370.38
314.624	376.38
314.853	358.38
315.083	360.38
315.312	349.38
315.542	340.38
315.771	341.38
316.001	342.38
316.23	354.38
316.46	335.38
316.689	351.38
316.919	349.38
317.148	356.38
317.377	365.38
317.607	331.38
317.836	366.38
318.065	359.38
318.295	364.38
318.524	343.38
318.753	351.38
318.983	331.38
319.212	371.38
319.441	360.38
319.67	366.38
319.9	367.38
320.129	354.38
320.358	366.38
320.587	367.38
320.816	365.38
321.046	365.38
321.275	361.38
321.504	370.38
321.733	389.38
321.962	412.38
322.191	383.38
322.42	409.38
322.649	425.38
322.878	426.38
323.108	445.38
323.337	474.38
323.566	495.38
323.795	528.38
324.024	585.38
324.253	700.38
324.482	1026.38
324.71	1551.38
324.939	2079.38
325.168	1747.38
325.397	924.38
325.626	627.38
325.855	536.38
326.084	508.38
326.313	493.38
326.542	487.38
326.77	545.38
326.999	660.38
327.228	880.38
327.457	1330.38
327.686	1522.38
327.914	1044.38
328.143	717.38
328.372	650.38
328.6	619.38
328.829	558.38
329.058	573.38
329.287	592.38
329.515	548.38
329.744	516.38
329.972	505.38
330.201	540.38
330.43	610.38
330.658	630.38
330.887	602.38
331.115	592.38
331.344	511.38
331.572	461.38
331.801	458.38
332.03	448.38
332.258	446.38
332.486	445.38
332.715	446.38
332.943	450.38
333.172	434.38
333.4	437.38
333.629	454.38
333.857	459.38
334.085	502.38
334.314	528.38
334.542	578.38
334.771	578.38
334.999	507.38
335.227	473.38
335.455	442.38
335.684	446.38
335.912	411.38
336.14	419.38
336.369	415.38
336.597	437.38
336.825	430.38
337.053	408.38
337.281	410.38
337.51	408.38
337.738	402.38
337.966	421.38
338.194	405.38
338.422	414.38
338.65	400.38
338.878	404.38
339.106	414.38
339.334	390.38
339.562	415.38
339.79	406.38
340.018	389.38
340.246	391.38
340.474	416.38
340.702	400.38
340.93	402.38
341.158	384.38
341.386	397.38
341.614	407.38
341.842	406.38
342.07	407.38
342.298	394.38
342.526	378.38
342.754	378.38
342.981	376.38
343.209	378.38
343.437	389.38
343.665	391.38
343.893	406.38
344.12	406.38
344.348	403.38
344.576	404.38
344.804	418.38
345.031	416.38
345.259	412.38
345.487	390.38
345.714	425.38
345.942	405.38
346.17	389.38
346.397	400.38
346.625	382.38
346.853	389.38
347.08	376.38
347.308	385.38
347.535	378.38
347.763	390.38
347.99	379.38
348.218	408.38
348.445	391.38
348.673	385.38
348.9	387.38
349.128	375.38
349.355	362.38
349.583	363.38
349.81	354.38
350.037	375.38
350.265	362.38
350.492	378.38
350.72	377.38
350.947	371.38
351.174	378.38
351.402	409.38
351.629	391.38
351.856	373.38
352.083	392.38
352.311	378.38
352.538	410.38
352.765	398.38
352.992	388.38
353.22	368.38
353.447	386.38
353.674	388.38
353.901	387.38
354.128	383.38
354.355	350.38
354.583	366.38
354.81	364.38
355.037	344.38
355.264	361.38
355.491	370.38
355.718	341.38
355.945	370.38
356.172	361.38
356.399	349.38
356.626	354.38
356.853	355.38
357.08	339.38
357.307	352.38
357.534	363.38
357.761	364.38
357.988	351.38
358.215	359.38
358.441	358.38
358.668	365.38
358.895	356.38
359.122	354.38
359.349	374.38
359.576	381.38
359.802	420.38
360.029	452.38
360.256	446.38
360.483	421.38
360.709	386.38
360.936	375.38
361.163	379.38
361.39	385.38
361.616	399.38
361.843	397.38
362.07	398.38
362.296	392.38
362.523	361.38
362.749	382.38
362.976	376.38
363.203	395.38
363.429	367.38
363.656	381.38
363.882	369.38
364.109	357.38
364.335	372.38
364.562	370.38
364.788	345.38
365.015	369.38
365.241	362.38
365.468	368.38
365.694	371.38
365.92	384.38
366.147	373.38
366.373	359.38
366.599	348.38
366.826	342.38
367.052	365.38
367.278	337.38
367.505	348.38
367.731	361.38
367.957	359.38
368.184	372.38
368.41	367.38
368.636	365.38
368.862	386.38
369.089	386.38
369.315	357.38
369.541	380.38
369.767	358.38
369.993	348.38
370.219	349.38
370.445	378.38
370.672	345.38
370.898	355.38
371.124	347.38
371.35	361.38
371.576	345.38
371.802	349.38
372.028	354.38
372.254	361.38
372.48	346.38
372.706	370.38
372.932	364.38
373.158	340.38
373.384	354.38
373.61	357.38
373.835	362.38
374.061	357.38
374.287	375.38
374.513	370.38
374.739	359.38
374.965	366.38
375.191	379.38
375.416	350.38
375.642	356.38
375.868	347.38
376.094	372.38
376.319	349.38
376.545	352.38
376.771	346.38
376.997	363.38
377.222	350.38
377.448	355.38
377.674	333.38
377.899	370.38
378.125	360.38
378.35	344.38
378.576	343.38
378.802	359.38
379.027	365.38
379.253	354.38
379.478	351.38
379.704	356.38
379.929	345.38
380.155	366.38
380.38	372.38
380.606	338.38
380.831	344.38
381.057	364.38
381.282	362.38
381.507	358.38
381.733	351.38
381.958	351.38
382.184	366.38
382.409	377.38
382.634	364.38
382.86	340.38
383.085	384.38
383.31	356.38
383.535	347.38
383.761	356.38
383.986	343.38
384.211	357.38
384.436	362.38
384.662	367.38
384.887	377.38
385.112	355.38
385.337	363.38
385.562	377.38
385.787	388.38
386.013	381.38
386.238	395.38
386.463	382.38
386.688	363.38
386.913	382.38
387.138	378.38
387.363	354.38
387.588	392.38
387.813	381.38
388.038	373.38
388.263	373.38
388.488	376.38
388.713	383.38
388.938	371.38
389.163	387.38
389.387	360.38
389.612	370.38
389.837	365.38
390.062	374.38
390.287	377.38
390.512	361.38
390.736	365.38
390.961	366.38
391.186	368.38
391.411	374.38
391.636	395.38
391.86	384.38
392.085	377.38
392.31	389.38
392.534	384.38
392.759	385.38
392.984	381.38
393.208	373.38
393.433	372.38
393.658	372.38
393.882	368.38
394.107	365.38
394.331	377.38
394.556	359.38
394.78	386.38
395.005	392.38
395.229	380.38
395.454	388.38
395.678	383.38
395.903	423.38
396.127	414.38
396.352	415.38
396.576	406.38
396.801	381.38
397.025	390.38
397.249	388.38
397.474	403.38
397.698	406.38
397.922	416.38
398.147	417.38
398.371	417.38
398.595	402.38
398.82	403.38
399.044	410.38
399.268	456.38
399.492	470.38
399.717	473.38
399.941	497.38
400.165	525.38
400.389	519.38
400.613	470.38
400.837	438.38
401.062	443.38
401.286	429.38
401.51	431.38
401.734	419.38
401.958	432.38
402.182	437.38
402.406	440.38
402.63	451.38
402.854	428.38
403.078	445.38
403.302	448.38
403.526	430.38
403.75	442.38
403.974	434.38
404.198	432.38
404.422	463.38
404.645	468.38
404.869	462.38
405.093	492.38
405.317	528.38
405.541	558.38
405.765	494.38
405.988	482.38
406.212	484.38
406.436	504.38
406.66	508.38
406.883	495.38
407.107	510.38
407.331	503.38
407.555	570.38
407.778	562.38
408.002	535.38
408.226	498.38
408.449	498.38
408.673	484.38
408.896	524.38
409.12	533.38
409.344	507.38
409.567	469.38
409.791	458.38
410.014	450.38
410.238	455.38
410.461	449.38
410.685	436.38
410.908	454.38
411.132	493.38
411.355	527.38
411.578	467.38
411.802	455.38
412.025	430.38
412.249	448.38
412.472	481.38
412.695	540.38
412.919	486.38
413.142	452.38
413.365	450.38
413.589	432.38
413.812	432.38
414.035	418.38
414.258	413.38
414.482	412.38
414.705	418.38
414.928	409.38
415.151	422.38
415.374	426.38
415.597	415.38
415.821	402.38
416.044	415.38
416.267	413.38
416.49	429.38
416.713	437.38
416.936	400.38
417.159	418.38
417.382	427.38
417.605	433.38
417.828	448.38
418.051	449.38
418.274	422.38
418.497	440.38
418.72	420.38
418.943	406.38
419.166	427.38
419.389	434.38
419.611	458.38
419.834	439.38
420.057	441.38
420.28	440.38
420.503	460.38
420.726	447.38
420.948	481.38
421.171	470.38
421.394	500.38
421.617	471.38
421.839	439.38
422.062	448.38
422.285	456.38
422.507	492.38
422.73	553.38
422.953	526.38
423.175	464.38
423.398	436.38
423.621	443.38
423.843	451.38
424.066	461.38
424.288	486.38
424.511	478.38
424.733	550.38
424.956	584.38
425.178	563.38
425.401	558.38
425.623	564.38
425.846	499.38
426.068	466.38
426.291	470.38
426.513	462.38
426.735	496.38
426.958	521.38
427.18	574.38
427.402	681.38
427.625	722.38
427.847	660.38
428.069	589.38
428.292	512.38
428.514	473.38
428.736	454.38
428.958	453.38
429.181	427.38
429.403	419.38
429.625	452.38
429.847	476.38
430.069	514.38
430.292	511.38
430.514	466.38
430.736	446.38
430.958	406.38
431.18	420.38
431.402	406.38
431.624	409.38
431.846	419.38
432.068	412.38
432.29	406.38
432.512	406.38
432.734	437.38
432.956	416.38
433.178	429.38
433.4	412.38
433.622	398.38
433.844	426.38
434.066	417.38
434.287	409.38
434.509	409.38
434.731	426.38
434.953	447.38
435.175	414.38
435.397	452.38
435.618	469.38
435.84	496.38
436.062	558.38
436.284	610.38
436.505	524.38
436.727	449.38
436.949	463.38
437.17	455.38
437.392	437.38
437.614	469.38
437.835	479.38
438.057	546.38
438.278	636.38
438.5	613.38
438.721	655.38
438.943	630.38
439.165	534.38
439.386	506.38
439.608	490.38
439.829	481.38
440.05	514.38
440.272	535.38
440.493	508.38
440.715	463.38
440.936	445.38
441.158	426.38
441.379	440.38
441.6	466.38
441.822	456.38
442.043	520.38
442.264	587.38
442.486	612.38
442.707	510.38
442.928	514.38
443.149	477.38
443.371	515.38
443.592	544.38
443.813	617.38
444.034	622.38
444.255	539.38
444.476	472.38
444.698	482.38
444.919	456.38
445.14	574.38
445.361	504.38
445.582	523.38
445.803	588.38
446.024	661.38
446.245	650.38
446.466	576.38
446.687	508.38
446.908	469.38
447.129	459.38
447.35	422.38
447.571	421.38
447.792	462.38
448.013	445.38
448.234	470.38
448.455	509.38
448.675	591.38
448.896	658.38
449.117	582.38
449.338	555.38
449.559	634.38
449.779	709.38
450	580.38
450.221	484.38
450.442	456.38
450.662	443.38
450.883	446.38
451.104	456.38
451.324	448.38
451.545	424.38
451.766	422.38
451.986	394.38
452.207	404.38
452.428	402.38
452.648	395.38
452.869	398.38
453.089	415.38
453.31	407.38
453.53	410.38
453.751	394.38
453.971	420.38
454.192	420.38
454.412	410.38
454.633	390.38
454.853	413.38
455.073	399.38
455.294	404.38
455.514	482.38
455.734	464.38
455.955	410.38
456.175	374.38
456.395	380.38
456.616	380.38
456.836	363.38
457.056	375.38
457.276	378.38
457.497	377.38
457.717	374.38
457.937	376.38
458.157	379.38
458.377	394.38
458.598	412.38
458.818	462.38
459.038	552.38
459.258	542.38
459.478	472.38
459.698	414.38
459.918	402.38
460.138	405.38
460.358	411.38
460.578	398.38
460.798	392.38
461.018	418.38
461.238	398.38
461.458	379.38
461.678	407.38
461.898	414.38
462.118	392.38
462.338	423.38
462.558	412.38
462.777	417.38
462.997	451.38
463.217	444.38
463.437	445.38
463.657	434.38
463.876	429.38
464.096	435.38
464.316	442.38
464.536	436.38
464.755	440.38
464.975	447.38
465.195	506.38
465.414	595.38
465.634	509.38
465.854	468.38
466.073	432.38
466.293	412.38
466.512	414.38
466.732	407.38
466.951	410.38
467.171	400.38
467.391	417.38
467.61	442.38
467.829	415.38
468.049	430.38
468.268	428.38
468.488	422.38
468.707	384.38
468.927	406.38
469.146	395.38
469.365	401.38
469.585	398.38
469.804	406.38
470.023	425.38
470.243	420.38
470.462	421.38
470.681	434.38
470.901	446.38
471.12	413.38
471.339	390.38
471.558	413.38
471.777	407.38
471.997	420.38
472.216	442.38
472.435	491.38
472.654	478.38
472.873	436.38
473.092	419.38
473.311	425.38
473.53	438.38
473.749	429.38
473.968	457.38
474.187	545.38
474.406	541.38
474.625	446.38
474.844	421.38
475.063	415.38
475.282	428.38
475.501	418.38
475.72	403.38
475.939	429.38
476.158	435.38
476.377	424.38
476.596	437.38
476.814	424.38
477.033	444.38
477.252	430.38
477.471	436.38
477.69	461.38
477.908	437.38
478.127	430.38
478.346	443.38
478.564	461.38
478.783	447.38
479.002	441.38
479.22	462.38
479.439	477.38
479.658	478.38
479.876	495.38
480.095	518.38
480.313	548.38
480.532	488.38
480.751	485.38
480.969	522.38
481.188	626.38
481.406	705.38
481.624	579.38
481.843	512.38
482.061	530.38
482.28	483.38
482.498	489.38
482.717	506.38
482.935	488.38
483.153	483.38
483.372	470.38
483.59	490.38
483.808	480.38
484.027	473.38
484.245	458.38
484.463	498.38
484.681	487.38
484.9	514.38
485.118	496.38
485.336	485.38
485.554	514.38
485.772	524.38
485.99	475.38
486.209	510.38
486.427	505.38
486.645	514.38
486.863	540.38
487.081	569.38
487.299	506.38
487.517	499.38
487.735	528.38
487.953	535.38
488.171	543.38
488.389	535.38
488.607	530.38
488.825	523.38
489.043	518.38
489.261	527.38
489.479	518.38
489.696	527.38
489.914	526.38
490.132	529.38
490.35	542.38
490.568	551.38
490.786	570.38
491.003	572.38
491.221	574.38
491.439	561.38
491.657	584.38
491.874	581.38
492.092	600.38
492.31	604.38
492.527	626.38
492.745	615.38
492.963	628.38
493.18	631.38
493.398	626.38
493.615	627.38
493.833	627.38
494.05	621.38
494.268	622.38
494.485	605.38
494.703	601.38
494.92	612.38
495.138	597.38
495.355	612.38
495.573	620.38
495.79	626.38
496.008	632.38
496.225	598.38
496.442	616.38
496.66	597.38
496.877	606.38
497.094	605.38
497.312	587.38
497.529	635.38
497.746	656.38
497.963	627.38
498.181	656.38
498.398	655.38
498.615	660.38
498.832	692.38
499.049	674.38
499.267	679.38
499.484	698.38
499.701	727.38
499.918	733.38
500.135	741.38
500.352	747.38
500.569	787.38
500.786	796.38
501.003	797.38
501.22	775.38
501.437	758.38
501.654	750.38
501.871	777.38
