Data from 1983.PennyLincolnUp.Lamp.En5.5.200Scan.071819.P1_HRD10591_16-55-22-966.txt Node
Date: Thu Jul 18 16:55:22 EDT 2019
User: cochatt
Spectrometer: HR+D1059
Trigger mode: 1
Integration Time (sec): 1.000000E-1
Scans to average: 1
Electric dark correction enabled: true
Nonlinearity correction enabled: false
Boxcar width: 0
XAxis mode: Wavelengths
Number of Pixels in Spectrum: 2048
>>>>>Begin Spectral Data<<<<<
223.165	-21.69
223.4	-21.69
223.635	-21.69
223.869	-12.69
224.104	-20.69
224.338	-14.69
224.573	-10.69
224.808	-6.69
225.042	-26.69
225.277	-5.69
225.511	5.31
225.746	-2.69
225.98	12.31
226.215	6.31
226.449	25.31
226.683	19.31
226.918	35.31
227.152	18.31
227.387	36.31
227.621	40.31
227.856	44.31
228.09	51.31
228.324	53.31
228.559	54.31
228.793	78.31
229.027	92.31
229.262	103.31
229.496	102.31
229.73	120.31
229.964	133.31
230.199	101.31
230.433	100.31
230.667	102.31
230.901	99.31
231.136	122.31
231.37	105.31
231.604	104.31
231.838	111.31
232.072	112.31
232.306	121.31
232.541	114.31
232.775	110.31
233.009	119.31
233.243	113.31
233.477	116.31
233.711	103.31
233.945	107.31
234.179	117.31
234.413	116.31
234.647	117.31
234.881	110.31
235.115	111.31
235.349	115.31
235.583	112.31
235.817	109.31
236.051	130.31
236.285	123.31
236.519	114.31
236.753	134.31
236.987	131.31
237.221	177.31
237.455	196.31
237.689	171.31
237.922	156.31
238.156	133.31
238.39	117.31
238.624	111.31
238.858	119.31
239.091	118.31
239.325	133.31
239.559	114.31
239.793	126.31
240.027	139.31
240.26	126.31
240.494	156.31
240.728	128.31
240.961	141.31
241.195	134.31
241.429	140.31
241.662	116.31
241.896	109.31
242.13	118.31
242.363	113.31
242.597	127.31
242.83	137.31
243.064	129.31
243.298	117.31
243.531	142.31
243.765	127.31
243.998	138.31
244.232	145.31
244.465	142.31
244.699	140.31
244.932	149.31
245.166	148.31
245.399	160.31
245.633	134.31
245.866	133.31
246.099	128.31
246.333	135.31
246.566	141.31
246.8	142.31
247.033	163.31
247.266	163.31
247.5	150.31
247.733	148.31
247.966	164.31
248.2	158.31
248.433	150.31
248.666	157.31
248.899	174.31
249.133	183.31
249.366	201.31
249.599	189.31
249.832	191.31
250.066	195.31
250.299	172.31
250.532	170.31
250.765	201.31
250.998	211.31
251.231	211.31
251.465	201.31
251.698	204.31
251.931	185.31
252.164	188.31
252.397	182.31
252.63	190.31
252.863	196.31
253.096	197.31
253.329	213.31
253.562	207.31
253.795	201.31
254.028	197.31
254.261	212.31
254.494	217.31
254.727	241.31
254.96	243.31
255.193	244.31
255.426	222.31
255.659	225.31
255.892	223.31
256.124	236.31
256.357	248.31
256.59	254.31
256.823	206.31
257.056	204.31
257.289	206.31
257.521	208.31
257.754	207.31
257.987	206.31
258.22	196.31
258.452	186.31
258.685	207.31
258.918	211.31
259.151	202.31
259.383	205.31
259.616	206.31
259.849	210.31
260.081	220.31
260.314	217.31
260.547	241.31
260.779	224.31
261.012	209.31
261.244	202.31
261.477	211.31
261.71	195.31
261.942	211.31
262.175	224.31
262.407	212.31
262.64	189.31
262.872	190.31
263.105	202.31
263.337	201.31
263.57	186.31
263.802	199.31
264.035	183.31
264.267	197.31
264.499	199.31
264.732	203.31
264.964	190.31
265.197	189.31
265.429	200.31
265.661	198.31
265.894	187.31
266.126	210.31
266.358	201.31
266.591	195.31
266.823	215.31
267.055	215.31
267.287	200.31
267.52	197.31
267.752	194.31
267.984	195.31
268.216	209.31
268.448	215.31
268.681	215.31
268.913	215.31
269.145	230.31
269.377	244.31
269.609	244.31
269.841	250.31
270.073	249.31
270.306	257.31
270.538	263.31
270.77	279.31
271.002	292.31
271.234	273.31
271.466	280.31
271.698	295.31
271.93	289.31
272.162	288.31
272.394	275.31
272.626	290.31
272.858	290.31
273.09	248.31
273.322	254.31
273.553	241.31
273.785	242.31
274.017	234.31
274.249	239.31
274.481	245.31
274.713	241.31
274.945	245.31
275.176	218.31
275.408	235.31
275.64	233.31
275.872	234.31
276.104	238.31
276.335	256.31
276.567	261.31
276.799	263.31
277.031	294.31
277.262	285.31
277.494	315.31
277.726	272.31
277.957	265.31
278.189	263.31
278.421	257.31
278.652	256.31
278.884	251.31
279.115	236.31
279.347	233.31
279.579	260.31
279.81	244.31
280.042	226.31
280.273	245.31
280.505	253.31
280.736	259.31
280.968	238.31
281.199	261.31
281.431	254.31
281.662	265.31
281.894	268.31
282.125	237.31
282.356	264.31
282.588	278.31
282.819	261.31
283.051	275.31
283.282	241.31
283.513	258.31
283.745	250.31
283.976	258.31
284.207	253.31
284.439	234.31
284.67	253.31
284.901	253.31
285.132	247.31
285.364	250.31
285.595	261.31
285.826	253.31
286.057	255.31
286.288	262.31
286.52	260.31
286.751	269.31
286.982	261.31
287.213	241.31
287.444	259.31
287.675	279.31
287.906	271.31
288.138	260.31
288.369	287.31
288.6	295.31
288.831	282.31
289.062	279.31
289.293	252.31
289.524	262.31
289.755	262.31
289.986	261.31
290.217	256.31
290.448	262.31
290.679	273.31
290.91	273.31
291.141	262.31
291.371	253.31
291.602	268.31
291.833	261.31
292.064	271.31
292.295	269.31
292.526	267.31
292.757	272.31
292.987	265.31
293.218	269.31
293.449	269.31
293.68	271.31
293.91	256.31
294.141	256.31
294.372	277.31
294.603	274.31
294.833	281.31
295.064	267.31
295.295	278.31
295.525	273.31
295.756	262.31
295.987	275.31
296.217	298.31
296.448	293.31
296.679	275.31
296.909	281.31
297.14	275.31
297.37	295.31
297.601	285.31
297.831	281.31
298.062	282.31
298.292	274.31
298.523	294.31
298.753	277.31
298.984	284.31
299.214	282.31
299.445	278.31
299.675	277.31
299.905	285.31
300.136	290.31
300.366	285.31
300.597	279.31
300.827	279.31
301.057	281.31
301.288	309.31
301.518	306.31
301.748	298.31
301.979	285.31
302.209	301.31
302.439	305.31
302.669	302.31
302.9	311.31
303.13	291.31
303.36	301.31
303.59	302.31
303.82	305.31
304.051	305.31
304.281	298.31
304.511	289.31
304.741	278.31
304.971	305.31
305.201	295.31
305.431	306.31
305.661	299.31
305.891	295.31
306.121	293.31
306.352	315.31
306.582	320.31
306.812	303.31
307.042	297.31
307.272	305.31
307.502	289.31
307.731	301.31
307.961	310.31
308.191	277.31
308.421	306.31
308.651	295.31
308.881	305.31
309.111	314.31
309.341	332.31
309.571	331.31
309.8	339.31
310.03	334.31
310.26	339.31
310.49	331.31
310.72	345.31
310.949	357.31
311.179	355.31
311.409	350.31
311.639	349.31
311.868	334.31
312.098	343.31
312.328	349.31
312.557	381.31
312.787	377.31
313.017	363.31
313.246	351.31
313.476	344.31
313.706	345.31
313.935	350.31
314.165	368.31
314.394	375.31
314.624	383.31
314.853	362.31
315.083	358.31
315.312	336.31
315.542	359.31
315.771	341.31
316.001	333.31
316.23	358.31
316.46	335.31
316.689	335.31
316.919	341.31
317.148	353.31
317.377	342.31
317.607	342.31
317.836	359.31
318.065	343.31
318.295	341.31
318.524	346.31
318.753	343.31
318.983	342.31
319.212	335.31
319.441	353.31
319.67	348.31
319.9	373.31
320.129	342.31
320.358	332.31
320.587	352.31
320.816	351.31
321.046	367.31
321.275	367.31
321.504	378.31
321.733	371.31
321.962	371.31
322.191	395.31
322.42	408.31
322.649	416.31
322.878	416.31
323.108	425.31
323.337	447.31
323.566	461.31
323.795	533.31
324.024	579.31
324.253	697.31
324.482	970.31
324.71	1492.31
324.939	1985.31
325.168	1668.31
325.397	890.31
325.626	629.31
325.855	532.31
326.084	484.31
326.313	473.31
326.542	483.31
326.77	545.31
326.999	646.31
327.228	898.31
327.457	1323.31
327.686	1459.31
327.914	993.31
328.143	684.31
328.372	619.31
328.6	580.31
328.829	545.31
329.058	547.31
329.287	563.31
329.515	535.31
329.744	497.31
329.972	519.31
330.201	544.31
330.43	593.31
330.658	619.31
330.887	623.31
331.115	574.31
331.344	488.31
331.572	485.31
331.801	464.31
332.03	474.31
332.258	467.31
332.486	413.31
332.715	428.31
332.943	428.31
333.172	420.31
333.4	438.31
333.629	420.31
333.857	474.31
334.085	489.31
334.314	531.31
334.542	596.31
334.771	581.31
334.999	510.31
335.227	456.31
335.455	451.31
335.684	429.31
335.912	417.31
336.14	405.31
336.369	430.31
336.597	400.31
336.825	405.31
337.053	409.31
337.281	400.31
337.51	401.31
337.738	402.31
337.966	393.31
338.194	410.31
338.422	398.31
338.65	387.31
338.878	395.31
339.106	390.31
339.334	390.31
339.562	405.31
339.79	391.31
340.018	373.31
340.246	385.31
340.474	388.31
340.702	411.31
340.93	379.31
341.158	381.31
341.386	403.31
341.614	387.31
341.842	378.31
342.07	386.31
342.298	386.31
342.526	394.31
342.754	359.31
342.981	383.31
343.209	369.31
343.437	378.31
343.665	377.31
343.893	369.31
344.12	374.31
344.348	390.31
344.576	380.31
344.804	378.31
345.031	393.31
345.259	417.31
345.487	405.31
345.714	391.31
345.942	394.31
346.17	377.31
346.397	381.31
346.625	394.31
346.853	364.31
347.08	381.31
347.308	389.31
347.535	392.31
347.763	375.31
347.99	378.31
348.218	384.31
348.445	395.31
348.673	378.31
348.9	360.31
349.128	378.31
349.355	373.31
349.583	367.31
349.81	379.31
350.037	369.31
350.265	373.31
350.492	358.31
350.72	358.31
350.947	377.31
351.174	362.31
351.402	383.31
351.629	370.31
351.856	368.31
352.083	396.31
352.311	385.31
352.538	402.31
352.765	397.31
352.992	381.31
353.22	357.31
353.447	383.31
353.674	377.31
353.901	361.31
354.128	371.31
354.355	337.31
354.583	349.31
354.81	350.31
355.037	341.31
355.264	341.31
355.491	355.31
355.718	334.31
355.945	347.31
356.172	337.31
356.399	361.31
356.626	345.31
356.853	331.31
357.08	348.31
357.307	336.31
357.534	336.31
357.761	346.31
357.988	348.31
358.215	347.31
358.441	340.31
358.668	341.31
358.895	340.31
359.122	378.31
359.349	351.31
359.576	371.31
359.802	395.31
360.029	415.31
360.256	435.31
360.483	395.31
360.709	381.31
360.936	384.31
361.163	377.31
361.39	390.31
361.616	390.31
361.843	375.31
362.07	381.31
362.296	373.31
362.523	376.31
362.749	359.31
362.976	349.31
363.203	365.31
363.429	357.31
363.656	353.31
363.882	376.31
364.109	360.31
364.335	363.31
364.562	363.31
364.788	365.31
365.015	373.31
365.241	361.31
365.468	385.31
365.694	384.31
365.92	359.31
366.147	373.31
366.373	344.31
366.599	362.31
366.826	354.31
367.052	354.31
367.278	338.31
367.505	323.31
367.731	351.31
367.957	358.31
368.184	363.31
368.41	370.31
368.636	354.31
368.862	371.31
369.089	346.31
369.315	336.31
369.541	351.31
369.767	344.31
369.993	344.31
370.219	343.31
370.445	329.31
370.672	335.31
370.898	338.31
371.124	339.31
371.35	343.31
371.576	350.31
371.802	340.31
372.028	359.31
372.254	366.31
372.48	328.31
372.706	341.31
372.932	352.31
373.158	347.31
373.384	337.31
373.61	350.31
373.835	362.31
374.061	363.31
374.287	346.31
374.513	363.31
374.739	379.31
374.965	354.31
375.191	341.31
375.416	357.31
375.642	356.31
375.868	367.31
376.094	362.31
376.319	348.31
376.545	354.31
376.771	351.31
376.997	338.31
377.222	352.31
377.448	340.31
377.674	353.31
377.899	343.31
378.125	350.31
378.35	350.31
378.576	345.31
378.802	350.31
379.027	340.31
379.253	325.31
379.478	342.31
379.704	345.31
379.929	332.31
380.155	360.31
380.38	343.31
380.606	346.31
380.831	339.31
381.057	356.31
381.282	356.31
381.507	334.31
381.733	332.31
381.958	328.31
382.184	342.31
382.409	366.31
382.634	344.31
382.86	344.31
383.085	354.31
383.31	346.31
383.535	360.31
383.761	359.31
383.986	365.31
384.211	359.31
384.436	370.31
384.662	379.31
384.887	375.31
385.112	345.31
385.337	357.31
385.562	329.31
385.787	366.31
386.013	372.31
386.238	373.31
386.463	366.31
386.688	369.31
386.913	353.31
387.138	389.31
387.363	379.31
387.588	375.31
387.813	362.31
388.038	350.31
388.263	372.31
388.488	353.31
388.713	362.31
388.938	357.31
389.163	367.31
389.387	374.31
389.612	359.31
389.837	381.31
390.062	375.31
390.287	358.31
390.512	364.31
390.736	359.31
390.961	367.31
391.186	375.31
391.411	391.31
391.636	376.31
391.86	354.31
392.085	373.31
392.31	381.31
392.534	376.31
392.759	378.31
392.984	375.31
393.208	368.31
393.433	357.31
393.658	373.31
393.882	374.31
394.107	360.31
394.331	357.31
394.556	365.31
394.78	394.31
395.005	375.31
395.229	377.31
395.454	381.31
395.678	368.31
395.903	387.31
396.127	421.31
396.352	399.31
396.576	389.31
396.801	389.31
397.025	377.31
397.249	372.31
397.474	386.31
397.698	402.31
397.922	398.31
398.147	403.31
398.371	406.31
398.595	411.31
398.82	416.31
399.044	423.31
399.268	435.31
399.492	444.31
399.717	470.31
399.941	481.31
400.165	488.31
400.389	491.31
400.613	461.31
400.837	427.31
401.062	433.31
401.286	435.31
401.51	440.31
401.734	425.31
401.958	394.31
402.182	424.31
402.406	433.31
402.63	425.31
402.854	422.31
403.078	415.31
403.302	431.31
403.526	446.31
403.75	423.31
403.974	444.31
404.198	455.31
404.422	446.31
404.645	451.31
404.869	465.31
405.093	488.31
405.317	532.31
405.541	553.31
405.765	501.31
405.988	451.31
406.212	460.31
406.436	490.31
406.66	475.31
406.883	469.31
407.107	478.31
407.331	503.31
407.555	572.31
407.778	561.31
408.002	521.31
408.226	483.31
408.449	468.31
408.673	478.31
408.896	486.31
409.12	525.31
409.344	488.31
409.567	467.31
409.791	427.31
410.014	401.31
410.238	426.31
410.461	429.31
410.685	439.31
410.908	451.31
411.132	476.31
411.355	493.31
411.578	489.31
411.802	459.31
412.025	438.31
412.249	455.31
412.472	468.31
412.695	511.31
412.919	475.31
413.142	467.31
413.365	461.31
413.589	421.31
413.812	421.31
414.035	413.31
414.258	410.31
414.482	408.31
414.705	428.31
414.928	407.31
415.151	412.31
415.374	418.31
415.597	405.31
415.821	401.31
416.044	430.31
416.267	435.31
416.49	411.31
416.713	393.31
416.936	397.31
417.159	382.31
417.382	417.31
417.605	413.31
417.828	446.31
418.051	437.31
418.274	461.31
418.497	421.31
418.72	436.31
418.943	405.31
419.166	439.31
419.389	447.31
419.611	444.31
419.834	438.31
420.057	421.31
420.28	433.31
420.503	436.31
420.726	446.31
420.948	454.31
421.171	473.31
421.394	494.31
421.617	449.31
421.839	425.31
422.062	427.31
422.285	429.31
422.507	489.31
422.73	519.31
422.953	525.31
423.175	449.31
423.398	439.31
423.621	451.31
423.843	451.31
424.066	461.31
424.288	441.31
424.511	474.31
424.733	531.31
424.956	563.31
425.178	556.31
425.401	547.31
425.623	554.31
425.846	487.31
426.068	469.31
426.291	441.31
426.513	455.31
426.735	461.31
426.958	503.31
427.18	569.31
427.402	661.31
427.625	709.31
427.847	661.31
428.069	587.31
428.292	509.31
428.514	491.31
428.736	448.31
428.958	441.31
429.181	421.31
429.403	423.31
429.625	460.31
429.847	461.31
430.069	503.31
430.292	523.31
430.514	453.31
430.736	420.31
430.958	407.31
431.18	422.31
431.402	411.31
431.624	385.31
431.846	398.31
432.068	383.31
432.29	389.31
432.512	409.31
432.734	416.31
432.956	400.31
433.178	395.31
433.4	422.31
433.622	427.31
433.844	404.31
434.066	399.31
434.287	395.31
434.509	414.31
434.731	407.31
434.953	440.31
435.175	445.31
435.397	467.31
435.618	475.31
435.84	507.31
436.062	541.31
436.284	595.31
436.505	506.31
436.727	465.31
436.949	462.31
437.17	443.31
437.392	446.31
437.614	457.31
437.835	481.31
438.057	550.31
438.278	606.31
438.5	625.31
438.721	685.31
438.943	637.31
439.165	531.31
439.386	478.31
439.608	472.31
439.829	469.31
440.05	511.31
440.272	539.31
440.493	495.31
440.715	451.31
440.936	443.31
441.158	423.31
441.379	429.31
441.6	449.31
441.822	446.31
442.043	493.31
442.264	539.31
442.486	593.31
442.707	505.31
442.928	500.31
443.149	497.31
443.371	518.31
443.592	539.31
443.813	607.31
444.034	653.31
444.255	535.31
444.476	459.31
444.698	476.31
444.919	474.31
445.14	530.31
445.361	519.31
445.582	487.31
445.803	545.31
446.024	630.31
446.245	619.31
446.466	574.31
446.687	483.31
446.908	478.31
447.129	445.31
447.35	431.31
447.571	441.31
447.792	421.31
448.013	426.31
448.234	447.31
448.455	493.31
448.675	570.31
448.896	637.31
449.117	563.31
449.338	549.31
449.559	621.31
449.779	675.31
450	559.31
450.221	461.31
450.442	442.31
450.662	425.31
450.883	438.31
451.104	449.31
451.324	441.31
451.545	421.31
451.766	403.31
451.986	398.31
452.207	383.31
452.428	379.31
452.648	384.31
452.869	397.31
453.089	418.31
453.31	413.31
453.53	412.31
453.751	385.31
453.971	383.31
454.192	421.31
454.412	392.31
454.633	377.31
454.853	387.31
455.073	405.31
455.294	402.31
455.514	449.31
455.734	435.31
455.955	391.31
456.175	386.31
456.395	342.31
456.616	364.31
456.836	355.31
457.056	344.31
457.276	350.31
457.497	365.31
457.717	357.31
457.937	357.31
458.157	380.31
458.377	381.31
458.598	403.31
458.818	469.31
459.038	543.31
459.258	521.31
459.478	439.31
459.698	416.31
459.918	407.31
460.138	400.31
460.358	414.31
460.578	412.31
460.798	400.31
461.018	386.31
461.238	398.31
461.458	398.31
461.678	415.31
461.898	413.31
462.118	393.31
462.338	403.31
462.558	422.31
462.777	428.31
462.997	453.31
463.217	433.31
463.437	442.31
463.657	436.31
463.876	435.31
464.096	416.31
464.316	443.31
464.536	442.31
464.755	442.31
464.975	429.31
465.195	479.31
465.414	555.31
465.634	487.31
465.854	441.31
466.073	419.31
466.293	391.31
466.512	405.31
466.732	411.31
466.951	417.31
467.171	393.31
467.391	377.31
467.61	414.31
467.829	401.31
468.049	405.31
468.268	438.31
468.488	395.31
468.707	393.31
468.927	389.31
469.146	405.31
469.365	412.31
469.585	390.31
469.804	401.31
470.023	409.31
470.243	382.31
470.462	435.31
470.681	431.31
470.901	433.31
471.12	409.31
471.339	418.31
471.558	400.31
471.777	408.31
471.997	395.31
472.216	433.31
472.435	493.31
472.654	477.31
472.873	426.31
473.092	404.31
473.311	411.31
473.53	418.31
473.749	418.31
473.968	473.31
474.187	540.31
474.406	535.31
474.625	466.31
474.844	408.31
475.063	382.31
475.282	396.31
475.501	409.31
475.72	406.31
475.939	422.31
476.158	431.31
476.377	400.31
476.596	419.31
476.814	439.31
477.033	431.31
477.252	413.31
477.471	422.31
477.69	433.31
477.908	425.31
478.127	443.31
478.346	441.31
478.564	433.31
478.783	458.31
479.002	460.31
479.22	478.31
479.439	483.31
479.658	482.31
479.876	471.31
480.095	494.31
480.313	511.31
480.532	489.31
480.751	505.31
480.969	522.31
481.188	641.31
481.406	709.31
481.624	603.31
481.843	525.31
482.061	514.31
482.28	494.31
482.498	483.31
482.717	493.31
482.935	489.31
483.153	486.31
483.372	480.31
483.59	477.31
483.808	482.31
484.027	484.31
484.245	473.31
484.463	474.31
484.681	479.31
484.9	488.31
485.118	474.31
485.336	470.31
485.554	484.31
485.772	501.31
485.99	490.31
486.209	478.31
486.427	498.31
486.645	501.31
486.863	542.31
487.081	521.31
487.299	511.31
487.517	516.31
487.735	488.31
487.953	513.31
488.171	531.31
488.389	513.31
488.607	514.31
488.825	526.31
489.043	524.31
489.261	507.31
489.479	545.31
489.696	539.31
489.914	521.31
490.132	533.31
490.35	538.31
490.568	549.31
490.786	562.31
491.003	556.31
491.221	555.31
491.439	559.31
491.657	588.31
491.874	604.31
492.092	579.31
492.31	589.31
492.527	595.31
492.745	617.31
492.963	607.31
493.18	612.31
493.398	620.31
493.615	623.31
493.833	635.31
494.05	613.31
494.268	628.31
494.485	604.31
494.703	598.31
494.92	615.31
495.138	610.31
495.355	615.31
495.573	620.31
495.79	619.31
496.008	580.31
496.225	611.31
496.442	601.31
496.66	609.31
496.877	634.31
497.094	617.31
497.312	619.31
497.529	618.31
497.746	644.31
497.963	614.31
498.181	639.31
498.398	676.31
498.615	653.31
498.832	670.31
499.049	667.31
499.267	671.31
499.484	686.31
499.701	718.31
499.918	731.31
500.135	754.31
500.352	771.31
500.569	778.31
500.786	771.31
501.003	792.31
501.22	781.31
501.437	731.31
501.654	741.31
501.871	735.31
