Data from 1983.PennyLincolnUp.Lamp.En5.5.200Scan.071819.P1_HRD10591_16-54-25-965.txt Node
Date: Thu Jul 18 16:54:25 EDT 2019
User: cochatt
Spectrometer: HR+D1059
Trigger mode: 1
Integration Time (sec): 1.000000E-1
Scans to average: 1
Electric dark correction enabled: true
Nonlinearity correction enabled: false
Boxcar width: 0
XAxis mode: Wavelengths
Number of Pixels in Spectrum: 2048
>>>>>Begin Spectral Data<<<<<
223.165	-5.75
223.4	-5.75
223.635	-5.75
223.869	-6.75
224.104	-23.75
224.338	-16.75
224.573	-20.75
224.808	-25.75
225.042	5.25
225.277	-10.75
225.511	-11.75
225.746	5.25
225.98	17.25
226.215	1.25
226.449	21.25
226.683	2.25
226.918	36.25
227.152	33.25
227.387	36.25
227.621	44.25
227.856	51.25
228.09	51.25
228.324	62.25
228.559	47.25
228.793	53.25
229.027	93.25
229.262	98.25
229.496	104.25
229.73	123.25
229.964	137.25
230.199	126.25
230.433	110.25
230.667	116.25
230.901	127.25
231.136	93.25
231.37	124.25
231.604	105.25
231.838	108.25
232.072	105.25
232.306	107.25
232.541	119.25
232.775	109.25
233.009	123.25
233.243	112.25
233.477	106.25
233.711	113.25
233.945	111.25
234.179	110.25
234.413	117.25
234.647	105.25
234.881	121.25
235.115	108.25
235.349	99.25
235.583	99.25
235.817	118.25
236.051	130.25
236.285	116.25
236.519	129.25
236.753	142.25
236.987	163.25
237.221	169.25
237.455	212.25
237.689	166.25
237.922	139.25
238.156	135.25
238.39	129.25
238.624	123.25
238.858	141.25
239.091	118.25
239.325	101.25
239.559	120.25
239.793	122.25
240.027	131.25
240.26	147.25
240.494	157.25
240.728	143.25
240.961	145.25
241.195	137.25
241.429	114.25
241.662	117.25
241.896	130.25
242.13	121.25
242.363	139.25
242.597	136.25
242.83	125.25
243.064	136.25
243.298	132.25
243.531	125.25
243.765	130.25
243.998	132.25
244.232	115.25
244.465	139.25
244.699	124.25
244.932	153.25
245.166	138.25
245.399	135.25
245.633	135.25
245.866	147.25
246.099	131.25
246.333	131.25
246.566	150.25
246.8	149.25
247.033	143.25
247.266	146.25
247.5	153.25
247.733	154.25
247.966	158.25
248.2	163.25
248.433	165.25
248.666	169.25
248.899	194.25
249.133	201.25
249.366	192.25
249.599	181.25
249.832	175.25
250.066	178.25
250.299	167.25
250.532	169.25
250.765	195.25
250.998	200.25
251.231	214.25
251.465	187.25
251.698	198.25
251.931	191.25
252.164	176.25
252.397	177.25
252.63	182.25
252.863	178.25
253.096	212.25
253.329	206.25
253.562	220.25
253.795	209.25
254.028	201.25
254.261	199.25
254.494	214.25
254.727	257.25
254.96	259.25
255.193	261.25
255.426	227.25
255.659	214.25
255.892	213.25
256.124	223.25
256.357	235.25
256.59	213.25
256.823	198.25
257.056	175.25
257.289	193.25
257.521	203.25
257.754	181.25
257.987	185.25
258.22	208.25
258.452	185.25
258.685	188.25
258.918	194.25
259.151	193.25
259.383	197.25
259.616	219.25
259.849	194.25
260.081	217.25
260.314	233.25
260.547	233.25
260.779	213.25
261.012	212.25
261.244	202.25
261.477	222.25
261.71	199.25
261.942	205.25
262.175	218.25
262.407	210.25
262.64	184.25
262.872	199.25
263.105	201.25
263.337	204.25
263.57	196.25
263.802	193.25
264.035	200.25
264.267	192.25
264.499	183.25
264.732	198.25
264.964	182.25
265.197	197.25
265.429	188.25
265.661	206.25
265.894	198.25
266.126	183.25
266.358	200.25
266.591	215.25
266.823	198.25
267.055	193.25
267.287	209.25
267.52	197.25
267.752	210.25
267.984	219.25
268.216	220.25
268.448	219.25
268.681	216.25
268.913	214.25
269.145	257.25
269.377	272.25
269.609	242.25
269.841	246.25
270.073	253.25
270.306	271.25
270.538	276.25
270.77	273.25
271.002	286.25
271.234	286.25
271.466	282.25
271.698	276.25
271.93	313.25
272.162	295.25
272.394	297.25
272.626	268.25
272.858	261.25
273.09	265.25
273.322	245.25
273.553	239.25
273.785	250.25
274.017	234.25
274.249	247.25
274.481	241.25
274.713	233.25
274.945	254.25
275.176	265.25
275.408	241.25
275.64	250.25
275.872	241.25
276.104	232.25
276.335	238.25
276.567	248.25
276.799	267.25
277.031	307.25
277.262	290.25
277.494	298.25
277.726	287.25
277.957	281.25
278.189	237.25
278.421	252.25
278.652	254.25
278.884	246.25
279.115	250.25
279.347	259.25
279.579	244.25
279.81	237.25
280.042	236.25
280.273	218.25
280.505	252.25
280.736	238.25
280.968	238.25
281.199	230.25
281.431	267.25
281.662	256.25
281.894	243.25
282.125	248.25
282.356	270.25
282.588	286.25
282.819	278.25
283.051	254.25
283.282	255.25
283.513	237.25
283.745	253.25
283.976	244.25
284.207	266.25
284.439	253.25
284.67	243.25
284.901	263.25
285.132	261.25
285.364	265.25
285.595	247.25
285.826	269.25
286.057	238.25
286.288	257.25
286.52	259.25
286.751	262.25
286.982	262.25
287.213	257.25
287.444	253.25
287.675	258.25
287.906	282.25
288.138	287.25
288.369	280.25
288.6	281.25
288.831	278.25
289.062	293.25
289.293	253.25
289.524	254.25
289.755	266.25
289.986	263.25
290.217	269.25
290.448	260.25
290.679	266.25
290.91	246.25
291.141	261.25
291.371	270.25
291.602	261.25
291.833	259.25
292.064	254.25
292.295	256.25
292.526	261.25
292.757	279.25
292.987	276.25
293.218	265.25
293.449	285.25
293.68	256.25
293.91	265.25
294.141	266.25
294.372	248.25
294.603	261.25
294.833	277.25
295.064	254.25
295.295	259.25
295.525	283.25
295.756	264.25
295.987	268.25
296.217	311.25
296.448	289.25
296.679	279.25
296.909	263.25
297.14	259.25
297.37	276.25
297.601	281.25
297.831	257.25
298.062	263.25
298.292	269.25
298.523	288.25
298.753	283.25
298.984	276.25
299.214	277.25
299.445	273.25
299.675	292.25
299.905	295.25
300.136	290.25
300.366	283.25
300.597	302.25
300.827	311.25
301.057	314.25
301.288	301.25
301.518	285.25
301.748	295.25
301.979	298.25
302.209	299.25
302.439	310.25
302.669	298.25
302.9	290.25
303.13	289.25
303.36	323.25
303.59	309.25
303.82	311.25
304.051	308.25
304.281	298.25
304.511	284.25
304.741	279.25
304.971	307.25
305.201	289.25
305.431	289.25
305.661	283.25
305.891	269.25
306.121	303.25
306.352	302.25
306.582	309.25
306.812	301.25
307.042	293.25
307.272	314.25
307.502	297.25
307.731	297.25
307.961	326.25
308.191	297.25
308.421	309.25
308.651	310.25
308.881	331.25
309.111	313.25
309.341	307.25
309.571	301.25
309.8	311.25
310.03	369.25
310.26	351.25
310.49	334.25
310.72	355.25
310.949	371.25
311.179	379.25
311.409	355.25
311.639	345.25
311.868	353.25
312.098	341.25
312.328	348.25
312.557	376.25
312.787	380.25
313.017	380.25
313.246	349.25
313.476	343.25
313.706	352.25
313.935	360.25
314.165	366.25
314.394	363.25
314.624	362.25
314.853	382.25
315.083	364.25
315.312	340.25
315.542	345.25
315.771	344.25
316.001	322.25
316.23	318.25
316.46	343.25
316.689	363.25
316.919	351.25
317.148	357.25
317.377	369.25
317.607	354.25
317.836	349.25
318.065	325.25
318.295	334.25
318.524	355.25
318.753	338.25
318.983	340.25
319.212	346.25
319.441	356.25
319.67	363.25
319.9	349.25
320.129	362.25
320.358	347.25
320.587	354.25
320.816	350.25
321.046	370.25
321.275	366.25
321.504	355.25
321.733	368.25
321.962	374.25
322.191	379.25
322.42	413.25
322.649	422.25
322.878	399.25
323.108	428.25
323.337	435.25
323.566	477.25
323.795	487.25
324.024	583.25
324.253	692.25
324.482	990.25
324.71	1477.25
324.939	2038.25
325.168	1654.25
325.397	906.25
325.626	629.25
325.855	513.25
326.084	482.25
326.313	455.25
326.542	486.25
326.77	532.25
326.999	634.25
327.228	894.25
327.457	1301.25
327.686	1493.25
327.914	1015.25
328.143	686.25
328.372	605.25
328.6	561.25
328.829	537.25
329.058	545.25
329.287	551.25
329.515	547.25
329.744	465.25
329.972	454.25
330.201	515.25
330.43	535.25
330.658	569.25
330.887	563.25
331.115	565.25
331.344	488.25
331.572	459.25
331.801	470.25
332.03	443.25
332.258	425.25
332.486	405.25
332.715	408.25
332.943	409.25
333.172	419.25
333.4	413.25
333.629	416.25
333.857	424.25
334.085	445.25
334.314	445.25
334.542	475.25
334.771	502.25
334.999	450.25
335.227	438.25
335.455	397.25
335.684	413.25
335.912	409.25
336.14	402.25
336.369	386.25
336.597	413.25
336.825	413.25
337.053	401.25
337.281	391.25
337.51	392.25
337.738	399.25
337.966	403.25
338.194	389.25
338.422	392.25
338.65	383.25
338.878	372.25
339.106	390.25
339.334	381.25
339.562	398.25
339.79	379.25
340.018	380.25
340.246	378.25
340.474	381.25
340.702	382.25
340.93	378.25
341.158	374.25
341.386	393.25
341.614	398.25
341.842	377.25
342.07	397.25
342.298	381.25
342.526	369.25
342.754	379.25
342.981	364.25
343.209	372.25
343.437	395.25
343.665	373.25
343.893	389.25
344.12	395.25
344.348	395.25
344.576	412.25
344.804	400.25
345.031	387.25
345.259	395.25
345.487	410.25
345.714	362.25
345.942	387.25
346.17	370.25
346.397	375.25
346.625	377.25
346.853	388.25
347.08	380.25
347.308	370.25
347.535	386.25
347.763	407.25
347.99	399.25
348.218	378.25
348.445	399.25
348.673	396.25
348.9	392.25
349.128	382.25
349.355	364.25
349.583	358.25
349.81	368.25
350.037	364.25
350.265	360.25
350.492	343.25
350.72	371.25
350.947	355.25
351.174	388.25
351.402	389.25
351.629	392.25
351.856	399.25
352.083	373.25
352.311	388.25
352.538	395.25
352.765	379.25
352.992	378.25
353.22	372.25
353.447	373.25
353.674	356.25
353.901	357.25
354.128	365.25
354.355	346.25
354.583	340.25
354.81	348.25
355.037	349.25
355.264	330.25
355.491	348.25
355.718	348.25
355.945	344.25
356.172	343.25
356.399	334.25
356.626	345.25
356.853	333.25
357.08	345.25
357.307	333.25
357.534	345.25
357.761	346.25
357.988	369.25
358.215	353.25
358.441	335.25
358.668	334.25
358.895	360.25
359.122	360.25
359.349	380.25
359.576	366.25
359.802	415.25
360.029	424.25
360.256	423.25
360.483	422.25
360.709	380.25
360.936	375.25
361.163	380.25
361.39	379.25
361.616	362.25
361.843	389.25
362.07	381.25
362.296	387.25
362.523	383.25
362.749	366.25
362.976	377.25
363.203	366.25
363.429	353.25
363.656	353.25
363.882	364.25
364.109	335.25
364.335	348.25
364.562	361.25
364.788	353.25
365.015	360.25
365.241	335.25
365.468	357.25
365.694	347.25
365.92	359.25
366.147	347.25
366.373	366.25
366.599	351.25
366.826	348.25
367.052	326.25
367.278	354.25
367.505	364.25
367.731	370.25
367.957	365.25
368.184	353.25
368.41	366.25
368.636	374.25
368.862	367.25
369.089	363.25
369.315	336.25
369.541	351.25
369.767	362.25
369.993	353.25
370.219	329.25
370.445	346.25
370.672	337.25
370.898	341.25
371.124	349.25
371.35	358.25
371.576	350.25
371.802	361.25
372.028	340.25
372.254	336.25
372.48	347.25
372.706	360.25
372.932	342.25
373.158	351.25
373.384	357.25
373.61	346.25
373.835	350.25
374.061	341.25
374.287	345.25
374.513	350.25
374.739	348.25
374.965	347.25
375.191	354.25
375.416	350.25
375.642	366.25
375.868	353.25
376.094	353.25
376.319	339.25
376.545	337.25
376.771	345.25
376.997	334.25
377.222	323.25
377.448	347.25
377.674	341.25
377.899	342.25
378.125	345.25
378.35	343.25
378.576	348.25
378.802	341.25
379.027	326.25
379.253	329.25
379.478	325.25
379.704	327.25
379.929	332.25
380.155	367.25
380.38	342.25
380.606	334.25
380.831	344.25
381.057	354.25
381.282	344.25
381.507	354.25
381.733	317.25
381.958	349.25
382.184	343.25
382.409	361.25
382.634	356.25
382.86	356.25
383.085	349.25
383.31	366.25
383.535	361.25
383.761	358.25
383.986	357.25
384.211	341.25
384.436	354.25
384.662	364.25
384.887	361.25
385.112	363.25
385.337	356.25
385.562	375.25
385.787	357.25
386.013	376.25
386.238	398.25
386.463	379.25
386.688	377.25
386.913	354.25
387.138	350.25
387.363	363.25
387.588	386.25
387.813	366.25
388.038	377.25
388.263	379.25
388.488	357.25
388.713	372.25
388.938	375.25
389.163	380.25
389.387	373.25
389.612	371.25
389.837	374.25
390.062	382.25
390.287	383.25
390.512	352.25
390.736	378.25
390.961	378.25
391.186	374.25
391.411	381.25
391.636	384.25
391.86	379.25
392.085	372.25
392.31	378.25
392.534	365.25
392.759	355.25
392.984	358.25
393.208	369.25
393.433	375.25
393.658	381.25
393.882	375.25
394.107	361.25
394.331	365.25
394.556	366.25
394.78	363.25
395.005	374.25
395.229	363.25
395.454	385.25
395.678	367.25
395.903	401.25
396.127	389.25
396.352	426.25
396.576	378.25
396.801	384.25
397.025	399.25
397.249	394.25
397.474	385.25
397.698	395.25
397.922	383.25
398.147	426.25
398.371	426.25
398.595	433.25
398.82	404.25
399.044	415.25
399.268	424.25
399.492	442.25
399.717	456.25
399.941	481.25
400.165	491.25
400.389	524.25
400.613	451.25
400.837	420.25
401.062	438.25
401.286	418.25
401.51	409.25
401.734	415.25
401.958	430.25
402.182	430.25
402.406	436.25
402.63	426.25
402.854	424.25
403.078	438.25
403.302	425.25
403.526	415.25
403.75	431.25
403.974	431.25
404.198	426.25
404.422	438.25
404.645	418.25
404.869	443.25
405.093	467.25
405.317	502.25
405.541	531.25
405.765	468.25
405.988	430.25
406.212	461.25
406.436	497.25
406.66	513.25
406.883	497.25
407.107	488.25
407.331	543.25
407.555	549.25
407.778	570.25
408.002	506.25
408.226	470.25
408.449	479.25
408.673	470.25
408.896	490.25
409.12	536.25
409.344	499.25
409.567	469.25
409.791	458.25
410.014	445.25
410.238	428.25
410.461	429.25
410.685	422.25
410.908	444.25
411.132	469.25
411.355	499.25
411.578	475.25
411.802	421.25
412.025	421.25
412.249	442.25
412.472	455.25
412.695	475.25
412.919	464.25
413.142	453.25
413.365	425.25
413.589	420.25
413.812	405.25
414.035	410.25
414.258	420.25
414.482	407.25
414.705	407.25
414.928	410.25
415.151	409.25
415.374	422.25
415.597	406.25
415.821	403.25
416.044	407.25
416.267	409.25
416.49	399.25
416.713	399.25
416.936	389.25
417.159	419.25
417.382	418.25
417.605	421.25
417.828	430.25
418.051	389.25
418.274	419.25
418.497	412.25
418.72	395.25
418.943	404.25
419.166	409.25
419.389	430.25
419.611	437.25
419.834	440.25
420.057	436.25
420.28	422.25
420.503	434.25
420.726	430.25
420.948	426.25
421.171	503.25
421.394	486.25
421.617	447.25
421.839	429.25
422.062	429.25
422.285	440.25
422.507	479.25
422.73	535.25
422.953	526.25
423.175	461.25
423.398	460.25
423.621	424.25
423.843	446.25
424.066	439.25
424.288	452.25
424.511	486.25
424.733	527.25
424.956	581.25
425.178	583.25
425.401	565.25
425.623	557.25
425.846	493.25
426.068	460.25
426.291	459.25
426.513	450.25
426.735	472.25
426.958	477.25
427.18	559.25
427.402	684.25
427.625	737.25
427.847	666.25
428.069	561.25
428.292	513.25
428.514	467.25
428.736	446.25
428.958	435.25
429.181	429.25
429.403	420.25
429.625	454.25
429.847	464.25
430.069	520.25
430.292	525.25
430.514	433.25
430.736	430.25
430.958	442.25
431.18	404.25
431.402	408.25
431.624	387.25
431.846	410.25
432.068	405.25
432.29	406.25
432.512	411.25
432.734	412.25
432.956	424.25
433.178	403.25
433.4	415.25
433.622	418.25
433.844	414.25
434.066	420.25
434.287	402.25
434.509	421.25
434.731	423.25
434.953	414.25
435.175	430.25
435.397	449.25
435.618	463.25
435.84	492.25
436.062	569.25
436.284	621.25
436.505	506.25
436.727	471.25
436.949	461.25
437.17	418.25
437.392	430.25
437.614	436.25
437.835	485.25
438.057	544.25
438.278	637.25
438.5	620.25
438.721	647.25
438.943	636.25
439.165	519.25
439.386	466.25
439.608	459.25
439.829	476.25
440.05	484.25
440.272	532.25
440.493	493.25
440.715	461.25
440.936	453.25
441.158	442.25
441.379	428.25
441.6	473.25
441.822	444.25
442.043	493.25
442.264	552.25
442.486	569.25
442.707	519.25
442.928	462.25
443.149	483.25
443.371	495.25
443.592	551.25
443.813	628.25
444.034	623.25
444.255	531.25
444.476	477.25
444.698	485.25
444.919	469.25
445.14	579.25
445.361	539.25
445.582	511.25
445.803	559.25
446.024	623.25
446.245	627.25
446.466	587.25
446.687	501.25
446.908	464.25
447.129	431.25
447.35	460.25
447.571	445.25
447.792	413.25
448.013	435.25
448.234	458.25
448.455	478.25
448.675	587.25
448.896	662.25
449.117	558.25
449.338	528.25
449.559	614.25
449.779	691.25
450	549.25
450.221	490.25
450.442	457.25
450.662	428.25
450.883	437.25
451.104	435.25
451.324	422.25
451.545	431.25
451.766	420.25
451.986	383.25
452.207	376.25
452.428	382.25
452.648	389.25
452.869	383.25
453.089	413.25
453.31	411.25
453.53	414.25
453.751	396.25
453.971	406.25
454.192	419.25
454.412	411.25
454.633	395.25
454.853	388.25
455.073	400.25
455.294	416.25
455.514	465.25
455.734	464.25
455.955	404.25
456.175	372.25
456.395	350.25
456.616	358.25
456.836	364.25
457.056	357.25
457.276	345.25
457.497	386.25
457.717	389.25
457.937	361.25
458.157	376.25
458.377	375.25
458.598	388.25
458.818	466.25
459.038	519.25
459.258	548.25
459.478	450.25
459.698	413.25
459.918	417.25
460.138	400.25
460.358	396.25
460.578	412.25
460.798	414.25
461.018	429.25
461.238	389.25
461.458	416.25
461.678	399.25
461.898	411.25
462.118	395.25
462.338	405.25
462.558	399.25
462.777	414.25
462.997	417.25
463.217	431.25
463.437	436.25
463.657	441.25
463.876	435.25
464.096	430.25
464.316	429.25
464.536	439.25
464.755	449.25
464.975	437.25
465.195	485.25
465.414	594.25
465.634	495.25
465.854	445.25
466.073	418.25
466.293	417.25
466.512	396.25
466.732	381.25
466.951	375.25
467.171	385.25
467.391	408.25
467.61	391.25
467.829	418.25
468.049	420.25
468.268	421.25
468.488	405.25
468.707	371.25
468.927	386.25
469.146	384.25
469.365	381.25
469.585	368.25
469.804	392.25
470.023	404.25
470.243	429.25
470.462	425.25
470.681	429.25
470.901	421.25
471.12	399.25
471.339	406.25
471.558	399.25
471.777	414.25
471.997	397.25
472.216	405.25
472.435	445.25
472.654	424.25
472.873	398.25
473.092	391.25
473.311	394.25
473.53	411.25
473.749	406.25
473.968	457.25
474.187	521.25
474.406	534.25
474.625	442.25
474.844	407.25
475.063	396.25
475.282	403.25
475.501	416.25
475.72	403.25
475.939	415.25
476.158	418.25
476.377	402.25
476.596	397.25
476.814	421.25
477.033	421.25
477.252	426.25
477.471	432.25
477.69	441.25
477.908	429.25
478.127	430.25
478.346	437.25
478.564	418.25
478.783	451.25
479.002	445.25
479.22	459.25
479.439	476.25
479.658	513.25
479.876	480.25
480.095	472.25
480.313	503.25
480.532	486.25
480.751	497.25
480.969	502.25
481.188	555.25
481.406	609.25
481.624	519.25
481.843	486.25
482.061	484.25
482.28	461.25
482.498	457.25
482.717	468.25
482.935	473.25
483.153	473.25
483.372	468.25
483.59	490.25
483.808	464.25
484.027	469.25
484.245	478.25
484.463	468.25
484.681	511.25
484.9	485.25
485.118	469.25
485.336	490.25
485.554	481.25
485.772	476.25
485.99	474.25
486.209	487.25
486.427	506.25
486.645	513.25
486.863	509.25
487.081	487.25
487.299	531.25
487.517	522.25
487.735	506.25
487.953	485.25
488.171	515.25
488.389	507.25
488.607	534.25
488.825	522.25
489.043	510.25
489.261	495.25
489.479	509.25
489.696	519.25
489.914	541.25
490.132	521.25
490.35	532.25
490.568	553.25
490.786	521.25
491.003	546.25
491.221	568.25
491.439	575.25
491.657	577.25
491.874	567.25
492.092	569.25
492.31	585.25
492.527	567.25
492.745	612.25
492.963	590.25
493.18	600.25
493.398	605.25
493.615	607.25
493.833	593.25
494.05	617.25
494.268	615.25
494.485	591.25
494.703	590.25
494.92	589.25
495.138	604.25
495.355	618.25
495.573	611.25
495.79	598.25
496.008	586.25
496.225	598.25
496.442	602.25
496.66	580.25
496.877	610.25
497.094	583.25
497.312	583.25
497.529	599.25
497.746	614.25
497.963	601.25
498.181	621.25
498.398	647.25
498.615	636.25
498.832	650.25
499.049	658.25
499.267	696.25
499.484	686.25
499.701	672.25
499.918	714.25
500.135	732.25
500.352	776.25
500.569	780.25
500.786	786.25
501.003	789.25
501.22	767.25
501.437	741.25
501.654	719.25
501.871	756.25
502.088	705.25
