Data from 1983.PennyLincolnUp.Lamp.En5.5.200Scan.071819.P1_HRD10591_16-52-39-964.txt Node
Date: Thu Jul 18 16:52:39 EDT 2019
User: cochatt
Spectrometer: HR+D1059
Trigger mode: 1
Integration Time (sec): 1.000000E-1
Scans to average: 1
Electric dark correction enabled: true
Nonlinearity correction enabled: false
Boxcar width: 0
XAxis mode: Wavelengths
Number of Pixels in Spectrum: 2048
>>>>>Begin Spectral Data<<<<<
223.165	-24.25
223.4	-24.25
223.635	-24.25
223.869	-15.25
224.104	-25.25
224.338	-12.25
224.573	-17.25
224.808	-13.25
225.042	-21.25
225.277	-1.25
225.511	-9.25
225.746	10.75
225.98	5.75
226.215	4.75
226.449	22.75
226.683	34.75
226.918	32.75
227.152	27.75
227.387	18.75
227.621	40.75
227.856	46.75
228.09	41.75
228.324	50.75
228.559	47.75
228.793	55.75
229.027	75.75
229.262	92.75
229.496	97.75
229.73	105.75
229.964	127.75
230.199	132.75
230.433	112.75
230.667	92.75
230.901	99.75
231.136	103.75
231.37	99.75
231.604	105.75
231.838	89.75
232.072	105.75
232.306	103.75
232.541	113.75
232.775	99.75
233.009	103.75
233.243	114.75
233.477	114.75
233.711	104.75
233.945	110.75
234.179	101.75
234.413	113.75
234.647	105.75
234.881	114.75
235.115	115.75
235.349	119.75
235.583	105.75
235.817	108.75
236.051	112.75
236.285	110.75
236.519	106.75
236.753	119.75
236.987	140.75
237.221	175.75
237.455	187.75
237.689	155.75
237.922	132.75
238.156	112.75
238.39	112.75
238.624	113.75
238.858	102.75
239.091	105.75
239.325	116.75
239.559	113.75
239.793	100.75
240.027	122.75
240.26	114.75
240.494	130.75
240.728	124.75
240.961	128.75
241.195	133.75
241.429	121.75
241.662	114.75
241.896	130.75
242.13	122.75
242.363	117.75
242.597	136.75
242.83	136.75
243.064	123.75
243.298	136.75
243.531	113.75
243.765	121.75
243.998	117.75
244.232	135.75
244.465	131.75
244.699	136.75
244.932	124.75
245.166	125.75
245.399	130.75
245.633	130.75
245.866	136.75
246.099	123.75
246.333	119.75
246.566	143.75
246.8	134.75
247.033	137.75
247.266	120.75
247.5	156.75
247.733	157.75
247.966	136.75
248.2	147.75
248.433	162.75
248.666	148.75
248.899	162.75
249.133	171.75
249.366	179.75
249.599	172.75
249.832	161.75
250.066	139.75
250.299	157.75
250.532	152.75
250.765	172.75
250.998	188.75
251.231	183.75
251.465	180.75
251.698	174.75
251.931	179.75
252.164	168.75
252.397	174.75
252.63	184.75
252.863	179.75
253.096	186.75
253.329	201.75
253.562	210.75
253.795	186.75
254.028	190.75
254.261	182.75
254.494	215.75
254.727	229.75
254.96	232.75
255.193	208.75
255.426	209.75
255.659	182.75
255.892	182.75
256.124	179.75
256.357	163.75
256.59	186.75
256.823	182.75
257.056	168.75
257.289	180.75
257.521	188.75
257.754	166.75
257.987	170.75
258.22	182.75
258.452	180.75
258.685	202.75
258.918	194.75
259.151	182.75
259.383	201.75
259.616	189.75
259.849	204.75
260.081	195.75
260.314	220.75
260.547	214.75
260.779	210.75
261.012	192.75
261.244	204.75
261.477	195.75
261.71	194.75
261.942	203.75
262.175	207.75
262.407	199.75
262.64	193.75
262.872	185.75
263.105	180.75
263.337	184.75
263.57	200.75
263.802	182.75
264.035	198.75
264.267	187.75
264.499	178.75
264.732	180.75
264.964	195.75
265.197	176.75
265.429	219.75
265.661	190.75
265.894	188.75
266.126	185.75
266.358	191.75
266.591	186.75
266.823	181.75
267.055	193.75
267.287	209.75
267.52	215.75
267.752	202.75
267.984	208.75
268.216	188.75
268.448	205.75
268.681	200.75
268.913	210.75
269.145	227.75
269.377	239.75
269.609	240.75
269.841	234.75
270.073	238.75
270.306	257.75
270.538	274.75
270.77	260.75
271.002	254.75
271.234	251.75
271.466	262.75
271.698	260.75
271.93	272.75
272.162	283.75
272.394	258.75
272.626	267.75
272.858	233.75
273.09	247.75
273.322	244.75
273.553	235.75
273.785	243.75
274.017	232.75
274.249	218.75
274.481	233.75
274.713	232.75
274.945	243.75
275.176	223.75
275.408	232.75
275.64	218.75
275.872	218.75
276.104	232.75
276.335	231.75
276.567	227.75
276.799	233.75
277.031	267.75
277.262	293.75
277.494	268.75
277.726	258.75
277.957	259.75
278.189	253.75
278.421	220.75
278.652	230.75
278.884	230.75
279.115	224.75
279.347	234.75
279.579	219.75
279.81	217.75
280.042	224.75
280.273	233.75
280.505	230.75
280.736	226.75
280.968	226.75
281.199	225.75
281.431	223.75
281.662	229.75
281.894	230.75
282.125	241.75
282.356	245.75
282.588	254.75
282.819	264.75
283.051	240.75
283.282	236.75
283.513	245.75
283.745	236.75
283.976	214.75
284.207	232.75
284.439	243.75
284.67	250.75
284.901	236.75
285.132	241.75
285.364	239.75
285.595	242.75
285.826	241.75
286.057	229.75
286.288	244.75
286.52	242.75
286.751	220.75
286.982	219.75
287.213	234.75
287.444	255.75
287.675	244.75
287.906	260.75
288.138	258.75
288.369	258.75
288.6	264.75
288.831	241.75
289.062	238.75
289.293	242.75
289.524	264.75
289.755	256.75
289.986	238.75
290.217	271.75
290.448	245.75
290.679	247.75
290.91	247.75
291.141	245.75
291.371	260.75
291.602	232.75
291.833	255.75
292.064	252.75
292.295	235.75
292.526	226.75
292.757	235.75
292.987	240.75
293.218	250.75
293.449	233.75
293.68	247.75
293.91	246.75
294.141	250.75
294.372	244.75
294.603	243.75
294.833	238.75
295.064	240.75
295.295	243.75
295.525	250.75
295.756	273.75
295.987	256.75
296.217	292.75
296.448	287.75
296.679	269.75
296.909	243.75
297.14	264.75
297.37	260.75
297.601	235.75
297.831	263.75
298.062	246.75
298.292	266.75
298.523	292.75
298.753	256.75
298.984	264.75
299.214	260.75
299.445	273.75
299.675	278.75
299.905	262.75
300.136	263.75
300.366	265.75
300.597	271.75
300.827	268.75
301.057	262.75
301.288	288.75
301.518	269.75
301.748	278.75
301.979	279.75
302.209	280.75
302.439	283.75
302.669	278.75
302.9	286.75
303.13	281.75
303.36	288.75
303.59	292.75
303.82	281.75
304.051	300.75
304.281	282.75
304.511	268.75
304.741	284.75
304.971	290.75
305.201	278.75
305.431	270.75
305.661	282.75
305.891	281.75
306.121	277.75
306.352	286.75
306.582	295.75
306.812	286.75
307.042	276.75
307.272	290.75
307.502	287.75
307.731	284.75
307.961	284.75
308.191	277.75
308.421	278.75
308.651	293.75
308.881	292.75
309.111	276.75
309.341	280.75
309.571	310.75
309.8	319.75
310.03	322.75
310.26	315.75
310.49	339.75
310.72	323.75
310.949	331.75
311.179	337.75
311.409	306.75
311.639	314.75
311.868	335.75
312.098	322.75
312.328	324.75
312.557	345.75
312.787	357.75
313.017	348.75
313.246	346.75
313.476	320.75
313.706	321.75
313.935	323.75
314.165	336.75
314.394	344.75
314.624	331.75
314.853	337.75
315.083	321.75
315.312	330.75
315.542	328.75
315.771	311.75
316.001	326.75
316.23	310.75
316.46	312.75
316.689	327.75
316.919	352.75
317.148	334.75
317.377	344.75
317.607	341.75
317.836	343.75
318.065	328.75
318.295	308.75
318.524	329.75
318.753	325.75
318.983	351.75
319.212	342.75
319.441	329.75
319.67	360.75
319.9	329.75
320.129	319.75
320.358	317.75
320.587	319.75
320.816	328.75
321.046	336.75
321.275	355.75
321.504	330.75
321.733	346.75
321.962	360.75
322.191	369.75
322.42	392.75
322.649	386.75
322.878	394.75
323.108	397.75
323.337	418.75
323.566	451.75
323.795	455.75
324.024	489.75
324.253	617.75
324.482	843.75
324.71	1237.75
324.939	1693.75
325.168	1404.75
325.397	760.75
325.626	533.75
325.855	444.75
326.084	418.75
326.313	424.75
326.542	430.75
326.77	465.75
326.999	543.75
327.228	772.75
327.457	1125.75
327.686	1254.75
327.914	852.75
328.143	588.75
328.372	526.75
328.6	459.75
328.829	468.75
329.058	462.75
329.287	500.75
329.515	462.75
329.744	423.75
329.972	434.75
330.201	410.75
330.43	436.75
330.658	464.75
330.887	507.75
331.115	482.75
331.344	440.75
331.572	405.75
331.801	420.75
332.03	395.75
332.258	405.75
332.486	375.75
332.715	376.75
332.943	384.75
333.172	386.75
333.4	380.75
333.629	386.75
333.857	386.75
334.085	386.75
334.314	384.75
334.542	376.75
334.771	371.75
334.999	400.75
335.227	384.75
335.455	391.75
335.684	378.75
335.912	369.75
336.14	372.75
336.369	362.75
336.597	396.75
336.825	375.75
337.053	373.75
337.281	376.75
337.51	356.75
337.738	388.75
337.966	348.75
338.194	372.75
338.422	375.75
338.65	356.75
338.878	384.75
339.106	375.75
339.334	360.75
339.562	348.75
339.79	369.75
340.018	357.75
340.246	362.75
340.474	368.75
340.702	358.75
340.93	348.75
341.158	355.75
341.386	376.75
341.614	357.75
341.842	381.75
342.07	369.75
342.298	359.75
342.526	351.75
342.754	360.75
342.981	356.75
343.209	346.75
343.437	377.75
343.665	359.75
343.893	369.75
344.12	371.75
344.348	368.75
344.576	371.75
344.804	383.75
345.031	386.75
345.259	392.75
345.487	378.75
345.714	370.75
345.942	370.75
346.17	353.75
346.397	350.75
346.625	338.75
346.853	345.75
347.08	368.75
347.308	364.75
347.535	359.75
347.763	373.75
347.99	382.75
348.218	341.75
348.445	348.75
348.673	360.75
348.9	360.75
349.128	328.75
349.355	355.75
349.583	339.75
349.81	356.75
350.037	327.75
350.265	336.75
350.492	341.75
350.72	339.75
350.947	355.75
351.174	346.75
351.402	360.75
351.629	343.75
351.856	358.75
352.083	366.75
352.311	384.75
352.538	357.75
352.765	355.75
352.992	370.75
353.22	357.75
353.447	358.75
353.674	340.75
353.901	350.75
354.128	321.75
354.355	314.75
354.583	315.75
354.81	348.75
355.037	327.75
355.264	320.75
355.491	319.75
355.718	319.75
355.945	327.75
356.172	319.75
356.399	320.75
356.626	322.75
356.853	312.75
357.08	296.75
357.307	325.75
357.534	326.75
357.761	318.75
357.988	333.75
358.215	335.75
358.441	347.75
358.668	345.75
358.895	355.75
359.122	338.75
359.349	358.75
359.576	368.75
359.802	380.75
360.029	396.75
360.256	414.75
360.483	371.75
360.709	354.75
360.936	368.75
361.163	335.75
361.39	356.75
361.616	347.75
361.843	347.75
362.07	367.75
362.296	382.75
362.523	347.75
362.749	345.75
362.976	361.75
363.203	345.75
363.429	343.75
363.656	323.75
363.882	326.75
364.109	351.75
364.335	344.75
364.562	347.75
364.788	335.75
365.015	346.75
365.241	338.75
365.468	355.75
365.694	340.75
365.92	340.75
366.147	331.75
366.373	338.75
366.599	319.75
366.826	340.75
367.052	355.75
367.278	351.75
367.505	338.75
367.731	329.75
367.957	317.75
368.184	338.75
368.41	337.75
368.636	347.75
368.862	373.75
369.089	347.75
369.315	316.75
369.541	330.75
369.767	343.75
369.993	323.75
370.219	330.75
370.445	341.75
370.672	327.75
370.898	323.75
371.124	332.75
371.35	331.75
371.576	320.75
371.802	320.75
372.028	351.75
372.254	326.75
372.48	336.75
372.706	319.75
372.932	348.75
373.158	340.75
373.384	338.75
373.61	326.75
373.835	340.75
374.061	343.75
374.287	343.75
374.513	331.75
374.739	340.75
374.965	337.75
375.191	346.75
375.416	339.75
375.642	333.75
375.868	332.75
376.094	343.75
376.319	312.75
376.545	322.75
376.771	338.75
376.997	324.75
377.222	314.75
377.448	319.75
377.674	332.75
377.899	362.75
378.125	355.75
378.35	338.75
378.576	310.75
378.802	315.75
379.027	311.75
379.253	328.75
379.478	332.75
379.704	345.75
379.929	316.75
380.155	335.75
380.38	335.75
380.606	350.75
380.831	337.75
381.057	344.75
381.282	345.75
381.507	318.75
381.733	332.75
381.958	345.75
382.184	346.75
382.409	323.75
382.634	335.75
382.86	339.75
383.085	321.75
383.31	338.75
383.535	340.75
383.761	345.75
383.986	353.75
384.211	343.75
384.436	364.75
384.662	353.75
384.887	351.75
385.112	334.75
385.337	360.75
385.562	352.75
385.787	346.75
386.013	382.75
386.238	364.75
386.463	370.75
386.688	371.75
386.913	354.75
387.138	366.75
387.363	377.75
387.588	351.75
387.813	360.75
388.038	368.75
388.263	351.75
388.488	363.75
388.713	353.75
388.938	363.75
389.163	364.75
389.387	360.75
389.612	358.75
389.837	348.75
390.062	352.75
390.287	342.75
390.512	377.75
390.736	358.75
390.961	330.75
391.186	345.75
391.411	349.75
391.636	358.75
391.86	368.75
392.085	381.75
392.31	344.75
392.534	376.75
392.759	348.75
392.984	386.75
393.208	375.75
393.433	349.75
393.658	336.75
393.882	353.75
394.107	367.75
394.331	357.75
394.556	360.75
394.78	351.75
395.005	344.75
395.229	375.75
395.454	362.75
395.678	352.75
395.903	376.75
396.127	404.75
396.352	388.75
396.576	391.75
396.801	353.75
397.025	359.75
397.249	360.75
397.474	383.75
397.698	386.75
397.922	380.75
398.147	393.75
398.371	397.75
398.595	404.75
398.82	391.75
399.044	388.75
399.268	410.75
399.492	428.75
399.717	452.75
399.941	482.75
400.165	505.75
400.389	494.75
400.613	461.75
400.837	430.75
401.062	421.75
401.286	406.75
401.51	417.75
401.734	407.75
401.958	402.75
402.182	402.75
402.406	410.75
402.63	446.75
402.854	419.75
403.078	414.75
403.302	404.75
403.526	420.75
403.75	411.75
403.974	413.75
404.198	432.75
404.422	410.75
404.645	423.75
404.869	406.75
405.093	454.75
405.317	460.75
405.541	468.75
405.765	451.75
405.988	428.75
406.212	420.75
406.436	463.75
406.66	465.75
406.883	459.75
407.107	470.75
407.331	492.75
407.555	552.75
407.778	524.75
408.002	498.75
408.226	461.75
408.449	461.75
408.673	446.75
408.896	481.75
409.12	517.75
409.344	487.75
409.567	448.75
409.791	432.75
410.014	409.75
410.238	436.75
410.461	431.75
410.685	438.75
410.908	451.75
411.132	466.75
411.355	468.75
411.578	435.75
411.802	417.75
412.025	402.75
412.249	405.75
412.472	419.75
412.695	431.75
412.919	421.75
413.142	404.75
413.365	399.75
413.589	394.75
413.812	381.75
414.035	397.75
414.258	413.75
414.482	396.75
414.705	378.75
414.928	387.75
415.151	393.75
415.374	409.75
415.597	391.75
415.821	395.75
416.044	389.75
416.267	394.75
416.49	396.75
416.713	379.75
416.936	394.75
417.159	378.75
417.382	405.75
417.605	415.75
417.828	404.75
418.051	419.75
418.274	425.75
418.497	403.75
418.72	388.75
418.943	401.75
419.166	386.75
419.389	427.75
419.611	412.75
419.834	404.75
420.057	405.75
420.28	400.75
420.503	411.75
420.726	426.75
420.948	420.75
421.171	455.75
421.394	470.75
421.617	427.75
421.839	409.75
422.062	401.75
422.285	430.75
422.507	459.75
422.73	532.75
422.953	513.75
423.175	449.75
423.398	434.75
423.621	434.75
423.843	443.75
424.066	450.75
424.288	463.75
424.511	458.75
424.733	496.75
424.956	542.75
425.178	535.75
425.401	515.75
425.623	564.75
425.846	483.75
426.068	465.75
426.291	427.75
426.513	420.75
426.735	461.75
426.958	484.75
427.18	540.75
427.402	630.75
427.625	700.75
427.847	594.75
428.069	523.75
428.292	455.75
428.514	417.75
428.736	413.75
428.958	408.75
429.181	406.75
429.403	407.75
429.625	419.75
429.847	438.75
430.069	466.75
430.292	472.75
430.514	429.75
430.736	408.75
430.958	433.75
431.18	386.75
431.402	386.75
431.624	387.75
431.846	390.75
432.068	387.75
432.29	388.75
432.512	408.75
432.734	384.75
432.956	372.75
433.178	383.75
433.4	424.75
433.622	396.75
433.844	393.75
434.066	392.75
434.287	379.75
434.509	383.75
434.731	392.75
434.953	409.75
435.175	439.75
435.397	449.75
435.618	438.75
435.84	474.75
436.062	544.75
436.284	594.75
436.505	499.75
436.727	428.75
436.949	437.75
437.17	432.75
437.392	405.75
437.614	430.75
437.835	455.75
438.057	532.75
438.278	603.75
438.5	575.75
438.721	635.75
438.943	609.75
439.165	491.75
439.386	446.75
439.608	473.75
439.829	464.75
440.05	476.75
440.272	475.75
440.493	480.75
440.715	440.75
440.936	404.75
441.158	422.75
441.379	419.75
441.6	429.75
441.822	449.75
442.043	480.75
442.264	540.75
442.486	572.75
442.707	512.75
442.928	467.75
443.149	468.75
443.371	481.75
443.592	526.75
443.813	574.75
444.034	615.75
444.255	507.75
444.476	487.75
444.698	455.75
444.919	444.75
445.14	553.75
445.361	513.75
445.582	483.75
445.803	522.75
446.024	594.75
446.245	585.75
446.466	540.75
446.687	486.75
446.908	442.75
447.129	434.75
447.35	417.75
447.571	425.75
447.792	397.75
448.013	420.75
448.234	415.75
448.455	489.75
448.675	560.75
448.896	623.75
449.117	538.75
449.338	520.75
449.559	603.75
449.779	669.75
450	554.75
450.221	455.75
450.442	400.75
450.662	420.75
450.883	422.75
451.104	427.75
451.324	421.75
451.545	377.75
451.766	386.75
451.986	395.75
452.207	376.75
452.428	389.75
452.648	370.75
452.869	369.75
453.089	395.75
453.31	415.75
453.53	380.75
453.751	381.75
453.971	376.75
454.192	395.75
454.412	382.75
454.633	356.75
454.853	373.75
455.073	370.75
455.294	396.75
455.514	443.75
455.734	418.75
455.955	369.75
456.175	339.75
456.395	349.75
456.616	342.75
456.836	357.75
457.056	341.75
457.276	341.75
457.497	355.75
457.717	336.75
457.937	354.75
458.157	378.75
458.377	372.75
458.598	372.75
458.818	426.75
459.038	488.75
459.258	516.75
459.478	438.75
459.698	411.75
459.918	392.75
460.138	409.75
460.358	412.75
460.578	388.75
460.798	403.75
461.018	396.75
461.238	379.75
461.458	392.75
461.678	394.75
461.898	388.75
462.118	406.75
462.338	412.75
462.558	416.75
462.777	423.75
462.997	394.75
463.217	444.75
463.437	439.75
463.657	435.75
463.876	443.75
464.096	435.75
464.316	417.75
464.536	436.75
464.755	402.75
464.975	424.75
465.195	458.75
465.414	514.75
465.634	454.75
465.854	430.75
466.073	418.75
466.293	384.75
466.512	379.75
466.732	374.75
466.951	372.75
467.171	382.75
467.391	383.75
467.61	387.75
467.829	392.75
468.049	375.75
468.268	377.75
468.488	374.75
468.707	354.75
468.927	363.75
469.146	365.75
469.365	370.75
469.585	367.75
469.804	351.75
470.023	384.75
470.243	389.75
470.462	379.75
470.681	412.75
470.901	389.75
471.12	396.75
471.339	388.75
471.558	401.75
471.777	383.75
471.997	367.75
472.216	374.75
472.435	379.75
472.654	370.75
472.873	378.75
473.092	362.75
473.311	378.75
473.53	370.75
473.749	398.75
473.968	412.75
474.187	521.75
474.406	521.75
474.625	410.75
474.844	384.75
475.063	399.75
475.282	393.75
475.501	408.75
475.72	406.75
475.939	405.75
476.158	403.75
476.377	408.75
476.596	407.75
476.814	393.75
477.033	402.75
477.252	399.75
477.471	395.75
477.69	424.75
477.908	421.75
478.127	422.75
478.346	427.75
478.564	425.75
478.783	421.75
479.002	448.75
479.22	442.75
479.439	459.75
479.658	443.75
479.876	462.75
480.095	447.75
480.313	496.75
480.532	482.75
480.751	476.75
480.969	458.75
481.188	468.75
481.406	474.75
481.624	455.75
481.843	448.75
482.061	438.75
482.28	434.75
482.498	431.75
482.717	454.75
482.935	448.75
483.153	438.75
483.372	455.75
483.59	449.75
483.808	450.75
484.027	465.75
484.245	443.75
484.463	444.75
484.681	430.75
484.9	455.75
485.118	454.75
485.336	446.75
485.554	439.75
485.772	459.75
485.99	442.75
486.209	458.75
486.427	464.75
486.645	481.75
486.863	470.75
487.081	478.75
487.299	468.75
487.517	460.75
487.735	469.75
487.953	496.75
488.171	462.75
488.389	502.75
488.607	485.75
488.825	452.75
489.043	478.75
489.261	470.75
489.479	491.75
489.696	488.75
489.914	495.75
490.132	490.75
490.35	508.75
490.568	496.75
490.786	506.75
491.003	514.75
491.221	512.75
491.439	519.75
491.657	504.75
491.874	530.75
492.092	532.75
492.31	559.75
492.527	543.75
492.745	546.75
492.963	536.75
493.18	542.75
493.398	559.75
493.615	536.75
493.833	541.75
494.05	559.75
494.268	566.75
494.485	560.75
494.703	566.75
494.92	564.75
495.138	568.75
495.355	545.75
495.573	576.75
495.79	559.75
496.008	585.75
496.225	570.75
496.442	561.75
496.66	542.75
496.877	555.75
497.094	564.75
497.312	556.75
497.529	598.75
497.746	594.75
497.963	596.75
498.181	625.75
498.398	612.75
498.615	607.75
498.832	634.75
499.049	645.75
499.267	651.75
499.484	653.75
499.701	687.75
499.918	685.75
500.135	732.75
500.352	731.75
500.569	737.75
500.786	776.75
501.003	737.75
501.22	739.75
501.437	719.75
501.654	724.75
501.871	704.75
502.088	659.75
