Data from 1983.PennyLincolnUp.Lamp.En5.5.200Scan.071819.P1_HRD10591_16-52-27-965.txt Node
Date: Thu Jul 18 16:52:27 EDT 2019
User: cochatt
Spectrometer: HR+D1059
Trigger mode: 1
Integration Time (sec): 1.000000E-1
Scans to average: 1
Electric dark correction enabled: true
Nonlinearity correction enabled: false
Boxcar width: 0
XAxis mode: Wavelengths
Number of Pixels in Spectrum: 2048
>>>>>Begin Spectral Data<<<<<
223.165	-26.12
223.4	-26.12
223.635	-26.12
223.869	-23.12
224.104	-21.12
224.338	-13.12
224.573	-1.12
224.808	-7.12
225.042	-12.12
225.277	3.88
225.511	-7.12
225.746	9.88
225.98	5.88
226.215	2.88
226.449	29.88
226.683	11.88
226.918	16.88
227.152	29.88
227.387	46.88
227.621	36.88
227.856	46.88
228.09	41.88
228.324	56.88
228.559	51.88
228.793	65.88
229.027	92.88
229.262	101.88
229.496	106.88
229.73	118.88
229.964	135.88
230.199	125.88
230.433	110.88
230.667	107.88
230.901	98.88
231.136	94.88
231.37	107.88
231.604	110.88
231.838	109.88
232.072	116.88
232.306	96.88
232.541	117.88
232.775	121.88
233.009	110.88
233.243	111.88
233.477	115.88
233.711	121.88
233.945	103.88
234.179	100.88
234.413	115.88
234.647	117.88
234.881	108.88
235.115	101.88
235.349	115.88
235.583	107.88
235.817	104.88
236.051	114.88
236.285	110.88
236.519	118.88
236.753	134.88
236.987	120.88
237.221	158.88
237.455	188.88
237.689	146.88
237.922	130.88
238.156	128.88
238.39	128.88
238.624	123.88
238.858	123.88
239.091	116.88
239.325	117.88
239.559	102.88
239.793	111.88
240.027	124.88
240.26	133.88
240.494	126.88
240.728	140.88
240.961	146.88
241.195	131.88
241.429	140.88
241.662	135.88
241.896	125.88
242.13	126.88
242.363	109.88
242.597	118.88
242.83	121.88
243.064	122.88
243.298	138.88
243.531	125.88
243.765	120.88
243.998	131.88
244.232	123.88
244.465	113.88
244.699	127.88
244.932	144.88
245.166	122.88
245.399	124.88
245.633	143.88
245.866	141.88
246.099	136.88
246.333	127.88
246.566	133.88
246.8	127.88
247.033	140.88
247.266	138.88
247.5	156.88
247.733	122.88
247.966	147.88
248.2	156.88
248.433	144.88
248.666	150.88
248.899	148.88
249.133	172.88
249.366	175.88
249.599	179.88
249.832	157.88
250.066	157.88
250.299	167.88
250.532	169.88
250.765	173.88
250.998	184.88
251.231	186.88
251.465	179.88
251.698	180.88
251.931	187.88
252.164	171.88
252.397	174.88
252.63	174.88
252.863	157.88
253.096	194.88
253.329	197.88
253.562	179.88
253.795	173.88
254.028	180.88
254.261	180.88
254.494	189.88
254.727	214.88
254.96	211.88
255.193	225.88
255.426	201.88
255.659	195.88
255.892	186.88
256.124	181.88
256.357	194.88
256.59	199.88
256.823	189.88
257.056	185.88
257.289	194.88
257.521	188.88
257.754	177.88
257.987	173.88
258.22	187.88
258.452	172.88
258.685	189.88
258.918	173.88
259.151	161.88
259.383	179.88
259.616	199.88
259.849	199.88
260.081	196.88
260.314	201.88
260.547	201.88
260.779	214.88
261.012	202.88
261.244	193.88
261.477	205.88
261.71	186.88
261.942	188.88
262.175	202.88
262.407	185.88
262.64	186.88
262.872	189.88
263.105	179.88
263.337	186.88
263.57	189.88
263.802	196.88
264.035	193.88
264.267	169.88
264.499	179.88
264.732	176.88
264.964	181.88
265.197	179.88
265.429	189.88
265.661	198.88
265.894	183.88
266.126	182.88
266.358	182.88
266.591	180.88
266.823	196.88
267.055	186.88
267.287	189.88
267.52	173.88
267.752	193.88
267.984	191.88
268.216	198.88
268.448	197.88
268.681	203.88
268.913	219.88
269.145	216.88
269.377	240.88
269.609	219.88
269.841	217.88
270.073	222.88
270.306	235.88
270.538	250.88
270.77	264.88
271.002	236.88
271.234	246.88
271.466	254.88
271.698	238.88
271.93	254.88
272.162	263.88
272.394	248.88
272.626	245.88
272.858	233.88
273.09	234.88
273.322	219.88
273.553	228.88
273.785	222.88
274.017	217.88
274.249	208.88
274.481	221.88
274.713	215.88
274.945	222.88
275.176	221.88
275.408	222.88
275.64	220.88
275.872	221.88
276.104	237.88
276.335	219.88
276.567	220.88
276.799	241.88
277.031	245.88
277.262	269.88
277.494	258.88
277.726	266.88
277.957	254.88
278.189	230.88
278.421	222.88
278.652	241.88
278.884	238.88
279.115	223.88
279.347	236.88
279.579	229.88
279.81	228.88
280.042	215.88
280.273	224.88
280.505	231.88
280.736	230.88
280.968	237.88
281.199	215.88
281.431	235.88
281.662	230.88
281.894	224.88
282.125	240.88
282.356	243.88
282.588	237.88
282.819	265.88
283.051	240.88
283.282	227.88
283.513	239.88
283.745	221.88
283.976	231.88
284.207	234.88
284.439	234.88
284.67	219.88
284.901	245.88
285.132	247.88
285.364	230.88
285.595	238.88
285.826	245.88
286.057	234.88
286.288	222.88
286.52	249.88
286.751	234.88
286.982	226.88
287.213	223.88
287.444	241.88
287.675	241.88
287.906	261.88
288.138	272.88
288.369	245.88
288.6	247.88
288.831	263.88
289.062	242.88
289.293	244.88
289.524	251.88
289.755	242.88
289.986	242.88
290.217	222.88
290.448	236.88
290.679	262.88
290.91	265.88
291.141	233.88
291.371	230.88
291.602	234.88
291.833	263.88
292.064	248.88
292.295	226.88
292.526	241.88
292.757	241.88
292.987	260.88
293.218	252.88
293.449	248.88
293.68	244.88
293.91	244.88
294.141	241.88
294.372	234.88
294.603	233.88
294.833	244.88
295.064	255.88
295.295	261.88
295.525	257.88
295.756	255.88
295.987	264.88
296.217	269.88
296.448	271.88
296.679	265.88
296.909	262.88
297.14	242.88
297.37	250.88
297.601	252.88
297.831	238.88
298.062	245.88
298.292	272.88
298.523	266.88
298.753	275.88
298.984	268.88
299.214	265.88
299.445	260.88
299.675	263.88
299.905	256.88
300.136	274.88
300.366	265.88
300.597	265.88
300.827	271.88
301.057	290.88
301.288	271.88
301.518	273.88
301.748	270.88
301.979	271.88
302.209	290.88
302.439	268.88
302.669	247.88
302.9	284.88
303.13	279.88
303.36	274.88
303.59	276.88
303.82	271.88
304.051	292.88
304.281	279.88
304.511	288.88
304.741	265.88
304.971	285.88
305.201	270.88
305.431	269.88
305.661	268.88
305.891	278.88
306.121	263.88
306.352	281.88
306.582	283.88
306.812	289.88
307.042	278.88
307.272	275.88
307.502	283.88
307.731	290.88
307.961	298.88
308.191	281.88
308.421	280.88
308.651	287.88
308.881	277.88
309.111	298.88
309.341	293.88
309.571	305.88
309.8	291.88
310.03	302.88
310.26	305.88
310.49	329.88
310.72	325.88
310.949	338.88
311.179	314.88
311.409	308.88
311.639	313.88
311.868	313.88
312.098	307.88
312.328	315.88
312.557	323.88
312.787	349.88
313.017	341.88
313.246	326.88
313.476	328.88
313.706	321.88
313.935	319.88
314.165	339.88
314.394	339.88
314.624	335.88
314.853	309.88
315.083	316.88
315.312	324.88
315.542	316.88
315.771	313.88
316.001	314.88
316.23	313.88
316.46	325.88
316.689	299.88
316.919	305.88
317.148	334.88
317.377	324.88
317.607	328.88
317.836	323.88
318.065	316.88
318.295	316.88
318.524	317.88
318.753	324.88
318.983	316.88
319.212	321.88
319.441	318.88
319.67	315.88
319.9	316.88
320.129	314.88
320.358	328.88
320.587	317.88
320.816	323.88
321.046	339.88
321.275	335.88
321.504	313.88
321.733	344.88
321.962	316.88
322.191	345.88
322.42	357.88
322.649	370.88
322.878	371.88
323.108	397.88
323.337	401.88
323.566	402.88
323.795	417.88
324.024	480.88
324.253	565.88
324.482	785.88
324.71	1128.88
324.939	1556.88
325.168	1294.88
325.397	699.88
325.626	505.88
325.855	436.88
326.084	400.88
326.313	399.88
326.542	416.88
326.77	449.88
326.999	522.88
327.228	707.88
327.457	1001.88
327.686	1151.88
327.914	773.88
328.143	542.88
328.372	481.88
328.6	455.88
328.829	454.88
329.058	449.88
329.287	467.88
329.515	429.88
329.744	396.88
329.972	410.88
330.201	414.88
330.43	412.88
330.658	446.88
330.887	479.88
331.115	468.88
331.344	422.88
331.572	403.88
331.801	402.88
332.03	397.88
332.258	389.88
332.486	384.88
332.715	365.88
332.943	373.88
333.172	347.88
333.4	381.88
333.629	367.88
333.857	381.88
334.085	385.88
334.314	381.88
334.542	370.88
334.771	380.88
334.999	375.88
335.227	363.88
335.455	384.88
335.684	349.88
335.912	369.88
336.14	371.88
336.369	377.88
336.597	371.88
336.825	375.88
337.053	354.88
337.281	339.88
337.51	354.88
337.738	359.88
337.966	351.88
338.194	358.88
338.422	364.88
338.65	361.88
338.878	342.88
339.106	359.88
339.334	344.88
339.562	389.88
339.79	357.88
340.018	357.88
340.246	364.88
340.474	369.88
340.702	369.88
340.93	357.88
341.158	357.88
341.386	362.88
341.614	377.88
341.842	350.88
342.07	354.88
342.298	352.88
342.526	331.88
342.754	335.88
342.981	339.88
343.209	338.88
343.437	351.88
343.665	361.88
343.893	358.88
344.12	374.88
344.348	358.88
344.576	358.88
344.804	362.88
345.031	342.88
345.259	378.88
345.487	370.88
345.714	344.88
345.942	351.88
346.17	347.88
346.397	364.88
346.625	351.88
346.853	372.88
347.08	352.88
347.308	349.88
347.535	341.88
347.763	365.88
347.99	340.88
348.218	340.88
348.445	361.88
348.673	374.88
348.9	340.88
349.128	335.88
349.355	333.88
349.583	327.88
349.81	332.88
350.037	333.88
350.265	339.88
350.492	329.88
350.72	326.88
350.947	355.88
351.174	357.88
351.402	346.88
351.629	347.88
351.856	338.88
352.083	346.88
352.311	362.88
352.538	353.88
352.765	352.88
352.992	356.88
353.22	361.88
353.447	345.88
353.674	346.88
353.901	341.88
354.128	316.88
354.355	321.88
354.583	329.88
354.81	330.88
355.037	343.88
355.264	309.88
355.491	322.88
355.718	325.88
355.945	319.88
356.172	321.88
356.399	321.88
356.626	321.88
356.853	328.88
357.08	326.88
357.307	310.88
357.534	331.88
357.761	329.88
357.988	330.88
358.215	322.88
358.441	317.88
358.668	315.88
358.895	334.88
359.122	346.88
359.349	330.88
359.576	343.88
359.802	354.88
360.029	376.88
360.256	365.88
360.483	369.88
360.709	327.88
360.936	342.88
361.163	341.88
361.39	349.88
361.616	349.88
361.843	329.88
362.07	315.88
362.296	333.88
362.523	337.88
362.749	345.88
362.976	355.88
363.203	347.88
363.429	354.88
363.656	335.88
363.882	325.88
364.109	319.88
364.335	326.88
364.562	323.88
364.788	321.88
365.015	338.88
365.241	314.88
365.468	337.88
365.694	333.88
365.92	333.88
366.147	316.88
366.373	317.88
366.599	324.88
366.826	317.88
367.052	329.88
367.278	323.88
367.505	339.88
367.731	329.88
367.957	342.88
368.184	315.88
368.41	338.88
368.636	339.88
368.862	349.88
369.089	342.88
369.315	339.88
369.541	342.88
369.767	332.88
369.993	334.88
370.219	335.88
370.445	327.88
370.672	320.88
370.898	319.88
371.124	324.88
371.35	340.88
371.576	329.88
371.802	318.88
372.028	340.88
372.254	323.88
372.48	316.88
372.706	324.88
372.932	328.88
373.158	339.88
373.384	337.88
373.61	313.88
373.835	322.88
374.061	327.88
374.287	338.88
374.513	323.88
374.739	337.88
374.965	336.88
375.191	333.88
375.416	329.88
375.642	342.88
375.868	327.88
376.094	325.88
376.319	325.88
376.545	313.88
376.771	349.88
376.997	331.88
377.222	335.88
377.448	301.88
377.674	322.88
377.899	323.88
378.125	327.88
378.35	338.88
378.576	309.88
378.802	326.88
379.027	334.88
379.253	327.88
379.478	317.88
379.704	328.88
379.929	333.88
380.155	331.88
380.38	315.88
380.606	317.88
380.831	324.88
381.057	360.88
381.282	326.88
381.507	336.88
381.733	331.88
381.958	339.88
382.184	344.88
382.409	328.88
382.634	342.88
382.86	338.88
383.085	333.88
383.31	335.88
383.535	325.88
383.761	334.88
383.986	334.88
384.211	335.88
384.436	348.88
384.662	343.88
384.887	348.88
385.112	357.88
385.337	349.88
385.562	363.88
385.787	355.88
386.013	356.88
386.238	349.88
386.463	347.88
386.688	354.88
386.913	347.88
387.138	346.88
387.363	363.88
387.588	348.88
387.813	358.88
388.038	347.88
388.263	339.88
388.488	346.88
388.713	364.88
388.938	363.88
389.163	364.88
389.387	341.88
389.612	357.88
389.837	360.88
390.062	354.88
390.287	367.88
390.512	340.88
390.736	344.88
390.961	369.88
391.186	346.88
391.411	349.88
391.636	381.88
391.86	347.88
392.085	354.88
392.31	380.88
392.534	340.88
392.759	368.88
392.984	370.88
393.208	326.88
393.433	359.88
393.658	359.88
393.882	352.88
394.107	357.88
394.331	356.88
394.556	367.88
394.78	364.88
395.005	364.88
395.229	360.88
395.454	362.88
395.678	382.88
395.903	357.88
396.127	381.88
396.352	369.88
396.576	369.88
396.801	378.88
397.025	371.88
397.249	360.88
397.474	377.88
397.698	387.88
397.922	383.88
398.147	390.88
398.371	398.88
398.595	399.88
398.82	398.88
399.044	390.88
399.268	432.88
399.492	439.88
399.717	445.88
399.941	472.88
400.165	475.88
400.389	465.88
400.613	419.88
400.837	429.88
401.062	405.88
401.286	410.88
401.51	409.88
401.734	421.88
401.958	410.88
402.182	389.88
402.406	408.88
402.63	413.88
402.854	397.88
403.078	417.88
403.302	398.88
403.526	422.88
403.75	400.88
403.974	421.88
404.198	405.88
404.422	397.88
404.645	391.88
404.869	415.88
405.093	409.88
405.317	440.88
405.541	456.88
405.765	443.88
405.988	420.88
406.212	411.88
406.436	432.88
406.66	453.88
406.883	451.88
407.107	448.88
407.331	514.88
407.555	523.88
407.778	511.88
408.002	478.88
408.226	464.88
408.449	449.88
408.673	459.88
408.896	475.88
409.12	505.88
409.344	482.88
409.567	441.88
409.791	433.88
410.014	404.88
410.238	413.88
410.461	424.88
410.685	420.88
410.908	425.88
411.132	471.88
411.355	475.88
411.578	447.88
411.802	403.88
412.025	418.88
412.249	405.88
412.472	403.88
412.695	418.88
412.919	414.88
413.142	396.88
413.365	397.88
413.589	393.88
413.812	381.88
414.035	386.88
414.258	404.88
414.482	390.88
414.705	384.88
414.928	383.88
415.151	385.88
415.374	387.88
415.597	396.88
415.821	397.88
416.044	395.88
416.267	400.88
416.49	400.88
416.713	385.88
416.936	393.88
417.159	394.88
417.382	413.88
417.605	376.88
417.828	383.88
418.051	408.88
418.274	393.88
418.497	383.88
418.72	379.88
418.943	381.88
419.166	391.88
419.389	426.88
419.611	413.88
419.834	405.88
420.057	417.88
420.28	417.88
420.503	397.88
420.726	386.88
420.948	416.88
421.171	450.88
421.394	466.88
421.617	403.88
421.839	402.88
422.062	404.88
422.285	430.88
422.507	445.88
422.73	520.88
422.953	467.88
423.175	427.88
423.398	411.88
423.621	403.88
423.843	428.88
424.066	425.88
424.288	437.88
424.511	457.88
424.733	482.88
424.956	546.88
425.178	509.88
425.401	527.88
425.623	543.88
425.846	470.88
426.068	440.88
426.291	422.88
426.513	444.88
426.735	433.88
426.958	475.88
427.18	518.88
427.402	598.88
427.625	653.88
427.847	588.88
428.069	493.88
428.292	450.88
428.514	425.88
428.736	409.88
428.958	414.88
429.181	412.88
429.403	406.88
429.625	399.88
429.847	440.88
430.069	467.88
430.292	483.88
430.514	412.88
430.736	413.88
430.958	406.88
431.18	387.88
431.402	377.88
431.624	381.88
431.846	380.88
432.068	383.88
432.29	381.88
432.512	397.88
432.734	380.88
432.956	393.88
433.178	386.88
433.4	393.88
433.622	393.88
433.844	383.88
434.066	373.88
434.287	378.88
434.509	398.88
434.731	375.88
434.953	403.88
435.175	433.88
435.397	412.88
435.618	429.88
435.84	470.88
436.062	526.88
436.284	561.88
436.505	471.88
436.727	445.88
436.949	422.88
437.17	403.88
437.392	414.88
437.614	412.88
437.835	459.88
438.057	509.88
438.278	571.88
438.5	569.88
438.721	610.88
438.943	591.88
439.165	479.88
439.386	466.88
439.608	443.88
439.829	442.88
440.05	433.88
440.272	476.88
440.493	483.88
440.715	421.88
440.936	396.88
441.158	405.88
441.379	426.88
441.6	425.88
441.822	437.88
442.043	468.88
442.264	506.88
442.486	567.88
442.707	467.88
442.928	427.88
443.149	450.88
443.371	455.88
443.592	497.88
443.813	577.88
444.034	566.88
444.255	493.88
444.476	456.88
444.698	434.88
444.919	438.88
445.14	568.88
445.361	509.88
445.582	483.88
445.803	509.88
446.024	568.88
446.245	575.88
446.466	540.88
446.687	455.88
446.908	420.88
447.129	405.88
447.35	398.88
447.571	413.88
447.792	403.88
448.013	415.88
448.234	426.88
448.455	456.88
448.675	551.88
448.896	604.88
449.117	500.88
449.338	482.88
449.559	571.88
449.779	634.88
450	519.88
450.221	470.88
450.442	434.88
450.662	399.88
450.883	389.88
451.104	400.88
451.324	381.88
451.545	371.88
451.766	372.88
451.986	385.88
452.207	374.88
452.428	353.88
452.648	361.88
452.869	374.88
453.089	361.88
453.31	383.88
453.53	350.88
453.751	380.88
453.971	370.88
454.192	383.88
454.412	379.88
454.633	360.88
454.853	363.88
455.073	350.88
455.294	386.88
455.514	430.88
455.734	393.88
455.955	364.88
456.175	337.88
456.395	347.88
456.616	317.88
456.836	340.88
457.056	341.88
457.276	346.88
457.497	343.88
457.717	346.88
457.937	326.88
458.157	339.88
458.377	345.88
458.598	378.88
458.818	406.88
459.038	463.88
459.258	485.88
459.478	407.88
459.698	386.88
459.918	377.88
460.138	390.88
460.358	391.88
460.578	400.88
460.798	391.88
461.018	397.88
461.238	391.88
461.458	399.88
461.678	399.88
461.898	399.88
462.118	400.88
462.338	397.88
462.558	366.88
462.777	397.88
462.997	407.88
463.217	423.88
463.437	433.88
463.657	404.88
463.876	387.88
464.096	416.88
464.316	414.88
464.536	410.88
464.755	426.88
464.975	402.88
465.195	449.88
465.414	474.88
465.634	444.88
465.854	397.88
466.073	406.88
466.293	369.88
466.512	378.88
466.732	351.88
466.951	375.88
467.171	358.88
467.391	379.88
467.61	375.88
467.829	382.88
468.049	377.88
468.268	355.88
468.488	357.88
468.707	366.88
468.927	372.88
469.146	381.88
469.365	376.88
469.585	361.88
469.804	373.88
470.023	383.88
470.243	377.88
470.462	387.88
470.681	400.88
470.901	401.88
471.12	391.88
471.339	393.88
471.558	379.88
471.777	375.88
471.997	378.88
472.216	378.88
472.435	389.88
472.654	378.88
472.873	377.88
473.092	361.88
473.311	358.88
473.53	380.88
473.749	360.88
473.968	400.88
474.187	483.88
474.406	491.88
474.625	414.88
474.844	414.88
475.063	383.88
475.282	358.88
475.501	393.88
475.72	383.88
475.939	381.88
476.158	371.88
476.377	389.88
476.596	395.88
476.814	387.88
477.033	395.88
477.252	394.88
477.471	399.88
477.69	399.88
477.908	420.88
478.127	414.88
478.346	411.88
478.564	425.88
478.783	418.88
479.002	407.88
479.22	429.88
479.439	437.88
479.658	455.88
479.876	466.88
480.095	459.88
480.313	477.88
480.532	468.88
480.751	438.88
480.969	443.88
481.188	458.88
481.406	444.88
481.624	453.88
481.843	427.88
482.061	445.88
482.28	426.88
482.498	428.88
482.717	410.88
482.935	437.88
483.153	432.88
483.372	426.88
483.59	442.88
483.808	421.88
484.027	414.88
484.245	432.88
484.463	445.88
484.681	440.88
484.9	443.88
485.118	443.88
485.336	446.88
485.554	439.88
485.772	466.88
485.99	441.88
486.209	463.88
486.427	454.88
486.645	458.88
486.863	466.88
487.081	472.88
487.299	469.88
487.517	467.88
487.735	456.88
487.953	457.88
488.171	468.88
488.389	479.88
488.607	461.88
488.825	456.88
489.043	462.88
489.261	463.88
489.479	480.88
489.696	468.88
489.914	466.88
490.132	485.88
490.35	500.88
490.568	465.88
490.786	486.88
491.003	487.88
491.221	526.88
491.439	528.88
491.657	525.88
491.874	517.88
492.092	519.88
492.31	525.88
492.527	542.88
492.745	555.88
492.963	547.88
493.18	519.88
493.398	545.88
493.615	545.88
493.833	536.88
494.05	526.88
494.268	540.88
494.485	540.88
494.703	528.88
494.92	527.88
495.138	546.88
495.355	541.88
495.573	554.88
495.79	565.88
496.008	545.88
496.225	545.88
496.442	541.88
496.66	554.88
496.877	545.88
497.094	554.88
497.312	561.88
497.529	567.88
497.746	565.88
497.963	579.88
498.181	604.88
498.398	576.88
498.615	598.88
498.832	627.88
499.049	622.88
499.267	637.88
499.484	643.88
499.701	686.88
499.918	684.88
500.135	725.88
500.352	750.88
500.569	736.88
500.786	719.88
501.003	745.88
501.22	723.88
501.437	697.88
501.654	661.88
501.871	704.88
502.088	645.88
