Data from 1983.PennyLincolnUp.Lamp.En5.5.200Scan.071819.P1_HRD10591_16-53-26-965.txt Node
Date: Thu Jul 18 16:53:26 EDT 2019
User: cochatt
Spectrometer: HR+D1059
Trigger mode: 1
Integration Time (sec): 1.000000E-1
Scans to average: 1
Electric dark correction enabled: true
Nonlinearity correction enabled: false
Boxcar width: 0
XAxis mode: Wavelengths
Number of Pixels in Spectrum: 2048
>>>>>Begin Spectral Data<<<<<
223.165	-16.81
223.4	-16.81
223.635	-16.81
223.869	-10.81
224.104	-32.81
224.338	-7.81
224.573	-12.81
224.808	-19.81
225.042	0.19
225.277	3.19
225.511	-9.81
225.746	7.19
225.98	-4.81
226.215	11.19
226.449	12.19
226.683	24.19
226.918	31.19
227.152	26.19
227.387	27.19
227.621	39.19
227.856	39.19
228.09	52.19
228.324	42.19
228.559	56.19
228.793	60.19
229.027	99.19
229.262	105.19
229.496	102.19
229.73	121.19
229.964	119.19
230.199	122.19
230.433	101.19
230.667	91.19
230.901	105.19
231.136	104.19
231.37	111.19
231.604	107.19
231.838	97.19
232.072	111.19
232.306	105.19
232.541	106.19
232.775	97.19
233.009	111.19
233.243	103.19
233.477	96.19
233.711	114.19
233.945	109.19
234.179	102.19
234.413	119.19
234.647	111.19
234.881	124.19
235.115	103.19
235.349	95.19
235.583	124.19
235.817	121.19
236.051	110.19
236.285	124.19
236.519	120.19
236.753	124.19
236.987	140.19
237.221	165.19
237.455	213.19
237.689	175.19
237.922	140.19
238.156	133.19
238.39	130.19
238.624	117.19
238.858	122.19
239.091	117.19
239.325	115.19
239.559	136.19
239.793	120.19
240.027	140.19
240.26	147.19
240.494	131.19
240.728	143.19
240.961	140.19
241.195	137.19
241.429	124.19
241.662	137.19
241.896	121.19
242.13	136.19
242.363	140.19
242.597	109.19
242.83	121.19
243.064	122.19
243.298	127.19
243.531	137.19
243.765	130.19
243.998	134.19
244.232	107.19
244.465	128.19
244.699	133.19
244.932	123.19
245.166	127.19
245.399	135.19
245.633	137.19
245.866	132.19
246.099	140.19
246.333	148.19
246.566	123.19
246.8	130.19
247.033	129.19
247.266	148.19
247.5	155.19
247.733	165.19
247.966	147.19
248.2	165.19
248.433	140.19
248.666	161.19
248.899	166.19
249.133	181.19
249.366	185.19
249.599	183.19
249.832	181.19
250.066	164.19
250.299	176.19
250.532	182.19
250.765	182.19
250.998	194.19
251.231	204.19
251.465	196.19
251.698	192.19
251.931	166.19
252.164	165.19
252.397	168.19
252.63	179.19
252.863	177.19
253.096	189.19
253.329	201.19
253.562	210.19
253.795	189.19
254.028	202.19
254.261	200.19
254.494	205.19
254.727	232.19
254.96	246.19
255.193	233.19
255.426	204.19
255.659	212.19
255.892	198.19
256.124	206.19
256.357	195.19
256.59	212.19
256.823	200.19
257.056	195.19
257.289	209.19
257.521	177.19
257.754	195.19
257.987	180.19
258.22	168.19
258.452	184.19
258.685	191.19
258.918	199.19
259.151	200.19
259.383	209.19
259.616	183.19
259.849	203.19
260.081	218.19
260.314	224.19
260.547	236.19
260.779	224.19
261.012	220.19
261.244	217.19
261.477	204.19
261.71	197.19
261.942	196.19
262.175	237.19
262.407	225.19
262.64	199.19
262.872	189.19
263.105	203.19
263.337	200.19
263.57	195.19
263.802	208.19
264.035	203.19
264.267	197.19
264.499	196.19
264.732	184.19
264.964	193.19
265.197	171.19
265.429	200.19
265.661	202.19
265.894	195.19
266.126	184.19
266.358	187.19
266.591	202.19
266.823	192.19
267.055	200.19
267.287	196.19
267.52	210.19
267.752	212.19
267.984	206.19
268.216	215.19
268.448	192.19
268.681	202.19
268.913	220.19
269.145	234.19
269.377	262.19
269.609	243.19
269.841	241.19
270.073	256.19
270.306	278.19
270.538	287.19
270.77	279.19
271.002	280.19
271.234	270.19
271.466	276.19
271.698	282.19
271.93	271.19
272.162	287.19
272.394	269.19
272.626	267.19
272.858	262.19
273.09	249.19
273.322	258.19
273.553	241.19
273.785	250.19
274.017	248.19
274.249	251.19
274.481	248.19
274.713	229.19
274.945	257.19
275.176	236.19
275.408	262.19
275.64	229.19
275.872	245.19
276.104	248.19
276.335	251.19
276.567	234.19
276.799	252.19
277.031	260.19
277.262	268.19
277.494	293.19
277.726	267.19
277.957	250.19
278.189	254.19
278.421	248.19
278.652	246.19
278.884	255.19
279.115	243.19
279.347	242.19
279.579	235.19
279.81	234.19
280.042	236.19
280.273	238.19
280.505	230.19
280.736	254.19
280.968	241.19
281.199	252.19
281.431	243.19
281.662	236.19
281.894	234.19
282.125	250.19
282.356	273.19
282.588	250.19
282.819	292.19
283.051	267.19
283.282	235.19
283.513	260.19
283.745	251.19
283.976	256.19
284.207	244.19
284.439	240.19
284.67	267.19
284.901	249.19
285.132	233.19
285.364	246.19
285.595	240.19
285.826	264.19
286.057	258.19
286.288	269.19
286.52	257.19
286.751	235.19
286.982	266.19
287.213	260.19
287.444	265.19
287.675	275.19
287.906	273.19
288.138	268.19
288.369	272.19
288.6	277.19
288.831	271.19
289.062	289.19
289.293	268.19
289.524	260.19
289.755	254.19
289.986	270.19
290.217	247.19
290.448	235.19
290.679	252.19
290.91	262.19
291.141	266.19
291.371	283.19
291.602	263.19
291.833	270.19
292.064	268.19
292.295	247.19
292.526	253.19
292.757	259.19
292.987	258.19
293.218	260.19
293.449	272.19
293.68	282.19
293.91	255.19
294.141	265.19
294.372	262.19
294.603	256.19
294.833	255.19
295.064	265.19
295.295	259.19
295.525	252.19
295.756	277.19
295.987	280.19
296.217	288.19
296.448	289.19
296.679	284.19
296.909	286.19
297.14	268.19
297.37	277.19
297.601	288.19
297.831	285.19
298.062	273.19
298.292	268.19
298.523	289.19
298.753	284.19
298.984	279.19
299.214	273.19
299.445	282.19
299.675	261.19
299.905	276.19
300.136	294.19
300.366	299.19
300.597	280.19
300.827	285.19
301.057	297.19
301.288	300.19
301.518	305.19
301.748	304.19
301.979	308.19
302.209	306.19
302.439	301.19
302.669	308.19
302.9	310.19
303.13	301.19
303.36	283.19
303.59	308.19
303.82	292.19
304.051	296.19
304.281	296.19
304.511	315.19
304.741	297.19
304.971	295.19
305.201	304.19
305.431	280.19
305.661	281.19
305.891	302.19
306.121	304.19
306.352	329.19
306.582	296.19
306.812	309.19
307.042	309.19
307.272	303.19
307.502	293.19
307.731	294.19
307.961	316.19
308.191	303.19
308.421	300.19
308.651	317.19
308.881	309.19
309.111	301.19
309.341	304.19
309.571	323.19
309.8	338.19
310.03	347.19
310.26	340.19
310.49	344.19
310.72	339.19
310.949	356.19
311.179	371.19
311.409	350.19
311.639	347.19
311.868	345.19
312.098	347.19
312.328	360.19
312.557	368.19
312.787	390.19
313.017	367.19
313.246	367.19
313.476	354.19
313.706	342.19
313.935	350.19
314.165	370.19
314.394	382.19
314.624	366.19
314.853	346.19
315.083	358.19
315.312	338.19
315.542	344.19
315.771	337.19
316.001	338.19
316.23	340.19
316.46	346.19
316.689	351.19
316.919	348.19
317.148	355.19
317.377	339.19
317.607	341.19
317.836	339.19
318.065	345.19
318.295	328.19
318.524	347.19
318.753	345.19
318.983	344.19
319.212	323.19
319.441	343.19
319.67	376.19
319.9	339.19
320.129	328.19
320.358	349.19
320.587	358.19
320.816	365.19
321.046	360.19
321.275	365.19
321.504	355.19
321.733	367.19
321.962	395.19
322.191	363.19
322.42	412.19
322.649	416.19
322.878	400.19
323.108	424.19
323.337	465.19
323.566	458.19
323.795	499.19
324.024	552.19
324.253	679.19
324.482	963.19
324.71	1489.19
324.939	1969.19
325.168	1649.19
325.397	866.19
325.626	584.19
325.855	537.19
326.084	488.19
326.313	459.19
326.542	503.19
326.77	508.19
326.999	633.19
327.228	870.19
327.457	1274.19
327.686	1441.19
327.914	977.19
328.143	656.19
328.372	572.19
328.6	538.19
328.829	543.19
329.058	518.19
329.287	553.19
329.515	495.19
329.744	468.19
329.972	461.19
330.201	473.19
330.43	475.19
330.658	513.19
330.887	554.19
331.115	550.19
331.344	454.19
331.572	461.19
331.801	436.19
332.03	460.19
332.258	403.19
332.486	423.19
332.715	399.19
332.943	395.19
333.172	397.19
333.4	400.19
333.629	445.19
333.857	443.19
334.085	447.19
334.314	443.19
334.542	425.19
334.771	424.19
334.999	419.19
335.227	418.19
335.455	394.19
335.684	403.19
335.912	397.19
336.14	385.19
336.369	381.19
336.597	395.19
336.825	416.19
337.053	406.19
337.281	378.19
337.51	395.19
337.738	392.19
337.966	383.19
338.194	384.19
338.422	423.19
338.65	392.19
338.878	397.19
339.106	391.19
339.334	383.19
339.562	395.19
339.79	376.19
340.018	388.19
340.246	392.19
340.474	390.19
340.702	392.19
340.93	379.19
341.158	363.19
341.386	381.19
341.614	385.19
341.842	408.19
342.07	383.19
342.298	409.19
342.526	367.19
342.754	372.19
342.981	376.19
343.209	346.19
343.437	363.19
343.665	384.19
343.893	385.19
344.12	372.19
344.348	397.19
344.576	412.19
344.804	407.19
345.031	412.19
345.259	421.19
345.487	399.19
345.714	389.19
345.942	382.19
346.17	387.19
346.397	381.19
346.625	377.19
346.853	380.19
347.08	371.19
347.308	378.19
347.535	394.19
347.763	384.19
347.99	382.19
348.218	390.19
348.445	399.19
348.673	378.19
348.9	379.19
349.128	373.19
349.355	364.19
349.583	369.19
349.81	354.19
350.037	361.19
350.265	343.19
350.492	378.19
350.72	367.19
350.947	376.19
351.174	368.19
351.402	391.19
351.629	383.19
351.856	385.19
352.083	386.19
352.311	399.19
352.538	401.19
352.765	391.19
352.992	392.19
353.22	384.19
353.447	383.19
353.674	376.19
353.901	359.19
354.128	363.19
354.355	365.19
354.583	348.19
354.81	356.19
355.037	349.19
355.264	355.19
355.491	354.19
355.718	338.19
355.945	333.19
356.172	342.19
356.399	348.19
356.626	347.19
356.853	342.19
357.08	355.19
357.307	357.19
357.534	349.19
357.761	341.19
357.988	344.19
358.215	341.19
358.441	376.19
358.668	350.19
358.895	351.19
359.122	360.19
359.349	360.19
359.576	386.19
359.802	407.19
360.029	415.19
360.256	444.19
360.483	409.19
360.709	377.19
360.936	390.19
361.163	387.19
361.39	387.19
361.616	389.19
361.843	377.19
362.07	383.19
362.296	365.19
362.523	376.19
362.749	365.19
362.976	383.19
363.203	360.19
363.429	364.19
363.656	378.19
363.882	369.19
364.109	371.19
364.335	353.19
364.562	367.19
364.788	334.19
365.015	365.19
365.241	345.19
365.468	356.19
365.694	369.19
365.92	353.19
366.147	345.19
366.373	372.19
366.599	371.19
366.826	375.19
367.052	352.19
367.278	330.19
367.505	352.19
367.731	372.19
367.957	369.19
368.184	371.19
368.41	372.19
368.636	363.19
368.862	335.19
369.089	341.19
369.315	354.19
369.541	356.19
369.767	355.19
369.993	356.19
370.219	361.19
370.445	358.19
370.672	356.19
370.898	333.19
371.124	354.19
371.35	355.19
371.576	362.19
371.802	368.19
372.028	352.19
372.254	339.19
372.48	349.19
372.706	352.19
372.932	373.19
373.158	361.19
373.384	367.19
373.61	357.19
373.835	354.19
374.061	364.19
374.287	355.19
374.513	355.19
374.739	357.19
374.965	351.19
375.191	344.19
375.416	357.19
375.642	361.19
375.868	349.19
376.094	349.19
376.319	336.19
376.545	355.19
376.771	353.19
376.997	354.19
377.222	354.19
377.448	351.19
377.674	341.19
377.899	348.19
378.125	335.19
378.35	336.19
378.576	365.19
378.802	357.19
379.027	359.19
379.253	354.19
379.478	349.19
379.704	345.19
379.929	354.19
380.155	356.19
380.38	354.19
380.606	358.19
380.831	362.19
381.057	355.19
381.282	350.19
381.507	345.19
381.733	334.19
381.958	357.19
382.184	372.19
382.409	352.19
382.634	355.19
382.86	346.19
383.085	352.19
383.31	341.19
383.535	360.19
383.761	361.19
383.986	360.19
384.211	348.19
384.436	386.19
384.662	354.19
384.887	356.19
385.112	367.19
385.337	358.19
385.562	376.19
385.787	368.19
386.013	385.19
386.238	383.19
386.463	357.19
386.688	369.19
386.913	361.19
387.138	360.19
387.363	384.19
387.588	371.19
387.813	380.19
388.038	353.19
388.263	372.19
388.488	375.19
388.713	401.19
388.938	383.19
389.163	383.19
389.387	372.19
389.612	363.19
389.837	362.19
390.062	372.19
390.287	394.19
390.512	380.19
390.736	378.19
390.961	362.19
391.186	386.19
391.411	369.19
391.636	372.19
391.86	382.19
392.085	377.19
392.31	370.19
392.534	387.19
392.759	409.19
392.984	373.19
393.208	373.19
393.433	376.19
393.658	381.19
393.882	363.19
394.107	387.19
394.331	377.19
394.556	384.19
394.78	373.19
395.005	376.19
395.229	372.19
395.454	396.19
395.678	387.19
395.903	391.19
396.127	407.19
396.352	393.19
396.576	383.19
396.801	379.19
397.025	385.19
397.249	399.19
397.474	411.19
397.698	402.19
397.922	404.19
398.147	408.19
398.371	421.19
398.595	427.19
398.82	411.19
399.044	433.19
399.268	440.19
399.492	460.19
399.717	472.19
399.941	508.19
400.165	527.19
400.389	517.19
400.613	498.19
400.837	443.19
401.062	444.19
401.286	417.19
401.51	408.19
401.734	451.19
401.958	445.19
402.182	425.19
402.406	451.19
402.63	463.19
402.854	449.19
403.078	457.19
403.302	429.19
403.526	431.19
403.75	438.19
403.974	432.19
404.198	456.19
404.422	440.19
404.645	456.19
404.869	450.19
405.093	436.19
405.317	465.19
405.541	527.19
405.765	472.19
405.988	466.19
406.212	483.19
406.436	497.19
406.66	508.19
406.883	490.19
407.107	492.19
407.331	524.19
407.555	581.19
407.778	581.19
408.002	524.19
408.226	513.19
408.449	490.19
408.673	491.19
408.896	508.19
409.12	538.19
409.344	503.19
409.567	461.19
409.791	450.19
410.014	458.19
410.238	427.19
410.461	463.19
410.685	440.19
410.908	457.19
411.132	471.19
411.355	517.19
411.578	487.19
411.802	449.19
412.025	429.19
412.249	439.19
412.472	431.19
412.695	452.19
412.919	450.19
413.142	447.19
413.365	415.19
413.589	445.19
413.812	424.19
414.035	425.19
414.258	394.19
414.482	427.19
414.705	391.19
414.928	414.19
415.151	412.19
415.374	426.19
415.597	405.19
415.821	412.19
416.044	403.19
416.267	412.19
416.49	397.19
416.713	406.19
416.936	424.19
417.159	417.19
417.382	421.19
417.605	423.19
417.828	420.19
418.051	421.19
418.274	426.19
418.497	418.19
418.72	414.19
418.943	411.19
419.166	437.19
419.389	453.19
419.611	431.19
419.834	435.19
420.057	430.19
420.28	442.19
420.503	410.19
420.726	437.19
420.948	452.19
421.171	460.19
421.394	489.19
421.617	454.19
421.839	421.19
422.062	436.19
422.285	444.19
422.507	492.19
422.73	552.19
422.953	534.19
423.175	460.19
423.398	428.19
423.621	447.19
423.843	470.19
424.066	461.19
424.288	454.19
424.511	481.19
424.733	539.19
424.956	614.19
425.178	586.19
425.401	565.19
425.623	571.19
425.846	519.19
426.068	481.19
426.291	476.19
426.513	463.19
426.735	483.19
426.958	501.19
427.18	570.19
427.402	673.19
427.625	736.19
427.847	667.19
428.069	572.19
428.292	513.19
428.514	487.19
428.736	452.19
428.958	448.19
429.181	416.19
429.403	424.19
429.625	432.19
429.847	471.19
430.069	520.19
430.292	497.19
430.514	426.19
430.736	451.19
430.958	415.19
431.18	405.19
431.402	422.19
431.624	410.19
431.846	395.19
432.068	410.19
432.29	412.19
432.512	421.19
432.734	441.19
432.956	417.19
433.178	445.19
433.4	440.19
433.622	408.19
433.844	404.19
434.066	402.19
434.287	424.19
434.509	423.19
434.731	424.19
434.953	438.19
435.175	425.19
435.397	453.19
435.618	444.19
435.84	512.19
436.062	577.19
436.284	603.19
436.505	513.19
436.727	492.19
436.949	442.19
437.17	445.19
437.392	445.19
437.614	456.19
437.835	473.19
438.057	568.19
438.278	623.19
438.5	634.19
438.721	680.19
438.943	650.19
439.165	487.19
439.386	468.19
439.608	487.19
439.829	477.19
440.05	502.19
440.272	541.19
440.493	484.19
440.715	469.19
440.936	478.19
441.158	439.19
441.379	439.19
441.6	474.19
441.822	468.19
442.043	520.19
442.264	575.19
442.486	597.19
442.707	511.19
442.928	471.19
443.149	497.19
443.371	489.19
443.592	559.19
443.813	615.19
444.034	671.19
444.255	556.19
444.476	489.19
444.698	478.19
444.919	486.19
445.14	588.19
445.361	556.19
445.582	531.19
445.803	566.19
446.024	636.19
446.245	639.19
446.466	591.19
446.687	509.19
446.908	478.19
447.129	445.19
447.35	451.19
447.571	431.19
447.792	420.19
448.013	432.19
448.234	486.19
448.455	489.19
448.675	584.19
448.896	653.19
449.117	592.19
449.338	565.19
449.559	655.19
449.779	667.19
450	578.19
450.221	480.19
450.442	454.19
450.662	459.19
450.883	457.19
451.104	458.19
451.324	426.19
451.545	435.19
451.766	414.19
451.986	371.19
452.207	394.19
452.428	420.19
452.648	401.19
452.869	410.19
453.089	395.19
453.31	419.19
453.53	389.19
453.751	395.19
453.971	397.19
454.192	436.19
454.412	403.19
454.633	407.19
454.853	378.19
455.073	411.19
455.294	417.19
455.514	451.19
455.734	467.19
455.955	408.19
456.175	373.19
456.395	350.19
456.616	349.19
456.836	355.19
457.056	385.19
457.276	364.19
457.497	391.19
457.717	376.19
457.937	372.19
458.157	383.19
458.377	376.19
458.598	398.19
458.818	483.19
459.038	540.19
459.258	524.19
459.478	447.19
459.698	413.19
459.918	407.19
460.138	409.19
460.358	420.19
460.578	413.19
460.798	413.19
461.018	440.19
461.238	400.19
461.458	408.19
461.678	401.19
461.898	405.19
462.118	403.19
462.338	423.19
462.558	425.19
462.777	451.19
462.997	438.19
463.217	429.19
463.437	423.19
463.657	451.19
463.876	428.19
464.096	453.19
464.316	445.19
464.536	457.19
464.755	444.19
464.975	452.19
465.195	503.19
465.414	587.19
465.634	484.19
465.854	449.19
466.073	417.19
466.293	419.19
466.512	414.19
466.732	384.19
466.951	401.19
467.171	390.19
467.391	407.19
467.61	421.19
467.829	439.19
468.049	397.19
468.268	395.19
468.488	400.19
468.707	383.19
468.927	386.19
469.146	391.19
469.365	381.19
469.585	375.19
469.804	398.19
470.023	409.19
470.243	414.19
470.462	419.19
470.681	436.19
470.901	416.19
471.12	403.19
471.339	397.19
471.558	396.19
471.777	397.19
471.997	403.19
472.216	388.19
472.435	409.19
472.654	407.19
472.873	386.19
473.092	403.19
473.311	398.19
473.53	405.19
473.749	408.19
473.968	435.19
474.187	537.19
474.406	567.19
474.625	445.19
474.844	419.19
475.063	405.19
475.282	413.19
475.501	401.19
475.72	418.19
475.939	412.19
476.158	413.19
476.377	417.19
476.596	407.19
476.814	421.19
477.033	437.19
477.252	433.19
477.471	426.19
477.69	440.19
477.908	442.19
478.127	427.19
478.346	448.19
478.564	432.19
478.783	453.19
479.002	456.19
479.22	482.19
479.439	461.19
479.658	483.19
479.876	467.19
480.095	506.19
480.313	499.19
480.532	497.19
480.751	494.19
480.969	497.19
481.188	522.19
481.406	524.19
481.624	489.19
481.843	486.19
482.061	470.19
482.28	471.19
482.498	487.19
482.717	456.19
482.935	465.19
483.153	482.19
483.372	483.19
483.59	461.19
483.808	459.19
484.027	481.19
484.245	482.19
484.463	468.19
484.681	491.19
484.9	479.19
485.118	509.19
485.336	490.19
485.554	513.19
485.772	489.19
485.99	480.19
486.209	491.19
486.427	472.19
486.645	509.19
486.863	506.19
487.081	522.19
487.299	492.19
487.517	505.19
487.735	492.19
487.953	515.19
488.171	526.19
488.389	492.19
488.607	521.19
488.825	525.19
489.043	529.19
489.261	511.19
489.479	523.19
489.696	527.19
489.914	508.19
490.132	528.19
490.35	534.19
490.568	544.19
490.786	552.19
491.003	558.19
491.221	561.19
491.439	562.19
491.657	589.19
491.874	585.19
492.092	585.19
492.31	579.19
492.527	599.19
492.745	588.19
492.963	589.19
493.18	580.19
493.398	591.19
493.615	594.19
493.833	585.19
494.05	592.19
494.268	586.19
494.485	591.19
494.703	579.19
494.92	592.19
495.138	596.19
495.355	600.19
495.573	601.19
495.79	587.19
496.008	601.19
496.225	599.19
496.442	571.19
496.66	611.19
496.877	620.19
497.094	599.19
497.312	592.19
497.529	627.19
497.746	626.19
497.963	619.19
498.181	662.19
498.398	651.19
498.615	647.19
498.832	675.19
499.049	651.19
499.267	665.19
499.484	695.19
499.701	740.19
499.918	746.19
500.135	744.19
500.352	803.19
500.569	787.19
500.786	809.19
501.003	788.19
501.22	786.19
501.437	759.19
501.654	764.19
501.871	765.19
502.088	747.19
