Data from 1983.PennyLincolnUp.Lamp.En5.5.200Scan.071819.P1_HRD10591_16-54-42-966.txt Node
Date: Thu Jul 18 16:54:42 EDT 2019
User: cochatt
Spectrometer: HR+D1059
Trigger mode: 1
Integration Time (sec): 1.000000E-1
Scans to average: 1
Electric dark correction enabled: true
Nonlinearity correction enabled: false
Boxcar width: 0
XAxis mode: Wavelengths
Number of Pixels in Spectrum: 2048
>>>>>Begin Spectral Data<<<<<
223.165	-15.56
223.4	-15.56
223.635	-15.56
223.869	-3.56
224.104	-3.56
224.338	-11.56
224.573	-18.56
224.808	-0.56
225.042	-1.56
225.277	-14.56
225.511	-1.56
225.746	2.44
225.98	-1.56
226.215	2.44
226.449	14.44
226.683	13.44
226.918	25.44
227.152	14.44
227.387	10.44
227.621	34.44
227.856	28.44
228.09	36.44
228.324	42.44
228.559	56.44
228.793	73.44
229.027	92.44
229.262	112.44
229.496	100.44
229.73	130.44
229.964	139.44
230.199	101.44
230.433	124.44
230.667	119.44
230.901	106.44
231.136	103.44
231.37	84.44
231.604	107.44
231.838	117.44
232.072	92.44
232.306	104.44
232.541	103.44
232.775	109.44
233.009	110.44
233.243	115.44
233.477	105.44
233.711	102.44
233.945	105.44
234.179	99.44
234.413	114.44
234.647	106.44
234.881	105.44
235.115	118.44
235.349	109.44
235.583	107.44
235.817	113.44
236.051	136.44
236.285	124.44
236.519	121.44
236.753	124.44
236.987	145.44
237.221	165.44
237.455	208.44
237.689	186.44
237.922	147.44
238.156	120.44
238.39	126.44
238.624	107.44
238.858	115.44
239.091	124.44
239.325	117.44
239.559	123.44
239.793	126.44
240.027	128.44
240.26	148.44
240.494	157.44
240.728	152.44
240.961	143.44
241.195	118.44
241.429	118.44
241.662	134.44
241.896	106.44
242.13	129.44
242.363	125.44
242.597	125.44
242.83	115.44
243.064	130.44
243.298	142.44
243.531	131.44
243.765	134.44
243.998	124.44
244.232	131.44
244.465	126.44
244.699	146.44
244.932	137.44
245.166	154.44
245.399	146.44
245.633	148.44
245.866	124.44
246.099	130.44
246.333	133.44
246.566	150.44
246.8	141.44
247.033	132.44
247.266	150.44
247.5	152.44
247.733	158.44
247.966	155.44
248.2	172.44
248.433	152.44
248.666	159.44
248.899	166.44
249.133	192.44
249.366	201.44
249.599	188.44
249.832	183.44
250.066	159.44
250.299	160.44
250.532	162.44
250.765	183.44
250.998	227.44
251.231	220.44
251.465	203.44
251.698	190.44
251.931	172.44
252.164	185.44
252.397	172.44
252.63	168.44
252.863	196.44
253.096	190.44
253.329	224.44
253.562	220.44
253.795	212.44
254.028	206.44
254.261	211.44
254.494	224.44
254.727	235.44
254.96	256.44
255.193	243.44
255.426	246.44
255.659	213.44
255.892	225.44
256.124	218.44
256.357	216.44
256.59	223.44
256.823	212.44
257.056	198.44
257.289	186.44
257.521	186.44
257.754	193.44
257.987	200.44
258.22	195.44
258.452	198.44
258.685	186.44
258.918	206.44
259.151	192.44
259.383	183.44
259.616	185.44
259.849	209.44
260.081	221.44
260.314	228.44
260.547	239.44
260.779	213.44
261.012	209.44
261.244	200.44
261.477	213.44
261.71	168.44
261.942	213.44
262.175	214.44
262.407	213.44
262.64	191.44
262.872	193.44
263.105	197.44
263.337	202.44
263.57	204.44
263.802	200.44
264.035	196.44
264.267	213.44
264.499	206.44
264.732	208.44
264.964	197.44
265.197	201.44
265.429	204.44
265.661	217.44
265.894	216.44
266.126	190.44
266.358	188.44
266.591	199.44
266.823	198.44
267.055	214.44
267.287	213.44
267.52	211.44
267.752	206.44
267.984	185.44
268.216	196.44
268.448	206.44
268.681	227.44
268.913	233.44
269.145	246.44
269.377	260.44
269.609	249.44
269.841	244.44
270.073	257.44
270.306	265.44
270.538	278.44
270.77	271.44
271.002	285.44
271.234	280.44
271.466	257.44
271.698	276.44
271.93	297.44
272.162	284.44
272.394	279.44
272.626	283.44
272.858	259.44
273.09	262.44
273.322	263.44
273.553	260.44
273.785	227.44
274.017	231.44
274.249	252.44
274.481	248.44
274.713	237.44
274.945	255.44
275.176	240.44
275.408	243.44
275.64	249.44
275.872	228.44
276.104	237.44
276.335	241.44
276.567	270.44
276.799	254.44
277.031	286.44
277.262	286.44
277.494	304.44
277.726	301.44
277.957	254.44
278.189	248.44
278.421	251.44
278.652	234.44
278.884	242.44
279.115	241.44
279.347	249.44
279.579	238.44
279.81	252.44
280.042	246.44
280.273	259.44
280.505	228.44
280.736	233.44
280.968	242.44
281.199	257.44
281.431	232.44
281.662	249.44
281.894	242.44
282.125	260.44
282.356	268.44
282.588	289.44
282.819	299.44
283.051	247.44
283.282	256.44
283.513	259.44
283.745	245.44
283.976	268.44
284.207	270.44
284.439	246.44
284.67	263.44
284.901	251.44
285.132	241.44
285.364	243.44
285.595	258.44
285.826	258.44
286.057	243.44
286.288	263.44
286.52	269.44
286.751	248.44
286.982	258.44
287.213	264.44
287.444	258.44
287.675	267.44
287.906	291.44
288.138	281.44
288.369	281.44
288.6	273.44
288.831	271.44
289.062	277.44
289.293	267.44
289.524	260.44
289.755	261.44
289.986	238.44
290.217	270.44
290.448	263.44
290.679	279.44
290.91	281.44
291.141	263.44
291.371	245.44
291.602	248.44
291.833	280.44
292.064	276.44
292.295	248.44
292.526	269.44
292.757	264.44
292.987	274.44
293.218	264.44
293.449	245.44
293.68	260.44
293.91	267.44
294.141	263.44
294.372	253.44
294.603	265.44
294.833	263.44
295.064	251.44
295.295	268.44
295.525	270.44
295.756	277.44
295.987	279.44
296.217	287.44
296.448	301.44
296.679	293.44
296.909	269.44
297.14	270.44
297.37	288.44
297.601	265.44
297.831	286.44
298.062	275.44
298.292	276.44
298.523	264.44
298.753	288.44
298.984	288.44
299.214	273.44
299.445	283.44
299.675	272.44
299.905	280.44
300.136	264.44
300.366	294.44
300.597	277.44
300.827	291.44
301.057	282.44
301.288	295.44
301.518	305.44
301.748	288.44
301.979	290.44
302.209	299.44
302.439	283.44
302.669	290.44
302.9	292.44
303.13	295.44
303.36	293.44
303.59	283.44
303.82	311.44
304.051	317.44
304.281	292.44
304.511	276.44
304.741	290.44
304.971	308.44
305.201	300.44
305.431	297.44
305.661	313.44
305.891	298.44
306.121	295.44
306.352	316.44
306.582	296.44
306.812	313.44
307.042	292.44
307.272	301.44
307.502	314.44
307.731	313.44
307.961	283.44
308.191	305.44
308.421	308.44
308.651	319.44
308.881	311.44
309.111	293.44
309.341	324.44
309.571	331.44
309.8	350.44
310.03	325.44
310.26	342.44
310.49	337.44
310.72	328.44
310.949	392.44
311.179	366.44
311.409	345.44
311.639	355.44
311.868	340.44
312.098	377.44
312.328	367.44
312.557	381.44
312.787	374.44
313.017	386.44
313.246	335.44
313.476	348.44
313.706	372.44
313.935	368.44
314.165	369.44
314.394	381.44
314.624	368.44
314.853	345.44
315.083	340.44
315.312	346.44
315.542	342.44
315.771	345.44
316.001	356.44
316.23	334.44
316.46	338.44
316.689	344.44
316.919	345.44
317.148	357.44
317.377	350.44
317.607	343.44
317.836	347.44
318.065	335.44
318.295	334.44
318.524	344.44
318.753	330.44
318.983	338.44
319.212	357.44
319.441	344.44
319.67	353.44
319.9	330.44
320.129	340.44
320.358	344.44
320.587	344.44
320.816	349.44
321.046	370.44
321.275	363.44
321.504	368.44
321.733	371.44
321.962	376.44
322.191	393.44
322.42	425.44
322.649	426.44
322.878	432.44
323.108	439.44
323.337	471.44
323.566	484.44
323.795	500.44
324.024	572.44
324.253	694.44
324.482	1000.44
324.71	1510.44
324.939	2049.44
325.168	1722.44
325.397	905.44
325.626	615.44
325.855	517.44
326.084	479.44
326.313	488.44
326.542	513.44
326.77	546.44
326.999	664.44
327.228	926.44
327.457	1324.44
327.686	1558.44
327.914	1028.44
328.143	688.44
328.372	592.44
328.6	598.44
328.829	539.44
329.058	577.44
329.287	585.44
329.515	536.44
329.744	514.44
329.972	501.44
330.201	521.44
330.43	573.44
330.658	572.44
330.887	604.44
331.115	581.44
331.344	498.44
331.572	467.44
331.801	468.44
332.03	449.44
332.258	450.44
332.486	416.44
332.715	416.44
332.943	411.44
333.172	427.44
333.4	427.44
333.629	439.44
333.857	459.44
334.085	458.44
334.314	473.44
334.542	498.44
334.771	516.44
334.999	462.44
335.227	441.44
335.455	430.44
335.684	422.44
335.912	404.44
336.14	410.44
336.369	390.44
336.597	414.44
336.825	422.44
337.053	397.44
337.281	417.44
337.51	388.44
337.738	399.44
337.966	395.44
338.194	402.44
338.422	400.44
338.65	393.44
338.878	384.44
339.106	386.44
339.334	394.44
339.562	401.44
339.79	381.44
340.018	402.44
340.246	380.44
340.474	379.44
340.702	373.44
340.93	395.44
341.158	380.44
341.386	394.44
341.614	395.44
341.842	392.44
342.07	403.44
342.298	384.44
342.526	380.44
342.754	360.44
342.981	363.44
343.209	377.44
343.437	385.44
343.665	386.44
343.893	403.44
344.12	382.44
344.348	374.44
344.576	391.44
344.804	413.44
345.031	386.44
345.259	404.44
345.487	396.44
345.714	400.44
345.942	399.44
346.17	380.44
346.397	368.44
346.625	372.44
346.853	378.44
347.08	394.44
347.308	396.44
347.535	402.44
347.763	400.44
347.99	413.44
348.218	365.44
348.445	384.44
348.673	386.44
348.9	376.44
349.128	374.44
349.355	370.44
349.583	342.44
349.81	364.44
350.037	374.44
350.265	381.44
350.492	370.44
350.72	367.44
350.947	369.44
351.174	376.44
351.402	390.44
351.629	384.44
351.856	393.44
352.083	391.44
352.311	392.44
352.538	394.44
352.765	381.44
352.992	380.44
353.22	386.44
353.447	363.44
353.674	386.44
353.901	364.44
354.128	361.44
354.355	348.44
354.583	348.44
354.81	363.44
355.037	347.44
355.264	347.44
355.491	349.44
355.718	342.44
355.945	335.44
356.172	339.44
356.399	355.44
356.626	335.44
356.853	355.44
357.08	342.44
357.307	327.44
357.534	336.44
357.761	357.44
357.988	358.44
358.215	348.44
358.441	359.44
358.668	359.44
358.895	354.44
359.122	353.44
359.349	380.44
359.576	377.44
359.802	396.44
360.029	428.44
360.256	432.44
360.483	410.44
360.709	384.44
360.936	396.44
361.163	369.44
361.39	390.44
361.616	380.44
361.843	355.44
362.07	368.44
362.296	384.44
362.523	381.44
362.749	386.44
362.976	362.44
363.203	354.44
363.429	359.44
363.656	358.44
363.882	365.44
364.109	364.44
364.335	351.44
364.562	343.44
364.788	368.44
365.015	366.44
365.241	377.44
365.468	364.44
365.694	357.44
365.92	355.44
366.147	349.44
366.373	350.44
366.599	346.44
366.826	347.44
367.052	339.44
367.278	368.44
367.505	364.44
367.731	352.44
367.957	359.44
368.184	353.44
368.41	353.44
368.636	388.44
368.862	354.44
369.089	362.44
369.315	354.44
369.541	361.44
369.767	355.44
369.993	342.44
370.219	360.44
370.445	362.44
370.672	369.44
370.898	333.44
371.124	341.44
371.35	345.44
371.576	326.44
371.802	329.44
372.028	338.44
372.254	359.44
372.48	359.44
372.706	356.44
372.932	357.44
373.158	352.44
373.384	367.44
373.61	346.44
373.835	358.44
374.061	343.44
374.287	358.44
374.513	349.44
374.739	346.44
374.965	342.44
375.191	349.44
375.416	352.44
375.642	354.44
375.868	346.44
376.094	346.44
376.319	353.44
376.545	342.44
376.771	349.44
376.997	360.44
377.222	352.44
377.448	344.44
377.674	337.44
377.899	346.44
378.125	351.44
378.35	353.44
378.576	337.44
378.802	348.44
379.027	344.44
379.253	359.44
379.478	337.44
379.704	341.44
379.929	330.44
380.155	345.44
380.38	362.44
380.606	338.44
380.831	325.44
381.057	352.44
381.282	350.44
381.507	375.44
381.733	360.44
381.958	336.44
382.184	342.44
382.409	358.44
382.634	344.44
382.86	346.44
383.085	363.44
383.31	339.44
383.535	368.44
383.761	347.44
383.986	364.44
384.211	364.44
384.436	350.44
384.662	359.44
384.887	376.44
385.112	363.44
385.337	362.44
385.562	381.44
385.787	372.44
386.013	375.44
386.238	390.44
386.463	367.44
386.688	376.44
386.913	347.44
387.138	364.44
387.363	372.44
387.588	369.44
387.813	374.44
388.038	375.44
388.263	355.44
388.488	363.44
388.713	380.44
388.938	381.44
389.163	359.44
389.387	373.44
389.612	367.44
389.837	362.44
390.062	368.44
390.287	362.44
390.512	367.44
390.736	370.44
390.961	359.44
391.186	357.44
391.411	370.44
391.636	365.44
391.86	384.44
392.085	380.44
392.31	378.44
392.534	368.44
392.759	376.44
392.984	368.44
393.208	385.44
393.433	372.44
393.658	374.44
393.882	378.44
394.107	361.44
394.331	380.44
394.556	386.44
394.78	380.44
395.005	372.44
395.229	361.44
395.454	377.44
395.678	377.44
395.903	387.44
396.127	399.44
396.352	423.44
396.576	393.44
396.801	385.44
397.025	377.44
397.249	384.44
397.474	388.44
397.698	379.44
397.922	394.44
398.147	411.44
398.371	416.44
398.595	417.44
398.82	401.44
399.044	430.44
399.268	449.44
399.492	446.44
399.717	461.44
399.941	473.44
400.165	499.44
400.389	491.44
400.613	480.44
400.837	430.44
401.062	425.44
401.286	434.44
401.51	412.44
401.734	410.44
401.958	419.44
402.182	416.44
402.406	427.44
402.63	436.44
402.854	438.44
403.078	424.44
403.302	434.44
403.526	440.44
403.75	443.44
403.974	440.44
404.198	441.44
404.422	447.44
404.645	435.44
404.869	438.44
405.093	454.44
405.317	485.44
405.541	518.44
405.765	500.44
405.988	486.44
406.212	446.44
406.436	494.44
406.66	521.44
406.883	480.44
407.107	488.44
407.331	509.44
407.555	552.44
407.778	546.44
408.002	519.44
408.226	468.44
408.449	460.44
408.673	474.44
408.896	493.44
409.12	507.44
409.344	475.44
409.567	460.44
409.791	441.44
410.014	447.44
410.238	443.44
410.461	432.44
410.685	433.44
410.908	452.44
411.132	467.44
411.355	486.44
411.578	465.44
411.802	428.44
412.025	421.44
412.249	447.44
412.472	477.44
412.695	491.44
412.919	498.44
413.142	453.44
413.365	434.44
413.589	429.44
413.812	432.44
414.035	420.44
414.258	410.44
414.482	417.44
414.705	409.44
414.928	420.44
415.151	422.44
415.374	396.44
415.597	410.44
415.821	400.44
416.044	414.44
416.267	429.44
416.49	414.44
416.713	411.44
416.936	405.44
417.159	405.44
417.382	398.44
417.605	399.44
417.828	418.44
418.051	420.44
418.274	417.44
418.497	422.44
418.72	432.44
418.943	409.44
419.166	424.44
419.389	435.44
419.611	448.44
419.834	422.44
420.057	442.44
420.28	445.44
420.503	440.44
420.726	429.44
420.948	452.44
421.171	473.44
421.394	474.44
421.617	464.44
421.839	422.44
422.062	416.44
422.285	433.44
422.507	493.44
422.73	543.44
422.953	532.44
423.175	486.44
423.398	455.44
423.621	450.44
423.843	480.44
424.066	456.44
424.288	453.44
424.511	470.44
424.733	523.44
424.956	580.44
425.178	560.44
425.401	561.44
425.623	562.44
425.846	499.44
426.068	467.44
426.291	468.44
426.513	442.44
426.735	460.44
426.958	519.44
427.18	576.44
427.402	669.44
427.625	734.44
427.847	661.44
428.069	578.44
428.292	494.44
428.514	468.44
428.736	461.44
428.958	448.44
429.181	422.44
429.403	435.44
429.625	429.44
429.847	508.44
430.069	522.44
430.292	514.44
430.514	447.44
430.736	413.44
430.958	412.44
431.18	408.44
431.402	416.44
431.624	403.44
431.846	397.44
432.068	382.44
432.29	420.44
432.512	397.44
432.734	402.44
432.956	427.44
433.178	422.44
433.4	393.44
433.622	407.44
433.844	411.44
434.066	397.44
434.287	401.44
434.509	403.44
434.731	407.44
434.953	416.44
435.175	421.44
435.397	476.44
435.618	449.44
435.84	506.44
436.062	566.44
436.284	606.44
436.505	511.44
436.727	475.44
436.949	441.44
437.17	434.44
437.392	419.44
437.614	468.44
437.835	464.44
438.057	569.44
438.278	624.44
438.5	638.44
438.721	667.44
438.943	628.44
439.165	527.44
439.386	462.44
439.608	470.44
439.829	468.44
440.05	506.44
440.272	550.44
440.493	494.44
440.715	480.44
440.936	451.44
441.158	444.44
441.379	450.44
441.6	448.44
441.822	481.44
442.043	515.44
442.264	564.44
442.486	604.44
442.707	517.44
442.928	466.44
443.149	483.44
443.371	510.44
443.592	521.44
443.813	609.44
444.034	624.44
444.255	548.44
444.476	480.44
444.698	470.44
444.919	456.44
445.14	597.44
445.361	562.44
445.582	525.44
445.803	558.44
446.024	610.44
446.245	649.44
446.466	575.44
446.687	510.44
446.908	486.44
447.129	438.44
447.35	433.44
447.571	424.44
447.792	426.44
448.013	443.44
448.234	452.44
448.455	507.44
448.675	569.44
448.896	647.44
449.117	562.44
449.338	540.44
449.559	635.44
449.779	681.44
450	550.44
450.221	498.44
450.442	441.44
450.662	424.44
450.883	454.44
451.104	466.44
451.324	425.44
451.545	427.44
451.766	398.44
451.986	376.44
452.207	377.44
452.428	399.44
452.648	384.44
452.869	397.44
453.089	417.44
453.31	408.44
453.53	404.44
453.751	422.44
453.971	396.44
454.192	407.44
454.412	420.44
454.633	386.44
454.853	396.44
455.073	396.44
455.294	424.44
455.514	463.44
455.734	446.44
455.955	390.44
456.175	376.44
456.395	367.44
456.616	364.44
456.836	374.44
457.056	345.44
457.276	375.44
457.497	355.44
457.717	372.44
457.937	368.44
458.157	381.44
458.377	393.44
458.598	408.44
458.818	464.44
459.038	539.44
459.258	511.44
459.478	460.44
459.698	418.44
459.918	409.44
460.138	404.44
460.358	425.44
460.578	418.44
460.798	417.44
461.018	410.44
461.238	378.44
461.458	410.44
461.678	395.44
461.898	400.44
462.118	411.44
462.338	420.44
462.558	440.44
462.777	434.44
462.997	457.44
463.217	413.44
463.437	454.44
463.657	434.44
463.876	446.44
464.096	425.44
464.316	434.44
464.536	435.44
464.755	443.44
464.975	439.44
465.195	497.44
465.414	582.44
465.634	480.44
465.854	462.44
466.073	427.44
466.293	410.44
466.512	387.44
466.732	382.44
466.951	386.44
467.171	405.44
467.391	408.44
467.61	407.44
467.829	423.44
468.049	397.44
468.268	436.44
468.488	406.44
468.707	410.44
468.927	368.44
469.146	372.44
469.365	377.44
469.585	413.44
469.804	407.44
470.023	414.44
470.243	394.44
470.462	428.44
470.681	449.44
470.901	422.44
471.12	399.44
471.339	421.44
471.558	408.44
471.777	407.44
471.997	399.44
472.216	401.44
472.435	464.44
472.654	439.44
472.873	399.44
473.092	415.44
473.311	403.44
473.53	397.44
473.749	427.44
473.968	460.44
474.187	525.44
474.406	519.44
474.625	456.44
474.844	413.44
475.063	416.44
475.282	401.44
475.501	425.44
475.72	404.44
475.939	421.44
476.158	442.44
476.377	435.44
476.596	417.44
476.814	433.44
477.033	424.44
477.252	439.44
477.471	428.44
477.69	430.44
477.908	445.44
478.127	416.44
478.346	420.44
478.564	440.44
478.783	450.44
479.002	448.44
479.22	452.44
479.439	474.44
479.658	481.44
479.876	477.44
480.095	493.44
480.313	516.44
480.532	485.44
480.751	510.44
480.969	531.44
481.188	594.44
481.406	625.44
481.624	554.44
481.843	508.44
482.061	490.44
482.28	489.44
482.498	445.44
482.717	472.44
482.935	484.44
483.153	466.44
483.372	484.44
483.59	476.44
483.808	468.44
484.027	466.44
484.245	466.44
484.463	476.44
484.681	479.44
484.9	474.44
485.118	484.44
485.336	469.44
485.554	476.44
485.772	480.44
485.99	498.44
486.209	483.44
486.427	498.44
486.645	509.44
486.863	523.44
487.081	525.44
487.299	508.44
487.517	544.44
487.735	513.44
487.953	511.44
488.171	491.44
488.389	489.44
488.607	518.44
488.825	505.44
489.043	521.44
489.261	514.44
489.479	525.44
489.696	523.44
489.914	538.44
490.132	528.44
490.35	533.44
490.568	532.44
490.786	532.44
491.003	548.44
491.221	550.44
491.439	573.44
491.657	605.44
491.874	580.44
492.092	612.44
492.31	583.44
492.527	599.44
492.745	592.44
492.963	609.44
493.18	605.44
493.398	593.44
493.615	602.44
493.833	603.44
494.05	615.44
494.268	614.44
494.485	592.44
494.703	626.44
494.92	603.44
495.138	629.44
495.355	617.44
495.573	593.44
495.79	601.44
496.008	621.44
496.225	577.44
496.442	601.44
496.66	613.44
496.877	602.44
497.094	621.44
497.312	598.44
497.529	602.44
497.746	621.44
497.963	612.44
498.181	647.44
498.398	637.44
498.615	665.44
498.832	653.44
499.049	671.44
499.267	692.44
499.484	678.44
499.701	675.44
499.918	727.44
500.135	774.44
500.352	786.44
500.569	770.44
500.786	787.44
501.003	782.44
501.22	770.44
501.437	734.44
501.654	742.44
501.871	732.44
502.088	697.44
