Data from 1983.PennyLincolnUp.Lamp.En5.5.200Scan.071819.P1_HRD10591_16-53-13-966.txt Node
Date: Thu Jul 18 16:53:13 EDT 2019
User: cochatt
Spectrometer: HR+D1059
Trigger mode: 1
Integration Time (sec): 1.000000E-1
Scans to average: 1
Electric dark correction enabled: true
Nonlinearity correction enabled: false
Boxcar width: 0
XAxis mode: Wavelengths
Number of Pixels in Spectrum: 2048
>>>>>Begin Spectral Data<<<<<
223.165	-17.06
223.4	-17.06
223.635	-17.06
223.869	-31.06
224.104	-13.06
224.338	-12.06
224.573	-5.06
224.808	-0.06
225.042	2.94
225.277	-7.06
225.511	2.94
225.746	13.94
225.98	8.94
226.215	3.94
226.449	10.94
226.683	12.94
226.918	5.94
227.152	22.94
227.387	28.94
227.621	27.94
227.856	31.94
228.09	39.94
228.324	47.94
228.559	51.94
228.793	84.94
229.027	76.94
229.262	97.94
229.496	115.94
229.73	127.94
229.964	139.94
230.199	122.94
230.433	105.94
230.667	98.94
230.901	115.94
231.136	102.94
231.37	101.94
231.604	102.94
231.838	102.94
232.072	117.94
232.306	103.94
232.541	102.94
232.775	102.94
233.009	104.94
233.243	112.94
233.477	109.94
233.711	104.94
233.945	120.94
234.179	123.94
234.413	103.94
234.647	112.94
234.881	113.94
235.115	108.94
235.349	113.94
235.583	116.94
235.817	105.94
236.051	116.94
236.285	117.94
236.519	108.94
236.753	110.94
236.987	120.94
237.221	163.94
237.455	195.94
237.689	160.94
237.922	137.94
238.156	121.94
238.39	130.94
238.624	114.94
238.858	111.94
239.091	117.94
239.325	120.94
239.559	113.94
239.793	122.94
240.027	119.94
240.26	133.94
240.494	135.94
240.728	159.94
240.961	123.94
241.195	118.94
241.429	129.94
241.662	125.94
241.896	126.94
242.13	132.94
242.363	113.94
242.597	104.94
242.83	124.94
243.064	121.94
243.298	128.94
243.531	115.94
243.765	118.94
243.998	142.94
244.232	134.94
244.465	135.94
244.699	130.94
244.932	128.94
245.166	129.94
245.399	141.94
245.633	142.94
245.866	131.94
246.099	148.94
246.333	128.94
246.566	134.94
246.8	133.94
247.033	123.94
247.266	141.94
247.5	150.94
247.733	161.94
247.966	160.94
248.2	134.94
248.433	153.94
248.666	172.94
248.899	166.94
249.133	167.94
249.366	187.94
249.599	184.94
249.832	170.94
250.066	147.94
250.299	163.94
250.532	166.94
250.765	173.94
250.998	177.94
251.231	192.94
251.465	195.94
251.698	176.94
251.931	178.94
252.164	196.94
252.397	181.94
252.63	188.94
252.863	174.94
253.096	177.94
253.329	197.94
253.562	198.94
253.795	195.94
254.028	197.94
254.261	191.94
254.494	198.94
254.727	225.94
254.96	243.94
255.193	244.94
255.426	222.94
255.659	203.94
255.892	199.94
256.124	191.94
256.357	191.94
256.59	186.94
256.823	182.94
257.056	185.94
257.289	184.94
257.521	177.94
257.754	184.94
257.987	195.94
258.22	195.94
258.452	161.94
258.685	177.94
258.918	187.94
259.151	184.94
259.383	199.94
259.616	196.94
259.849	216.94
260.081	210.94
260.314	225.94
260.547	223.94
260.779	227.94
261.012	210.94
261.244	211.94
261.477	209.94
261.71	209.94
261.942	205.94
262.175	214.94
262.407	211.94
262.64	192.94
262.872	196.94
263.105	186.94
263.337	191.94
263.57	179.94
263.802	191.94
264.035	214.94
264.267	201.94
264.499	191.94
264.732	204.94
264.964	194.94
265.197	183.94
265.429	189.94
265.661	210.94
265.894	196.94
266.126	207.94
266.358	192.94
266.591	204.94
266.823	197.94
267.055	195.94
267.287	210.94
267.52	202.94
267.752	215.94
267.984	207.94
268.216	217.94
268.448	212.94
268.681	198.94
268.913	219.94
269.145	242.94
269.377	244.94
269.609	245.94
269.841	236.94
270.073	251.94
270.306	274.94
270.538	259.94
270.77	275.94
271.002	272.94
271.234	257.94
271.466	277.94
271.698	271.94
271.93	290.94
272.162	289.94
272.394	265.94
272.626	283.94
272.858	268.94
273.09	235.94
273.322	240.94
273.553	228.94
273.785	231.94
274.017	235.94
274.249	238.94
274.481	230.94
274.713	233.94
274.945	239.94
275.176	226.94
275.408	226.94
275.64	218.94
275.872	235.94
276.104	252.94
276.335	241.94
276.567	227.94
276.799	257.94
277.031	267.94
277.262	288.94
277.494	296.94
277.726	283.94
277.957	254.94
278.189	251.94
278.421	251.94
278.652	246.94
278.884	233.94
279.115	233.94
279.347	235.94
279.579	221.94
279.81	246.94
280.042	255.94
280.273	240.94
280.505	228.94
280.736	229.94
280.968	235.94
281.199	217.94
281.431	228.94
281.662	239.94
281.894	229.94
282.125	258.94
282.356	273.94
282.588	285.94
282.819	259.94
283.051	240.94
283.282	262.94
283.513	246.94
283.745	255.94
283.976	238.94
284.207	272.94
284.439	263.94
284.67	249.94
284.901	244.94
285.132	264.94
285.364	241.94
285.595	242.94
285.826	266.94
286.057	274.94
286.288	271.94
286.52	260.94
286.751	266.94
286.982	248.94
287.213	242.94
287.444	240.94
287.675	265.94
287.906	281.94
288.138	288.94
288.369	288.94
288.6	280.94
288.831	259.94
289.062	263.94
289.293	258.94
289.524	267.94
289.755	262.94
289.986	249.94
290.217	246.94
290.448	246.94
290.679	255.94
290.91	254.94
291.141	246.94
291.371	247.94
291.602	245.94
291.833	243.94
292.064	278.94
292.295	248.94
292.526	258.94
292.757	258.94
292.987	239.94
293.218	245.94
293.449	261.94
293.68	267.94
293.91	240.94
294.141	250.94
294.372	254.94
294.603	254.94
294.833	265.94
295.064	278.94
295.295	255.94
295.525	282.94
295.756	279.94
295.987	280.94
296.217	313.94
296.448	310.94
296.679	274.94
296.909	242.94
297.14	265.94
297.37	279.94
297.601	274.94
297.831	271.94
298.062	268.94
298.292	260.94
298.523	299.94
298.753	287.94
298.984	273.94
299.214	282.94
299.445	268.94
299.675	275.94
299.905	288.94
300.136	283.94
300.366	274.94
300.597	291.94
300.827	284.94
301.057	272.94
301.288	303.94
301.518	304.94
301.748	288.94
301.979	289.94
302.209	282.94
302.439	302.94
302.669	310.94
302.9	307.94
303.13	302.94
303.36	310.94
303.59	300.94
303.82	316.94
304.051	281.94
304.281	283.94
304.511	280.94
304.741	280.94
304.971	296.94
305.201	303.94
305.431	288.94
305.661	305.94
305.891	283.94
306.121	292.94
306.352	292.94
306.582	305.94
306.812	298.94
307.042	275.94
307.272	301.94
307.502	304.94
307.731	284.94
307.961	286.94
308.191	308.94
308.421	292.94
308.651	289.94
308.881	303.94
309.111	320.94
309.341	317.94
309.571	321.94
309.8	326.94
310.03	331.94
310.26	334.94
310.49	326.94
310.72	345.94
310.949	362.94
311.179	356.94
311.409	348.94
311.639	340.94
311.868	352.94
312.098	331.94
312.328	345.94
312.557	340.94
312.787	360.94
313.017	363.94
313.246	356.94
313.476	339.94
313.706	347.94
313.935	360.94
314.165	335.94
314.394	378.94
314.624	356.94
314.853	363.94
315.083	358.94
315.312	355.94
315.542	326.94
315.771	318.94
316.001	324.94
316.23	327.94
316.46	321.94
316.689	338.94
316.919	343.94
317.148	344.94
317.377	339.94
317.607	372.94
317.836	350.94
318.065	354.94
318.295	340.94
318.524	331.94
318.753	337.94
318.983	339.94
319.212	349.94
319.441	352.94
319.67	356.94
319.9	323.94
320.129	337.94
320.358	348.94
320.587	346.94
320.816	357.94
321.046	376.94
321.275	371.94
321.504	360.94
321.733	376.94
321.962	382.94
322.191	393.94
322.42	410.94
322.649	413.94
322.878	405.94
323.108	410.94
323.337	436.94
323.566	472.94
323.795	483.94
324.024	542.94
324.253	671.94
324.482	947.94
324.71	1460.94
324.939	1914.94
325.168	1616.94
325.397	880.94
325.626	610.94
325.855	490.94
326.084	457.94
326.313	444.94
326.542	445.94
326.77	521.94
326.999	615.94
327.228	848.94
327.457	1249.94
327.686	1438.94
327.914	948.94
328.143	648.94
328.372	562.94
328.6	522.94
328.829	491.94
329.058	505.94
329.287	532.94
329.515	503.94
329.744	461.94
329.972	449.94
330.201	431.94
330.43	479.94
330.658	520.94
330.887	575.94
331.115	570.94
331.344	483.94
331.572	442.94
331.801	427.94
332.03	414.94
332.258	419.94
332.486	400.94
332.715	389.94
332.943	387.94
333.172	395.94
333.4	388.94
333.629	389.94
333.857	416.94
334.085	414.94
334.314	411.94
334.542	409.94
334.771	404.94
334.999	412.94
335.227	398.94
335.455	415.94
335.684	390.94
335.912	386.94
336.14	394.94
336.369	393.94
336.597	396.94
336.825	413.94
337.053	397.94
337.281	363.94
337.51	392.94
337.738	377.94
337.966	379.94
338.194	406.94
338.422	403.94
338.65	402.94
338.878	391.94
339.106	395.94
339.334	379.94
339.562	394.94
339.79	371.94
340.018	373.94
340.246	377.94
340.474	390.94
340.702	385.94
340.93	389.94
341.158	378.94
341.386	376.94
341.614	390.94
341.842	388.94
342.07	391.94
342.298	360.94
342.526	376.94
342.754	380.94
342.981	371.94
343.209	342.94
343.437	382.94
343.665	388.94
343.893	376.94
344.12	396.94
344.348	383.94
344.576	390.94
344.804	391.94
345.031	392.94
345.259	406.94
345.487	376.94
345.714	386.94
345.942	397.94
346.17	362.94
346.397	373.94
346.625	368.94
346.853	358.94
347.08	368.94
347.308	374.94
347.535	379.94
347.763	383.94
347.99	375.94
348.218	387.94
348.445	400.94
348.673	381.94
348.9	382.94
349.128	370.94
349.355	371.94
349.583	346.94
349.81	355.94
350.037	359.94
350.265	345.94
350.492	349.94
350.72	360.94
350.947	352.94
351.174	375.94
351.402	380.94
351.629	365.94
351.856	400.94
352.083	385.94
352.311	388.94
352.538	380.94
352.765	394.94
352.992	396.94
353.22	386.94
353.447	385.94
353.674	368.94
353.901	359.94
354.128	342.94
354.355	349.94
354.583	358.94
354.81	353.94
355.037	352.94
355.264	343.94
355.491	330.94
355.718	339.94
355.945	343.94
356.172	347.94
356.399	342.94
356.626	339.94
356.853	336.94
357.08	355.94
357.307	344.94
357.534	321.94
357.761	348.94
357.988	336.94
358.215	355.94
358.441	337.94
358.668	353.94
358.895	352.94
359.122	372.94
359.349	374.94
359.576	354.94
359.802	388.94
360.029	412.94
360.256	413.94
360.483	414.94
360.709	375.94
360.936	361.94
361.163	375.94
361.39	368.94
361.616	376.94
361.843	353.94
362.07	359.94
362.296	362.94
362.523	372.94
362.749	383.94
362.976	361.94
363.203	358.94
363.429	347.94
363.656	345.94
363.882	364.94
364.109	358.94
364.335	355.94
364.562	350.94
364.788	355.94
365.015	360.94
365.241	328.94
365.468	367.94
365.694	342.94
365.92	356.94
366.147	336.94
366.373	357.94
366.599	350.94
366.826	334.94
367.052	346.94
367.278	368.94
367.505	340.94
367.731	344.94
367.957	338.94
368.184	344.94
368.41	350.94
368.636	358.94
368.862	379.94
369.089	340.94
369.315	363.94
369.541	344.94
369.767	343.94
369.993	342.94
370.219	337.94
370.445	360.94
370.672	354.94
370.898	361.94
371.124	345.94
371.35	327.94
371.576	337.94
371.802	345.94
372.028	359.94
372.254	358.94
372.48	348.94
372.706	336.94
372.932	349.94
373.158	342.94
373.384	360.94
373.61	343.94
373.835	348.94
374.061	352.94
374.287	360.94
374.513	363.94
374.739	355.94
374.965	349.94
375.191	339.94
375.416	348.94
375.642	360.94
375.868	345.94
376.094	335.94
376.319	329.94
376.545	338.94
376.771	337.94
376.997	329.94
377.222	324.94
377.448	336.94
377.674	337.94
377.899	332.94
378.125	334.94
378.35	329.94
378.576	334.94
378.802	356.94
379.027	354.94
379.253	333.94
379.478	339.94
379.704	370.94
379.929	336.94
380.155	359.94
380.38	339.94
380.606	338.94
380.831	346.94
381.057	341.94
381.282	367.94
381.507	348.94
381.733	364.94
381.958	342.94
382.184	351.94
382.409	349.94
382.634	371.94
382.86	361.94
383.085	353.94
383.31	358.94
383.535	344.94
383.761	355.94
383.986	354.94
384.211	379.94
384.436	378.94
384.662	371.94
384.887	368.94
385.112	350.94
385.337	378.94
385.562	363.94
385.787	375.94
386.013	360.94
386.238	382.94
386.463	393.94
386.688	380.94
386.913	364.94
387.138	364.94
387.363	351.94
387.588	363.94
387.813	374.94
388.038	355.94
388.263	356.94
388.488	368.94
388.713	368.94
388.938	373.94
389.163	372.94
389.387	374.94
389.612	376.94
389.837	379.94
390.062	362.94
390.287	363.94
390.512	362.94
390.736	364.94
390.961	375.94
391.186	370.94
391.411	398.94
391.636	384.94
391.86	373.94
392.085	368.94
392.31	378.94
392.534	388.94
392.759	375.94
392.984	356.94
393.208	386.94
393.433	367.94
393.658	342.94
393.882	355.94
394.107	374.94
394.331	351.94
394.556	354.94
394.78	376.94
395.005	372.94
395.229	362.94
395.454	386.94
395.678	396.94
395.903	388.94
396.127	393.94
396.352	400.94
396.576	379.94
396.801	371.94
397.025	384.94
397.249	404.94
397.474	399.94
397.698	393.94
397.922	416.94
398.147	396.94
398.371	434.94
398.595	419.94
398.82	420.94
399.044	427.94
399.268	434.94
399.492	452.94
399.717	467.94
399.941	498.94
400.165	515.94
400.389	508.94
400.613	466.94
400.837	425.94
401.062	442.94
401.286	426.94
401.51	437.94
401.734	439.94
401.958	417.94
402.182	412.94
402.406	414.94
402.63	432.94
402.854	436.94
403.078	428.94
403.302	426.94
403.526	417.94
403.75	420.94
403.974	437.94
404.198	432.94
404.422	426.94
404.645	432.94
404.869	444.94
405.093	436.94
405.317	498.94
405.541	494.94
405.765	491.94
405.988	470.94
406.212	463.94
406.436	492.94
406.66	508.94
406.883	479.94
407.107	511.94
407.331	524.94
407.555	541.94
407.778	556.94
408.002	511.94
408.226	477.94
408.449	489.94
408.673	477.94
408.896	503.94
409.12	505.94
409.344	473.94
409.567	477.94
409.791	437.94
410.014	439.94
410.238	439.94
410.461	437.94
410.685	443.94
410.908	441.94
411.132	482.94
411.355	494.94
411.578	471.94
411.802	446.94
412.025	440.94
412.249	433.94
412.472	423.94
412.695	459.94
412.919	423.94
413.142	444.94
413.365	430.94
413.589	391.94
413.812	411.94
414.035	397.94
414.258	424.94
414.482	421.94
414.705	416.94
414.928	415.94
415.151	392.94
415.374	396.94
415.597	394.94
415.821	379.94
416.044	419.94
416.267	424.94
416.49	412.94
416.713	401.94
416.936	409.94
417.159	398.94
417.382	405.94
417.605	433.94
417.828	440.94
418.051	442.94
418.274	435.94
418.497	411.94
418.72	424.94
418.943	414.94
419.166	416.94
419.389	442.94
419.611	430.94
419.834	424.94
420.057	425.94
420.28	425.94
420.503	423.94
420.726	419.94
420.948	441.94
421.171	469.94
421.394	485.94
421.617	460.94
421.839	438.94
422.062	456.94
422.285	461.94
422.507	468.94
422.73	539.94
422.953	517.94
423.175	477.94
423.398	439.94
423.621	439.94
423.843	450.94
424.066	464.94
424.288	451.94
424.511	468.94
424.733	488.94
424.956	551.94
425.178	553.94
425.401	537.94
425.623	572.94
425.846	485.94
426.068	472.94
426.291	488.94
426.513	475.94
426.735	477.94
426.958	492.94
427.18	595.94
427.402	650.94
427.625	731.94
427.847	654.94
428.069	524.94
428.292	496.94
428.514	480.94
428.736	433.94
428.958	420.94
429.181	420.94
429.403	411.94
429.625	442.94
429.847	455.94
430.069	532.94
430.292	513.94
430.514	453.94
430.736	421.94
430.958	430.94
431.18	391.94
431.402	430.94
431.624	419.94
431.846	410.94
432.068	411.94
432.29	422.94
432.512	406.94
432.734	408.94
432.956	407.94
433.178	424.94
433.4	403.94
433.622	410.94
433.844	415.94
434.066	382.94
434.287	406.94
434.509	415.94
434.731	409.94
434.953	408.94
435.175	432.94
435.397	451.94
435.618	459.94
435.84	475.94
436.062	563.94
436.284	621.94
436.505	504.94
436.727	473.94
436.949	421.94
437.17	421.94
437.392	419.94
437.614	444.94
437.835	466.94
438.057	568.94
438.278	640.94
438.5	626.94
438.721	658.94
438.943	614.94
439.165	521.94
439.386	483.94
439.608	466.94
439.829	469.94
440.05	513.94
440.272	522.94
440.493	496.94
440.715	468.94
440.936	442.94
441.158	440.94
441.379	432.94
441.6	446.94
441.822	480.94
442.043	496.94
442.264	573.94
442.486	599.94
442.707	516.94
442.928	487.94
443.149	477.94
443.371	459.94
443.592	548.94
443.813	613.94
444.034	629.94
444.255	548.94
444.476	497.94
444.698	477.94
444.919	475.94
445.14	574.94
445.361	518.94
445.582	510.94
445.803	560.94
446.024	638.94
446.245	654.94
446.466	588.94
446.687	490.94
446.908	459.94
447.129	434.94
447.35	414.94
447.571	439.94
447.792	448.94
448.013	427.94
448.234	456.94
448.455	495.94
448.675	578.94
448.896	648.94
449.117	576.94
449.338	550.94
449.559	625.94
449.779	692.94
450	542.94
450.221	484.94
450.442	445.94
450.662	439.94
450.883	438.94
451.104	441.94
451.324	449.94
451.545	425.94
451.766	396.94
451.986	401.94
452.207	382.94
452.428	380.94
452.648	374.94
452.869	386.94
453.089	393.94
453.31	409.94
453.53	415.94
453.751	394.94
453.971	391.94
454.192	430.94
454.412	396.94
454.633	407.94
454.853	386.94
455.073	372.94
455.294	383.94
455.514	459.94
455.734	443.94
455.955	390.94
456.175	364.94
456.395	353.94
456.616	359.94
456.836	387.94
457.056	382.94
457.276	336.94
457.497	347.94
457.717	353.94
457.937	369.94
458.157	370.94
458.377	359.94
458.598	396.94
458.818	470.94
459.038	553.94
459.258	540.94
459.478	446.94
459.698	415.94
459.918	402.94
460.138	390.94
460.358	399.94
460.578	384.94
460.798	408.94
461.018	414.94
461.238	397.94
461.458	407.94
461.678	411.94
461.898	416.94
462.118	414.94
462.338	409.94
462.558	427.94
462.777	427.94
462.997	433.94
463.217	458.94
463.437	435.94
463.657	443.94
463.876	439.94
464.096	433.94
464.316	430.94
464.536	444.94
464.755	448.94
464.975	456.94
465.195	476.94
465.414	576.94
465.634	470.94
465.854	439.94
466.073	416.94
466.293	377.94
466.512	386.94
466.732	403.94
466.951	402.94
467.171	406.94
467.391	395.94
467.61	414.94
467.829	410.94
468.049	414.94
468.268	383.94
468.488	391.94
468.707	391.94
468.927	387.94
469.146	392.94
469.365	395.94
469.585	380.94
469.804	394.94
470.023	419.94
470.243	419.94
470.462	414.94
470.681	424.94
470.901	427.94
471.12	401.94
471.339	406.94
471.558	415.94
471.777	382.94
471.997	382.94
472.216	405.94
472.435	396.94
472.654	384.94
472.873	404.94
473.092	373.94
473.311	369.94
473.53	393.94
473.749	411.94
473.968	431.94
474.187	528.94
474.406	529.94
474.625	441.94
474.844	412.94
475.063	409.94
475.282	404.94
475.501	406.94
475.72	408.94
475.939	399.94
476.158	421.94
476.377	429.94
476.596	404.94
476.814	423.94
477.033	418.94
477.252	440.94
477.471	426.94
477.69	432.94
477.908	433.94
478.127	427.94
478.346	430.94
478.564	441.94
478.783	443.94
479.002	458.94
479.22	470.94
479.439	463.94
479.658	488.94
479.876	460.94
480.095	491.94
480.313	534.94
480.532	482.94
480.751	492.94
480.969	497.94
481.188	478.94
481.406	502.94
481.624	485.94
481.843	467.94
482.061	476.94
482.28	463.94
482.498	456.94
482.717	454.94
482.935	468.94
483.153	450.94
483.372	464.94
483.59	446.94
483.808	453.94
484.027	453.94
484.245	454.94
484.463	453.94
484.681	484.94
484.9	467.94
485.118	473.94
485.336	467.94
485.554	480.94
485.772	479.94
485.99	473.94
486.209	473.94
486.427	464.94
486.645	468.94
486.863	512.94
487.081	511.94
487.299	509.94
487.517	514.94
487.735	495.94
487.953	494.94
488.171	511.94
488.389	515.94
488.607	506.94
488.825	488.94
489.043	481.94
489.261	503.94
489.479	499.94
489.696	525.94
489.914	502.94
490.132	519.94
490.35	531.94
490.568	531.94
490.786	552.94
491.003	536.94
491.221	549.94
491.439	578.94
491.657	558.94
491.874	567.94
492.092	573.94
492.31	567.94
492.527	564.94
492.745	540.94
492.963	568.94
493.18	573.94
493.398	586.94
493.615	576.94
493.833	574.94
494.05	575.94
494.268	606.94
494.485	584.94
494.703	575.94
494.92	571.94
495.138	602.94
495.355	597.94
495.573	598.94
495.79	591.94
496.008	616.94
496.225	579.94
496.442	593.94
496.66	607.94
496.877	569.94
497.094	600.94
497.312	580.94
497.529	608.94
497.746	614.94
497.963	615.94
498.181	638.94
498.398	637.94
498.615	632.94
498.832	671.94
499.049	660.94
499.267	688.94
499.484	696.94
499.701	732.94
499.918	740.94
500.135	731.94
500.352	788.94
500.569	786.94
500.786	772.94
501.003	796.94
501.22	790.94
501.437	739.94
501.654	740.94
501.871	743.94
502.088	703.94
