Data from 1983.PennyLincolnUp.Lamp.En5.5.200Scan.071819.P1_HRD10591_16-53-48-965.txt Node
Date: Thu Jul 18 16:53:48 EDT 2019
User: cochatt
Spectrometer: HR+D1059
Trigger mode: 1
Integration Time (sec): 1.000000E-1
Scans to average: 1
Electric dark correction enabled: true
Nonlinearity correction enabled: false
Boxcar width: 0
XAxis mode: Wavelengths
Number of Pixels in Spectrum: 2048
>>>>>Begin Spectral Data<<<<<
223.165	-7.19
223.4	-7.19
223.635	-7.19
223.869	-17.19
224.104	-21.19
224.338	-0.19
224.573	-5.19
224.808	-10.19
225.042	-7.19
225.277	-4.19
225.511	-11.19
225.746	2.81
225.98	11.81
226.215	-6.19
226.449	2.81
226.683	2.81
226.918	36.81
227.152	32.81
227.387	34.81
227.621	28.81
227.856	40.81
228.09	47.81
228.324	53.81
228.559	51.81
228.793	79.81
229.027	75.81
229.262	115.81
229.496	122.81
229.73	144.81
229.964	135.81
230.199	124.81
230.433	125.81
230.667	104.81
230.901	104.81
231.136	98.81
231.37	107.81
231.604	111.81
231.838	109.81
232.072	95.81
232.306	110.81
232.541	123.81
232.775	103.81
233.009	116.81
233.243	115.81
233.477	106.81
233.711	114.81
233.945	102.81
234.179	108.81
234.413	103.81
234.647	111.81
234.881	112.81
235.115	102.81
235.349	122.81
235.583	126.81
235.817	108.81
236.051	117.81
236.285	123.81
236.519	118.81
236.753	132.81
236.987	133.81
237.221	170.81
237.455	219.81
237.689	192.81
237.922	134.81
238.156	119.81
238.39	122.81
238.624	126.81
238.858	121.81
239.091	126.81
239.325	112.81
239.559	123.81
239.793	122.81
240.027	121.81
240.26	141.81
240.494	138.81
240.728	144.81
240.961	131.81
241.195	135.81
241.429	143.81
241.662	127.81
241.896	122.81
242.13	122.81
242.363	131.81
242.597	134.81
242.83	128.81
243.064	130.81
243.298	126.81
243.531	120.81
243.765	134.81
243.998	111.81
244.232	127.81
244.465	144.81
244.699	132.81
244.932	125.81
245.166	119.81
245.399	141.81
245.633	134.81
245.866	137.81
246.099	127.81
246.333	127.81
246.566	145.81
246.8	128.81
247.033	153.81
247.266	155.81
247.5	135.81
247.733	161.81
247.966	149.81
248.2	159.81
248.433	160.81
248.666	172.81
248.899	180.81
249.133	178.81
249.366	205.81
249.599	174.81
249.832	164.81
250.066	184.81
250.299	162.81
250.532	172.81
250.765	182.81
250.998	212.81
251.231	209.81
251.465	205.81
251.698	184.81
251.931	178.81
252.164	179.81
252.397	191.81
252.63	187.81
252.863	182.81
253.096	188.81
253.329	207.81
253.562	210.81
253.795	194.81
254.028	196.81
254.261	185.81
254.494	194.81
254.727	209.81
254.96	235.81
255.193	242.81
255.426	220.81
255.659	211.81
255.892	207.81
256.124	214.81
256.357	190.81
256.59	206.81
256.823	206.81
257.056	187.81
257.289	199.81
257.521	192.81
257.754	191.81
257.987	191.81
258.22	193.81
258.452	184.81
258.685	201.81
258.918	188.81
259.151	198.81
259.383	205.81
259.616	207.81
259.849	225.81
260.081	212.81
260.314	227.81
260.547	230.81
260.779	242.81
261.012	204.81
261.244	198.81
261.477	202.81
261.71	195.81
261.942	210.81
262.175	228.81
262.407	211.81
262.64	204.81
262.872	204.81
263.105	197.81
263.337	207.81
263.57	181.81
263.802	198.81
264.035	194.81
264.267	194.81
264.499	210.81
264.732	202.81
264.964	197.81
265.197	212.81
265.429	201.81
265.661	201.81
265.894	199.81
266.126	196.81
266.358	197.81
266.591	207.81
266.823	203.81
267.055	199.81
267.287	218.81
267.52	210.81
267.752	215.81
267.984	215.81
268.216	215.81
268.448	216.81
268.681	209.81
268.913	224.81
269.145	232.81
269.377	252.81
269.609	251.81
269.841	235.81
270.073	245.81
270.306	266.81
270.538	263.81
270.77	291.81
271.002	252.81
271.234	273.81
271.466	285.81
271.698	291.81
271.93	279.81
272.162	285.81
272.394	281.81
272.626	265.81
272.858	271.81
273.09	253.81
273.322	250.81
273.553	234.81
273.785	236.81
274.017	227.81
274.249	244.81
274.481	224.81
274.713	237.81
274.945	246.81
275.176	238.81
275.408	239.81
275.64	251.81
275.872	234.81
276.104	234.81
276.335	243.81
276.567	240.81
276.799	280.81
277.031	274.81
277.262	289.81
277.494	288.81
277.726	265.81
277.957	259.81
278.189	251.81
278.421	234.81
278.652	247.81
278.884	237.81
279.115	234.81
279.347	235.81
279.579	214.81
279.81	247.81
280.042	255.81
280.273	245.81
280.505	231.81
280.736	237.81
280.968	242.81
281.199	243.81
281.431	244.81
281.662	250.81
281.894	238.81
282.125	246.81
282.356	246.81
282.588	284.81
282.819	282.81
283.051	244.81
283.282	243.81
283.513	253.81
283.745	241.81
283.976	245.81
284.207	260.81
284.439	251.81
284.67	260.81
284.901	254.81
285.132	255.81
285.364	254.81
285.595	259.81
285.826	248.81
286.057	256.81
286.288	248.81
286.52	264.81
286.751	256.81
286.982	247.81
287.213	258.81
287.444	248.81
287.675	251.81
287.906	264.81
288.138	251.81
288.369	298.81
288.6	277.81
288.831	270.81
289.062	256.81
289.293	253.81
289.524	242.81
289.755	240.81
289.986	264.81
290.217	276.81
290.448	261.81
290.679	256.81
290.91	247.81
291.141	261.81
291.371	247.81
291.602	254.81
291.833	270.81
292.064	250.81
292.295	268.81
292.526	250.81
292.757	267.81
292.987	272.81
293.218	250.81
293.449	264.81
293.68	269.81
293.91	268.81
294.141	270.81
294.372	270.81
294.603	277.81
294.833	269.81
295.064	276.81
295.295	256.81
295.525	263.81
295.756	284.81
295.987	285.81
296.217	298.81
296.448	304.81
296.679	279.81
296.909	260.81
297.14	262.81
297.37	277.81
297.601	269.81
297.831	283.81
298.062	247.81
298.292	271.81
298.523	276.81
298.753	285.81
298.984	275.81
299.214	270.81
299.445	282.81
299.675	276.81
299.905	276.81
300.136	287.81
300.366	299.81
300.597	278.81
300.827	276.81
301.057	288.81
301.288	294.81
301.518	305.81
301.748	313.81
301.979	283.81
302.209	303.81
302.439	303.81
302.669	287.81
302.9	301.81
303.13	282.81
303.36	288.81
303.59	272.81
303.82	309.81
304.051	312.81
304.281	306.81
304.511	288.81
304.741	296.81
304.971	295.81
305.201	304.81
305.431	303.81
305.661	279.81
305.891	282.81
306.121	302.81
306.352	297.81
306.582	312.81
306.812	295.81
307.042	297.81
307.272	322.81
307.502	311.81
307.731	300.81
307.961	288.81
308.191	307.81
308.421	304.81
308.651	304.81
308.881	288.81
309.111	319.81
309.341	305.81
309.571	320.81
309.8	317.81
310.03	330.81
310.26	335.81
310.49	327.81
310.72	344.81
310.949	358.81
311.179	367.81
311.409	361.81
311.639	320.81
311.868	348.81
312.098	336.81
312.328	359.81
312.557	358.81
312.787	384.81
313.017	378.81
313.246	361.81
313.476	345.81
313.706	343.81
313.935	339.81
314.165	375.81
314.394	370.81
314.624	363.81
314.853	367.81
315.083	339.81
315.312	354.81
315.542	346.81
315.771	335.81
316.001	336.81
316.23	337.81
316.46	345.81
316.689	339.81
316.919	347.81
317.148	352.81
317.377	336.81
317.607	351.81
317.836	354.81
318.065	324.81
318.295	340.81
318.524	347.81
318.753	351.81
318.983	346.81
319.212	343.81
319.441	358.81
319.67	347.81
319.9	363.81
320.129	351.81
320.358	356.81
320.587	364.81
320.816	336.81
321.046	348.81
321.275	370.81
321.504	374.81
321.733	386.81
321.962	385.81
322.191	381.81
322.42	396.81
322.649	425.81
322.878	432.81
323.108	450.81
323.337	444.81
323.566	475.81
323.795	501.81
324.024	544.81
324.253	669.81
324.482	973.81
324.71	1442.81
324.939	1964.81
325.168	1668.81
325.397	894.81
325.626	620.81
325.855	516.81
326.084	482.81
326.313	467.81
326.542	474.81
326.77	528.81
326.999	636.81
327.228	852.81
327.457	1259.81
327.686	1442.81
327.914	1019.81
328.143	647.81
328.372	602.81
328.6	534.81
328.829	520.81
329.058	524.81
329.287	554.81
329.515	512.81
329.744	459.81
329.972	438.81
330.201	450.81
330.43	498.81
330.658	523.81
330.887	560.81
331.115	558.81
331.344	484.81
331.572	450.81
331.801	472.81
332.03	443.81
332.258	451.81
332.486	398.81
332.715	426.81
332.943	405.81
333.172	400.81
333.4	412.81
333.629	381.81
333.857	432.81
334.085	434.81
334.314	438.81
334.542	438.81
334.771	447.81
334.999	427.81
335.227	402.81
335.455	404.81
335.684	394.81
335.912	402.81
336.14	393.81
336.369	397.81
336.597	410.81
336.825	409.81
337.053	395.81
337.281	391.81
337.51	369.81
337.738	382.81
337.966	408.81
338.194	390.81
338.422	388.81
338.65	372.81
338.878	399.81
339.106	383.81
339.334	394.81
339.562	384.81
339.79	379.81
340.018	382.81
340.246	389.81
340.474	383.81
340.702	404.81
340.93	395.81
341.158	362.81
341.386	393.81
341.614	382.81
341.842	393.81
342.07	378.81
342.298	381.81
342.526	365.81
342.754	374.81
342.981	364.81
343.209	366.81
343.437	380.81
343.665	396.81
343.893	387.81
344.12	375.81
344.348	379.81
344.576	395.81
344.804	386.81
345.031	410.81
345.259	405.81
345.487	404.81
345.714	399.81
345.942	386.81
346.17	378.81
346.397	381.81
346.625	374.81
346.853	372.81
347.08	368.81
347.308	380.81
347.535	384.81
347.763	380.81
347.99	403.81
348.218	387.81
348.445	386.81
348.673	384.81
348.9	380.81
349.128	364.81
349.355	373.81
349.583	372.81
349.81	357.81
350.037	360.81
350.265	361.81
350.492	373.81
350.72	367.81
350.947	366.81
351.174	395.81
351.402	399.81
351.629	393.81
351.856	390.81
352.083	371.81
352.311	379.81
352.538	386.81
352.765	389.81
352.992	384.81
353.22	383.81
353.447	367.81
353.674	363.81
353.901	341.81
354.128	362.81
354.355	343.81
354.583	366.81
354.81	359.81
355.037	354.81
355.264	347.81
355.491	334.81
355.718	348.81
355.945	345.81
356.172	344.81
356.399	340.81
356.626	325.81
356.853	333.81
357.08	355.81
357.307	354.81
357.534	349.81
357.761	350.81
357.988	344.81
358.215	342.81
358.441	364.81
358.668	352.81
358.895	345.81
359.122	355.81
359.349	370.81
359.576	374.81
359.802	366.81
360.029	427.81
360.256	436.81
360.483	411.81
360.709	377.81
360.936	378.81
361.163	373.81
361.39	387.81
361.616	390.81
361.843	374.81
362.07	372.81
362.296	409.81
362.523	367.81
362.749	370.81
362.976	348.81
363.203	366.81
363.429	372.81
363.656	356.81
363.882	358.81
364.109	346.81
364.335	359.81
364.562	356.81
364.788	356.81
365.015	359.81
365.241	387.81
365.468	362.81
365.694	360.81
365.92	374.81
366.147	343.81
366.373	355.81
366.599	351.81
366.826	335.81
367.052	339.81
367.278	340.81
367.505	322.81
367.731	373.81
367.957	350.81
368.184	349.81
368.41	364.81
368.636	355.81
368.862	386.81
369.089	375.81
369.315	363.81
369.541	352.81
369.767	351.81
369.993	358.81
370.219	365.81
370.445	370.81
370.672	352.81
370.898	354.81
371.124	350.81
371.35	355.81
371.576	336.81
371.802	340.81
372.028	356.81
372.254	352.81
372.48	342.81
372.706	352.81
372.932	344.81
373.158	339.81
373.384	352.81
373.61	346.81
373.835	344.81
374.061	351.81
374.287	354.81
374.513	363.81
374.739	356.81
374.965	359.81
375.191	345.81
375.416	351.81
375.642	357.81
375.868	353.81
376.094	350.81
376.319	365.81
376.545	363.81
376.771	341.81
376.997	344.81
377.222	351.81
377.448	344.81
377.674	360.81
377.899	329.81
378.125	341.81
378.35	347.81
378.576	344.81
378.802	347.81
379.027	345.81
379.253	336.81
379.478	328.81
379.704	345.81
379.929	351.81
380.155	350.81
380.38	356.81
380.606	330.81
380.831	337.81
381.057	352.81
381.282	350.81
381.507	364.81
381.733	372.81
381.958	364.81
382.184	361.81
382.409	334.81
382.634	359.81
382.86	367.81
383.085	356.81
383.31	376.81
383.535	339.81
383.761	342.81
383.986	343.81
384.211	354.81
384.436	357.81
384.662	353.81
384.887	361.81
385.112	342.81
385.337	372.81
385.562	374.81
385.787	371.81
386.013	380.81
386.238	377.81
386.463	360.81
386.688	370.81
386.913	382.81
387.138	367.81
387.363	366.81
387.588	364.81
387.813	375.81
388.038	355.81
388.263	376.81
388.488	366.81
388.713	370.81
388.938	346.81
389.163	375.81
389.387	380.81
389.612	364.81
389.837	372.81
390.062	378.81
390.287	368.81
390.512	374.81
390.736	367.81
390.961	363.81
391.186	352.81
391.411	363.81
391.636	351.81
391.86	382.81
392.085	376.81
392.31	379.81
392.534	368.81
392.759	370.81
392.984	358.81
393.208	370.81
393.433	367.81
393.658	378.81
393.882	348.81
394.107	356.81
394.331	387.81
394.556	359.81
394.78	372.81
395.005	363.81
395.229	384.81
395.454	404.81
395.678	393.81
395.903	396.81
396.127	399.81
396.352	407.81
396.576	400.81
396.801	396.81
397.025	370.81
397.249	377.81
397.474	388.81
397.698	390.81
397.922	415.81
398.147	408.81
398.371	418.81
398.595	413.81
398.82	395.81
399.044	419.81
399.268	425.81
399.492	445.81
399.717	467.81
399.941	505.81
400.165	509.81
400.389	493.81
400.613	476.81
400.837	434.81
401.062	420.81
401.286	434.81
401.51	413.81
401.734	415.81
401.958	391.81
402.182	426.81
402.406	436.81
402.63	440.81
402.854	428.81
403.078	423.81
403.302	430.81
403.526	451.81
403.75	455.81
403.974	435.81
404.198	440.81
404.422	465.81
404.645	441.81
404.869	444.81
405.093	454.81
405.317	482.81
405.541	502.81
405.765	459.81
405.988	445.81
406.212	500.81
406.436	479.81
406.66	479.81
406.883	478.81
407.107	492.81
407.331	512.81
407.555	561.81
407.778	548.81
408.002	526.81
408.226	490.81
408.449	502.81
408.673	477.81
408.896	485.81
409.12	511.81
409.344	482.81
409.567	434.81
409.791	426.81
410.014	439.81
410.238	431.81
410.461	425.81
410.685	447.81
410.908	443.81
411.132	453.81
411.355	504.81
411.578	469.81
411.802	439.81
412.025	438.81
412.249	439.81
412.472	457.81
412.695	434.81
412.919	484.81
413.142	437.81
413.365	436.81
413.589	433.81
413.812	399.81
414.035	407.81
414.258	407.81
414.482	400.81
414.705	403.81
414.928	406.81
415.151	406.81
415.374	415.81
415.597	400.81
415.821	396.81
416.044	411.81
416.267	392.81
416.49	418.81
416.713	399.81
416.936	400.81
417.159	407.81
417.382	392.81
417.605	392.81
417.828	437.81
418.051	432.81
418.274	422.81
418.497	420.81
418.72	397.81
418.943	395.81
419.166	425.81
419.389	438.81
419.611	407.81
419.834	446.81
420.057	430.81
420.28	422.81
420.503	404.81
420.726	418.81
420.948	435.81
421.171	452.81
421.394	493.81
421.617	436.81
421.839	424.81
422.062	429.81
422.285	444.81
422.507	498.81
422.73	559.81
422.953	528.81
423.175	475.81
423.398	458.81
423.621	454.81
423.843	446.81
424.066	461.81
424.288	474.81
424.511	464.81
424.733	511.81
424.956	575.81
425.178	527.81
425.401	543.81
425.623	555.81
425.846	498.81
426.068	463.81
426.291	454.81
426.513	470.81
426.735	476.81
426.958	487.81
427.18	575.81
427.402	667.81
427.625	738.81
427.847	639.81
428.069	586.81
428.292	506.81
428.514	445.81
428.736	454.81
428.958	452.81
429.181	425.81
429.403	409.81
429.625	428.81
429.847	456.81
430.069	498.81
430.292	491.81
430.514	450.81
430.736	437.81
430.958	428.81
431.18	402.81
431.402	413.81
431.624	380.81
431.846	391.81
432.068	400.81
432.29	403.81
432.512	415.81
432.734	434.81
432.956	420.81
433.178	426.81
433.4	410.81
433.622	414.81
433.844	399.81
434.066	421.81
434.287	406.81
434.509	409.81
434.731	412.81
434.953	427.81
435.175	436.81
435.397	448.81
435.618	463.81
435.84	496.81
436.062	566.81
436.284	605.81
436.505	529.81
436.727	468.81
436.949	429.81
437.17	426.81
437.392	420.81
437.614	436.81
437.835	479.81
438.057	551.81
438.278	614.81
438.5	636.81
438.721	653.81
438.943	618.81
439.165	501.81
439.386	476.81
439.608	483.81
439.829	478.81
440.05	502.81
440.272	523.81
440.493	486.81
440.715	464.81
440.936	436.81
441.158	427.81
441.379	444.81
441.6	465.81
441.822	450.81
442.043	495.81
442.264	562.81
442.486	586.81
442.707	519.81
442.928	471.81
443.149	480.81
443.371	503.81
443.592	533.81
443.813	591.81
444.034	636.81
444.255	529.81
444.476	506.81
444.698	472.81
444.919	471.81
445.14	569.81
445.361	503.81
445.582	486.81
445.803	535.81
446.024	638.81
446.245	634.81
446.466	581.81
446.687	492.81
446.908	464.81
447.129	426.81
447.35	440.81
447.571	421.81
447.792	416.81
448.013	446.81
448.234	431.81
448.455	478.81
448.675	586.81
448.896	638.81
449.117	591.81
449.338	536.81
449.559	614.81
449.779	680.81
450	551.81
450.221	463.81
450.442	452.81
450.662	427.81
450.883	442.81
451.104	446.81
451.324	463.81
451.545	420.81
451.766	390.81
451.986	404.81
452.207	388.81
452.428	379.81
452.648	397.81
452.869	379.81
453.089	382.81
453.31	424.81
453.53	401.81
453.751	376.81
453.971	405.81
454.192	418.81
454.412	417.81
454.633	406.81
454.853	396.81
455.073	376.81
455.294	393.81
455.514	470.81
455.734	442.81
455.955	377.81
456.175	363.81
456.395	370.81
456.616	350.81
456.836	364.81
457.056	358.81
457.276	374.81
457.497	365.81
457.717	382.81
457.937	355.81
458.157	380.81
458.377	382.81
458.598	407.81
458.818	458.81
459.038	532.81
459.258	549.81
459.478	444.81
459.698	406.81
459.918	392.81
460.138	416.81
460.358	399.81
460.578	440.81
460.798	428.81
461.018	423.81
461.238	423.81
461.458	425.81
461.678	387.81
461.898	392.81
462.118	419.81
462.338	426.81
462.558	438.81
462.777	414.81
462.997	426.81
463.217	431.81
463.437	431.81
463.657	424.81
463.876	423.81
464.096	413.81
464.316	405.81
464.536	447.81
464.755	453.81
464.975	435.81
465.195	517.81
465.414	588.81
465.634	494.81
465.854	429.81
466.073	417.81
466.293	411.81
466.512	383.81
466.732	400.81
466.951	398.81
467.171	409.81
467.391	383.81
467.61	423.81
467.829	400.81
468.049	419.81
468.268	392.81
468.488	396.81
468.707	378.81
468.927	399.81
469.146	386.81
469.365	400.81
469.585	386.81
469.804	395.81
470.023	407.81
470.243	419.81
470.462	406.81
470.681	432.81
470.901	398.81
471.12	414.81
471.339	394.81
471.558	418.81
471.777	392.81
471.997	377.81
472.216	407.81
472.435	435.81
472.654	398.81
472.873	382.81
473.092	388.81
473.311	401.81
473.53	400.81
473.749	430.81
473.968	439.81
474.187	531.81
474.406	550.81
474.625	439.81
474.844	398.81
475.063	398.81
475.282	406.81
475.501	409.81
475.72	410.81
475.939	401.81
476.158	396.81
476.377	377.81
476.596	416.81
476.814	437.81
477.033	426.81
477.252	418.81
477.471	411.81
477.69	424.81
477.908	436.81
478.127	424.81
478.346	424.81
478.564	444.81
478.783	426.81
479.002	458.81
479.22	469.81
479.439	471.81
479.658	470.81
479.876	492.81
480.095	480.81
480.313	486.81
480.532	494.81
480.751	488.81
480.969	504.81
481.188	535.81
481.406	547.81
481.624	486.81
481.843	487.81
482.061	466.81
482.28	466.81
482.498	459.81
482.717	455.81
482.935	458.81
483.153	470.81
483.372	457.81
483.59	462.81
483.808	452.81
484.027	451.81
484.245	460.81
484.463	485.81
484.681	460.81
484.9	488.81
485.118	474.81
485.336	486.81
485.554	477.81
485.772	494.81
485.99	483.81
486.209	477.81
486.427	484.81
486.645	488.81
486.863	503.81
487.081	500.81
487.299	489.81
487.517	489.81
487.735	510.81
487.953	483.81
488.171	474.81
488.389	505.81
488.607	503.81
488.825	515.81
489.043	498.81
489.261	507.81
489.479	485.81
489.696	518.81
489.914	518.81
490.132	531.81
490.35	534.81
490.568	519.81
490.786	530.81
491.003	520.81
491.221	554.81
491.439	564.81
491.657	578.81
491.874	558.81
492.092	573.81
492.31	590.81
492.527	555.81
492.745	589.81
492.963	574.81
493.18	584.81
493.398	589.81
493.615	580.81
493.833	578.81
494.05	602.81
494.268	602.81
494.485	578.81
494.703	587.81
494.92	598.81
495.138	590.81
495.355	604.81
495.573	606.81
495.79	594.81
496.008	578.81
496.225	565.81
496.442	589.81
496.66	610.81
496.877	594.81
497.094	580.81
497.312	600.81
497.529	582.81
497.746	610.81
497.963	610.81
498.181	635.81
498.398	624.81
498.615	648.81
498.832	643.81
499.049	646.81
499.267	657.81
499.484	653.81
499.701	728.81
499.918	718.81
500.135	745.81
500.352	782.81
500.569	783.81
500.786	787.81
501.003	788.81
501.22	746.81
501.437	744.81
501.654	738.81
501.871	741.81
502.088	723.81
