Data from 1983.PennyLincolnUp.Lamp.En5.5.200Scan.071819.P1_HRD10591_16-53-37-965.txt Node
Date: Thu Jul 18 16:53:37 EDT 2019
User: cochatt
Spectrometer: HR+D1059
Trigger mode: 1
Integration Time (sec): 1.000000E-1
Scans to average: 1
Electric dark correction enabled: true
Nonlinearity correction enabled: false
Boxcar width: 0
XAxis mode: Wavelengths
Number of Pixels in Spectrum: 2048
>>>>>Begin Spectral Data<<<<<
223.165	-16.94
223.4	-16.94
223.635	-16.94
223.869	-12.94
224.104	-20.94
224.338	-11.94
224.573	-14.94
224.808	-12.94
225.042	8.06
225.277	1.06
225.511	-0.94
225.746	-5.94
225.98	-2.94
226.215	3.06
226.449	16.06
226.683	19.06
226.918	26.06
227.152	27.06
227.387	26.06
227.621	35.06
227.856	46.06
228.09	30.06
228.324	52.06
228.559	52.06
228.793	57.06
229.027	93.06
229.262	98.06
229.496	94.06
229.73	134.06
229.964	130.06
230.199	127.06
230.433	101.06
230.667	106.06
230.901	108.06
231.136	106.06
231.37	99.06
231.604	102.06
231.838	102.06
232.072	107.06
232.306	119.06
232.541	108.06
232.775	98.06
233.009	108.06
233.243	112.06
233.477	93.06
233.711	123.06
233.945	123.06
234.179	103.06
234.413	118.06
234.647	113.06
234.881	112.06
235.115	122.06
235.349	112.06
235.583	114.06
235.817	115.06
236.051	118.06
236.285	114.06
236.519	113.06
236.753	131.06
236.987	142.06
237.221	171.06
237.455	179.06
237.689	181.06
237.922	137.06
238.156	113.06
238.39	117.06
238.624	104.06
238.858	120.06
239.091	118.06
239.325	126.06
239.559	121.06
239.793	111.06
240.027	138.06
240.26	132.06
240.494	153.06
240.728	134.06
240.961	142.06
241.195	138.06
241.429	126.06
241.662	126.06
241.896	124.06
242.13	114.06
242.363	124.06
242.597	139.06
242.83	123.06
243.064	124.06
243.298	133.06
243.531	112.06
243.765	118.06
243.998	142.06
244.232	135.06
244.465	137.06
244.699	123.06
244.932	141.06
245.166	139.06
245.399	144.06
245.633	141.06
245.866	139.06
246.099	137.06
246.333	131.06
246.566	131.06
246.8	151.06
247.033	135.06
247.266	147.06
247.5	135.06
247.733	156.06
247.966	157.06
248.2	151.06
248.433	160.06
248.666	156.06
248.899	159.06
249.133	180.06
249.366	178.06
249.599	174.06
249.832	164.06
250.066	159.06
250.299	136.06
250.532	187.06
250.765	199.06
250.998	203.06
251.231	197.06
251.465	177.06
251.698	184.06
251.931	176.06
252.164	182.06
252.397	188.06
252.63	155.06
252.863	198.06
253.096	206.06
253.329	209.06
253.562	205.06
253.795	192.06
254.028	201.06
254.261	192.06
254.494	219.06
254.727	214.06
254.96	239.06
255.193	251.06
255.426	230.06
255.659	196.06
255.892	202.06
256.124	215.06
256.357	195.06
256.59	194.06
256.823	203.06
257.056	179.06
257.289	187.06
257.521	201.06
257.754	199.06
257.987	186.06
258.22	184.06
258.452	196.06
258.685	194.06
258.918	208.06
259.151	178.06
259.383	187.06
259.616	199.06
259.849	200.06
260.081	227.06
260.314	241.06
260.547	236.06
260.779	225.06
261.012	211.06
261.244	204.06
261.477	214.06
261.71	200.06
261.942	215.06
262.175	232.06
262.407	223.06
262.64	196.06
262.872	205.06
263.105	185.06
263.337	195.06
263.57	182.06
263.802	201.06
264.035	191.06
264.267	196.06
264.499	198.06
264.732	183.06
264.964	190.06
265.197	206.06
265.429	198.06
265.661	200.06
265.894	200.06
266.126	204.06
266.358	201.06
266.591	213.06
266.823	190.06
267.055	207.06
267.287	219.06
267.52	212.06
267.752	210.06
267.984	191.06
268.216	203.06
268.448	209.06
268.681	201.06
268.913	222.06
269.145	228.06
269.377	238.06
269.609	236.06
269.841	249.06
270.073	260.06
270.306	268.06
270.538	280.06
270.77	274.06
271.002	268.06
271.234	252.06
271.466	281.06
271.698	298.06
271.93	284.06
272.162	289.06
272.394	295.06
272.626	279.06
272.858	261.06
273.09	242.06
273.322	265.06
273.553	247.06
273.785	232.06
274.017	236.06
274.249	244.06
274.481	238.06
274.713	234.06
274.945	263.06
275.176	240.06
275.408	244.06
275.64	231.06
275.872	250.06
276.104	238.06
276.335	254.06
276.567	242.06
276.799	261.06
277.031	291.06
277.262	280.06
277.494	283.06
277.726	281.06
277.957	260.06
278.189	258.06
278.421	247.06
278.652	243.06
278.884	257.06
279.115	236.06
279.347	224.06
279.579	249.06
279.81	249.06
280.042	235.06
280.273	254.06
280.505	242.06
280.736	244.06
280.968	235.06
281.199	238.06
281.431	240.06
281.662	241.06
281.894	244.06
282.125	244.06
282.356	258.06
282.588	277.06
282.819	287.06
283.051	248.06
283.282	246.06
283.513	257.06
283.745	233.06
283.976	243.06
284.207	243.06
284.439	246.06
284.67	242.06
284.901	248.06
285.132	258.06
285.364	260.06
285.595	250.06
285.826	268.06
286.057	264.06
286.288	248.06
286.52	268.06
286.751	266.06
286.982	254.06
287.213	263.06
287.444	258.06
287.675	260.06
287.906	282.06
288.138	279.06
288.369	271.06
288.6	266.06
288.831	282.06
289.062	274.06
289.293	268.06
289.524	275.06
289.755	254.06
289.986	269.06
290.217	256.06
290.448	267.06
290.679	275.06
290.91	249.06
291.141	272.06
291.371	254.06
291.602	249.06
291.833	249.06
292.064	240.06
292.295	265.06
292.526	273.06
292.757	269.06
292.987	266.06
293.218	265.06
293.449	258.06
293.68	259.06
293.91	261.06
294.141	257.06
294.372	255.06
294.603	255.06
294.833	251.06
295.064	268.06
295.295	262.06
295.525	245.06
295.756	269.06
295.987	287.06
296.217	302.06
296.448	306.06
296.679	295.06
296.909	265.06
297.14	258.06
297.37	278.06
297.601	267.06
297.831	282.06
298.062	259.06
298.292	281.06
298.523	271.06
298.753	273.06
298.984	260.06
299.214	265.06
299.445	272.06
299.675	281.06
299.905	272.06
300.136	304.06
300.366	289.06
300.597	276.06
300.827	276.06
301.057	282.06
301.288	285.06
301.518	305.06
301.748	304.06
301.979	308.06
302.209	286.06
302.439	288.06
302.669	311.06
302.9	312.06
303.13	287.06
303.36	299.06
303.59	312.06
303.82	312.06
304.051	302.06
304.281	302.06
304.511	284.06
304.741	294.06
304.971	283.06
305.201	297.06
305.431	300.06
305.661	297.06
305.891	292.06
306.121	276.06
306.352	311.06
306.582	299.06
306.812	297.06
307.042	296.06
307.272	306.06
307.502	299.06
307.731	295.06
307.961	300.06
308.191	305.06
308.421	314.06
308.651	300.06
308.881	308.06
309.111	308.06
309.341	314.06
309.571	312.06
309.8	327.06
310.03	323.06
310.26	355.06
310.49	332.06
310.72	363.06
310.949	366.06
311.179	354.06
311.409	342.06
311.639	343.06
311.868	340.06
312.098	368.06
312.328	355.06
312.557	373.06
312.787	392.06
313.017	374.06
313.246	355.06
313.476	336.06
313.706	342.06
313.935	327.06
314.165	345.06
314.394	365.06
314.624	374.06
314.853	356.06
315.083	336.06
315.312	328.06
315.542	332.06
315.771	315.06
316.001	325.06
316.23	324.06
316.46	332.06
316.689	341.06
316.919	343.06
317.148	347.06
317.377	351.06
317.607	354.06
317.836	346.06
318.065	346.06
318.295	319.06
318.524	346.06
318.753	338.06
318.983	333.06
319.212	330.06
319.441	338.06
319.67	364.06
319.9	347.06
320.129	345.06
320.358	333.06
320.587	338.06
320.816	367.06
321.046	380.06
321.275	387.06
321.504	367.06
321.733	358.06
321.962	370.06
322.191	374.06
322.42	392.06
322.649	415.06
322.878	430.06
323.108	419.06
323.337	442.06
323.566	460.06
323.795	488.06
324.024	548.06
324.253	686.06
324.482	979.06
324.71	1471.06
324.939	1962.06
325.168	1620.06
325.397	879.06
325.626	622.06
325.855	510.06
326.084	491.06
326.313	460.06
326.542	476.06
326.77	523.06
326.999	617.06
327.228	853.06
327.457	1257.06
327.686	1421.06
327.914	998.06
328.143	690.06
328.372	570.06
328.6	539.06
328.829	530.06
329.058	555.06
329.287	555.06
329.515	500.06
329.744	481.06
329.972	461.06
330.201	455.06
330.43	503.06
330.658	548.06
330.887	558.06
331.115	538.06
331.344	459.06
331.572	446.06
331.801	442.06
332.03	433.06
332.258	428.06
332.486	418.06
332.715	398.06
332.943	418.06
333.172	389.06
333.4	418.06
333.629	412.06
333.857	412.06
334.085	402.06
334.314	426.06
334.542	440.06
334.771	443.06
334.999	420.06
335.227	401.06
335.455	390.06
335.684	396.06
335.912	383.06
336.14	405.06
336.369	389.06
336.597	418.06
336.825	416.06
337.053	397.06
337.281	414.06
337.51	396.06
337.738	400.06
337.966	401.06
338.194	405.06
338.422	383.06
338.65	392.06
338.878	406.06
339.106	388.06
339.334	401.06
339.562	386.06
339.79	388.06
340.018	384.06
340.246	367.06
340.474	389.06
340.702	367.06
340.93	350.06
341.158	386.06
341.386	392.06
341.614	367.06
341.842	382.06
342.07	381.06
342.298	372.06
342.526	368.06
342.754	374.06
342.981	367.06
343.209	371.06
343.437	390.06
343.665	373.06
343.893	402.06
344.12	404.06
344.348	379.06
344.576	388.06
344.804	400.06
345.031	393.06
345.259	402.06
345.487	391.06
345.714	382.06
345.942	352.06
346.17	382.06
346.397	372.06
346.625	383.06
346.853	387.06
347.08	360.06
347.308	386.06
347.535	394.06
347.763	383.06
347.99	400.06
348.218	389.06
348.445	398.06
348.673	394.06
348.9	389.06
349.128	379.06
349.355	373.06
349.583	372.06
349.81	351.06
350.037	356.06
350.265	359.06
350.492	356.06
350.72	364.06
350.947	371.06
351.174	376.06
351.402	387.06
351.629	381.06
351.856	382.06
352.083	388.06
352.311	403.06
352.538	396.06
352.765	404.06
352.992	375.06
353.22	378.06
353.447	376.06
353.674	357.06
353.901	374.06
354.128	367.06
354.355	348.06
354.583	344.06
354.81	346.06
355.037	343.06
355.264	341.06
355.491	356.06
355.718	345.06
355.945	333.06
356.172	342.06
356.399	347.06
356.626	323.06
356.853	345.06
357.08	337.06
357.307	346.06
357.534	346.06
357.761	366.06
357.988	346.06
358.215	350.06
358.441	343.06
358.668	344.06
358.895	354.06
359.122	343.06
359.349	362.06
359.576	387.06
359.802	405.06
360.029	422.06
360.256	432.06
360.483	419.06
360.709	366.06
360.936	377.06
361.163	396.06
361.39	387.06
361.616	367.06
361.843	364.06
362.07	374.06
362.296	387.06
362.523	391.06
362.749	360.06
362.976	388.06
363.203	366.06
363.429	364.06
363.656	338.06
363.882	348.06
364.109	362.06
364.335	358.06
364.562	369.06
364.788	346.06
365.015	340.06
365.241	358.06
365.468	359.06
365.694	369.06
365.92	360.06
366.147	358.06
366.373	353.06
366.599	343.06
366.826	341.06
367.052	338.06
367.278	337.06
367.505	348.06
367.731	366.06
367.957	347.06
368.184	350.06
368.41	360.06
368.636	370.06
368.862	362.06
369.089	334.06
369.315	351.06
369.541	342.06
369.767	355.06
369.993	345.06
370.219	351.06
370.445	355.06
370.672	357.06
370.898	345.06
371.124	345.06
371.35	345.06
371.576	354.06
371.802	344.06
372.028	335.06
372.254	344.06
372.48	351.06
372.706	324.06
372.932	340.06
373.158	366.06
373.384	378.06
373.61	340.06
373.835	357.06
374.061	355.06
374.287	351.06
374.513	348.06
374.739	348.06
374.965	340.06
375.191	340.06
375.416	355.06
375.642	343.06
375.868	346.06
376.094	348.06
376.319	332.06
376.545	347.06
376.771	344.06
376.997	334.06
377.222	343.06
377.448	337.06
377.674	340.06
377.899	338.06
378.125	343.06
378.35	370.06
378.576	332.06
378.802	347.06
379.027	349.06
379.253	345.06
379.478	339.06
379.704	338.06
379.929	345.06
380.155	325.06
380.38	354.06
380.606	348.06
380.831	340.06
381.057	346.06
381.282	353.06
381.507	343.06
381.733	356.06
381.958	358.06
382.184	348.06
382.409	353.06
382.634	348.06
382.86	344.06
383.085	350.06
383.31	346.06
383.535	351.06
383.761	349.06
383.986	350.06
384.211	345.06
384.436	360.06
384.662	363.06
384.887	364.06
385.112	347.06
385.337	364.06
385.562	374.06
385.787	365.06
386.013	388.06
386.238	383.06
386.463	379.06
386.688	374.06
386.913	367.06
387.138	383.06
387.363	366.06
387.588	351.06
387.813	395.06
388.038	381.06
388.263	377.06
388.488	379.06
388.713	357.06
388.938	382.06
389.163	378.06
389.387	372.06
389.612	364.06
389.837	371.06
390.062	370.06
390.287	374.06
390.512	362.06
390.736	369.06
390.961	382.06
391.186	363.06
391.411	385.06
391.636	350.06
391.86	370.06
392.085	385.06
392.31	386.06
392.534	391.06
392.759	398.06
392.984	366.06
393.208	354.06
393.433	375.06
393.658	356.06
393.882	368.06
394.107	363.06
394.331	374.06
394.556	368.06
394.78	381.06
395.005	378.06
395.229	371.06
395.454	397.06
395.678	390.06
395.903	400.06
396.127	400.06
396.352	412.06
396.576	393.06
396.801	384.06
397.025	381.06
397.249	394.06
397.474	378.06
397.698	387.06
397.922	402.06
398.147	388.06
398.371	431.06
398.595	397.06
398.82	406.06
399.044	446.06
399.268	430.06
399.492	454.06
399.717	459.06
399.941	494.06
400.165	508.06
400.389	504.06
400.613	482.06
400.837	445.06
401.062	433.06
401.286	426.06
401.51	443.06
401.734	430.06
401.958	424.06
402.182	428.06
402.406	452.06
402.63	427.06
402.854	428.06
403.078	427.06
403.302	438.06
403.526	449.06
403.75	408.06
403.974	427.06
404.198	436.06
404.422	452.06
404.645	434.06
404.869	442.06
405.093	449.06
405.317	456.06
405.541	485.06
405.765	491.06
405.988	452.06
406.212	471.06
406.436	492.06
406.66	484.06
406.883	477.06
407.107	501.06
407.331	536.06
407.555	582.06
407.778	538.06
408.002	494.06
408.226	481.06
408.449	483.06
408.673	459.06
408.896	489.06
409.12	496.06
409.344	484.06
409.567	448.06
409.791	454.06
410.014	446.06
410.238	458.06
410.461	435.06
410.685	427.06
410.908	444.06
411.132	470.06
411.355	510.06
411.578	498.06
411.802	437.06
412.025	432.06
412.249	446.06
412.472	441.06
412.695	462.06
412.919	444.06
413.142	419.06
413.365	415.06
413.589	422.06
413.812	426.06
414.035	409.06
414.258	393.06
414.482	416.06
414.705	418.06
414.928	401.06
415.151	405.06
415.374	409.06
415.597	412.06
415.821	405.06
416.044	417.06
416.267	406.06
416.49	406.06
416.713	416.06
416.936	410.06
417.159	418.06
417.382	432.06
417.605	436.06
417.828	431.06
418.051	430.06
418.274	436.06
418.497	418.06
418.72	415.06
418.943	409.06
419.166	407.06
419.389	445.06
419.611	430.06
419.834	433.06
420.057	425.06
420.28	416.06
420.503	418.06
420.726	404.06
420.948	432.06
421.171	486.06
421.394	491.06
421.617	450.06
421.839	430.06
422.062	412.06
422.285	435.06
422.507	483.06
422.73	521.06
422.953	526.06
423.175	468.06
423.398	462.06
423.621	435.06
423.843	455.06
424.066	443.06
424.288	460.06
424.511	486.06
424.733	528.06
424.956	565.06
425.178	551.06
425.401	522.06
425.623	564.06
425.846	513.06
426.068	474.06
426.291	459.06
426.513	486.06
426.735	445.06
426.958	500.06
427.18	573.06
427.402	670.06
427.625	730.06
427.847	642.06
428.069	552.06
428.292	483.06
428.514	466.06
428.736	455.06
428.958	442.06
429.181	433.06
429.403	423.06
429.625	446.06
429.847	454.06
430.069	528.06
430.292	494.06
430.514	443.06
430.736	459.06
430.958	439.06
431.18	409.06
431.402	412.06
431.624	433.06
431.846	402.06
432.068	401.06
432.29	407.06
432.512	409.06
432.734	438.06
432.956	430.06
433.178	431.06
433.4	422.06
433.622	419.06
433.844	426.06
434.066	404.06
434.287	401.06
434.509	395.06
434.731	433.06
434.953	432.06
435.175	452.06
435.397	459.06
435.618	459.06
435.84	489.06
436.062	578.06
436.284	601.06
436.505	528.06
436.727	471.06
436.949	415.06
437.17	419.06
437.392	448.06
437.614	445.06
437.835	474.06
438.057	550.06
438.278	620.06
438.5	657.06
438.721	656.06
438.943	651.06
439.165	518.06
439.386	507.06
439.608	476.06
439.829	482.06
440.05	519.06
440.272	542.06
440.493	529.06
440.715	469.06
440.936	451.06
441.158	448.06
441.379	428.06
441.6	449.06
441.822	464.06
442.043	498.06
442.264	556.06
442.486	583.06
442.707	501.06
442.928	488.06
443.149	486.06
443.371	501.06
443.592	563.06
443.813	599.06
444.034	620.06
444.255	542.06
444.476	481.06
444.698	462.06
444.919	461.06
445.14	567.06
445.361	532.06
445.582	510.06
445.803	535.06
446.024	631.06
446.245	623.06
446.466	584.06
446.687	516.06
446.908	449.06
447.129	448.06
447.35	456.06
447.571	438.06
447.792	438.06
448.013	446.06
448.234	452.06
448.455	507.06
448.675	599.06
448.896	661.06
449.117	578.06
449.338	553.06
449.559	614.06
449.779	686.06
450	560.06
450.221	466.06
450.442	459.06
450.662	450.06
450.883	456.06
451.104	458.06
451.324	451.06
451.545	427.06
451.766	400.06
451.986	412.06
452.207	389.06
452.428	390.06
452.648	393.06
452.869	394.06
453.089	398.06
453.31	418.06
453.53	418.06
453.751	383.06
453.971	382.06
454.192	422.06
454.412	415.06
454.633	385.06
454.853	406.06
455.073	369.06
455.294	411.06
455.514	474.06
455.734	442.06
455.955	407.06
456.175	383.06
456.395	359.06
456.616	362.06
456.836	357.06
457.056	357.06
457.276	341.06
457.497	367.06
457.717	357.06
457.937	368.06
458.157	384.06
458.377	379.06
458.598	383.06
458.818	474.06
459.038	548.06
459.258	540.06
459.478	463.06
459.698	421.06
459.918	422.06
460.138	413.06
460.358	401.06
460.578	414.06
460.798	413.06
461.018	417.06
461.238	401.06
461.458	404.06
461.678	390.06
461.898	418.06
462.118	408.06
462.338	417.06
462.558	435.06
462.777	435.06
462.997	416.06
463.217	442.06
463.437	454.06
463.657	446.06
463.876	441.06
464.096	431.06
464.316	439.06
464.536	451.06
464.755	463.06
464.975	452.06
465.195	480.06
465.414	581.06
465.634	482.06
465.854	456.06
466.073	432.06
466.293	418.06
466.512	402.06
466.732	391.06
466.951	397.06
467.171	381.06
467.391	379.06
467.61	394.06
467.829	405.06
468.049	409.06
468.268	401.06
468.488	375.06
468.707	384.06
468.927	378.06
469.146	392.06
469.365	395.06
469.585	389.06
469.804	409.06
470.023	409.06
470.243	385.06
470.462	433.06
470.681	451.06
470.901	442.06
471.12	411.06
471.339	407.06
471.558	407.06
471.777	408.06
471.997	403.06
472.216	405.06
472.435	407.06
472.654	380.06
472.873	405.06
473.092	391.06
473.311	389.06
473.53	378.06
473.749	408.06
473.968	464.06
474.187	530.06
474.406	551.06
474.625	454.06
474.844	421.06
475.063	412.06
475.282	421.06
475.501	408.06
475.72	409.06
475.939	420.06
476.158	405.06
476.377	411.06
476.596	420.06
476.814	425.06
477.033	419.06
477.252	443.06
477.471	437.06
477.69	427.06
477.908	431.06
478.127	418.06
478.346	424.06
478.564	439.06
478.783	457.06
479.002	455.06
479.22	474.06
479.439	462.06
479.658	450.06
479.876	474.06
480.095	516.06
480.313	520.06
480.532	498.06
480.751	496.06
480.969	487.06
481.188	523.06
481.406	528.06
481.624	481.06
481.843	472.06
482.061	478.06
482.28	471.06
482.498	484.06
482.717	465.06
482.935	472.06
483.153	443.06
483.372	475.06
483.59	471.06
483.808	456.06
484.027	461.06
484.245	451.06
484.463	475.06
484.681	482.06
484.9	467.06
485.118	486.06
485.336	482.06
485.554	494.06
485.772	480.06
485.99	467.06
486.209	471.06
486.427	498.06
486.645	489.06
486.863	503.06
487.081	497.06
487.299	508.06
487.517	515.06
487.735	496.06
487.953	495.06
488.171	513.06
488.389	475.06
488.607	484.06
488.825	508.06
489.043	521.06
489.261	507.06
489.479	523.06
489.696	512.06
489.914	506.06
490.132	495.06
490.35	531.06
490.568	503.06
490.786	526.06
491.003	542.06
491.221	569.06
491.439	576.06
491.657	555.06
491.874	576.06
492.092	568.06
492.31	576.06
492.527	579.06
492.745	577.06
492.963	597.06
493.18	569.06
493.398	584.06
493.615	590.06
493.833	602.06
494.05	608.06
494.268	589.06
494.485	602.06
494.703	594.06
494.92	595.06
495.138	586.06
495.355	610.06
495.573	603.06
495.79	610.06
496.008	581.06
496.225	612.06
496.442	592.06
496.66	588.06
496.877	608.06
497.094	617.06
497.312	598.06
497.529	589.06
497.746	607.06
497.963	637.06
498.181	650.06
498.398	648.06
498.615	645.06
498.832	672.06
499.049	666.06
499.267	677.06
499.484	704.06
499.701	693.06
499.918	722.06
500.135	762.06
500.352	794.06
500.569	791.06
500.786	789.06
501.003	784.06
501.22	768.06
501.437	772.06
501.654	755.06
501.871	741.06
502.088	723.06
