Data from 1983.PennyLincolnUp.Lamp.En5.5.200Scan.071819.P1_HRD10591_16-54-27-967.txt Node
Date: Thu Jul 18 16:54:27 EDT 2019
User: cochatt
Spectrometer: HR+D1059
Trigger mode: 1
Integration Time (sec): 1.000000E-1
Scans to average: 1
Electric dark correction enabled: true
Nonlinearity correction enabled: false
Boxcar width: 0
XAxis mode: Wavelengths
Number of Pixels in Spectrum: 2048
>>>>>Begin Spectral Data<<<<<
223.165	-6.94
223.4	-6.94
223.635	-6.94
223.869	-21.94
224.104	-17.94
224.338	-14.94
224.573	-14.94
224.808	-7.94
225.042	-5.94
225.277	-8.94
225.511	3.06
225.746	-9.94
225.98	7.06
226.215	9.06
226.449	11.06
226.683	15.06
226.918	28.06
227.152	36.06
227.387	47.06
227.621	34.06
227.856	47.06
228.09	38.06
228.324	49.06
228.559	57.06
228.793	65.06
229.027	84.06
229.262	115.06
229.496	125.06
229.73	133.06
229.964	150.06
230.199	133.06
230.433	93.06
230.667	105.06
230.901	106.06
231.136	97.06
231.37	106.06
231.604	104.06
231.838	121.06
232.072	107.06
232.306	108.06
232.541	91.06
232.775	118.06
233.009	101.06
233.243	104.06
233.477	105.06
233.711	100.06
233.945	119.06
234.179	117.06
234.413	107.06
234.647	117.06
234.881	121.06
235.115	110.06
235.349	126.06
235.583	105.06
235.817	115.06
236.051	117.06
236.285	125.06
236.519	115.06
236.753	124.06
236.987	137.06
237.221	170.06
237.455	200.06
237.689	163.06
237.922	137.06
238.156	132.06
238.39	126.06
238.624	115.06
238.858	120.06
239.091	130.06
239.325	101.06
239.559	132.06
239.793	125.06
240.027	110.06
240.26	139.06
240.494	153.06
240.728	145.06
240.961	151.06
241.195	136.06
241.429	131.06
241.662	120.06
241.896	137.06
242.13	128.06
242.363	113.06
242.597	130.06
242.83	136.06
243.064	149.06
243.298	130.06
243.531	144.06
243.765	129.06
243.998	133.06
244.232	124.06
244.465	147.06
244.699	135.06
244.932	129.06
245.166	135.06
245.399	147.06
245.633	127.06
245.866	130.06
246.099	137.06
246.333	148.06
246.566	135.06
246.8	124.06
247.033	147.06
247.266	142.06
247.5	149.06
247.733	160.06
247.966	156.06
248.2	161.06
248.433	171.06
248.666	162.06
248.899	178.06
249.133	182.06
249.366	201.06
249.599	186.06
249.832	159.06
250.066	165.06
250.299	189.06
250.532	189.06
250.765	199.06
250.998	207.06
251.231	200.06
251.465	188.06
251.698	182.06
251.931	190.06
252.164	186.06
252.397	180.06
252.63	194.06
252.863	178.06
253.096	224.06
253.329	199.06
253.562	198.06
253.795	198.06
254.028	191.06
254.261	212.06
254.494	211.06
254.727	243.06
254.96	261.06
255.193	236.06
255.426	212.06
255.659	219.06
255.892	224.06
256.124	222.06
256.357	215.06
256.59	198.06
256.823	201.06
257.056	180.06
257.289	198.06
257.521	218.06
257.754	197.06
257.987	193.06
258.22	197.06
258.452	202.06
258.685	200.06
258.918	195.06
259.151	200.06
259.383	180.06
259.616	214.06
259.849	190.06
260.081	221.06
260.314	229.06
260.547	242.06
260.779	213.06
261.012	216.06
261.244	214.06
261.477	184.06
261.71	211.06
261.942	198.06
262.175	213.06
262.407	213.06
262.64	190.06
262.872	190.06
263.105	194.06
263.337	181.06
263.57	195.06
263.802	186.06
264.035	197.06
264.267	197.06
264.499	189.06
264.732	184.06
264.964	177.06
265.197	201.06
265.429	186.06
265.661	173.06
265.894	211.06
266.126	193.06
266.358	195.06
266.591	194.06
266.823	207.06
267.055	205.06
267.287	212.06
267.52	207.06
267.752	225.06
267.984	216.06
268.216	211.06
268.448	227.06
268.681	212.06
268.913	213.06
269.145	239.06
269.377	256.06
269.609	239.06
269.841	233.06
270.073	261.06
270.306	284.06
270.538	311.06
270.77	291.06
271.002	289.06
271.234	281.06
271.466	272.06
271.698	288.06
271.93	292.06
272.162	303.06
272.394	305.06
272.626	277.06
272.858	248.06
273.09	267.06
273.322	261.06
273.553	263.06
273.785	243.06
274.017	239.06
274.249	231.06
274.481	267.06
274.713	234.06
274.945	265.06
275.176	257.06
275.408	234.06
275.64	244.06
275.872	257.06
276.104	248.06
276.335	237.06
276.567	261.06
276.799	275.06
277.031	281.06
277.262	308.06
277.494	284.06
277.726	276.06
277.957	260.06
278.189	260.06
278.421	251.06
278.652	248.06
278.884	247.06
279.115	249.06
279.347	237.06
279.579	238.06
279.81	234.06
280.042	251.06
280.273	250.06
280.505	249.06
280.736	257.06
280.968	234.06
281.199	247.06
281.431	242.06
281.662	237.06
281.894	238.06
282.125	261.06
282.356	269.06
282.588	285.06
282.819	269.06
283.051	278.06
283.282	243.06
283.513	250.06
283.745	269.06
283.976	244.06
284.207	256.06
284.439	261.06
284.67	253.06
284.901	263.06
285.132	251.06
285.364	265.06
285.595	263.06
285.826	237.06
286.057	275.06
286.288	243.06
286.52	268.06
286.751	263.06
286.982	260.06
287.213	267.06
287.444	256.06
287.675	258.06
287.906	265.06
288.138	269.06
288.369	272.06
288.6	269.06
288.831	267.06
289.062	260.06
289.293	272.06
289.524	272.06
289.755	264.06
289.986	262.06
290.217	260.06
290.448	266.06
290.679	256.06
290.91	269.06
291.141	248.06
291.371	257.06
291.602	263.06
291.833	235.06
292.064	251.06
292.295	263.06
292.526	265.06
292.757	252.06
292.987	262.06
293.218	268.06
293.449	248.06
293.68	256.06
293.91	263.06
294.141	256.06
294.372	264.06
294.603	263.06
294.833	283.06
295.064	269.06
295.295	268.06
295.525	266.06
295.756	285.06
295.987	286.06
296.217	299.06
296.448	304.06
296.679	286.06
296.909	269.06
297.14	261.06
297.37	284.06
297.601	280.06
297.831	267.06
298.062	248.06
298.292	267.06
298.523	268.06
298.753	277.06
298.984	286.06
299.214	282.06
299.445	267.06
299.675	287.06
299.905	278.06
300.136	299.06
300.366	281.06
300.597	289.06
300.827	279.06
301.057	305.06
301.288	304.06
301.518	313.06
301.748	298.06
301.979	303.06
302.209	296.06
302.439	299.06
302.669	306.06
302.9	297.06
303.13	305.06
303.36	300.06
303.59	292.06
303.82	317.06
304.051	299.06
304.281	302.06
304.511	282.06
304.741	286.06
304.971	290.06
305.201	292.06
305.431	283.06
305.661	302.06
305.891	285.06
306.121	310.06
306.352	302.06
306.582	329.06
306.812	292.06
307.042	287.06
307.272	297.06
307.502	293.06
307.731	312.06
307.961	301.06
308.191	308.06
308.421	295.06
308.651	315.06
308.881	317.06
309.111	324.06
309.341	328.06
309.571	328.06
309.8	340.06
310.03	349.06
310.26	345.06
310.49	339.06
310.72	341.06
310.949	358.06
311.179	368.06
311.409	354.06
311.639	346.06
311.868	347.06
312.098	354.06
312.328	361.06
312.557	389.06
312.787	361.06
313.017	384.06
313.246	361.06
313.476	342.06
313.706	336.06
313.935	358.06
314.165	378.06
314.394	373.06
314.624	370.06
314.853	345.06
315.083	356.06
315.312	335.06
315.542	332.06
315.771	330.06
316.001	349.06
316.23	343.06
316.46	325.06
316.689	349.06
316.919	341.06
317.148	373.06
317.377	365.06
317.607	356.06
317.836	351.06
318.065	343.06
318.295	346.06
318.524	359.06
318.753	351.06
318.983	336.06
319.212	351.06
319.441	361.06
319.67	362.06
319.9	355.06
320.129	353.06
320.358	353.06
320.587	359.06
320.816	360.06
321.046	355.06
321.275	392.06
321.504	377.06
321.733	380.06
321.962	353.06
322.191	387.06
322.42	409.06
322.649	412.06
322.878	411.06
323.108	430.06
323.337	446.06
323.566	485.06
323.795	516.06
324.024	559.06
324.253	689.06
324.482	1004.06
324.71	1502.06
324.939	1998.06
325.168	1691.06
325.397	902.06
325.626	637.06
325.855	503.06
326.084	470.06
326.313	475.06
326.542	480.06
326.77	541.06
326.999	647.06
327.228	890.06
327.457	1289.06
327.686	1482.06
327.914	1005.06
328.143	675.06
328.372	617.06
328.6	558.06
328.829	537.06
329.058	554.06
329.287	565.06
329.515	498.06
329.744	475.06
329.972	461.06
330.201	495.06
330.43	533.06
330.658	563.06
330.887	573.06
331.115	570.06
331.344	501.06
331.572	457.06
331.801	489.06
332.03	447.06
332.258	434.06
332.486	412.06
332.715	409.06
332.943	399.06
333.172	407.06
333.4	407.06
333.629	430.06
333.857	437.06
334.085	428.06
334.314	453.06
334.542	477.06
334.771	477.06
334.999	447.06
335.227	425.06
335.455	417.06
335.684	413.06
335.912	398.06
336.14	389.06
336.369	413.06
336.597	390.06
336.825	420.06
337.053	399.06
337.281	389.06
337.51	394.06
337.738	387.06
337.966	399.06
338.194	418.06
338.422	402.06
338.65	404.06
338.878	381.06
339.106	385.06
339.334	364.06
339.562	390.06
339.79	367.06
340.018	375.06
340.246	399.06
340.474	393.06
340.702	389.06
340.93	390.06
341.158	382.06
341.386	389.06
341.614	392.06
341.842	398.06
342.07	385.06
342.298	385.06
342.526	359.06
342.754	368.06
342.981	354.06
343.209	382.06
343.437	373.06
343.665	375.06
343.893	378.06
344.12	369.06
344.348	387.06
344.576	392.06
344.804	388.06
345.031	404.06
345.259	407.06
345.487	396.06
345.714	403.06
345.942	403.06
346.17	376.06
346.397	392.06
346.625	380.06
346.853	359.06
347.08	361.06
347.308	367.06
347.535	402.06
347.763	394.06
347.99	378.06
348.218	412.06
348.445	391.06
348.673	393.06
348.9	381.06
349.128	358.06
349.355	367.06
349.583	350.06
349.81	379.06
350.037	355.06
350.265	337.06
350.492	359.06
350.72	354.06
350.947	369.06
351.174	389.06
351.402	387.06
351.629	387.06
351.856	380.06
352.083	404.06
352.311	396.06
352.538	389.06
352.765	397.06
352.992	394.06
353.22	386.06
353.447	384.06
353.674	365.06
353.901	381.06
354.128	361.06
354.355	353.06
354.583	343.06
354.81	366.06
355.037	335.06
355.264	347.06
355.491	340.06
355.718	375.06
355.945	352.06
356.172	350.06
356.399	335.06
356.626	353.06
356.853	325.06
357.08	335.06
357.307	353.06
357.534	343.06
357.761	342.06
357.988	326.06
358.215	339.06
358.441	335.06
358.668	360.06
358.895	346.06
359.122	355.06
359.349	338.06
359.576	377.06
359.802	404.06
360.029	432.06
360.256	440.06
360.483	408.06
360.709	385.06
360.936	365.06
361.163	385.06
361.39	392.06
361.616	386.06
361.843	364.06
362.07	355.06
362.296	375.06
362.523	367.06
362.749	363.06
362.976	351.06
363.203	348.06
363.429	346.06
363.656	369.06
363.882	361.06
364.109	358.06
364.335	352.06
364.562	359.06
364.788	339.06
365.015	368.06
365.241	363.06
365.468	366.06
365.694	357.06
365.92	365.06
366.147	353.06
366.373	343.06
366.599	361.06
366.826	336.06
367.052	356.06
367.278	353.06
367.505	342.06
367.731	345.06
367.957	343.06
368.184	362.06
368.41	363.06
368.636	370.06
368.862	375.06
369.089	356.06
369.315	365.06
369.541	347.06
369.767	349.06
369.993	334.06
370.219	348.06
370.445	338.06
370.672	345.06
370.898	358.06
371.124	357.06
371.35	347.06
371.576	347.06
371.802	347.06
372.028	362.06
372.254	349.06
372.48	354.06
372.706	345.06
372.932	353.06
373.158	343.06
373.384	361.06
373.61	333.06
373.835	343.06
374.061	341.06
374.287	356.06
374.513	351.06
374.739	348.06
374.965	361.06
375.191	344.06
375.416	363.06
375.642	360.06
375.868	355.06
376.094	362.06
376.319	345.06
376.545	322.06
376.771	359.06
376.997	327.06
377.222	344.06
377.448	345.06
377.674	349.06
377.899	326.06
378.125	327.06
378.35	350.06
378.576	350.06
378.802	330.06
379.027	337.06
379.253	356.06
379.478	323.06
379.704	353.06
379.929	355.06
380.155	351.06
380.38	345.06
380.606	335.06
380.831	365.06
381.057	354.06
381.282	351.06
381.507	358.06
381.733	353.06
381.958	377.06
382.184	353.06
382.409	355.06
382.634	353.06
382.86	345.06
383.085	341.06
383.31	356.06
383.535	349.06
383.761	349.06
383.986	341.06
384.211	352.06
384.436	343.06
384.662	366.06
384.887	376.06
385.112	355.06
385.337	367.06
385.562	357.06
385.787	344.06
386.013	389.06
386.238	372.06
386.463	383.06
386.688	377.06
386.913	370.06
387.138	370.06
387.363	375.06
387.588	348.06
387.813	369.06
388.038	367.06
388.263	379.06
388.488	369.06
388.713	381.06
388.938	383.06
389.163	374.06
389.387	375.06
389.612	355.06
389.837	358.06
390.062	378.06
390.287	373.06
390.512	346.06
390.736	365.06
390.961	355.06
391.186	396.06
391.411	355.06
391.636	383.06
391.86	373.06
392.085	371.06
392.31	383.06
392.534	384.06
392.759	362.06
392.984	393.06
393.208	371.06
393.433	369.06
393.658	370.06
393.882	355.06
394.107	373.06
394.331	375.06
394.556	366.06
394.78	391.06
395.005	375.06
395.229	374.06
395.454	364.06
395.678	377.06
395.903	397.06
396.127	397.06
396.352	396.06
396.576	379.06
396.801	374.06
397.025	397.06
397.249	387.06
397.474	399.06
397.698	385.06
397.922	419.06
398.147	407.06
398.371	419.06
398.595	409.06
398.82	395.06
399.044	405.06
399.268	420.06
399.492	459.06
399.717	478.06
399.941	486.06
400.165	494.06
400.389	515.06
400.613	474.06
400.837	457.06
401.062	425.06
401.286	427.06
401.51	410.06
401.734	409.06
401.958	426.06
402.182	423.06
402.406	419.06
402.63	446.06
402.854	429.06
403.078	425.06
403.302	434.06
403.526	428.06
403.75	424.06
403.974	442.06
404.198	442.06
404.422	435.06
404.645	434.06
404.869	431.06
405.093	457.06
405.317	498.06
405.541	498.06
405.765	482.06
405.988	470.06
406.212	474.06
406.436	486.06
406.66	503.06
406.883	468.06
407.107	484.06
407.331	487.06
407.555	557.06
407.778	561.06
408.002	509.06
408.226	493.06
408.449	471.06
408.673	451.06
408.896	472.06
409.12	519.06
409.344	506.06
409.567	452.06
409.791	445.06
410.014	431.06
410.238	435.06
410.461	426.06
410.685	438.06
410.908	448.06
411.132	476.06
411.355	517.06
411.578	475.06
411.802	445.06
412.025	414.06
412.249	445.06
412.472	444.06
412.695	469.06
412.919	476.06
413.142	453.06
413.365	441.06
413.589	436.06
413.812	412.06
414.035	424.06
414.258	414.06
414.482	399.06
414.705	396.06
414.928	403.06
415.151	377.06
415.374	389.06
415.597	411.06
415.821	405.06
416.044	410.06
416.267	412.06
416.49	413.06
416.713	381.06
416.936	420.06
417.159	402.06
417.382	405.06
417.605	422.06
417.828	443.06
418.051	447.06
418.274	443.06
418.497	412.06
418.72	403.06
418.943	410.06
419.166	427.06
419.389	422.06
419.611	436.06
419.834	443.06
420.057	417.06
420.28	428.06
420.503	445.06
420.726	433.06
420.948	452.06
421.171	465.06
421.394	483.06
421.617	454.06
421.839	452.06
422.062	424.06
422.285	437.06
422.507	494.06
422.73	528.06
422.953	511.06
423.175	469.06
423.398	457.06
423.621	459.06
423.843	470.06
424.066	453.06
424.288	457.06
424.511	465.06
424.733	502.06
424.956	579.06
425.178	555.06
425.401	525.06
425.623	566.06
425.846	491.06
426.068	460.06
426.291	475.06
426.513	466.06
426.735	481.06
426.958	489.06
427.18	566.06
427.402	652.06
427.625	707.06
427.847	687.06
428.069	566.06
428.292	501.06
428.514	457.06
428.736	449.06
428.958	434.06
429.181	425.06
429.403	424.06
429.625	456.06
429.847	463.06
430.069	504.06
430.292	488.06
430.514	450.06
430.736	430.06
430.958	417.06
431.18	418.06
431.402	417.06
431.624	413.06
431.846	403.06
432.068	404.06
432.29	393.06
432.512	406.06
432.734	381.06
432.956	399.06
433.178	424.06
433.4	414.06
433.622	409.06
433.844	421.06
434.066	390.06
434.287	387.06
434.509	393.06
434.731	400.06
434.953	423.06
435.175	437.06
435.397	454.06
435.618	451.06
435.84	490.06
436.062	553.06
436.284	636.06
436.505	529.06
436.727	470.06
436.949	442.06
437.17	439.06
437.392	420.06
437.614	454.06
437.835	497.06
438.057	573.06
438.278	607.06
438.5	607.06
438.721	666.06
438.943	630.06
439.165	534.06
439.386	479.06
439.608	483.06
439.829	481.06
440.05	479.06
440.272	532.06
440.493	499.06
440.715	462.06
440.936	469.06
441.158	435.06
441.379	422.06
441.6	456.06
441.822	446.06
442.043	515.06
442.264	569.06
442.486	572.06
442.707	516.06
442.928	487.06
443.149	485.06
443.371	506.06
443.592	547.06
443.813	589.06
444.034	634.06
444.255	560.06
444.476	487.06
444.698	470.06
444.919	462.06
445.14	591.06
445.361	547.06
445.582	503.06
445.803	563.06
446.024	639.06
446.245	625.06
446.466	571.06
446.687	505.06
446.908	465.06
447.129	454.06
447.35	448.06
447.571	438.06
447.792	439.06
448.013	419.06
448.234	435.06
448.455	502.06
448.675	588.06
448.896	665.06
449.117	562.06
449.338	563.06
449.559	630.06
449.779	675.06
450	546.06
450.221	477.06
450.442	439.06
450.662	430.06
450.883	438.06
451.104	452.06
451.324	446.06
451.545	408.06
451.766	417.06
451.986	376.06
452.207	408.06
452.428	388.06
452.648	406.06
452.869	386.06
453.089	413.06
453.31	413.06
453.53	398.06
453.751	401.06
453.971	398.06
454.192	419.06
454.412	438.06
454.633	385.06
454.853	390.06
455.073	405.06
455.294	429.06
455.514	488.06
455.734	462.06
455.955	377.06
456.175	374.06
456.395	366.06
456.616	369.06
456.836	349.06
457.056	354.06
457.276	365.06
457.497	379.06
457.717	364.06
457.937	381.06
458.157	372.06
458.377	378.06
458.598	416.06
458.818	451.06
459.038	533.06
459.258	523.06
459.478	451.06
459.698	406.06
459.918	396.06
460.138	407.06
460.358	400.06
460.578	411.06
460.798	398.06
461.018	428.06
461.238	414.06
461.458	406.06
461.678	417.06
461.898	411.06
462.118	412.06
462.338	429.06
462.558	411.06
462.777	400.06
462.997	444.06
463.217	435.06
463.437	452.06
463.657	419.06
463.876	433.06
464.096	419.06
464.316	442.06
464.536	449.06
464.755	439.06
464.975	469.06
465.195	481.06
465.414	570.06
465.634	506.06
465.854	446.06
466.073	421.06
466.293	417.06
466.512	400.06
466.732	373.06
466.951	395.06
467.171	391.06
467.391	409.06
467.61	403.06
467.829	405.06
468.049	417.06
468.268	414.06
468.488	415.06
468.707	390.06
468.927	364.06
469.146	386.06
469.365	396.06
469.585	394.06
469.804	410.06
470.023	403.06
470.243	407.06
470.462	408.06
470.681	461.06
470.901	420.06
471.12	405.06
471.339	395.06
471.558	400.06
471.777	396.06
471.997	407.06
472.216	409.06
472.435	454.06
472.654	431.06
472.873	389.06
473.092	370.06
473.311	403.06
473.53	414.06
473.749	399.06
473.968	440.06
474.187	537.06
474.406	532.06
474.625	449.06
474.844	416.06
475.063	391.06
475.282	415.06
475.501	419.06
475.72	408.06
475.939	403.06
476.158	419.06
476.377	409.06
476.596	413.06
476.814	418.06
477.033	411.06
477.252	423.06
477.471	419.06
477.69	427.06
477.908	426.06
478.127	429.06
478.346	427.06
478.564	431.06
478.783	462.06
479.002	470.06
479.22	444.06
479.439	491.06
479.658	502.06
479.876	483.06
480.095	463.06
480.313	503.06
480.532	491.06
480.751	468.06
480.969	499.06
481.188	549.06
481.406	597.06
481.624	516.06
481.843	501.06
482.061	489.06
482.28	477.06
482.498	503.06
482.717	460.06
482.935	461.06
483.153	456.06
483.372	460.06
483.59	476.06
483.808	466.06
484.027	459.06
484.245	458.06
484.463	466.06
484.681	467.06
484.9	458.06
485.118	468.06
485.336	467.06
485.554	486.06
485.772	485.06
485.99	498.06
486.209	484.06
486.427	486.06
486.645	527.06
486.863	524.06
487.081	531.06
487.299	499.06
487.517	515.06
487.735	503.06
487.953	508.06
488.171	489.06
488.389	494.06
488.607	505.06
488.825	511.06
489.043	499.06
489.261	515.06
489.479	526.06
489.696	518.06
489.914	500.06
490.132	521.06
490.35	539.06
490.568	533.06
490.786	547.06
491.003	537.06
491.221	562.06
491.439	582.06
491.657	584.06
491.874	581.06
492.092	588.06
492.31	572.06
492.527	592.06
492.745	578.06
492.963	610.06
493.18	610.06
493.398	596.06
493.615	583.06
493.833	612.06
494.05	586.06
494.268	601.06
494.485	600.06
494.703	609.06
494.92	599.06
495.138	607.06
495.355	600.06
495.573	601.06
495.79	609.06
496.008	609.06
496.225	613.06
496.442	612.06
496.66	591.06
496.877	593.06
497.094	590.06
497.312	592.06
497.529	599.06
497.746	627.06
497.963	613.06
498.181	631.06
498.398	625.06
498.615	636.06
498.832	669.06
499.049	661.06
499.267	666.06
499.484	656.06
499.701	718.06
499.918	702.06
500.135	719.06
500.352	774.06
500.569	755.06
500.786	776.06
501.003	771.06
501.22	765.06
501.437	730.06
501.654	739.06
501.871	734.06
502.088	715.06
