Data from 1983.PennyLincolnUp.Lamp.En5.5.200Scan.071819.P1_HRD10591_16-54-52-966.txt Node
Date: Thu Jul 18 16:54:52 EDT 2019
User: cochatt
Spectrometer: HR+D1059
Trigger mode: 1
Integration Time (sec): 1.000000E-1
Scans to average: 1
Electric dark correction enabled: true
Nonlinearity correction enabled: false
Boxcar width: 0
XAxis mode: Wavelengths
Number of Pixels in Spectrum: 2048
>>>>>Begin Spectral Data<<<<<
223.165	-21.5
223.4	-21.5
223.635	-21.5
223.869	-6.5
224.104	-10.5
224.338	-21.5
224.573	-8.5
224.808	-6.5
225.042	-16.5
225.277	-10.5
225.511	4.5
225.746	16.5
225.98	7.5
226.215	4.5
226.449	6.5
226.683	13.5
226.918	19.5
227.152	29.5
227.387	27.5
227.621	35.5
227.856	43.5
228.09	43.5
228.324	44.5
228.559	56.5
228.793	67.5
229.027	100.5
229.262	105.5
229.496	122.5
229.73	137.5
229.964	151.5
230.199	122.5
230.433	107.5
230.667	126.5
230.901	117.5
231.136	114.5
231.37	108.5
231.604	113.5
231.838	110.5
232.072	118.5
232.306	113.5
232.541	110.5
232.775	102.5
233.009	117.5
233.243	119.5
233.477	104.5
233.711	103.5
233.945	104.5
234.179	101.5
234.413	125.5
234.647	118.5
234.881	121.5
235.115	117.5
235.349	126.5
235.583	124.5
235.817	107.5
236.051	120.5
236.285	124.5
236.519	117.5
236.753	117.5
236.987	120.5
237.221	169.5
237.455	226.5
237.689	185.5
237.922	135.5
238.156	125.5
238.39	129.5
238.624	125.5
238.858	128.5
239.091	108.5
239.325	119.5
239.559	119.5
239.793	123.5
240.027	138.5
240.26	128.5
240.494	137.5
240.728	143.5
240.961	150.5
241.195	137.5
241.429	153.5
241.662	134.5
241.896	130.5
242.13	119.5
242.363	132.5
242.597	129.5
242.83	140.5
243.064	135.5
243.298	140.5
243.531	129.5
243.765	134.5
243.998	139.5
244.232	136.5
244.465	137.5
244.699	133.5
244.932	139.5
245.166	136.5
245.399	137.5
245.633	137.5
245.866	128.5
246.099	129.5
246.333	134.5
246.566	149.5
246.8	153.5
247.033	146.5
247.266	175.5
247.5	161.5
247.733	170.5
247.966	153.5
248.2	156.5
248.433	154.5
248.666	167.5
248.899	163.5
249.133	183.5
249.366	186.5
249.599	193.5
249.832	177.5
250.066	170.5
250.299	182.5
250.532	174.5
250.765	205.5
250.998	221.5
251.231	230.5
251.465	204.5
251.698	186.5
251.931	174.5
252.164	179.5
252.397	184.5
252.63	184.5
252.863	201.5
253.096	207.5
253.329	225.5
253.562	213.5
253.795	196.5
254.028	202.5
254.261	194.5
254.494	207.5
254.727	235.5
254.96	263.5
255.193	233.5
255.426	230.5
255.659	231.5
255.892	257.5
256.124	228.5
256.357	245.5
256.59	216.5
256.823	207.5
257.056	211.5
257.289	214.5
257.521	215.5
257.754	207.5
257.987	198.5
258.22	202.5
258.452	188.5
258.685	203.5
258.918	185.5
259.151	214.5
259.383	201.5
259.616	200.5
259.849	207.5
260.081	229.5
260.314	245.5
260.547	246.5
260.779	234.5
261.012	213.5
261.244	215.5
261.477	199.5
261.71	216.5
261.942	214.5
262.175	214.5
262.407	227.5
262.64	218.5
262.872	194.5
263.105	203.5
263.337	211.5
263.57	179.5
263.802	206.5
264.035	202.5
264.267	203.5
264.499	193.5
264.732	204.5
264.964	207.5
265.197	215.5
265.429	215.5
265.661	219.5
265.894	207.5
266.126	208.5
266.358	202.5
266.591	206.5
266.823	215.5
267.055	202.5
267.287	228.5
267.52	198.5
267.752	207.5
267.984	218.5
268.216	230.5
268.448	206.5
268.681	212.5
268.913	224.5
269.145	239.5
269.377	266.5
269.609	267.5
269.841	262.5
270.073	266.5
270.306	260.5
270.538	290.5
270.77	270.5
271.002	294.5
271.234	280.5
271.466	279.5
271.698	302.5
271.93	289.5
272.162	306.5
272.394	291.5
272.626	265.5
272.858	243.5
273.09	266.5
273.322	267.5
273.553	238.5
273.785	250.5
274.017	257.5
274.249	255.5
274.481	249.5
274.713	243.5
274.945	262.5
275.176	253.5
275.408	231.5
275.64	251.5
275.872	255.5
276.104	248.5
276.335	259.5
276.567	252.5
276.799	274.5
277.031	294.5
277.262	311.5
277.494	302.5
277.726	279.5
277.957	290.5
278.189	272.5
278.421	261.5
278.652	264.5
278.884	260.5
279.115	248.5
279.347	249.5
279.579	244.5
279.81	246.5
280.042	231.5
280.273	260.5
280.505	258.5
280.736	243.5
280.968	265.5
281.199	255.5
281.431	257.5
281.662	269.5
281.894	247.5
282.125	270.5
282.356	277.5
282.588	296.5
282.819	302.5
283.051	257.5
283.282	266.5
283.513	263.5
283.745	263.5
283.976	269.5
284.207	259.5
284.439	245.5
284.67	252.5
284.901	279.5
285.132	247.5
285.364	245.5
285.595	244.5
285.826	261.5
286.057	269.5
286.288	266.5
286.52	279.5
286.751	266.5
286.982	265.5
287.213	256.5
287.444	260.5
287.675	257.5
287.906	269.5
288.138	297.5
288.369	296.5
288.6	301.5
288.831	278.5
289.062	282.5
289.293	265.5
289.524	290.5
289.755	291.5
289.986	267.5
290.217	254.5
290.448	259.5
290.679	268.5
290.91	253.5
291.141	264.5
291.371	267.5
291.602	278.5
291.833	265.5
292.064	279.5
292.295	270.5
292.526	267.5
292.757	257.5
292.987	260.5
293.218	271.5
293.449	261.5
293.68	278.5
293.91	275.5
294.141	271.5
294.372	272.5
294.603	290.5
294.833	279.5
295.064	277.5
295.295	269.5
295.525	268.5
295.756	276.5
295.987	298.5
296.217	322.5
296.448	323.5
296.679	284.5
296.909	278.5
297.14	276.5
297.37	300.5
297.601	277.5
297.831	277.5
298.062	281.5
298.292	285.5
298.523	287.5
298.753	283.5
298.984	276.5
299.214	283.5
299.445	295.5
299.675	273.5
299.905	302.5
300.136	301.5
300.366	310.5
300.597	292.5
300.827	293.5
301.057	320.5
301.288	309.5
301.518	306.5
301.748	297.5
301.979	300.5
302.209	321.5
302.439	321.5
302.669	306.5
302.9	309.5
303.13	292.5
303.36	296.5
303.59	299.5
303.82	323.5
304.051	315.5
304.281	318.5
304.511	326.5
304.741	308.5
304.971	301.5
305.201	291.5
305.431	318.5
305.661	301.5
305.891	293.5
306.121	299.5
306.352	335.5
306.582	313.5
306.812	334.5
307.042	294.5
307.272	324.5
307.502	305.5
307.731	315.5
307.961	339.5
308.191	323.5
308.421	335.5
308.651	298.5
308.881	317.5
309.111	329.5
309.341	306.5
309.571	320.5
309.8	341.5
310.03	351.5
310.26	366.5
310.49	348.5
310.72	364.5
310.949	379.5
311.179	387.5
311.409	369.5
311.639	352.5
311.868	345.5
312.098	387.5
312.328	356.5
312.557	373.5
312.787	400.5
313.017	396.5
313.246	361.5
313.476	353.5
313.706	355.5
313.935	366.5
314.165	361.5
314.394	364.5
314.624	393.5
314.853	367.5
315.083	342.5
315.312	355.5
315.542	352.5
315.771	357.5
316.001	362.5
316.23	349.5
316.46	369.5
316.689	385.5
316.919	378.5
317.148	377.5
317.377	364.5
317.607	374.5
317.836	358.5
318.065	344.5
318.295	351.5
318.524	353.5
318.753	355.5
318.983	359.5
319.212	355.5
319.441	378.5
319.67	379.5
319.9	354.5
320.129	348.5
320.358	356.5
320.587	356.5
320.816	365.5
321.046	384.5
321.275	373.5
321.504	367.5
321.733	387.5
321.962	391.5
322.191	391.5
322.42	410.5
322.649	414.5
322.878	450.5
323.108	429.5
323.337	479.5
323.566	497.5
323.795	522.5
324.024	591.5
324.253	725.5
324.482	1051.5
324.71	1593.5
324.939	2143.5
325.168	1777.5
325.397	969.5
325.626	661.5
325.855	531.5
326.084	485.5
326.313	498.5
326.542	499.5
326.77	573.5
326.999	659.5
327.228	935.5
327.457	1385.5
327.686	1614.5
327.914	1057.5
328.143	709.5
328.372	631.5
328.6	586.5
328.829	555.5
329.058	574.5
329.287	596.5
329.515	531.5
329.744	506.5
329.972	486.5
330.201	541.5
330.43	615.5
330.658	613.5
330.887	629.5
331.115	597.5
331.344	514.5
331.572	476.5
331.801	490.5
332.03	493.5
332.258	449.5
332.486	433.5
332.715	450.5
332.943	434.5
333.172	438.5
333.4	441.5
333.629	467.5
333.857	481.5
334.085	476.5
334.314	515.5
334.542	555.5
334.771	551.5
334.999	520.5
335.227	468.5
335.455	433.5
335.684	464.5
335.912	422.5
336.14	411.5
336.369	419.5
336.597	426.5
336.825	433.5
337.053	433.5
337.281	405.5
337.51	367.5
337.738	417.5
337.966	412.5
338.194	405.5
338.422	415.5
338.65	413.5
338.878	409.5
339.106	388.5
339.334	415.5
339.562	391.5
339.79	398.5
340.018	378.5
340.246	403.5
340.474	402.5
340.702	390.5
340.93	396.5
341.158	399.5
341.386	410.5
341.614	409.5
341.842	399.5
342.07	396.5
342.298	399.5
342.526	399.5
342.754	397.5
342.981	370.5
343.209	384.5
343.437	391.5
343.665	377.5
343.893	387.5
344.12	394.5
344.348	405.5
344.576	385.5
344.804	410.5
345.031	403.5
345.259	443.5
345.487	392.5
345.714	395.5
345.942	398.5
346.17	404.5
346.397	403.5
346.625	387.5
346.853	376.5
347.08	392.5
347.308	390.5
347.535	404.5
347.763	410.5
347.99	414.5
348.218	405.5
348.445	402.5
348.673	391.5
348.9	394.5
349.128	375.5
349.355	369.5
349.583	386.5
349.81	365.5
350.037	365.5
350.265	371.5
350.492	374.5
350.72	376.5
350.947	367.5
351.174	387.5
351.402	411.5
351.629	399.5
351.856	390.5
352.083	390.5
352.311	403.5
352.538	384.5
352.765	416.5
352.992	400.5
353.22	401.5
353.447	399.5
353.674	374.5
353.901	371.5
354.128	352.5
354.355	351.5
354.583	364.5
354.81	365.5
355.037	366.5
355.264	359.5
355.491	356.5
355.718	362.5
355.945	359.5
356.172	352.5
356.399	352.5
356.626	347.5
356.853	358.5
357.08	355.5
357.307	351.5
357.534	353.5
357.761	361.5
357.988	346.5
358.215	357.5
358.441	369.5
358.668	350.5
358.895	382.5
359.122	367.5
359.349	371.5
359.576	381.5
359.802	408.5
360.029	422.5
360.256	467.5
360.483	419.5
360.709	400.5
360.936	394.5
361.163	369.5
361.39	389.5
361.616	393.5
361.843	409.5
362.07	387.5
362.296	406.5
362.523	403.5
362.749	410.5
362.976	383.5
363.203	379.5
363.429	376.5
363.656	370.5
363.882	353.5
364.109	373.5
364.335	377.5
364.562	374.5
364.788	376.5
365.015	380.5
365.241	359.5
365.468	369.5
365.694	391.5
365.92	380.5
366.147	383.5
366.373	371.5
366.599	385.5
366.826	366.5
367.052	349.5
367.278	368.5
367.505	362.5
367.731	348.5
367.957	358.5
368.184	358.5
368.41	394.5
368.636	373.5
368.862	385.5
369.089	377.5
369.315	377.5
369.541	344.5
369.767	354.5
369.993	375.5
370.219	349.5
370.445	372.5
370.672	373.5
370.898	353.5
371.124	349.5
371.35	354.5
371.576	348.5
371.802	369.5
372.028	351.5
372.254	373.5
372.48	342.5
372.706	363.5
372.932	350.5
373.158	350.5
373.384	379.5
373.61	359.5
373.835	361.5
374.061	353.5
374.287	362.5
374.513	360.5
374.739	367.5
374.965	373.5
375.191	366.5
375.416	363.5
375.642	373.5
375.868	377.5
376.094	372.5
376.319	359.5
376.545	356.5
376.771	354.5
376.997	361.5
377.222	364.5
377.448	354.5
377.674	347.5
377.899	369.5
378.125	363.5
378.35	367.5
378.576	362.5
378.802	347.5
379.027	354.5
379.253	349.5
379.478	361.5
379.704	358.5
379.929	353.5
380.155	366.5
380.38	340.5
380.606	364.5
380.831	356.5
381.057	377.5
381.282	348.5
381.507	363.5
381.733	351.5
381.958	355.5
382.184	360.5
382.409	359.5
382.634	363.5
382.86	369.5
383.085	358.5
383.31	355.5
383.535	369.5
383.761	355.5
383.986	363.5
384.211	385.5
384.436	369.5
384.662	370.5
384.887	370.5
385.112	370.5
385.337	377.5
385.562	364.5
385.787	371.5
386.013	393.5
386.238	373.5
386.463	386.5
386.688	375.5
386.913	409.5
387.138	386.5
387.363	360.5
387.588	379.5
387.813	375.5
388.038	377.5
388.263	372.5
388.488	381.5
388.713	376.5
388.938	389.5
389.163	369.5
389.387	377.5
389.612	390.5
389.837	371.5
390.062	392.5
390.287	377.5
390.512	372.5
390.736	379.5
390.961	379.5
391.186	393.5
391.411	401.5
391.636	389.5
391.86	365.5
392.085	383.5
392.31	389.5
392.534	391.5
392.759	380.5
392.984	379.5
393.208	376.5
393.433	375.5
393.658	377.5
393.882	371.5
394.107	367.5
394.331	374.5
394.556	391.5
394.78	398.5
395.005	376.5
395.229	395.5
395.454	395.5
395.678	386.5
395.903	407.5
396.127	407.5
396.352	414.5
396.576	400.5
396.801	407.5
397.025	391.5
397.249	403.5
397.474	408.5
397.698	389.5
397.922	433.5
398.147	437.5
398.371	435.5
398.595	408.5
398.82	399.5
399.044	446.5
399.268	469.5
399.492	458.5
399.717	485.5
399.941	497.5
400.165	533.5
400.389	517.5
400.613	494.5
400.837	465.5
401.062	441.5
401.286	445.5
401.51	422.5
401.734	405.5
401.958	428.5
402.182	451.5
402.406	437.5
402.63	460.5
402.854	441.5
403.078	442.5
403.302	449.5
403.526	437.5
403.75	442.5
403.974	454.5
404.198	451.5
404.422	449.5
404.645	474.5
404.869	450.5
405.093	483.5
405.317	517.5
405.541	552.5
405.765	489.5
405.988	490.5
406.212	462.5
406.436	509.5
406.66	528.5
406.883	494.5
407.107	498.5
407.331	522.5
407.555	591.5
407.778	584.5
408.002	528.5
408.226	499.5
408.449	501.5
408.673	502.5
408.896	508.5
409.12	513.5
409.344	513.5
409.567	475.5
409.791	460.5
410.014	457.5
410.238	438.5
410.461	437.5
410.685	475.5
410.908	450.5
411.132	460.5
411.355	505.5
411.578	485.5
411.802	458.5
412.025	445.5
412.249	474.5
412.472	470.5
412.695	526.5
412.919	521.5
413.142	453.5
413.365	448.5
413.589	422.5
413.812	434.5
414.035	416.5
414.258	415.5
414.482	428.5
414.705	419.5
414.928	422.5
415.151	412.5
415.374	420.5
415.597	421.5
415.821	410.5
416.044	407.5
416.267	397.5
416.49	428.5
416.713	436.5
416.936	423.5
417.159	417.5
417.382	441.5
417.605	427.5
417.828	433.5
418.051	445.5
418.274	444.5
418.497	421.5
418.72	419.5
418.943	418.5
419.166	428.5
419.389	451.5
419.611	450.5
419.834	465.5
420.057	466.5
420.28	470.5
420.503	455.5
420.726	427.5
420.948	472.5
421.171	478.5
421.394	506.5
421.617	459.5
421.839	453.5
422.062	447.5
422.285	451.5
422.507	492.5
422.73	555.5
422.953	549.5
423.175	482.5
423.398	450.5
423.621	465.5
423.843	473.5
424.066	478.5
424.288	490.5
424.511	514.5
424.733	548.5
424.956	602.5
425.178	555.5
425.401	573.5
425.623	563.5
425.846	500.5
426.068	481.5
426.291	473.5
426.513	483.5
426.735	493.5
426.958	529.5
427.18	604.5
427.402	687.5
427.625	767.5
427.847	683.5
428.069	605.5
428.292	546.5
428.514	494.5
428.736	464.5
428.958	460.5
429.181	439.5
429.403	434.5
429.625	446.5
429.847	485.5
430.069	535.5
430.292	517.5
430.514	455.5
430.736	442.5
430.958	433.5
431.18	420.5
431.402	429.5
431.624	418.5
431.846	417.5
432.068	423.5
432.29	418.5
432.512	400.5
432.734	422.5
432.956	430.5
433.178	427.5
433.4	429.5
433.622	436.5
433.844	404.5
434.066	405.5
434.287	412.5
434.509	419.5
434.731	445.5
434.953	425.5
435.175	442.5
435.397	467.5
435.618	483.5
435.84	531.5
436.062	581.5
436.284	638.5
436.505	519.5
436.727	491.5
436.949	462.5
437.17	438.5
437.392	441.5
437.614	449.5
437.835	504.5
438.057	580.5
438.278	633.5
438.5	611.5
438.721	681.5
438.943	667.5
439.165	531.5
439.386	468.5
439.608	477.5
439.829	499.5
440.05	529.5
440.272	570.5
440.493	513.5
440.715	469.5
440.936	458.5
441.158	459.5
441.379	442.5
441.6	463.5
441.822	469.5
442.043	526.5
442.264	575.5
442.486	607.5
442.707	517.5
442.928	490.5
443.149	473.5
443.371	511.5
443.592	553.5
443.813	624.5
444.034	659.5
444.255	550.5
444.476	521.5
444.698	484.5
444.919	471.5
445.14	603.5
445.361	541.5
445.582	534.5
445.803	588.5
446.024	652.5
446.245	637.5
446.466	605.5
446.687	501.5
446.908	489.5
447.129	457.5
447.35	452.5
447.571	430.5
447.792	436.5
448.013	441.5
448.234	470.5
448.455	489.5
448.675	607.5
448.896	693.5
449.117	580.5
449.338	566.5
449.559	610.5
449.779	667.5
450	576.5
450.221	479.5
450.442	461.5
450.662	453.5
450.883	454.5
451.104	451.5
451.324	477.5
451.545	426.5
451.766	421.5
451.986	423.5
452.207	408.5
452.428	418.5
452.648	394.5
452.869	413.5
453.089	408.5
453.31	450.5
453.53	421.5
453.751	389.5
453.971	398.5
454.192	428.5
454.412	433.5
454.633	387.5
454.853	402.5
455.073	397.5
455.294	428.5
455.514	485.5
455.734	460.5
455.955	413.5
456.175	395.5
456.395	365.5
456.616	366.5
456.836	367.5
457.056	387.5
457.276	392.5
457.497	367.5
457.717	389.5
457.937	387.5
458.157	391.5
458.377	373.5
458.598	420.5
458.818	472.5
459.038	533.5
459.258	549.5
459.478	463.5
459.698	434.5
459.918	411.5
460.138	419.5
460.358	421.5
460.578	409.5
460.798	415.5
461.018	429.5
461.238	416.5
461.458	417.5
461.678	409.5
461.898	414.5
462.118	405.5
462.338	449.5
462.558	439.5
462.777	430.5
462.997	467.5
463.217	448.5
463.437	459.5
463.657	456.5
463.876	443.5
464.096	444.5
464.316	449.5
464.536	464.5
464.755	469.5
464.975	476.5
465.195	516.5
465.414	598.5
465.634	504.5
465.854	444.5
466.073	441.5
466.293	411.5
466.512	428.5
466.732	386.5
466.951	382.5
467.171	413.5
467.391	416.5
467.61	428.5
467.829	442.5
468.049	423.5
468.268	429.5
468.488	414.5
468.707	400.5
468.927	386.5
469.146	399.5
469.365	391.5
469.585	396.5
469.804	409.5
470.023	415.5
470.243	412.5
470.462	438.5
470.681	448.5
470.901	427.5
471.12	406.5
471.339	413.5
471.558	407.5
471.777	418.5
471.997	438.5
472.216	438.5
472.435	465.5
472.654	469.5
472.873	451.5
473.092	421.5
473.311	435.5
473.53	424.5
473.749	429.5
473.968	467.5
474.187	553.5
474.406	567.5
474.625	470.5
474.844	428.5
475.063	447.5
475.282	407.5
475.501	406.5
475.72	429.5
475.939	434.5
476.158	427.5
476.377	426.5
476.596	422.5
476.814	423.5
477.033	439.5
477.252	449.5
477.471	431.5
477.69	436.5
477.908	443.5
478.127	440.5
478.346	447.5
478.564	443.5
478.783	444.5
479.002	449.5
479.22	472.5
479.439	470.5
479.658	498.5
479.876	510.5
480.095	504.5
480.313	532.5
480.532	503.5
480.751	520.5
480.969	546.5
481.188	622.5
481.406	669.5
481.624	561.5
481.843	521.5
482.061	515.5
482.28	491.5
482.498	497.5
482.717	475.5
482.935	478.5
483.153	472.5
483.372	512.5
483.59	468.5
483.808	500.5
484.027	504.5
484.245	492.5
484.463	489.5
484.681	476.5
484.9	478.5
485.118	466.5
485.336	475.5
485.554	499.5
485.772	499.5
485.99	509.5
486.209	511.5
486.427	499.5
486.645	523.5
486.863	543.5
487.081	530.5
487.299	531.5
487.517	520.5
487.735	507.5
487.953	507.5
488.171	537.5
488.389	531.5
488.607	535.5
488.825	519.5
489.043	537.5
489.261	524.5
489.479	529.5
489.696	569.5
489.914	525.5
490.132	516.5
490.35	548.5
490.568	552.5
490.786	572.5
491.003	577.5
491.221	571.5
491.439	605.5
491.657	598.5
491.874	599.5
492.092	606.5
492.31	604.5
492.527	621.5
492.745	608.5
492.963	618.5
493.18	615.5
493.398	616.5
493.615	619.5
493.833	635.5
494.05	633.5
494.268	633.5
494.485	611.5
494.703	630.5
494.92	611.5
495.138	637.5
495.355	636.5
495.573	646.5
495.79	621.5
496.008	616.5
496.225	629.5
496.442	629.5
496.66	592.5
496.877	641.5
497.094	615.5
497.312	651.5
497.529	650.5
497.746	635.5
497.963	642.5
498.181	659.5
498.398	665.5
498.615	673.5
498.832	673.5
499.049	657.5
499.267	695.5
499.484	716.5
499.701	754.5
499.918	747.5
500.135	750.5
500.352	809.5
500.569	809.5
500.786	809.5
501.003	786.5
501.22	771.5
501.437	769.5
501.654	790.5
501.871	759.5
502.088	755.5
502.305	714.5
502.522	703.5
502.739	684.5
502.956	649.5
503.172	651.5
503.389	639.5
503.606	653.5
503.823	669.5
504.04	640.5
504.256	614.5
504.473	606.5
504.69	619.5
504.907	611.5
505.123	587.5
505.34	598.5
505.557	609.5
505.773	613.5
505.99	596.5
506.207	600.5
506.423	574.5
506.64	602.5
506.856	578.5
507.073	585.5
507.289	590.5
507.506	573.5
507.722	567.5
507.939	625.5
508.155	575.5
508.372	563.5
508.588	572.5
508.805	571.5
509.021	561.5
509.238	584.5
509.454	575.5
509.67	578.5
509.887	577.5
510.103	554.5
510.319	575.5
510.536	685.5
510.752	1223.5
510.968	946.5
511.184	600.5
511.401	543.5
511.617	563.5
511.833	557.5
512.049	558.5
512.265	545.5
512.481	546.5
512.698	534.5
512.914	547.5
513.13	522.5
513.346	541.5
513.562	532.5
513.778	547.5
513.994	534.5
514.21	575.5
514.426	595.5
514.642	646.5
514.858	661.5
515.074	711.5
515.29	876.5
515.506	1388.5
515.721	1077.5
515.937	693.5
516.153	616.5
516.369	573.5
516.585	564.5
516.801	564.5
517.016	575.5
517.232	568.5
517.448	556.5
517.664	545.5
517.879	540.5
518.095	549.5
518.311	535.5
518.527	510.5
518.742	542.5
518.958	524.5
519.173	533.5
519.389	530.5
519.605	516.5
519.82	556.5
