Data from 1983.PennyLincolnUp.Lamp.En5.5.200Scan.071819.P1_HRD10591_16-54-02-965.txt Node
Date: Thu Jul 18 16:54:02 EDT 2019
User: cochatt
Spectrometer: HR+D1059
Trigger mode: 1
Integration Time (sec): 1.000000E-1
Scans to average: 1
Electric dark correction enabled: true
Nonlinearity correction enabled: false
Boxcar width: 0
XAxis mode: Wavelengths
Number of Pixels in Spectrum: 2048
>>>>>Begin Spectral Data<<<<<
223.165	-16.44
223.4	-16.44
223.635	-16.44
223.869	-13.44
224.104	-20.44
224.338	-16.44
224.573	-2.44
224.808	-3.44
225.042	1.56
225.277	-5.44
225.511	-4.44
225.746	-3.44
225.98	-1.44
226.215	-0.44
226.449	17.56
226.683	15.56
226.918	17.56
227.152	35.56
227.387	36.56
227.621	30.56
227.856	54.56
228.09	48.56
228.324	54.56
228.559	64.56
228.793	64.56
229.027	87.56
229.262	121.56
229.496	109.56
229.73	128.56
229.964	142.56
230.199	138.56
230.433	106.56
230.667	109.56
230.901	111.56
231.136	100.56
231.37	106.56
231.604	97.56
231.838	103.56
232.072	112.56
232.306	121.56
232.541	110.56
232.775	118.56
233.009	103.56
233.243	109.56
233.477	113.56
233.711	111.56
233.945	109.56
234.179	128.56
234.413	111.56
234.647	106.56
234.881	105.56
235.115	106.56
235.349	107.56
235.583	111.56
235.817	101.56
236.051	123.56
236.285	118.56
236.519	129.56
236.753	128.56
236.987	137.56
237.221	170.56
237.455	215.56
237.689	164.56
237.922	134.56
238.156	122.56
238.39	121.56
238.624	119.56
238.858	128.56
239.091	108.56
239.325	124.56
239.559	116.56
239.793	109.56
240.027	123.56
240.26	121.56
240.494	140.56
240.728	132.56
240.961	132.56
241.195	139.56
241.429	138.56
241.662	128.56
241.896	124.56
242.13	122.56
242.363	138.56
242.597	121.56
242.83	118.56
243.064	136.56
243.298	127.56
243.531	136.56
243.765	134.56
243.998	126.56
244.232	129.56
244.465	130.56
244.699	136.56
244.932	124.56
245.166	131.56
245.399	137.56
245.633	144.56
245.866	133.56
246.099	138.56
246.333	145.56
246.566	141.56
246.8	156.56
247.033	141.56
247.266	152.56
247.5	169.56
247.733	152.56
247.966	163.56
248.2	144.56
248.433	184.56
248.666	172.56
248.899	188.56
249.133	186.56
249.366	203.56
249.599	181.56
249.832	168.56
250.066	163.56
250.299	170.56
250.532	182.56
250.765	208.56
250.998	206.56
251.231	208.56
251.465	202.56
251.698	188.56
251.931	182.56
252.164	184.56
252.397	170.56
252.63	170.56
252.863	203.56
253.096	188.56
253.329	205.56
253.562	209.56
253.795	215.56
254.028	201.56
254.261	205.56
254.494	225.56
254.727	236.56
254.96	238.56
255.193	228.56
255.426	213.56
255.659	213.56
255.892	199.56
256.124	223.56
256.357	215.56
256.59	215.56
256.823	209.56
257.056	184.56
257.289	211.56
257.521	199.56
257.754	197.56
257.987	195.56
258.22	202.56
258.452	200.56
258.685	201.56
258.918	195.56
259.151	213.56
259.383	212.56
259.616	210.56
259.849	204.56
260.081	224.56
260.314	223.56
260.547	219.56
260.779	218.56
261.012	213.56
261.244	224.56
261.477	193.56
261.71	201.56
261.942	213.56
262.175	239.56
262.407	225.56
262.64	202.56
262.872	197.56
263.105	200.56
263.337	189.56
263.57	178.56
263.802	198.56
264.035	202.56
264.267	207.56
264.499	179.56
264.732	200.56
264.964	206.56
265.197	209.56
265.429	209.56
265.661	197.56
265.894	214.56
266.126	217.56
266.358	208.56
266.591	204.56
266.823	216.56
267.055	209.56
267.287	209.56
267.52	221.56
267.752	224.56
267.984	210.56
268.216	223.56
268.448	207.56
268.681	203.56
268.913	216.56
269.145	240.56
269.377	279.56
269.609	246.56
269.841	246.56
270.073	249.56
270.306	265.56
270.538	290.56
270.77	290.56
271.002	262.56
271.234	255.56
271.466	282.56
271.698	298.56
271.93	290.56
272.162	281.56
272.394	290.56
272.626	287.56
272.858	261.56
273.09	255.56
273.322	266.56
273.553	264.56
273.785	238.56
274.017	242.56
274.249	239.56
274.481	242.56
274.713	251.56
274.945	247.56
275.176	246.56
275.408	244.56
275.64	233.56
275.872	228.56
276.104	238.56
276.335	259.56
276.567	258.56
276.799	260.56
277.031	275.56
277.262	298.56
277.494	278.56
277.726	270.56
277.957	264.56
278.189	244.56
278.421	246.56
278.652	246.56
278.884	258.56
279.115	253.56
279.347	258.56
279.579	241.56
279.81	239.56
280.042	233.56
280.273	250.56
280.505	241.56
280.736	236.56
280.968	252.56
281.199	236.56
281.431	242.56
281.662	253.56
281.894	247.56
282.125	250.56
282.356	255.56
282.588	280.56
282.819	282.56
283.051	259.56
283.282	248.56
283.513	242.56
283.745	235.56
283.976	241.56
284.207	257.56
284.439	248.56
284.67	246.56
284.901	254.56
285.132	231.56
285.364	264.56
285.595	252.56
285.826	231.56
286.057	256.56
286.288	246.56
286.52	266.56
286.751	252.56
286.982	264.56
287.213	273.56
287.444	260.56
287.675	247.56
287.906	280.56
288.138	257.56
288.369	274.56
288.6	284.56
288.831	273.56
289.062	250.56
289.293	257.56
289.524	263.56
289.755	246.56
289.986	263.56
290.217	277.56
290.448	264.56
290.679	274.56
290.91	268.56
291.141	251.56
291.371	274.56
291.602	239.56
291.833	240.56
292.064	270.56
292.295	266.56
292.526	274.56
292.757	262.56
292.987	260.56
293.218	261.56
293.449	258.56
293.68	287.56
293.91	252.56
294.141	264.56
294.372	275.56
294.603	254.56
294.833	269.56
295.064	278.56
295.295	279.56
295.525	266.56
295.756	277.56
295.987	287.56
296.217	293.56
296.448	297.56
296.679	276.56
296.909	272.56
297.14	265.56
297.37	269.56
297.601	268.56
297.831	261.56
298.062	272.56
298.292	262.56
298.523	280.56
298.753	280.56
298.984	287.56
299.214	267.56
299.445	286.56
299.675	276.56
299.905	317.56
300.136	294.56
300.366	283.56
300.597	285.56
300.827	277.56
301.057	298.56
301.288	297.56
301.518	308.56
301.748	310.56
301.979	292.56
302.209	309.56
302.439	291.56
302.669	296.56
302.9	296.56
303.13	290.56
303.36	301.56
303.59	296.56
303.82	312.56
304.051	335.56
304.281	298.56
304.511	299.56
304.741	305.56
304.971	304.56
305.201	299.56
305.431	289.56
305.661	301.56
305.891	283.56
306.121	302.56
306.352	319.56
306.582	306.56
306.812	312.56
307.042	296.56
307.272	297.56
307.502	319.56
307.731	318.56
307.961	306.56
308.191	308.56
308.421	295.56
308.651	310.56
308.881	316.56
309.111	320.56
309.341	306.56
309.571	330.56
309.8	336.56
310.03	344.56
310.26	363.56
310.49	327.56
310.72	339.56
310.949	372.56
311.179	367.56
311.409	351.56
311.639	338.56
311.868	356.56
312.098	357.56
312.328	350.56
312.557	360.56
312.787	386.56
313.017	358.56
313.246	358.56
313.476	353.56
313.706	336.56
313.935	348.56
314.165	356.56
314.394	369.56
314.624	357.56
314.853	346.56
315.083	343.56
315.312	354.56
315.542	338.56
315.771	330.56
316.001	328.56
316.23	333.56
316.46	344.56
316.689	341.56
316.919	377.56
317.148	349.56
317.377	357.56
317.607	362.56
317.836	349.56
318.065	336.56
318.295	340.56
318.524	333.56
318.753	330.56
318.983	346.56
319.212	340.56
319.441	370.56
319.67	356.56
319.9	352.56
320.129	368.56
320.358	352.56
320.587	363.56
320.816	350.56
321.046	360.56
321.275	377.56
321.504	374.56
321.733	354.56
321.962	368.56
322.191	401.56
322.42	404.56
322.649	414.56
322.878	418.56
323.108	439.56
323.337	418.56
323.566	469.56
323.795	507.56
324.024	570.56
324.253	701.56
324.482	1000.56
324.71	1486.56
324.939	1990.56
325.168	1658.56
325.397	897.56
325.626	608.56
325.855	532.56
326.084	495.56
326.313	476.56
326.542	480.56
326.77	530.56
326.999	639.56
327.228	863.56
327.457	1243.56
327.686	1476.56
327.914	991.56
328.143	695.56
328.372	591.56
328.6	550.56
328.829	545.56
329.058	535.56
329.287	555.56
329.515	509.56
329.744	470.56
329.972	477.56
330.201	501.56
330.43	533.56
330.658	533.56
330.887	559.56
331.115	556.56
331.344	478.56
331.572	441.56
331.801	463.56
332.03	433.56
332.258	422.56
332.486	416.56
332.715	414.56
332.943	424.56
333.172	412.56
333.4	426.56
333.629	436.56
333.857	440.56
334.085	447.56
334.314	446.56
334.542	468.56
334.771	464.56
334.999	436.56
335.227	424.56
335.455	409.56
335.684	395.56
335.912	411.56
336.14	401.56
336.369	392.56
336.597	405.56
336.825	393.56
337.053	428.56
337.281	396.56
337.51	379.56
337.738	397.56
337.966	392.56
338.194	404.56
338.422	399.56
338.65	398.56
338.878	402.56
339.106	384.56
339.334	392.56
339.562	369.56
339.79	383.56
340.018	382.56
340.246	380.56
340.474	391.56
340.702	389.56
340.93	386.56
341.158	388.56
341.386	381.56
341.614	387.56
341.842	389.56
342.07	376.56
342.298	384.56
342.526	404.56
342.754	382.56
342.981	363.56
343.209	376.56
343.437	378.56
343.665	380.56
343.893	407.56
344.12	406.56
344.348	394.56
344.576	398.56
344.804	413.56
345.031	408.56
345.259	407.56
345.487	382.56
345.714	400.56
345.942	378.56
346.17	376.56
346.397	375.56
346.625	392.56
346.853	366.56
347.08	384.56
347.308	401.56
347.535	396.56
347.763	396.56
347.99	396.56
348.218	378.56
348.445	388.56
348.673	377.56
348.9	372.56
349.128	383.56
349.355	371.56
349.583	354.56
349.81	365.56
350.037	361.56
350.265	352.56
350.492	362.56
350.72	372.56
350.947	378.56
351.174	397.56
351.402	404.56
351.629	380.56
351.856	397.56
352.083	385.56
352.311	405.56
352.538	403.56
352.765	412.56
352.992	377.56
353.22	380.56
353.447	372.56
353.674	359.56
353.901	356.56
354.128	369.56
354.355	361.56
354.583	346.56
354.81	345.56
355.037	363.56
355.264	351.56
355.491	354.56
355.718	368.56
355.945	352.56
356.172	351.56
356.399	359.56
356.626	340.56
356.853	347.56
357.08	363.56
357.307	334.56
357.534	349.56
357.761	348.56
357.988	351.56
358.215	334.56
358.441	359.56
358.668	338.56
358.895	356.56
359.122	360.56
359.349	375.56
359.576	376.56
359.802	415.56
360.029	427.56
360.256	440.56
360.483	401.56
360.709	384.56
360.936	394.56
361.163	377.56
361.39	385.56
361.616	400.56
361.843	375.56
362.07	360.56
362.296	369.56
362.523	381.56
362.749	388.56
362.976	381.56
363.203	368.56
363.429	352.56
363.656	359.56
363.882	359.56
364.109	375.56
364.335	362.56
364.562	349.56
364.788	333.56
365.015	358.56
365.241	364.56
365.468	369.56
365.694	366.56
365.92	345.56
366.147	382.56
366.373	362.56
366.599	348.56
366.826	365.56
367.052	341.56
367.278	366.56
367.505	356.56
367.731	356.56
367.957	360.56
368.184	341.56
368.41	352.56
368.636	388.56
368.862	382.56
369.089	362.56
369.315	355.56
369.541	351.56
369.767	346.56
369.993	365.56
370.219	357.56
370.445	352.56
370.672	366.56
370.898	357.56
371.124	353.56
371.35	354.56
371.576	349.56
371.802	362.56
372.028	358.56
372.254	357.56
372.48	353.56
372.706	359.56
372.932	355.56
373.158	348.56
373.384	352.56
373.61	357.56
373.835	349.56
374.061	344.56
374.287	364.56
374.513	370.56
374.739	366.56
374.965	360.56
375.191	347.56
375.416	346.56
375.642	360.56
375.868	370.56
376.094	350.56
376.319	363.56
376.545	340.56
376.771	347.56
376.997	341.56
377.222	338.56
377.448	354.56
377.674	352.56
377.899	359.56
378.125	356.56
378.35	346.56
378.576	367.56
378.802	333.56
379.027	334.56
379.253	356.56
379.478	355.56
379.704	325.56
379.929	353.56
380.155	337.56
380.38	348.56
380.606	350.56
380.831	363.56
381.057	361.56
381.282	350.56
381.507	345.56
381.733	346.56
381.958	349.56
382.184	360.56
382.409	367.56
382.634	368.56
382.86	338.56
383.085	352.56
383.31	367.56
383.535	344.56
383.761	345.56
383.986	354.56
384.211	337.56
384.436	354.56
384.662	352.56
384.887	369.56
385.112	368.56
385.337	369.56
385.562	363.56
385.787	365.56
386.013	384.56
386.238	380.56
386.463	378.56
386.688	370.56
386.913	364.56
387.138	380.56
387.363	367.56
387.588	371.56
387.813	361.56
388.038	375.56
388.263	375.56
388.488	381.56
388.713	375.56
388.938	366.56
389.163	369.56
389.387	386.56
389.612	384.56
389.837	380.56
390.062	369.56
390.287	380.56
390.512	396.56
390.736	379.56
390.961	378.56
391.186	351.56
391.411	375.56
391.636	389.56
391.86	393.56
392.085	391.56
392.31	376.56
392.534	391.56
392.759	391.56
392.984	383.56
393.208	401.56
393.433	367.56
393.658	369.56
393.882	372.56
394.107	392.56
394.331	394.56
394.556	393.56
394.78	379.56
395.005	391.56
395.229	372.56
395.454	373.56
395.678	378.56
395.903	385.56
396.127	382.56
396.352	412.56
396.576	391.56
396.801	380.56
397.025	390.56
397.249	405.56
397.474	399.56
397.698	392.56
397.922	397.56
398.147	422.56
398.371	436.56
398.595	417.56
398.82	418.56
399.044	434.56
399.268	438.56
399.492	453.56
399.717	490.56
399.941	488.56
400.165	521.56
400.389	520.56
400.613	481.56
400.837	456.56
401.062	442.56
401.286	426.56
401.51	426.56
401.734	417.56
401.958	418.56
402.182	426.56
402.406	453.56
402.63	429.56
402.854	443.56
403.078	442.56
403.302	430.56
403.526	449.56
403.75	444.56
403.974	421.56
404.198	440.56
404.422	421.56
404.645	448.56
404.869	455.56
405.093	480.56
405.317	482.56
405.541	520.56
405.765	478.56
405.988	456.56
406.212	474.56
406.436	503.56
406.66	504.56
406.883	490.56
407.107	510.56
407.331	521.56
407.555	587.56
407.778	567.56
408.002	522.56
408.226	495.56
408.449	473.56
408.673	468.56
408.896	490.56
409.12	523.56
409.344	493.56
409.567	464.56
409.791	445.56
410.014	457.56
410.238	432.56
410.461	445.56
410.685	448.56
410.908	450.56
411.132	488.56
411.355	480.56
411.578	488.56
411.802	441.56
412.025	442.56
412.249	447.56
412.472	438.56
412.695	482.56
412.919	490.56
413.142	421.56
413.365	439.56
413.589	423.56
413.812	420.56
414.035	436.56
414.258	420.56
414.482	389.56
414.705	395.56
414.928	436.56
415.151	393.56
415.374	401.56
415.597	404.56
415.821	418.56
416.044	405.56
416.267	433.56
416.49	430.56
416.713	402.56
416.936	407.56
417.159	422.56
417.382	430.56
417.605	405.56
417.828	430.56
418.051	432.56
418.274	453.56
418.497	432.56
418.72	417.56
418.943	411.56
419.166	418.56
419.389	430.56
419.611	426.56
419.834	410.56
420.057	431.56
420.28	440.56
420.503	428.56
420.726	453.56
420.948	458.56
421.171	464.56
421.394	512.56
421.617	460.56
421.839	433.56
422.062	442.56
422.285	444.56
422.507	488.56
422.73	538.56
422.953	502.56
423.175	480.56
423.398	457.56
423.621	463.56
423.843	462.56
424.066	471.56
424.288	458.56
424.511	493.56
424.733	543.56
424.956	583.56
425.178	542.56
425.401	598.56
425.623	565.56
425.846	492.56
426.068	447.56
426.291	460.56
426.513	464.56
426.735	485.56
426.958	501.56
427.18	551.56
427.402	665.56
427.625	716.56
427.847	646.56
428.069	572.56
428.292	526.56
428.514	481.56
428.736	449.56
428.958	440.56
429.181	439.56
429.403	430.56
429.625	426.56
429.847	493.56
430.069	515.56
430.292	514.56
430.514	449.56
430.736	412.56
430.958	415.56
431.18	419.56
431.402	431.56
431.624	417.56
431.846	405.56
432.068	400.56
432.29	427.56
432.512	394.56
432.734	437.56
432.956	416.56
433.178	409.56
433.4	444.56
433.622	410.56
433.844	410.56
434.066	414.56
434.287	427.56
434.509	395.56
434.731	437.56
434.953	426.56
435.175	448.56
435.397	464.56
435.618	456.56
435.84	509.56
436.062	568.56
436.284	620.56
436.505	521.56
436.727	492.56
436.949	458.56
437.17	439.56
437.392	429.56
437.614	444.56
437.835	488.56
438.057	570.56
438.278	621.56
438.5	603.56
438.721	672.56
438.943	632.56
439.165	516.56
439.386	482.56
439.608	484.56
439.829	483.56
440.05	493.56
440.272	546.56
440.493	509.56
440.715	462.56
440.936	442.56
441.158	426.56
441.379	434.56
441.6	466.56
441.822	477.56
442.043	500.56
442.264	558.56
442.486	591.56
442.707	506.56
442.928	495.56
443.149	483.56
443.371	493.56
443.592	520.56
443.813	604.56
444.034	636.56
444.255	549.56
444.476	490.56
444.698	464.56
444.919	459.56
445.14	557.56
445.361	530.56
445.582	510.56
445.803	552.56
446.024	632.56
446.245	653.56
446.466	578.56
446.687	473.56
446.908	477.56
447.129	442.56
447.35	422.56
447.571	448.56
447.792	426.56
448.013	438.56
448.234	444.56
448.455	490.56
448.675	595.56
448.896	651.56
449.117	546.56
449.338	551.56
449.559	631.56
449.779	684.56
450	556.56
450.221	466.56
450.442	428.56
450.662	429.56
450.883	435.56
451.104	500.56
451.324	443.56
451.545	437.56
451.766	411.56
451.986	396.56
452.207	383.56
452.428	399.56
452.648	388.56
452.869	398.56
453.089	390.56
453.31	413.56
453.53	410.56
453.751	393.56
453.971	394.56
454.192	404.56
454.412	412.56
454.633	392.56
454.853	390.56
455.073	376.56
455.294	416.56
455.514	492.56
455.734	474.56
455.955	391.56
456.175	369.56
456.395	359.56
456.616	363.56
456.836	381.56
457.056	386.56
457.276	359.56
457.497	367.56
457.717	377.56
457.937	388.56
458.157	373.56
458.377	383.56
458.598	397.56
458.818	457.56
459.038	537.56
459.258	513.56
459.478	457.56
459.698	427.56
459.918	390.56
460.138	393.56
460.358	407.56
460.578	405.56
460.798	426.56
461.018	426.56
461.238	408.56
461.458	414.56
461.678	401.56
461.898	406.56
462.118	409.56
462.338	399.56
462.558	418.56
462.777	426.56
462.997	428.56
463.217	438.56
463.437	448.56
463.657	441.56
463.876	422.56
464.096	426.56
464.316	415.56
464.536	426.56
464.755	450.56
464.975	443.56
465.195	498.56
465.414	599.56
465.634	531.56
465.854	459.56
466.073	416.56
466.293	407.56
466.512	391.56
466.732	409.56
466.951	382.56
467.171	403.56
467.391	414.56
467.61	416.56
467.829	415.56
468.049	394.56
468.268	394.56
468.488	391.56
468.707	407.56
468.927	395.56
469.146	388.56
469.365	400.56
469.585	386.56
469.804	407.56
470.023	409.56
470.243	409.56
470.462	429.56
470.681	430.56
470.901	396.56
471.12	403.56
471.339	432.56
471.558	410.56
471.777	386.56
471.997	388.56
472.216	409.56
472.435	427.56
472.654	425.56
472.873	426.56
473.092	420.56
473.311	411.56
473.53	399.56
473.749	414.56
473.968	440.56
474.187	539.56
474.406	553.56
474.625	455.56
474.844	428.56
475.063	393.56
475.282	399.56
475.501	405.56
475.72	387.56
475.939	407.56
476.158	404.56
476.377	400.56
476.596	407.56
476.814	442.56
477.033	433.56
477.252	444.56
477.471	424.56
477.69	435.56
477.908	440.56
478.127	437.56
478.346	442.56
478.564	446.56
478.783	430.56
479.002	460.56
479.22	439.56
479.439	488.56
479.658	472.56
479.876	488.56
480.095	505.56
480.313	528.56
480.532	500.56
480.751	477.56
480.969	518.56
481.188	539.56
481.406	541.56
481.624	483.56
481.843	482.56
482.061	480.56
482.28	474.56
482.498	461.56
482.717	461.56
482.935	454.56
483.153	479.56
483.372	460.56
483.59	485.56
483.808	459.56
484.027	458.56
484.245	468.56
484.463	470.56
484.681	475.56
484.9	481.56
485.118	474.56
485.336	468.56
485.554	482.56
485.772	482.56
485.99	480.56
486.209	463.56
486.427	498.56
486.645	506.56
486.863	530.56
487.081	513.56
487.299	503.56
487.517	497.56
487.735	494.56
487.953	503.56
488.171	520.56
488.389	522.56
488.607	506.56
488.825	494.56
489.043	504.56
489.261	507.56
489.479	527.56
489.696	535.56
489.914	528.56
490.132	536.56
490.35	526.56
490.568	554.56
490.786	552.56
491.003	534.56
491.221	563.56
491.439	572.56
491.657	594.56
491.874	591.56
492.092	566.56
492.31	597.56
492.527	589.56
492.745	561.56
492.963	601.56
493.18	598.56
493.398	590.56
493.615	597.56
493.833	578.56
494.05	593.56
494.268	611.56
494.485	603.56
494.703	591.56
494.92	593.56
495.138	592.56
495.355	600.56
495.573	585.56
495.79	604.56
496.008	589.56
496.225	592.56
496.442	602.56
496.66	587.56
496.877	602.56
497.094	606.56
497.312	624.56
497.529	604.56
497.746	630.56
497.963	644.56
498.181	652.56
498.398	651.56
498.615	663.56
498.832	652.56
499.049	645.56
499.267	650.56
499.484	702.56
499.701	719.56
499.918	712.56
500.135	747.56
500.352	783.56
500.569	777.56
500.786	786.56
501.003	792.56
501.22	764.56
501.437	749.56
501.654	735.56
501.871	719.56
