Data from 1983.PennyLincolnUp.Lamp.En5.5.200Scan.071819.P1_HRD10591_16-53-43-966.txt Node
Date: Thu Jul 18 16:53:43 EDT 2019
User: cochatt
Spectrometer: HR+D1059
Trigger mode: 1
Integration Time (sec): 1.000000E-1
Scans to average: 1
Electric dark correction enabled: true
Nonlinearity correction enabled: false
Boxcar width: 0
XAxis mode: Wavelengths
Number of Pixels in Spectrum: 2048
>>>>>Begin Spectral Data<<<<<
223.165	-8.44
223.4	-8.44
223.635	-8.44
223.869	-25.44
224.104	-28.44
224.338	-3.44
224.573	-16.44
224.808	-15.44
225.042	-3.44
225.277	-0.44
225.511	-6.44
225.746	-9.44
225.98	3.56
226.215	16.56
226.449	24.56
226.683	31.56
226.918	18.56
227.152	22.56
227.387	32.56
227.621	32.56
227.856	46.56
228.09	56.56
228.324	49.56
228.559	59.56
228.793	66.56
229.027	90.56
229.262	96.56
229.496	108.56
229.73	114.56
229.964	143.56
230.199	121.56
230.433	113.56
230.667	105.56
230.901	106.56
231.136	112.56
231.37	112.56
231.604	94.56
231.838	115.56
232.072	107.56
232.306	103.56
232.541	108.56
232.775	104.56
233.009	89.56
233.243	124.56
233.477	133.56
233.711	109.56
233.945	129.56
234.179	106.56
234.413	118.56
234.647	106.56
234.881	111.56
235.115	119.56
235.349	134.56
235.583	120.56
235.817	109.56
236.051	95.56
236.285	109.56
236.519	117.56
236.753	124.56
236.987	137.56
237.221	174.56
237.455	206.56
237.689	166.56
237.922	129.56
238.156	145.56
238.39	121.56
238.624	125.56
238.858	117.56
239.091	120.56
239.325	117.56
239.559	120.56
239.793	123.56
240.027	124.56
240.26	131.56
240.494	145.56
240.728	139.56
240.961	141.56
241.195	130.56
241.429	130.56
241.662	112.56
241.896	134.56
242.13	135.56
242.363	116.56
242.597	122.56
242.83	127.56
243.064	138.56
243.298	148.56
243.531	125.56
243.765	126.56
243.998	135.56
244.232	141.56
244.465	125.56
244.699	145.56
244.932	126.56
245.166	141.56
245.399	140.56
245.633	133.56
245.866	131.56
246.099	128.56
246.333	128.56
246.566	148.56
246.8	142.56
247.033	136.56
247.266	141.56
247.5	149.56
247.733	168.56
247.966	166.56
248.2	160.56
248.433	174.56
248.666	148.56
248.899	176.56
249.133	183.56
249.366	170.56
249.599	161.56
249.832	179.56
250.066	175.56
250.299	167.56
250.532	186.56
250.765	207.56
250.998	199.56
251.231	200.56
251.465	202.56
251.698	182.56
251.931	203.56
252.164	167.56
252.397	185.56
252.63	199.56
252.863	184.56
253.096	196.56
253.329	200.56
253.562	205.56
253.795	207.56
254.028	187.56
254.261	201.56
254.494	211.56
254.727	236.56
254.96	249.56
255.193	243.56
255.426	226.56
255.659	211.56
255.892	215.56
256.124	205.56
256.357	204.56
256.59	209.56
256.823	207.56
257.056	197.56
257.289	191.56
257.521	189.56
257.754	161.56
257.987	194.56
258.22	183.56
258.452	189.56
258.685	176.56
258.918	184.56
259.151	212.56
259.383	190.56
259.616	206.56
259.849	200.56
260.081	214.56
260.314	216.56
260.547	235.56
260.779	230.56
261.012	227.56
261.244	209.56
261.477	204.56
261.71	204.56
261.942	216.56
262.175	205.56
262.407	221.56
262.64	206.56
262.872	179.56
263.105	204.56
263.337	198.56
263.57	188.56
263.802	196.56
264.035	192.56
264.267	204.56
264.499	181.56
264.732	183.56
264.964	183.56
265.197	195.56
265.429	193.56
265.661	192.56
265.894	200.56
266.126	191.56
266.358	195.56
266.591	195.56
266.823	192.56
267.055	204.56
267.287	193.56
267.52	208.56
267.752	207.56
267.984	211.56
268.216	204.56
268.448	224.56
268.681	211.56
268.913	218.56
269.145	249.56
269.377	230.56
269.609	241.56
269.841	243.56
270.073	245.56
270.306	270.56
270.538	268.56
270.77	282.56
271.002	268.56
271.234	274.56
271.466	257.56
271.698	289.56
271.93	283.56
272.162	269.56
272.394	271.56
272.626	257.56
272.858	269.56
273.09	252.56
273.322	229.56
273.553	222.56
273.785	249.56
274.017	231.56
274.249	233.56
274.481	238.56
274.713	235.56
274.945	241.56
275.176	247.56
275.408	237.56
275.64	253.56
275.872	260.56
276.104	245.56
276.335	226.56
276.567	250.56
276.799	267.56
277.031	282.56
277.262	263.56
277.494	282.56
277.726	272.56
277.957	270.56
278.189	255.56
278.421	261.56
278.652	253.56
278.884	249.56
279.115	244.56
279.347	231.56
279.579	243.56
279.81	246.56
280.042	215.56
280.273	244.56
280.505	248.56
280.736	237.56
280.968	232.56
281.199	249.56
281.431	233.56
281.662	240.56
281.894	243.56
282.125	243.56
282.356	240.56
282.588	261.56
282.819	273.56
283.051	245.56
283.282	235.56
283.513	244.56
283.745	250.56
283.976	247.56
284.207	237.56
284.439	266.56
284.67	251.56
284.901	236.56
285.132	243.56
285.364	248.56
285.595	246.56
285.826	252.56
286.057	259.56
286.288	250.56
286.52	237.56
286.751	253.56
286.982	259.56
287.213	267.56
287.444	241.56
287.675	252.56
287.906	256.56
288.138	273.56
288.369	279.56
288.6	275.56
288.831	253.56
289.062	257.56
289.293	250.56
289.524	246.56
289.755	254.56
289.986	260.56
290.217	254.56
290.448	247.56
290.679	267.56
290.91	251.56
291.141	251.56
291.371	248.56
291.602	244.56
291.833	268.56
292.064	261.56
292.295	250.56
292.526	265.56
292.757	244.56
292.987	265.56
293.218	276.56
293.449	239.56
293.68	255.56
293.91	251.56
294.141	252.56
294.372	260.56
294.603	251.56
294.833	264.56
295.064	248.56
295.295	267.56
295.525	240.56
295.756	260.56
295.987	295.56
296.217	305.56
296.448	309.56
296.679	257.56
296.909	263.56
297.14	274.56
297.37	272.56
297.601	277.56
297.831	272.56
298.062	281.56
298.292	275.56
298.523	263.56
298.753	262.56
298.984	274.56
299.214	281.56
299.445	264.56
299.675	291.56
299.905	285.56
300.136	265.56
300.366	271.56
300.597	278.56
300.827	280.56
301.057	277.56
301.288	286.56
301.518	272.56
301.748	303.56
301.979	288.56
302.209	259.56
302.439	259.56
302.669	288.56
302.9	293.56
303.13	278.56
303.36	278.56
303.59	297.56
303.82	288.56
304.051	317.56
304.281	300.56
304.511	295.56
304.741	286.56
304.971	259.56
305.201	283.56
305.431	309.56
305.661	300.56
305.891	296.56
306.121	292.56
306.352	307.56
306.582	295.56
306.812	295.56
307.042	287.56
307.272	291.56
307.502	289.56
307.731	285.56
307.961	279.56
308.191	299.56
308.421	288.56
308.651	303.56
308.881	302.56
309.111	299.56
309.341	303.56
309.571	321.56
309.8	321.56
310.03	326.56
310.26	326.56
310.49	334.56
310.72	345.56
310.949	351.56
311.179	379.56
311.409	323.56
311.639	350.56
311.868	335.56
312.098	326.56
312.328	349.56
312.557	361.56
312.787	374.56
313.017	360.56
313.246	359.56
313.476	336.56
313.706	339.56
313.935	340.56
314.165	348.56
314.394	352.56
314.624	362.56
314.853	340.56
315.083	336.56
315.312	344.56
315.542	325.56
315.771	329.56
316.001	335.56
316.23	329.56
316.46	320.56
316.689	321.56
316.919	336.56
317.148	329.56
317.377	362.56
317.607	331.56
317.836	331.56
318.065	331.56
318.295	337.56
318.524	350.56
318.753	319.56
318.983	331.56
319.212	335.56
319.441	337.56
319.67	355.56
319.9	341.56
320.129	331.56
320.358	341.56
320.587	336.56
320.816	347.56
321.046	376.56
321.275	387.56
321.504	357.56
321.733	346.56
321.962	350.56
322.191	378.56
322.42	383.56
322.649	391.56
322.878	419.56
323.108	414.56
323.337	449.56
323.566	464.56
323.795	496.56
324.024	558.56
324.253	695.56
324.482	957.56
324.71	1463.56
324.939	2003.56
325.168	1652.56
325.397	893.56
325.626	603.56
325.855	508.56
326.084	491.56
326.313	445.56
326.542	456.56
326.77	497.56
326.999	609.56
327.228	839.56
327.457	1251.56
327.686	1473.56
327.914	957.56
328.143	693.56
328.372	550.56
328.6	549.56
328.829	502.56
329.058	539.56
329.287	539.56
329.515	507.56
329.744	482.56
329.972	449.56
330.201	485.56
330.43	509.56
330.658	522.56
330.887	559.56
331.115	540.56
331.344	462.56
331.572	449.56
331.801	435.56
332.03	422.56
332.258	436.56
332.486	390.56
332.715	392.56
332.943	392.56
333.172	379.56
333.4	402.56
333.629	408.56
333.857	416.56
334.085	408.56
334.314	412.56
334.542	440.56
334.771	430.56
334.999	411.56
335.227	406.56
335.455	397.56
335.684	386.56
335.912	387.56
336.14	377.56
336.369	404.56
336.597	393.56
336.825	403.56
337.053	391.56
337.281	381.56
337.51	381.56
337.738	401.56
337.966	392.56
338.194	378.56
338.422	389.56
338.65	374.56
338.878	365.56
339.106	373.56
339.334	373.56
339.562	383.56
339.79	391.56
340.018	398.56
340.246	380.56
340.474	392.56
340.702	388.56
340.93	384.56
341.158	357.56
341.386	367.56
341.614	359.56
341.842	364.56
342.07	365.56
342.298	367.56
342.526	357.56
342.754	371.56
342.981	353.56
343.209	337.56
343.437	372.56
343.665	383.56
343.893	384.56
344.12	382.56
344.348	369.56
344.576	383.56
344.804	408.56
345.031	401.56
345.259	383.56
345.487	369.56
345.714	374.56
345.942	396.56
346.17	367.56
346.397	355.56
346.625	355.56
346.853	344.56
347.08	380.56
347.308	365.56
347.535	383.56
347.763	371.56
347.99	369.56
348.218	374.56
348.445	385.56
348.673	373.56
348.9	350.56
349.128	369.56
349.355	342.56
349.583	363.56
349.81	360.56
350.037	357.56
350.265	351.56
350.492	350.56
350.72	359.56
350.947	364.56
351.174	369.56
351.402	367.56
351.629	381.56
351.856	358.56
352.083	375.56
352.311	391.56
352.538	386.56
352.765	389.56
352.992	378.56
353.22	359.56
353.447	355.56
353.674	354.56
353.901	341.56
354.128	347.56
354.355	347.56
354.583	341.56
354.81	335.56
355.037	339.56
355.264	342.56
355.491	350.56
355.718	315.56
355.945	319.56
356.172	339.56
356.399	318.56
356.626	341.56
356.853	351.56
357.08	331.56
357.307	327.56
357.534	341.56
357.761	331.56
357.988	341.56
358.215	342.56
358.441	316.56
358.668	323.56
358.895	342.56
359.122	353.56
359.349	369.56
359.576	363.56
359.802	390.56
360.029	427.56
360.256	428.56
360.483	396.56
360.709	377.56
360.936	364.56
361.163	369.56
361.39	390.56
361.616	362.56
361.843	371.56
362.07	372.56
362.296	363.56
362.523	367.56
362.749	344.56
362.976	332.56
363.203	338.56
363.429	346.56
363.656	361.56
363.882	350.56
364.109	356.56
364.335	340.56
364.562	340.56
364.788	349.56
365.015	342.56
365.241	333.56
365.468	342.56
365.694	364.56
365.92	356.56
366.147	336.56
366.373	342.56
366.599	352.56
366.826	342.56
367.052	335.56
367.278	352.56
367.505	340.56
367.731	362.56
367.957	336.56
368.184	334.56
368.41	331.56
368.636	350.56
368.862	384.56
369.089	353.56
369.315	357.56
369.541	361.56
369.767	345.56
369.993	345.56
370.219	342.56
370.445	338.56
370.672	349.56
370.898	332.56
371.124	335.56
371.35	328.56
371.576	334.56
371.802	327.56
372.028	337.56
372.254	359.56
372.48	332.56
372.706	335.56
372.932	330.56
373.158	338.56
373.384	338.56
373.61	333.56
373.835	349.56
374.061	343.56
374.287	328.56
374.513	332.56
374.739	343.56
374.965	344.56
375.191	346.56
375.416	333.56
375.642	338.56
375.868	352.56
376.094	354.56
376.319	333.56
376.545	348.56
376.771	353.56
376.997	351.56
377.222	336.56
377.448	327.56
377.674	329.56
377.899	343.56
378.125	325.56
378.35	345.56
378.576	323.56
378.802	327.56
379.027	330.56
379.253	326.56
379.478	331.56
379.704	325.56
379.929	344.56
380.155	346.56
380.38	344.56
380.606	344.56
380.831	336.56
381.057	350.56
381.282	338.56
381.507	323.56
381.733	338.56
381.958	345.56
382.184	349.56
382.409	343.56
382.634	352.56
382.86	316.56
383.085	350.56
383.31	352.56
383.535	337.56
383.761	345.56
383.986	348.56
384.211	355.56
384.436	359.56
384.662	360.56
384.887	354.56
385.112	361.56
385.337	361.56
385.562	358.56
385.787	363.56
386.013	383.56
386.238	361.56
386.463	383.56
386.688	377.56
386.913	354.56
387.138	352.56
387.363	344.56
387.588	364.56
387.813	358.56
388.038	353.56
388.263	375.56
388.488	369.56
388.713	379.56
388.938	369.56
389.163	366.56
389.387	362.56
389.612	356.56
389.837	356.56
390.062	359.56
390.287	356.56
390.512	374.56
390.736	385.56
390.961	360.56
391.186	369.56
391.411	355.56
391.636	385.56
391.86	383.56
392.085	395.56
392.31	386.56
392.534	384.56
392.759	375.56
392.984	374.56
393.208	353.56
393.433	371.56
393.658	360.56
393.882	358.56
394.107	362.56
394.331	379.56
394.556	368.56
394.78	355.56
395.005	365.56
395.229	360.56
395.454	387.56
395.678	375.56
395.903	376.56
396.127	385.56
396.352	380.56
396.576	367.56
396.801	364.56
397.025	379.56
397.249	381.56
397.474	377.56
397.698	398.56
397.922	402.56
398.147	391.56
398.371	408.56
398.595	391.56
398.82	389.56
399.044	405.56
399.268	422.56
399.492	443.56
399.717	467.56
399.941	482.56
400.165	509.56
400.389	473.56
400.613	462.56
400.837	454.56
401.062	427.56
401.286	435.56
401.51	422.56
401.734	393.56
401.958	424.56
402.182	415.56
402.406	441.56
402.63	410.56
402.854	423.56
403.078	424.56
403.302	430.56
403.526	409.56
403.75	425.56
403.974	391.56
404.198	419.56
404.422	416.56
404.645	450.56
404.869	437.56
405.093	441.56
405.317	464.56
405.541	492.56
405.765	446.56
405.988	447.56
406.212	481.56
406.436	491.56
406.66	487.56
406.883	477.56
407.107	464.56
407.331	497.56
407.555	552.56
407.778	544.56
408.002	499.56
408.226	455.56
408.449	465.56
408.673	456.56
408.896	475.56
409.12	506.56
409.344	477.56
409.567	445.56
409.791	445.56
410.014	415.56
410.238	417.56
410.461	417.56
410.685	431.56
410.908	425.56
411.132	452.56
411.355	480.56
411.578	456.56
411.802	428.56
412.025	406.56
412.249	436.56
412.472	441.56
412.695	432.56
412.919	413.56
413.142	423.56
413.365	401.56
413.589	429.56
413.812	410.56
414.035	374.56
414.258	412.56
414.482	384.56
414.705	424.56
414.928	395.56
415.151	407.56
415.374	408.56
415.597	383.56
415.821	408.56
416.044	402.56
416.267	420.56
416.49	389.56
416.713	391.56
416.936	419.56
417.159	392.56
417.382	392.56
417.605	394.56
417.828	406.56
418.051	410.56
418.274	415.56
418.497	414.56
418.72	393.56
418.943	390.56
419.166	414.56
419.389	431.56
419.611	419.56
419.834	441.56
420.057	432.56
420.28	409.56
420.503	406.56
420.726	411.56
420.948	413.56
421.171	460.56
421.394	477.56
421.617	446.56
421.839	429.56
422.062	407.56
422.285	439.56
422.507	492.56
422.73	516.56
422.953	476.56
423.175	451.56
423.398	422.56
423.621	448.56
423.843	430.56
424.066	452.56
424.288	445.56
424.511	460.56
424.733	495.56
424.956	553.56
425.178	547.56
425.401	535.56
425.623	565.56
425.846	486.56
426.068	451.56
426.291	439.56
426.513	456.56
426.735	463.56
426.958	503.56
427.18	552.56
427.402	654.56
427.625	742.56
427.847	615.56
428.069	543.56
428.292	500.56
428.514	434.56
428.736	443.56
428.958	434.56
429.181	412.56
429.403	426.56
429.625	432.56
429.847	460.56
430.069	497.56
430.292	484.56
430.514	444.56
430.736	432.56
430.958	430.56
431.18	398.56
431.402	386.56
431.624	391.56
431.846	397.56
432.068	402.56
432.29	393.56
432.512	393.56
432.734	403.56
432.956	409.56
433.178	409.56
433.4	417.56
433.622	415.56
433.844	392.56
434.066	382.56
434.287	405.56
434.509	415.56
434.731	416.56
434.953	422.56
435.175	427.56
435.397	452.56
435.618	457.56
435.84	474.56
436.062	553.56
436.284	587.56
436.505	522.56
436.727	484.56
436.949	448.56
437.17	424.56
437.392	432.56
437.614	445.56
437.835	446.56
438.057	535.56
438.278	622.56
438.5	602.56
438.721	648.56
438.943	626.56
439.165	495.56
439.386	466.56
439.608	470.56
439.829	472.56
440.05	487.56
440.272	521.56
440.493	482.56
440.715	427.56
440.936	441.56
441.158	437.56
441.379	433.56
441.6	452.56
441.822	453.56
442.043	459.56
442.264	558.56
442.486	569.56
442.707	492.56
442.928	473.56
443.149	472.56
443.371	501.56
443.592	535.56
443.813	601.56
444.034	615.56
444.255	522.56
444.476	461.56
444.698	455.56
444.919	442.56
445.14	555.56
445.361	494.56
445.582	504.56
445.803	512.56
446.024	599.56
446.245	629.56
446.466	545.56
446.687	477.56
446.908	457.56
447.129	430.56
447.35	432.56
447.571	423.56
447.792	427.56
448.013	421.56
448.234	447.56
448.455	499.56
448.675	558.56
448.896	656.56
449.117	564.56
449.338	545.56
449.559	617.56
449.779	656.56
450	550.56
450.221	463.56
450.442	423.56
450.662	421.56
450.883	427.56
451.104	455.56
451.324	437.56
451.545	420.56
451.766	395.56
451.986	409.56
452.207	380.56
452.428	367.56
452.648	382.56
452.869	396.56
453.089	388.56
453.31	407.56
453.53	376.56
453.751	400.56
453.971	393.56
454.192	391.56
454.412	392.56
454.633	395.56
454.853	365.56
455.073	387.56
455.294	402.56
455.514	472.56
455.734	439.56
455.955	384.56
456.175	367.56
456.395	362.56
456.616	367.56
456.836	361.56
457.056	349.56
457.276	347.56
457.497	364.56
457.717	355.56
457.937	361.56
458.157	372.56
458.377	367.56
458.598	383.56
458.818	451.56
459.038	529.56
459.258	536.56
459.478	435.56
459.698	397.56
459.918	402.56
460.138	407.56
460.358	391.56
460.578	394.56
460.798	402.56
461.018	390.56
461.238	396.56
461.458	393.56
461.678	387.56
461.898	389.56
462.118	411.56
462.338	397.56
462.558	415.56
462.777	399.56
462.997	413.56
463.217	408.56
463.437	443.56
463.657	417.56
463.876	423.56
464.096	419.56
464.316	436.56
464.536	415.56
464.755	418.56
464.975	437.56
465.195	489.56
465.414	545.56
465.634	500.56
465.854	428.56
466.073	432.56
466.293	405.56
466.512	391.56
466.732	404.56
466.951	379.56
467.171	389.56
467.391	383.56
467.61	411.56
467.829	400.56
468.049	396.56
468.268	394.56
468.488	372.56
468.707	380.56
468.927	374.56
469.146	366.56
469.365	367.56
469.585	379.56
469.804	380.56
470.023	401.56
470.243	403.56
470.462	412.56
470.681	452.56
470.901	408.56
471.12	395.56
471.339	405.56
471.558	391.56
471.777	405.56
471.997	382.56
472.216	397.56
472.435	397.56
472.654	392.56
472.873	379.56
473.092	388.56
473.311	398.56
473.53	399.56
473.749	413.56
473.968	445.56
474.187	524.56
474.406	504.56
474.625	430.56
474.844	409.56
475.063	407.56
475.282	395.56
475.501	401.56
475.72	392.56
475.939	396.56
476.158	394.56
476.377	415.56
476.596	406.56
476.814	411.56
477.033	402.56
477.252	422.56
477.471	415.56
477.69	424.56
477.908	411.56
478.127	435.56
478.346	441.56
478.564	424.56
478.783	434.56
479.002	441.56
479.22	445.56
479.439	446.56
479.658	460.56
479.876	447.56
480.095	465.56
480.313	483.56
480.532	459.56
480.751	477.56
480.969	491.56
481.188	510.56
481.406	513.56
481.624	481.56
481.843	472.56
482.061	466.56
482.28	465.56
482.498	465.56
482.717	464.56
482.935	457.56
483.153	433.56
483.372	447.56
483.59	468.56
483.808	456.56
484.027	456.56
484.245	456.56
484.463	457.56
484.681	464.56
484.9	459.56
485.118	456.56
485.336	460.56
485.554	477.56
485.772	460.56
485.99	471.56
486.209	471.56
486.427	471.56
486.645	502.56
486.863	495.56
487.081	512.56
487.299	514.56
487.517	467.56
487.735	487.56
487.953	494.56
488.171	494.56
488.389	489.56
488.607	489.56
488.825	499.56
489.043	488.56
489.261	496.56
489.479	511.56
489.696	480.56
489.914	498.56
490.132	501.56
490.35	505.56
490.568	504.56
490.786	525.56
491.003	552.56
491.221	523.56
491.439	553.56
491.657	548.56
491.874	559.56
492.092	569.56
492.31	575.56
492.527	564.56
492.745	560.56
492.963	589.56
493.18	581.56
493.398	594.56
493.615	541.56
493.833	594.56
494.05	579.56
494.268	581.56
494.485	583.56
494.703	567.56
494.92	598.56
495.138	588.56
495.355	587.56
495.573	565.56
495.79	579.56
496.008	583.56
496.225	566.56
496.442	575.56
496.66	591.56
496.877	584.56
497.094	568.56
497.312	577.56
497.529	600.56
497.746	611.56
497.963	599.56
498.181	616.56
498.398	630.56
498.615	608.56
498.832	643.56
499.049	643.56
499.267	651.56
499.484	668.56
499.701	684.56
499.918	721.56
500.135	728.56
500.352	752.56
500.569	748.56
500.786	772.56
501.003	759.56
501.22	736.56
501.437	713.56
501.654	747.56
501.871	721.56
502.088	683.56
