Data from 1983.PennyLincolnUp.Lamp.En5.5.200Scan.071819.P1_HRD10591_16-52-18-965.txt Node
Date: Thu Jul 18 16:52:18 EDT 2019
User: cochatt
Spectrometer: HR+D1059
Trigger mode: 1
Integration Time (sec): 1.000000E-1
Scans to average: 1
Electric dark correction enabled: true
Nonlinearity correction enabled: false
Boxcar width: 0
XAxis mode: Wavelengths
Number of Pixels in Spectrum: 2048
>>>>>Begin Spectral Data<<<<<
223.165	-17.44
223.4	-17.44
223.635	-17.44
223.869	-18.44
224.104	-10.44
224.338	-23.44
224.573	-8.44
224.808	-14.44
225.042	-4.44
225.277	0.56
225.511	-11.44
225.746	3.56
225.98	18.56
226.215	10.56
226.449	22.56
226.683	14.56
226.918	25.56
227.152	12.56
227.387	23.56
227.621	27.56
227.856	40.56
228.09	51.56
228.324	31.56
228.559	55.56
228.793	54.56
229.027	76.56
229.262	73.56
229.496	93.56
229.73	95.56
229.964	116.56
230.199	83.56
230.433	88.56
230.667	96.56
230.901	95.56
231.136	87.56
231.37	96.56
231.604	105.56
231.838	101.56
232.072	100.56
232.306	95.56
232.541	95.56
232.775	103.56
233.009	85.56
233.243	95.56
233.477	104.56
233.711	84.56
233.945	108.56
234.179	89.56
234.413	99.56
234.647	99.56
234.881	102.56
235.115	95.56
235.349	98.56
235.583	103.56
235.817	107.56
236.051	119.56
236.285	96.56
236.519	104.56
236.753	83.56
236.987	107.56
237.221	133.56
237.455	165.56
237.689	144.56
237.922	113.56
238.156	117.56
238.39	100.56
238.624	108.56
238.858	94.56
239.091	88.56
239.325	94.56
239.559	107.56
239.793	94.56
240.027	109.56
240.26	110.56
240.494	126.56
240.728	117.56
240.961	125.56
241.195	126.56
241.429	127.56
241.662	102.56
241.896	119.56
242.13	121.56
242.363	111.56
242.597	113.56
242.83	133.56
243.064	125.56
243.298	105.56
243.531	109.56
243.765	121.56
243.998	114.56
244.232	126.56
244.465	121.56
244.699	117.56
244.932	118.56
245.166	110.56
245.399	126.56
245.633	128.56
245.866	126.56
246.099	124.56
246.333	113.56
246.566	137.56
246.8	131.56
247.033	131.56
247.266	137.56
247.5	143.56
247.733	133.56
247.966	145.56
248.2	144.56
248.433	153.56
248.666	147.56
248.899	160.56
249.133	156.56
249.366	171.56
249.599	168.56
249.832	155.56
250.066	145.56
250.299	144.56
250.532	134.56
250.765	157.56
250.998	161.56
251.231	177.56
251.465	185.56
251.698	172.56
251.931	175.56
252.164	171.56
252.397	146.56
252.63	155.56
252.863	164.56
253.096	185.56
253.329	171.56
253.562	187.56
253.795	189.56
254.028	177.56
254.261	157.56
254.494	174.56
254.727	200.56
254.96	210.56
255.193	201.56
255.426	195.56
255.659	181.56
255.892	175.56
256.124	167.56
256.357	178.56
256.59	164.56
256.823	163.56
257.056	179.56
257.289	165.56
257.521	176.56
257.754	159.56
257.987	157.56
258.22	163.56
258.452	161.56
258.685	184.56
258.918	189.56
259.151	183.56
259.383	163.56
259.616	188.56
259.849	185.56
260.081	189.56
260.314	206.56
260.547	184.56
260.779	187.56
261.012	189.56
261.244	191.56
261.477	194.56
261.71	174.56
261.942	169.56
262.175	187.56
262.407	178.56
262.64	176.56
262.872	184.56
263.105	173.56
263.337	173.56
263.57	155.56
263.802	177.56
264.035	164.56
264.267	183.56
264.499	169.56
264.732	178.56
264.964	179.56
265.197	179.56
265.429	165.56
265.661	173.56
265.894	175.56
266.126	168.56
266.358	189.56
266.591	174.56
266.823	185.56
267.055	187.56
267.287	179.56
267.52	173.56
267.752	198.56
267.984	192.56
268.216	173.56
268.448	192.56
268.681	184.56
268.913	191.56
269.145	213.56
269.377	228.56
269.609	220.56
269.841	207.56
270.073	209.56
270.306	237.56
270.538	249.56
270.77	242.56
271.002	231.56
271.234	216.56
271.466	243.56
271.698	239.56
271.93	237.56
272.162	245.56
272.394	238.56
272.626	217.56
272.858	231.56
273.09	218.56
273.322	212.56
273.553	193.56
273.785	215.56
274.017	228.56
274.249	200.56
274.481	200.56
274.713	231.56
274.945	228.56
275.176	211.56
275.408	206.56
275.64	217.56
275.872	198.56
276.104	206.56
276.335	196.56
276.567	212.56
276.799	210.56
277.031	250.56
277.262	234.56
277.494	239.56
277.726	233.56
277.957	248.56
278.189	213.56
278.421	212.56
278.652	208.56
278.884	209.56
279.115	220.56
279.347	200.56
279.579	212.56
279.81	217.56
280.042	223.56
280.273	209.56
280.505	215.56
280.736	202.56
280.968	205.56
281.199	211.56
281.431	215.56
281.662	210.56
281.894	200.56
282.125	215.56
282.356	232.56
282.588	227.56
282.819	232.56
283.051	215.56
283.282	207.56
283.513	213.56
283.745	231.56
283.976	225.56
284.207	203.56
284.439	231.56
284.67	225.56
284.901	227.56
285.132	216.56
285.364	213.56
285.595	207.56
285.826	227.56
286.057	222.56
286.288	216.56
286.52	226.56
286.751	219.56
286.982	204.56
287.213	217.56
287.444	234.56
287.675	212.56
287.906	213.56
288.138	239.56
288.369	245.56
288.6	246.56
288.831	239.56
289.062	252.56
289.293	233.56
289.524	239.56
289.755	227.56
289.986	219.56
290.217	216.56
290.448	227.56
290.679	237.56
290.91	229.56
291.141	229.56
291.371	224.56
291.602	214.56
291.833	239.56
292.064	227.56
292.295	237.56
292.526	229.56
292.757	258.56
292.987	226.56
293.218	239.56
293.449	233.56
293.68	235.56
293.91	222.56
294.141	232.56
294.372	225.56
294.603	246.56
294.833	236.56
295.064	256.56
295.295	237.56
295.525	222.56
295.756	251.56
295.987	241.56
296.217	251.56
296.448	247.56
296.679	257.56
296.909	229.56
297.14	243.56
297.37	269.56
297.601	221.56
297.831	241.56
298.062	238.56
298.292	224.56
298.523	244.56
298.753	249.56
298.984	245.56
299.214	252.56
299.445	243.56
299.675	256.56
299.905	253.56
300.136	244.56
300.366	235.56
300.597	249.56
300.827	256.56
301.057	259.56
301.288	263.56
301.518	259.56
301.748	265.56
301.979	253.56
302.209	252.56
302.439	252.56
302.669	262.56
302.9	258.56
303.13	232.56
303.36	251.56
303.59	259.56
303.82	268.56
304.051	269.56
304.281	238.56
304.511	269.56
304.741	261.56
304.971	253.56
305.201	261.56
305.431	241.56
305.661	276.56
305.891	277.56
306.121	272.56
306.352	268.56
306.582	282.56
306.812	272.56
307.042	287.56
307.272	251.56
307.502	256.56
307.731	256.56
307.961	277.56
308.191	270.56
308.421	259.56
308.651	257.56
308.881	277.56
309.111	271.56
309.341	278.56
309.571	280.56
309.8	281.56
310.03	278.56
310.26	294.56
310.49	283.56
310.72	291.56
310.949	296.56
311.179	285.56
311.409	310.56
311.639	285.56
311.868	296.56
312.098	292.56
312.328	318.56
312.557	299.56
312.787	315.56
313.017	322.56
313.246	311.56
313.476	302.56
313.706	295.56
313.935	308.56
314.165	284.56
314.394	303.56
314.624	296.56
314.853	295.56
315.083	307.56
315.312	301.56
315.542	296.56
315.771	308.56
316.001	291.56
316.23	292.56
316.46	282.56
316.689	314.56
316.919	324.56
317.148	308.56
317.377	323.56
317.607	292.56
317.836	327.56
318.065	300.56
318.295	281.56
318.524	295.56
318.753	284.56
318.983	303.56
319.212	296.56
319.441	308.56
319.67	320.56
319.9	305.56
320.129	309.56
320.358	321.56
320.587	300.56
320.816	308.56
321.046	298.56
321.275	308.56
321.504	327.56
321.733	308.56
321.962	299.56
322.191	317.56
322.42	321.56
322.649	335.56
322.878	331.56
323.108	360.56
323.337	357.56
323.566	365.56
323.795	385.56
324.024	407.56
324.253	491.56
324.482	680.56
324.71	1023.56
324.939	1337.56
325.168	1137.56
325.397	649.56
325.626	451.56
325.855	397.56
326.084	374.56
326.313	370.56
326.542	375.56
326.77	394.56
326.999	458.56
327.228	616.56
327.457	863.56
327.686	1015.56
327.914	675.56
328.143	482.56
328.372	420.56
328.6	405.56
328.829	391.56
329.058	419.56
329.287	399.56
329.515	388.56
329.744	364.56
329.972	364.56
330.201	376.56
330.43	373.56
330.658	389.56
330.887	422.56
331.115	416.56
331.344	385.56
331.572	374.56
331.801	369.56
332.03	374.56
332.258	359.56
332.486	357.56
332.715	331.56
332.943	342.56
333.172	333.56
333.4	338.56
333.629	332.56
333.857	357.56
334.085	345.56
334.314	376.56
334.542	369.56
334.771	376.56
334.999	339.56
335.227	341.56
335.455	336.56
335.684	350.56
335.912	349.56
336.14	339.56
336.369	352.56
336.597	365.56
336.825	347.56
337.053	346.56
337.281	332.56
337.51	345.56
337.738	336.56
337.966	347.56
338.194	346.56
338.422	350.56
338.65	331.56
338.878	341.56
339.106	353.56
339.334	334.56
339.562	328.56
339.79	329.56
340.018	326.56
340.246	317.56
340.474	336.56
340.702	333.56
340.93	340.56
341.158	332.56
341.386	341.56
341.614	339.56
341.842	348.56
342.07	344.56
342.298	326.56
342.526	327.56
342.754	317.56
342.981	335.56
343.209	322.56
343.437	321.56
343.665	346.56
343.893	336.56
344.12	327.56
344.348	353.56
344.576	344.56
344.804	322.56
345.031	337.56
345.259	341.56
345.487	329.56
345.714	349.56
345.942	333.56
346.17	327.56
346.397	319.56
346.625	317.56
346.853	318.56
347.08	304.56
347.308	323.56
347.535	333.56
347.763	336.56
347.99	329.56
348.218	320.56
348.445	329.56
348.673	339.56
348.9	329.56
349.128	315.56
349.355	304.56
349.583	315.56
349.81	306.56
350.037	298.56
350.265	314.56
350.492	319.56
350.72	315.56
350.947	335.56
351.174	324.56
351.402	320.56
351.629	325.56
351.856	311.56
352.083	323.56
352.311	332.56
352.538	339.56
352.765	339.56
352.992	332.56
353.22	335.56
353.447	310.56
353.674	313.56
353.901	319.56
354.128	310.56
354.355	302.56
354.583	310.56
354.81	312.56
355.037	320.56
355.264	306.56
355.491	316.56
355.718	292.56
355.945	315.56
356.172	312.56
356.399	325.56
356.626	289.56
356.853	319.56
357.08	303.56
357.307	296.56
357.534	302.56
357.761	295.56
357.988	293.56
358.215	286.56
358.441	311.56
358.668	305.56
358.895	324.56
359.122	322.56
359.349	312.56
359.576	319.56
359.802	344.56
360.029	365.56
360.256	360.56
360.483	344.56
360.709	326.56
360.936	324.56
361.163	318.56
361.39	324.56
361.616	319.56
361.843	323.56
362.07	331.56
362.296	325.56
362.523	324.56
362.749	307.56
362.976	308.56
363.203	338.56
363.429	310.56
363.656	316.56
363.882	325.56
364.109	304.56
364.335	323.56
364.562	313.56
364.788	318.56
365.015	303.56
365.241	318.56
365.468	324.56
365.694	317.56
365.92	308.56
366.147	323.56
366.373	311.56
366.599	292.56
366.826	301.56
367.052	316.56
367.278	302.56
367.505	301.56
367.731	306.56
367.957	332.56
368.184	327.56
368.41	333.56
368.636	317.56
368.862	325.56
369.089	329.56
369.315	327.56
369.541	309.56
369.767	317.56
369.993	309.56
370.219	316.56
370.445	338.56
370.672	315.56
370.898	310.56
371.124	312.56
371.35	333.56
371.576	303.56
371.802	304.56
372.028	315.56
372.254	335.56
372.48	284.56
372.706	320.56
372.932	303.56
373.158	323.56
373.384	333.56
373.61	313.56
373.835	316.56
374.061	308.56
374.287	327.56
374.513	336.56
374.739	302.56
374.965	311.56
375.191	317.56
375.416	320.56
375.642	319.56
375.868	330.56
376.094	304.56
376.319	310.56
376.545	321.56
376.771	325.56
376.997	319.56
377.222	308.56
377.448	325.56
377.674	309.56
377.899	304.56
378.125	302.56
378.35	313.56
378.576	322.56
378.802	316.56
379.027	303.56
379.253	313.56
379.478	329.56
379.704	316.56
379.929	321.56
380.155	320.56
380.38	346.56
380.606	321.56
380.831	310.56
381.057	322.56
381.282	321.56
381.507	308.56
381.733	327.56
381.958	328.56
382.184	308.56
382.409	318.56
382.634	328.56
382.86	309.56
383.085	326.56
383.31	311.56
383.535	336.56
383.761	328.56
383.986	326.56
384.211	324.56
384.436	312.56
384.662	342.56
384.887	349.56
385.112	330.56
385.337	336.56
385.562	337.56
385.787	349.56
386.013	355.56
386.238	355.56
386.463	332.56
386.688	353.56
386.913	338.56
387.138	333.56
387.363	351.56
387.588	332.56
387.813	353.56
388.038	322.56
388.263	339.56
388.488	348.56
388.713	345.56
388.938	340.56
389.163	327.56
389.387	344.56
389.612	337.56
389.837	345.56
390.062	339.56
390.287	346.56
390.512	328.56
390.736	341.56
390.961	335.56
391.186	329.56
391.411	346.56
391.636	325.56
391.86	335.56
392.085	345.56
392.31	346.56
392.534	360.56
392.759	346.56
392.984	351.56
393.208	341.56
393.433	333.56
393.658	351.56
393.882	334.56
394.107	357.56
394.331	336.56
394.556	333.56
394.78	340.56
395.005	332.56
395.229	351.56
395.454	361.56
395.678	376.56
395.903	357.56
396.127	372.56
396.352	385.56
396.576	352.56
396.801	349.56
397.025	363.56
397.249	356.56
397.474	385.56
397.698	379.56
397.922	369.56
398.147	371.56
398.371	380.56
398.595	396.56
398.82	387.56
399.044	406.56
399.268	402.56
399.492	413.56
399.717	450.56
399.941	460.56
400.165	456.56
400.389	461.56
400.613	430.56
400.837	403.56
401.062	411.56
401.286	398.56
401.51	388.56
401.734	379.56
401.958	374.56
402.182	372.56
402.406	392.56
402.63	397.56
402.854	390.56
403.078	376.56
403.302	402.56
403.526	391.56
403.75	410.56
403.974	399.56
404.198	370.56
404.422	384.56
404.645	377.56
404.869	392.56
405.093	419.56
405.317	414.56
405.541	455.56
405.765	426.56
405.988	390.56
406.212	419.56
406.436	423.56
406.66	432.56
406.883	432.56
407.107	433.56
407.331	451.56
407.555	484.56
407.778	507.56
408.002	467.56
408.226	441.56
408.449	419.56
408.673	430.56
408.896	453.56
409.12	455.56
409.344	421.56
409.567	409.56
409.791	400.56
410.014	391.56
410.238	394.56
410.461	403.56
410.685	405.56
410.908	423.56
411.132	403.56
411.355	431.56
411.578	426.56
411.802	410.56
412.025	387.56
412.249	401.56
412.472	393.56
412.695	408.56
412.919	383.56
413.142	390.56
413.365	381.56
413.589	373.56
413.812	380.56
414.035	381.56
414.258	373.56
414.482	381.56
414.705	376.56
414.928	375.56
415.151	347.56
415.374	375.56
415.597	370.56
415.821	359.56
416.044	377.56
416.267	358.56
416.49	377.56
416.713	368.56
416.936	378.56
417.159	376.56
417.382	364.56
417.605	377.56
417.828	377.56
418.051	394.56
418.274	384.56
418.497	387.56
418.72	382.56
418.943	349.56
419.166	381.56
419.389	387.56
419.611	396.56
419.834	383.56
420.057	405.56
420.28	383.56
420.503	372.56
420.726	387.56
420.948	401.56
421.171	413.56
421.394	407.56
421.617	388.56
421.839	381.56
422.062	391.56
422.285	399.56
422.507	429.56
422.73	466.56
422.953	467.56
423.175	423.56
423.398	416.56
423.621	400.56
423.843	409.56
424.066	409.56
424.288	399.56
424.511	444.56
424.733	465.56
424.956	508.56
425.178	486.56
425.401	466.56
425.623	497.56
425.846	447.56
426.068	414.56
426.291	401.56
426.513	406.56
426.735	404.56
426.958	434.56
427.18	498.56
427.402	588.56
427.625	627.56
427.847	542.56
428.069	436.56
428.292	417.56
428.514	402.56
428.736	399.56
428.958	374.56
429.181	383.56
429.403	363.56
429.625	387.56
429.847	404.56
430.069	437.56
430.292	451.56
430.514	384.56
430.736	391.56
430.958	360.56
431.18	391.56
431.402	379.56
431.624	368.56
431.846	364.56
432.068	378.56
432.29	355.56
432.512	364.56
432.734	366.56
432.956	376.56
433.178	379.56
433.4	381.56
433.622	377.56
433.844	365.56
434.066	371.56
434.287	379.56
434.509	367.56
434.731	377.56
434.953	393.56
435.175	402.56
435.397	399.56
435.618	419.56
435.84	445.56
436.062	513.56
436.284	551.56
436.505	440.56
436.727	413.56
436.949	384.56
437.17	403.56
437.392	381.56
437.614	398.56
437.835	419.56
438.057	466.56
438.278	536.56
438.5	558.56
438.721	602.56
438.943	576.56
439.165	456.56
439.386	412.56
439.608	412.56
439.829	409.56
440.05	421.56
440.272	442.56
440.493	429.56
440.715	392.56
440.936	381.56
441.158	388.56
441.379	381.56
441.6	384.56
441.822	387.56
442.043	416.56
442.264	475.56
442.486	528.56
442.707	454.56
442.928	409.56
443.149	401.56
443.371	466.56
443.592	464.56
443.813	536.56
444.034	582.56
444.255	487.56
444.476	442.56
444.698	411.56
444.919	412.56
445.14	561.56
445.361	477.56
445.582	428.56
445.803	470.56
446.024	547.56
446.245	535.56
446.466	494.56
446.687	448.56
446.908	403.56
447.129	363.56
447.35	389.56
447.571	408.56
447.792	385.56
448.013	392.56
448.234	385.56
448.455	408.56
448.675	493.56
448.896	583.56
449.117	509.56
449.338	481.56
449.559	567.56
449.779	620.56
450	463.56
450.221	398.56
450.442	384.56
450.662	371.56
450.883	386.56
451.104	398.56
451.324	374.56
451.545	364.56
451.766	361.56
451.986	328.56
452.207	341.56
452.428	354.56
452.648	341.56
452.869	320.56
453.089	358.56
453.31	335.56
453.53	324.56
453.751	333.56
453.971	356.56
454.192	366.56
454.412	349.56
454.633	353.56
454.853	359.56
455.073	348.56
455.294	369.56
455.514	395.56
455.734	397.56
455.955	358.56
456.175	318.56
456.395	325.56
456.616	330.56
456.836	330.56
457.056	344.56
457.276	323.56
457.497	333.56
457.717	307.56
457.937	330.56
458.157	342.56
458.377	343.56
458.598	341.56
458.818	375.56
459.038	440.56
459.258	429.56
459.478	381.56
459.698	382.56
459.918	364.56
460.138	351.56
460.358	381.56
460.578	364.56
460.798	399.56
461.018	363.56
461.238	370.56
461.458	374.56
461.678	384.56
461.898	353.56
462.118	371.56
462.338	386.56
462.558	390.56
462.777	400.56
462.997	398.56
463.217	391.56
463.437	431.56
463.657	385.56
463.876	380.56
464.096	391.56
464.316	394.56
464.536	407.56
464.755	411.56
464.975	395.56
465.195	432.56
465.414	475.56
465.634	402.56
465.854	400.56
466.073	382.56
466.293	358.56
466.512	351.56
466.732	359.56
466.951	338.56
467.171	351.56
467.391	352.56
467.61	360.56
467.829	380.56
468.049	357.56
468.268	323.56
468.488	342.56
468.707	344.56
468.927	351.56
469.146	355.56
469.365	336.56
469.585	335.56
469.804	349.56
470.023	345.56
470.243	348.56
470.462	369.56
470.681	361.56
470.901	378.56
471.12	363.56
471.339	370.56
471.558	347.56
471.777	347.56
471.997	343.56
472.216	354.56
472.435	358.56
472.654	348.56
472.873	353.56
473.092	359.56
473.311	347.56
473.53	350.56
473.749	377.56
473.968	399.56
474.187	454.56
474.406	463.56
474.625	362.56
474.844	393.56
475.063	370.56
475.282	363.56
475.501	361.56
475.72	382.56
475.939	366.56
476.158	364.56
476.377	359.56
476.596	370.56
476.814	371.56
477.033	371.56
477.252	388.56
477.471	399.56
477.69	392.56
477.908	410.56
478.127	389.56
478.346	393.56
478.564	410.56
478.783	391.56
479.002	413.56
479.22	408.56
479.439	412.56
479.658	443.56
479.876	448.56
480.095	447.56
480.313	444.56
480.532	445.56
480.751	407.56
480.969	433.56
481.188	427.56
481.406	419.56
481.624	419.56
481.843	398.56
482.061	403.56
482.28	392.56
482.498	401.56
482.717	431.56
482.935	445.56
483.153	414.56
483.372	418.56
483.59	414.56
483.808	417.56
484.027	410.56
484.245	435.56
484.463	421.56
484.681	419.56
484.9	404.56
485.118	436.56
485.336	425.56
485.554	429.56
485.772	423.56
485.99	433.56
486.209	421.56
486.427	432.56
486.645	440.56
486.863	451.56
487.081	435.56
487.299	457.56
487.517	430.56
487.735	421.56
487.953	435.56
488.171	414.56
488.389	434.56
488.607	445.56
488.825	436.56
489.043	449.56
489.261	456.56
489.479	439.56
489.696	466.56
489.914	430.56
490.132	453.56
490.35	447.56
490.568	482.56
490.786	470.56
491.003	483.56
491.221	497.56
491.439	498.56
491.657	487.56
491.874	498.56
492.092	500.56
492.31	498.56
492.527	517.56
492.745	492.56
492.963	504.56
493.18	542.56
493.398	512.56
493.615	543.56
493.833	531.56
494.05	526.56
494.268	519.56
494.485	514.56
494.703	520.56
494.92	513.56
495.138	519.56
495.355	527.56
495.573	540.56
495.79	527.56
496.008	516.56
496.225	514.56
496.442	512.56
496.66	525.56
496.877	519.56
497.094	535.56
497.312	537.56
497.529	542.56
497.746	551.56
497.963	549.56
498.181	561.56
498.398	581.56
498.615	588.56
498.832	559.56
499.049	598.56
499.267	612.56
499.484	643.56
499.701	637.56
499.918	676.56
500.135	689.56
500.352	726.56
500.569	688.56
500.786	722.56
501.003	719.56
501.22	692.56
501.437	704.56
501.654	662.56
501.871	649.56
502.088	640.56
502.305	612.56
