Data from 1983.PennyLincolnUp.Lamp.En5.5.200Scan.071819.P1_HRD10591_16-55-02-966.txt Node
Date: Thu Jul 18 16:55:02 EDT 2019
User: cochatt
Spectrometer: HR+D1059
Trigger mode: 1
Integration Time (sec): 1.000000E-1
Scans to average: 1
Electric dark correction enabled: true
Nonlinearity correction enabled: false
Boxcar width: 0
XAxis mode: Wavelengths
Number of Pixels in Spectrum: 2048
>>>>>Begin Spectral Data<<<<<
223.165	-19.06
223.4	-19.06
223.635	-19.06
223.869	-22.06
224.104	-12.06
224.338	-13.06
224.573	-9.06
224.808	-21.06
225.042	-15.06
225.277	5.94
225.511	-9.06
225.746	2.94
225.98	3.94
226.215	15.94
226.449	12.94
226.683	15.94
226.918	31.94
227.152	30.94
227.387	31.94
227.621	40.94
227.856	48.94
228.09	43.94
228.324	53.94
228.559	50.94
228.793	78.94
229.027	84.94
229.262	86.94
229.496	113.94
229.73	137.94
229.964	131.94
230.199	140.94
230.433	118.94
230.667	117.94
230.901	120.94
231.136	102.94
231.37	98.94
231.604	109.94
231.838	120.94
232.072	112.94
232.306	123.94
232.541	112.94
232.775	105.94
233.009	110.94
233.243	127.94
233.477	126.94
233.711	126.94
233.945	100.94
234.179	108.94
234.413	116.94
234.647	116.94
234.881	108.94
235.115	114.94
235.349	120.94
235.583	121.94
235.817	125.94
236.051	115.94
236.285	135.94
236.519	126.94
236.753	124.94
236.987	140.94
237.221	171.94
237.455	194.94
237.689	162.94
237.922	138.94
238.156	122.94
238.39	133.94
238.624	144.94
238.858	127.94
239.091	130.94
239.325	123.94
239.559	112.94
239.793	126.94
240.027	131.94
240.26	135.94
240.494	142.94
240.728	142.94
240.961	137.94
241.195	137.94
241.429	134.94
241.662	117.94
241.896	118.94
242.13	118.94
242.363	118.94
242.597	144.94
242.83	141.94
243.064	126.94
243.298	118.94
243.531	134.94
243.765	122.94
243.998	134.94
244.232	149.94
244.465	150.94
244.699	139.94
244.932	141.94
245.166	128.94
245.399	142.94
245.633	132.94
245.866	145.94
246.099	136.94
246.333	134.94
246.566	130.94
246.8	142.94
247.033	158.94
247.266	150.94
247.5	134.94
247.733	149.94
247.966	162.94
248.2	175.94
248.433	163.94
248.666	173.94
248.899	148.94
249.133	189.94
249.366	196.94
249.599	189.94
249.832	170.94
250.066	160.94
250.299	167.94
250.532	184.94
250.765	207.94
250.998	222.94
251.231	224.94
251.465	197.94
251.698	188.94
251.931	206.94
252.164	202.94
252.397	184.94
252.63	190.94
252.863	190.94
253.096	194.94
253.329	213.94
253.562	217.94
253.795	206.94
254.028	197.94
254.261	229.94
254.494	216.94
254.727	246.94
254.96	276.94
255.193	259.94
255.426	218.94
255.659	247.94
255.892	229.94
256.124	242.94
256.357	258.94
256.59	220.94
256.823	227.94
257.056	221.94
257.289	205.94
257.521	204.94
257.754	215.94
257.987	197.94
258.22	209.94
258.452	201.94
258.685	208.94
258.918	189.94
259.151	210.94
259.383	200.94
259.616	200.94
259.849	203.94
260.081	215.94
260.314	228.94
260.547	243.94
260.779	216.94
261.012	207.94
261.244	219.94
261.477	214.94
261.71	224.94
261.942	231.94
262.175	213.94
262.407	199.94
262.64	212.94
262.872	204.94
263.105	206.94
263.337	200.94
263.57	188.94
263.802	200.94
264.035	218.94
264.267	206.94
264.499	193.94
264.732	192.94
264.964	199.94
265.197	204.94
265.429	206.94
265.661	213.94
265.894	198.94
266.126	204.94
266.358	214.94
266.591	198.94
266.823	211.94
267.055	210.94
267.287	212.94
267.52	210.94
267.752	225.94
267.984	218.94
268.216	211.94
268.448	221.94
268.681	214.94
268.913	222.94
269.145	254.94
269.377	278.94
269.609	272.94
269.841	245.94
270.073	244.94
270.306	263.94
270.538	312.94
270.77	286.94
271.002	302.94
271.234	280.94
271.466	278.94
271.698	298.94
271.93	303.94
272.162	291.94
272.394	317.94
272.626	293.94
272.858	268.94
273.09	262.94
273.322	231.94
273.553	255.94
273.785	244.94
274.017	234.94
274.249	262.94
274.481	278.94
274.713	265.94
274.945	254.94
275.176	248.94
275.408	248.94
275.64	240.94
275.872	244.94
276.104	253.94
276.335	232.94
276.567	258.94
276.799	276.94
277.031	295.94
277.262	303.94
277.494	303.94
277.726	291.94
277.957	282.94
278.189	276.94
278.421	262.94
278.652	258.94
278.884	246.94
279.115	264.94
279.347	262.94
279.579	256.94
279.81	250.94
280.042	244.94
280.273	257.94
280.505	266.94
280.736	244.94
280.968	271.94
281.199	245.94
281.431	257.94
281.662	244.94
281.894	265.94
282.125	240.94
282.356	269.94
282.588	284.94
282.819	283.94
283.051	262.94
283.282	242.94
283.513	267.94
283.745	266.94
283.976	248.94
284.207	246.94
284.439	269.94
284.67	260.94
284.901	271.94
285.132	248.94
285.364	260.94
285.595	262.94
285.826	262.94
286.057	276.94
286.288	256.94
286.52	268.94
286.751	259.94
286.982	256.94
287.213	264.94
287.444	267.94
287.675	281.94
287.906	270.94
288.138	284.94
288.369	290.94
288.6	296.94
288.831	271.94
289.062	283.94
289.293	291.94
289.524	270.94
289.755	264.94
289.986	255.94
290.217	262.94
290.448	279.94
290.679	264.94
290.91	274.94
291.141	269.94
291.371	264.94
291.602	276.94
291.833	297.94
292.064	266.94
292.295	256.94
292.526	274.94
292.757	247.94
292.987	257.94
293.218	251.94
293.449	264.94
293.68	261.94
293.91	273.94
294.141	278.94
294.372	265.94
294.603	282.94
294.833	283.94
295.064	273.94
295.295	275.94
295.525	291.94
295.756	279.94
295.987	295.94
296.217	321.94
296.448	322.94
296.679	292.94
296.909	284.94
297.14	280.94
297.37	281.94
297.601	292.94
297.831	277.94
298.062	304.94
298.292	276.94
298.523	302.94
298.753	290.94
298.984	282.94
299.214	279.94
299.445	289.94
299.675	291.94
299.905	304.94
300.136	279.94
300.366	303.94
300.597	286.94
300.827	312.94
301.057	307.94
301.288	298.94
301.518	317.94
301.748	294.94
301.979	322.94
302.209	308.94
302.439	317.94
302.669	303.94
302.9	302.94
303.13	302.94
303.36	317.94
303.59	303.94
303.82	336.94
304.051	330.94
304.281	299.94
304.511	280.94
304.741	283.94
304.971	296.94
305.201	304.94
305.431	287.94
305.661	310.94
305.891	314.94
306.121	296.94
306.352	301.94
306.582	322.94
306.812	305.94
307.042	307.94
307.272	314.94
307.502	308.94
307.731	308.94
307.961	314.94
308.191	309.94
308.421	318.94
308.651	314.94
308.881	334.94
309.111	317.94
309.341	314.94
309.571	337.94
309.8	339.94
310.03	350.94
310.26	338.94
310.49	344.94
310.72	352.94
310.949	378.94
311.179	392.94
311.409	362.94
311.639	354.94
311.868	370.94
312.098	372.94
312.328	363.94
312.557	384.94
312.787	401.94
313.017	380.94
313.246	367.94
313.476	359.94
313.706	346.94
313.935	358.94
314.165	382.94
314.394	386.94
314.624	382.94
314.853	369.94
315.083	370.94
315.312	376.94
315.542	367.94
315.771	347.94
316.001	363.94
316.23	364.94
316.46	360.94
316.689	354.94
316.919	380.94
317.148	386.94
317.377	367.94
317.607	344.94
317.836	363.94
318.065	366.94
318.295	355.94
318.524	348.94
318.753	348.94
318.983	346.94
319.212	358.94
319.441	373.94
319.67	396.94
319.9	338.94
320.129	366.94
320.358	359.94
320.587	358.94
320.816	368.94
321.046	381.94
321.275	376.94
321.504	375.94
321.733	391.94
321.962	374.94
322.191	393.94
322.42	414.94
322.649	439.94
322.878	441.94
323.108	457.94
323.337	477.94
323.566	483.94
323.795	532.94
324.024	576.94
324.253	719.94
324.482	1043.94
324.71	1581.94
324.939	2110.94
325.168	1796.94
325.397	948.94
325.626	637.94
325.855	553.94
326.084	506.94
326.313	480.94
326.542	516.94
326.77	564.94
326.999	663.94
327.228	912.94
327.457	1340.94
327.686	1549.94
327.914	1042.94
328.143	703.94
328.372	621.94
328.6	579.94
328.829	535.94
329.058	584.94
329.287	587.94
329.515	546.94
329.744	510.94
329.972	508.94
330.201	555.94
330.43	608.94
330.658	588.94
330.887	607.94
331.115	566.94
331.344	512.94
331.572	502.94
331.801	497.94
332.03	483.94
332.258	427.94
332.486	440.94
332.715	435.94
332.943	443.94
333.172	427.94
333.4	428.94
333.629	458.94
333.857	467.94
334.085	484.94
334.314	511.94
334.542	555.94
334.771	574.94
334.999	520.94
335.227	464.94
335.455	443.94
335.684	436.94
335.912	414.94
336.14	412.94
336.369	411.94
336.597	420.94
336.825	430.94
337.053	411.94
337.281	419.94
337.51	411.94
337.738	409.94
337.966	429.94
338.194	408.94
338.422	420.94
338.65	408.94
338.878	405.94
339.106	380.94
339.334	397.94
339.562	387.94
339.79	384.94
340.018	394.94
340.246	404.94
340.474	398.94
340.702	421.94
340.93	400.94
341.158	386.94
341.386	389.94
341.614	395.94
341.842	415.94
342.07	416.94
342.298	399.94
342.526	378.94
342.754	386.94
342.981	396.94
343.209	360.94
343.437	384.94
343.665	390.94
343.893	394.94
344.12	398.94
344.348	399.94
344.576	394.94
344.804	395.94
345.031	399.94
345.259	412.94
345.487	416.94
345.714	406.94
345.942	397.94
346.17	387.94
346.397	387.94
346.625	390.94
346.853	375.94
347.08	386.94
347.308	381.94
347.535	392.94
347.763	398.94
347.99	405.94
348.218	404.94
348.445	411.94
348.673	394.94
348.9	388.94
349.128	387.94
349.355	366.94
349.583	372.94
349.81	358.94
350.037	377.94
350.265	375.94
350.492	375.94
350.72	384.94
350.947	372.94
351.174	404.94
351.402	392.94
351.629	381.94
351.856	396.94
352.083	390.94
352.311	407.94
352.538	394.94
352.765	409.94
352.992	392.94
353.22	388.94
353.447	393.94
353.674	378.94
353.901	387.94
354.128	363.94
354.355	379.94
354.583	362.94
354.81	358.94
355.037	354.94
355.264	360.94
355.491	346.94
355.718	333.94
355.945	349.94
356.172	343.94
356.399	341.94
356.626	341.94
356.853	344.94
357.08	331.94
357.307	352.94
357.534	354.94
357.761	372.94
357.988	380.94
358.215	355.94
358.441	354.94
358.668	361.94
358.895	360.94
359.122	362.94
359.349	391.94
359.576	373.94
359.802	417.94
360.029	436.94
360.256	431.94
360.483	434.94
360.709	390.94
360.936	390.94
361.163	396.94
361.39	392.94
361.616	402.94
361.843	396.94
362.07	372.94
362.296	387.94
362.523	379.94
362.749	382.94
362.976	356.94
363.203	365.94
363.429	357.94
363.656	371.94
363.882	386.94
364.109	368.94
364.335	367.94
364.562	346.94
364.788	351.94
365.015	354.94
365.241	364.94
365.468	371.94
365.694	370.94
365.92	376.94
366.147	356.94
366.373	368.94
366.599	363.94
366.826	346.94
367.052	353.94
367.278	359.94
367.505	348.94
367.731	372.94
367.957	354.94
368.184	376.94
368.41	394.94
368.636	375.94
368.862	374.94
369.089	363.94
369.315	347.94
369.541	371.94
369.767	351.94
369.993	347.94
370.219	360.94
370.445	366.94
370.672	358.94
370.898	357.94
371.124	347.94
371.35	347.94
371.576	343.94
371.802	352.94
372.028	338.94
372.254	362.94
372.48	353.94
372.706	350.94
372.932	363.94
373.158	359.94
373.384	346.94
373.61	346.94
373.835	347.94
374.061	357.94
374.287	338.94
374.513	374.94
374.739	342.94
374.965	372.94
375.191	361.94
375.416	364.94
375.642	355.94
375.868	379.94
376.094	361.94
376.319	354.94
376.545	347.94
376.771	379.94
376.997	341.94
377.222	344.94
377.448	362.94
377.674	364.94
377.899	355.94
378.125	335.94
378.35	335.94
378.576	352.94
378.802	343.94
379.027	329.94
379.253	340.94
379.478	363.94
379.704	370.94
379.929	360.94
380.155	359.94
380.38	363.94
380.606	360.94
380.831	357.94
381.057	367.94
381.282	343.94
381.507	340.94
381.733	347.94
381.958	357.94
382.184	364.94
382.409	351.94
382.634	379.94
382.86	365.94
383.085	370.94
383.31	365.94
383.535	351.94
383.761	357.94
383.986	372.94
384.211	357.94
384.436	389.94
384.662	378.94
384.887	366.94
385.112	378.94
385.337	368.94
385.562	380.94
385.787	374.94
386.013	389.94
386.238	370.94
386.463	367.94
386.688	399.94
386.913	387.94
387.138	383.94
387.363	367.94
387.588	371.94
387.813	380.94
388.038	403.94
388.263	375.94
388.488	387.94
388.713	377.94
388.938	383.94
389.163	400.94
389.387	391.94
389.612	369.94
389.837	366.94
390.062	376.94
390.287	375.94
390.512	364.94
390.736	390.94
390.961	376.94
391.186	382.94
391.411	380.94
391.636	396.94
391.86	387.94
392.085	384.94
392.31	407.94
392.534	402.94
392.759	403.94
392.984	392.94
393.208	385.94
393.433	379.94
393.658	372.94
393.882	381.94
394.107	371.94
394.331	388.94
394.556	387.94
394.78	368.94
395.005	386.94
395.229	380.94
395.454	402.94
395.678	400.94
395.903	389.94
396.127	415.94
396.352	422.94
396.576	420.94
396.801	383.94
397.025	398.94
397.249	408.94
397.474	387.94
397.698	409.94
397.922	429.94
398.147	421.94
398.371	448.94
398.595	423.94
398.82	401.94
399.044	438.94
399.268	431.94
399.492	477.94
399.717	485.94
399.941	478.94
400.165	507.94
400.389	524.94
400.613	480.94
400.837	451.94
401.062	413.94
401.286	430.94
401.51	413.94
401.734	429.94
401.958	428.94
402.182	422.94
402.406	426.94
402.63	454.94
402.854	446.94
403.078	444.94
403.302	441.94
403.526	463.94
403.75	454.94
403.974	461.94
404.198	459.94
404.422	455.94
404.645	456.94
404.869	455.94
405.093	482.94
405.317	539.94
405.541	558.94
405.765	497.94
405.988	487.94
406.212	493.94
406.436	479.94
406.66	499.94
406.883	489.94
407.107	505.94
407.331	534.94
407.555	583.94
407.778	576.94
408.002	555.94
408.226	507.94
408.449	494.94
408.673	490.94
408.896	518.94
409.12	527.94
409.344	521.94
409.567	467.94
409.791	449.94
410.014	444.94
410.238	452.94
410.461	440.94
410.685	439.94
410.908	456.94
411.132	494.94
411.355	504.94
411.578	493.94
411.802	468.94
412.025	441.94
412.249	477.94
412.472	495.94
412.695	498.94
412.919	503.94
413.142	473.94
413.365	448.94
413.589	462.94
413.812	421.94
414.035	413.94
414.258	437.94
414.482	428.94
414.705	426.94
414.928	416.94
415.151	416.94
415.374	413.94
415.597	414.94
415.821	424.94
416.044	401.94
416.267	430.94
416.49	418.94
416.713	414.94
416.936	417.94
417.159	423.94
417.382	431.94
417.605	442.94
417.828	458.94
418.051	446.94
418.274	431.94
418.497	427.94
418.72	406.94
418.943	420.94
419.166	429.94
419.389	431.94
419.611	439.94
419.834	439.94
420.057	449.94
420.28	467.94
420.503	450.94
420.726	452.94
420.948	453.94
421.171	486.94
421.394	516.94
421.617	460.94
421.839	444.94
422.062	450.94
422.285	446.94
422.507	498.94
422.73	572.94
422.953	548.94
423.175	463.94
423.398	448.94
423.621	429.94
423.843	491.94
424.066	489.94
424.288	481.94
424.511	498.94
424.733	523.94
424.956	589.94
425.178	579.94
425.401	574.94
425.623	604.94
425.846	490.94
426.068	481.94
426.291	475.94
426.513	492.94
426.735	469.94
426.958	524.94
427.18	548.94
427.402	685.94
427.625	746.94
427.847	683.94
428.069	605.94
428.292	532.94
428.514	491.94
428.736	459.94
428.958	446.94
429.181	463.94
429.403	434.94
429.625	450.94
429.847	490.94
430.069	509.94
430.292	522.94
430.514	454.94
430.736	459.94
430.958	431.94
431.18	395.94
431.402	420.94
431.624	423.94
431.846	407.94
432.068	412.94
432.29	422.94
432.512	415.94
432.734	414.94
432.956	418.94
433.178	424.94
433.4	444.94
433.622	418.94
433.844	402.94
434.066	426.94
434.287	413.94
434.509	428.94
434.731	429.94
434.953	443.94
435.175	445.94
435.397	467.94
435.618	455.94
435.84	522.94
436.062	582.94
436.284	627.94
436.505	516.94
436.727	486.94
436.949	469.94
437.17	474.94
437.392	440.94
437.614	476.94
437.835	499.94
438.057	575.94
438.278	630.94
438.5	644.94
438.721	676.94
438.943	650.94
439.165	540.94
439.386	499.94
439.608	529.94
439.829	492.94
440.05	506.94
440.272	558.94
440.493	521.94
440.715	496.94
440.936	442.94
441.158	463.94
441.379	453.94
441.6	456.94
441.822	466.94
442.043	514.94
442.264	587.94
442.486	597.94
442.707	496.94
442.928	508.94
443.149	500.94
443.371	526.94
443.592	540.94
443.813	623.94
444.034	662.94
444.255	554.94
444.476	505.94
444.698	483.94
444.919	491.94
445.14	609.94
445.361	541.94
445.582	537.94
445.803	592.94
446.024	638.94
446.245	665.94
446.466	614.94
446.687	519.94
446.908	486.94
447.129	454.94
447.35	432.94
447.571	435.94
447.792	446.94
448.013	452.94
448.234	466.94
448.455	486.94
448.675	604.94
448.896	672.94
449.117	572.94
449.338	582.94
449.559	644.94
449.779	712.94
450	589.94
450.221	481.94
450.442	463.94
450.662	442.94
450.883	444.94
451.104	461.94
451.324	452.94
451.545	443.94
451.766	422.94
451.986	423.94
452.207	408.94
452.428	409.94
452.648	413.94
452.869	394.94
453.089	413.94
453.31	429.94
453.53	423.94
453.751	406.94
453.971	412.94
454.192	423.94
454.412	439.94
454.633	387.94
454.853	426.94
455.073	420.94
455.294	443.94
455.514	491.94
455.734	471.94
455.955	418.94
456.175	385.94
456.395	380.94
456.616	384.94
456.836	392.94
457.056	380.94
457.276	360.94
457.497	378.94
457.717	374.94
457.937	387.94
458.157	388.94
458.377	398.94
458.598	424.94
458.818	458.94
459.038	546.94
459.258	557.94
459.478	460.94
459.698	429.94
459.918	431.94
460.138	437.94
460.358	420.94
460.578	436.94
460.798	428.94
461.018	437.94
461.238	428.94
461.458	420.94
461.678	403.94
461.898	411.94
462.118	416.94
462.338	421.94
462.558	438.94
462.777	444.94
462.997	446.94
463.217	438.94
463.437	442.94
463.657	460.94
463.876	442.94
464.096	442.94
464.316	439.94
464.536	451.94
464.755	469.94
464.975	474.94
465.195	487.94
465.414	564.94
465.634	491.94
465.854	460.94
466.073	421.94
466.293	418.94
466.512	418.94
466.732	422.94
466.951	402.94
467.171	407.94
467.391	407.94
467.61	425.94
467.829	420.94
468.049	442.94
468.268	447.94
468.488	432.94
468.707	402.94
468.927	398.94
469.146	377.94
469.365	408.94
469.585	394.94
469.804	414.94
470.023	390.94
470.243	430.94
470.462	426.94
470.681	438.94
470.901	431.94
471.12	404.94
471.339	432.94
471.558	405.94
471.777	423.94
471.997	424.94
472.216	444.94
472.435	472.94
472.654	457.94
472.873	436.94
473.092	452.94
473.311	423.94
473.53	426.94
473.749	420.94
473.968	461.94
474.187	548.94
474.406	566.94
474.625	488.94
474.844	422.94
475.063	422.94
475.282	415.94
475.501	435.94
475.72	423.94
475.939	438.94
476.158	426.94
476.377	440.94
476.596	436.94
476.814	432.94
477.033	442.94
477.252	424.94
477.471	426.94
477.69	447.94
477.908	439.94
478.127	452.94
478.346	458.94
478.564	442.94
478.783	455.94
479.002	448.94
479.22	472.94
479.439	495.94
479.658	506.94
479.876	522.94
480.095	519.94
480.313	518.94
480.532	517.94
480.751	532.94
480.969	552.94
481.188	643.94
481.406	678.94
481.624	545.94
481.843	523.94
482.061	520.94
482.28	526.94
482.498	489.94
482.717	470.94
482.935	477.94
483.153	492.94
483.372	470.94
483.59	478.94
483.808	476.94
484.027	474.94
484.245	491.94
484.463	498.94
484.681	501.94
484.9	479.94
485.118	480.94
485.336	505.94
485.554	516.94
485.772	518.94
485.99	516.94
486.209	505.94
486.427	513.94
486.645	527.94
486.863	552.94
487.081	533.94
487.299	519.94
487.517	518.94
487.735	510.94
487.953	547.94
488.171	524.94
488.389	543.94
488.607	527.94
488.825	534.94
489.043	527.94
489.261	534.94
489.479	548.94
489.696	538.94
489.914	562.94
490.132	534.94
490.35	547.94
490.568	568.94
490.786	570.94
491.003	573.94
491.221	569.94
491.439	587.94
491.657	601.94
491.874	622.94
492.092	633.94
492.31	603.94
492.527	642.94
492.745	622.94
492.963	623.94
493.18	632.94
493.398	638.94
493.615	604.94
493.833	613.94
494.05	627.94
494.268	628.94
494.485	624.94
494.703	629.94
494.92	610.94
495.138	622.94
495.355	636.94
495.573	616.94
495.79	623.94
496.008	632.94
496.225	620.94
496.442	606.94
496.66	627.94
496.877	611.94
497.094	638.94
497.312	642.94
497.529	650.94
497.746	673.94
497.963	632.94
498.181	661.94
498.398	646.94
498.615	687.94
498.832	686.94
499.049	693.94
499.267	675.94
499.484	708.94
499.701	734.94
499.918	766.94
500.135	763.94
500.352	811.94
500.569	823.94
500.786	830.94
501.003	819.94
501.22	792.94
501.437	754.94
501.654	806.94
501.871	749.94
