Data from 1983.PennyLincolnUp.Lamp.En5.5.200Scan.071819.P1_HRD10591_16-52-47-965.txt Node
Date: Thu Jul 18 16:52:47 EDT 2019
User: cochatt
Spectrometer: HR+D1059
Trigger mode: 1
Integration Time (sec): 1.000000E-1
Scans to average: 1
Electric dark correction enabled: true
Nonlinearity correction enabled: false
Boxcar width: 0
XAxis mode: Wavelengths
Number of Pixels in Spectrum: 2048
>>>>>Begin Spectral Data<<<<<
223.165	-12.5
223.4	-12.5
223.635	-12.5
223.869	-3.5
224.104	-19.5
224.338	-30.5
224.573	-15.5
224.808	-15.5
225.042	-11.5
225.277	-13.5
225.511	4.5
225.746	1.5
225.98	10.5
226.215	4.5
226.449	16.5
226.683	22.5
226.918	33.5
227.152	28.5
227.387	18.5
227.621	38.5
227.856	42.5
228.09	32.5
228.324	33.5
228.559	53.5
228.793	56.5
229.027	92.5
229.262	87.5
229.496	83.5
229.73	126.5
229.964	140.5
230.199	123.5
230.433	107.5
230.667	113.5
230.901	107.5
231.136	97.5
231.37	94.5
231.604	104.5
231.838	96.5
232.072	110.5
232.306	98.5
232.541	100.5
232.775	106.5
233.009	102.5
233.243	108.5
233.477	103.5
233.711	98.5
233.945	116.5
234.179	113.5
234.413	116.5
234.647	103.5
234.881	112.5
235.115	117.5
235.349	124.5
235.583	112.5
235.817	124.5
236.051	118.5
236.285	109.5
236.519	123.5
236.753	124.5
236.987	119.5
237.221	153.5
237.455	200.5
237.689	156.5
237.922	134.5
238.156	138.5
238.39	126.5
238.624	125.5
238.858	122.5
239.091	95.5
239.325	122.5
239.559	121.5
239.793	131.5
240.027	132.5
240.26	117.5
240.494	123.5
240.728	152.5
240.961	132.5
241.195	130.5
241.429	138.5
241.662	130.5
241.896	135.5
242.13	136.5
242.363	124.5
242.597	134.5
242.83	125.5
243.064	132.5
243.298	123.5
243.531	126.5
243.765	120.5
243.998	124.5
244.232	124.5
244.465	134.5
244.699	137.5
244.932	145.5
245.166	133.5
245.399	133.5
245.633	132.5
245.866	140.5
246.099	126.5
246.333	148.5
246.566	131.5
246.8	125.5
247.033	142.5
247.266	142.5
247.5	154.5
247.733	152.5
247.966	149.5
248.2	154.5
248.433	145.5
248.666	158.5
248.899	163.5
249.133	170.5
249.366	176.5
249.599	182.5
249.832	150.5
250.066	174.5
250.299	162.5
250.532	169.5
250.765	173.5
250.998	187.5
251.231	187.5
251.465	187.5
251.698	178.5
251.931	184.5
252.164	180.5
252.397	168.5
252.63	186.5
252.863	170.5
253.096	170.5
253.329	198.5
253.562	203.5
253.795	181.5
254.028	183.5
254.261	186.5
254.494	208.5
254.727	226.5
254.96	219.5
255.193	225.5
255.426	224.5
255.659	204.5
255.892	209.5
256.124	189.5
256.357	192.5
256.59	192.5
256.823	173.5
257.056	197.5
257.289	197.5
257.521	191.5
257.754	186.5
257.987	179.5
258.22	187.5
258.452	169.5
258.685	174.5
258.918	187.5
259.151	183.5
259.383	201.5
259.616	193.5
259.849	206.5
260.081	213.5
260.314	227.5
260.547	217.5
260.779	212.5
261.012	201.5
261.244	214.5
261.477	203.5
261.71	205.5
261.942	212.5
262.175	208.5
262.407	200.5
262.64	197.5
262.872	186.5
263.105	182.5
263.337	192.5
263.57	194.5
263.802	197.5
264.035	173.5
264.267	190.5
264.499	186.5
264.732	193.5
264.964	199.5
265.197	192.5
265.429	200.5
265.661	199.5
265.894	170.5
266.126	194.5
266.358	181.5
266.591	204.5
266.823	185.5
267.055	196.5
267.287	205.5
267.52	189.5
267.752	201.5
267.984	208.5
268.216	184.5
268.448	206.5
268.681	203.5
268.913	225.5
269.145	231.5
269.377	235.5
269.609	234.5
269.841	223.5
270.073	239.5
270.306	261.5
270.538	254.5
270.77	269.5
271.002	253.5
271.234	247.5
271.466	262.5
271.698	273.5
271.93	268.5
272.162	277.5
272.394	274.5
272.626	256.5
272.858	244.5
273.09	251.5
273.322	242.5
273.553	240.5
273.785	212.5
274.017	238.5
274.249	235.5
274.481	244.5
274.713	224.5
274.945	242.5
275.176	236.5
275.408	230.5
275.64	234.5
275.872	242.5
276.104	228.5
276.335	215.5
276.567	234.5
276.799	252.5
277.031	266.5
277.262	269.5
277.494	273.5
277.726	258.5
277.957	251.5
278.189	246.5
278.421	229.5
278.652	245.5
278.884	241.5
279.115	237.5
279.347	249.5
279.579	238.5
279.81	231.5
280.042	233.5
280.273	225.5
280.505	237.5
280.736	230.5
280.968	218.5
281.199	226.5
281.431	233.5
281.662	234.5
281.894	221.5
282.125	253.5
282.356	242.5
282.588	261.5
282.819	251.5
283.051	233.5
283.282	244.5
283.513	244.5
283.745	233.5
283.976	242.5
284.207	244.5
284.439	235.5
284.67	245.5
284.901	248.5
285.132	236.5
285.364	250.5
285.595	231.5
285.826	249.5
286.057	231.5
286.288	235.5
286.52	243.5
286.751	256.5
286.982	240.5
287.213	238.5
287.444	219.5
287.675	268.5
287.906	243.5
288.138	270.5
288.369	276.5
288.6	269.5
288.831	261.5
289.062	250.5
289.293	253.5
289.524	254.5
289.755	265.5
289.986	237.5
290.217	252.5
290.448	235.5
290.679	241.5
290.91	250.5
291.141	234.5
291.371	237.5
291.602	247.5
291.833	246.5
292.064	255.5
292.295	240.5
292.526	248.5
292.757	245.5
292.987	257.5
293.218	267.5
293.449	260.5
293.68	257.5
293.91	246.5
294.141	260.5
294.372	252.5
294.603	253.5
294.833	253.5
295.064	234.5
295.295	252.5
295.525	266.5
295.756	264.5
295.987	292.5
296.217	269.5
296.448	274.5
296.679	258.5
296.909	250.5
297.14	244.5
297.37	258.5
297.601	251.5
297.831	253.5
298.062	261.5
298.292	264.5
298.523	281.5
298.753	264.5
298.984	246.5
299.214	273.5
299.445	282.5
299.675	279.5
299.905	276.5
300.136	275.5
300.366	267.5
300.597	271.5
300.827	259.5
301.057	291.5
301.288	292.5
301.518	279.5
301.748	270.5
301.979	314.5
302.209	293.5
302.439	292.5
302.669	292.5
302.9	274.5
303.13	271.5
303.36	283.5
303.59	304.5
303.82	302.5
304.051	289.5
304.281	279.5
304.511	297.5
304.741	290.5
304.971	293.5
305.201	295.5
305.431	282.5
305.661	290.5
305.891	267.5
306.121	291.5
306.352	309.5
306.582	298.5
306.812	280.5
307.042	283.5
307.272	273.5
307.502	289.5
307.731	296.5
307.961	279.5
308.191	278.5
308.421	293.5
308.651	300.5
308.881	293.5
309.111	305.5
309.341	298.5
309.571	330.5
309.8	316.5
310.03	336.5
310.26	322.5
310.49	324.5
310.72	323.5
310.949	358.5
311.179	347.5
311.409	344.5
311.639	313.5
311.868	321.5
312.098	313.5
312.328	330.5
312.557	346.5
312.787	343.5
313.017	371.5
313.246	335.5
313.476	339.5
313.706	347.5
313.935	341.5
314.165	342.5
314.394	349.5
314.624	370.5
314.853	344.5
315.083	321.5
315.312	332.5
315.542	323.5
315.771	315.5
316.001	325.5
316.23	335.5
316.46	321.5
316.689	337.5
316.919	332.5
317.148	342.5
317.377	331.5
317.607	343.5
317.836	330.5
318.065	334.5
318.295	321.5
318.524	326.5
318.753	311.5
318.983	320.5
319.212	343.5
319.441	324.5
319.67	347.5
319.9	314.5
320.129	344.5
320.358	338.5
320.587	321.5
320.816	336.5
321.046	360.5
321.275	340.5
321.504	342.5
321.733	346.5
321.962	355.5
322.191	357.5
322.42	361.5
322.649	381.5
322.878	380.5
323.108	396.5
323.337	412.5
323.566	434.5
323.795	459.5
324.024	516.5
324.253	612.5
324.482	835.5
324.71	1295.5
324.939	1714.5
325.168	1456.5
325.397	760.5
325.626	529.5
325.855	465.5
326.084	443.5
326.313	442.5
326.542	434.5
326.77	493.5
326.999	562.5
327.228	788.5
327.457	1122.5
327.686	1282.5
327.914	828.5
328.143	571.5
328.372	520.5
328.6	481.5
328.829	478.5
329.058	485.5
329.287	504.5
329.515	454.5
329.744	442.5
329.972	432.5
330.201	409.5
330.43	439.5
330.658	483.5
330.887	498.5
331.115	526.5
331.344	441.5
331.572	429.5
331.801	434.5
332.03	418.5
332.258	405.5
332.486	401.5
332.715	378.5
332.943	392.5
333.172	387.5
333.4	369.5
333.629	401.5
333.857	402.5
334.085	412.5
334.314	382.5
334.542	383.5
334.771	393.5
334.999	410.5
335.227	379.5
335.455	368.5
335.684	375.5
335.912	384.5
336.14	376.5
336.369	387.5
336.597	391.5
336.825	386.5
337.053	381.5
337.281	391.5
337.51	370.5
337.738	380.5
337.966	369.5
338.194	384.5
338.422	407.5
338.65	366.5
338.878	361.5
339.106	374.5
339.334	376.5
339.562	354.5
339.79	368.5
340.018	388.5
340.246	371.5
340.474	382.5
340.702	359.5
340.93	363.5
341.158	381.5
341.386	368.5
341.614	369.5
341.842	355.5
342.07	368.5
342.298	372.5
342.526	353.5
342.754	350.5
342.981	349.5
343.209	356.5
343.437	362.5
343.665	361.5
343.893	373.5
344.12	371.5
344.348	373.5
344.576	362.5
344.804	378.5
345.031	388.5
345.259	394.5
345.487	359.5
345.714	352.5
345.942	375.5
346.17	361.5
346.397	342.5
346.625	344.5
346.853	361.5
347.08	359.5
347.308	361.5
347.535	348.5
347.763	358.5
347.99	374.5
348.218	370.5
348.445	350.5
348.673	354.5
348.9	365.5
349.128	357.5
349.355	364.5
349.583	358.5
349.81	361.5
350.037	354.5
350.265	350.5
350.492	337.5
350.72	364.5
350.947	346.5
351.174	329.5
351.402	361.5
351.629	365.5
351.856	369.5
352.083	376.5
352.311	374.5
352.538	375.5
352.765	369.5
352.992	340.5
353.22	363.5
353.447	358.5
353.674	362.5
353.901	347.5
354.128	338.5
354.355	340.5
354.583	332.5
354.81	357.5
355.037	349.5
355.264	313.5
355.491	325.5
355.718	325.5
355.945	321.5
356.172	324.5
356.399	319.5
356.626	334.5
356.853	321.5
357.08	321.5
357.307	332.5
357.534	333.5
357.761	330.5
357.988	317.5
358.215	317.5
358.441	340.5
358.668	352.5
358.895	337.5
359.122	338.5
359.349	333.5
359.576	365.5
359.802	392.5
360.029	393.5
360.256	394.5
360.483	371.5
360.709	370.5
360.936	358.5
361.163	375.5
361.39	340.5
361.616	350.5
361.843	358.5
362.07	343.5
362.296	366.5
362.523	346.5
362.749	365.5
362.976	345.5
363.203	339.5
363.429	362.5
363.656	333.5
363.882	347.5
364.109	339.5
364.335	332.5
364.562	338.5
364.788	365.5
365.015	340.5
365.241	342.5
365.468	332.5
365.694	360.5
365.92	374.5
366.147	355.5
366.373	345.5
366.599	324.5
366.826	326.5
367.052	343.5
367.278	322.5
367.505	368.5
367.731	348.5
367.957	329.5
368.184	326.5
368.41	337.5
368.636	347.5
368.862	370.5
369.089	344.5
369.315	346.5
369.541	354.5
369.767	345.5
369.993	328.5
370.219	353.5
370.445	318.5
370.672	335.5
370.898	338.5
371.124	353.5
371.35	333.5
371.576	354.5
371.802	344.5
372.028	349.5
372.254	350.5
372.48	349.5
372.706	346.5
372.932	338.5
373.158	359.5
373.384	352.5
373.61	325.5
373.835	344.5
374.061	320.5
374.287	341.5
374.513	331.5
374.739	324.5
374.965	344.5
375.191	334.5
375.416	359.5
375.642	337.5
375.868	347.5
376.094	348.5
376.319	330.5
376.545	353.5
376.771	330.5
376.997	313.5
377.222	342.5
377.448	350.5
377.674	338.5
377.899	333.5
378.125	326.5
378.35	338.5
378.576	344.5
378.802	321.5
379.027	317.5
379.253	348.5
379.478	336.5
379.704	336.5
379.929	330.5
380.155	332.5
380.38	349.5
380.606	330.5
380.831	342.5
381.057	344.5
381.282	339.5
381.507	329.5
381.733	328.5
381.958	326.5
382.184	347.5
382.409	349.5
382.634	348.5
382.86	346.5
383.085	344.5
383.31	349.5
383.535	355.5
383.761	356.5
383.986	352.5
384.211	349.5
384.436	343.5
384.662	335.5
384.887	354.5
385.112	352.5
385.337	352.5
385.562	370.5
385.787	386.5
386.013	376.5
386.238	371.5
386.463	358.5
386.688	367.5
386.913	360.5
387.138	351.5
387.363	366.5
387.588	354.5
387.813	370.5
388.038	372.5
388.263	360.5
388.488	374.5
388.713	350.5
388.938	365.5
389.163	376.5
389.387	372.5
389.612	352.5
389.837	361.5
390.062	347.5
390.287	365.5
390.512	355.5
390.736	369.5
390.961	366.5
391.186	368.5
391.411	353.5
391.636	364.5
391.86	361.5
392.085	372.5
392.31	357.5
392.534	384.5
392.759	357.5
392.984	371.5
393.208	365.5
393.433	361.5
393.658	366.5
393.882	379.5
394.107	360.5
394.331	372.5
394.556	354.5
394.78	357.5
395.005	376.5
395.229	368.5
395.454	355.5
395.678	380.5
395.903	378.5
396.127	383.5
396.352	395.5
396.576	376.5
396.801	358.5
397.025	375.5
397.249	380.5
397.474	378.5
397.698	371.5
397.922	397.5
398.147	425.5
398.371	397.5
398.595	415.5
398.82	426.5
399.044	435.5
399.268	432.5
399.492	448.5
399.717	470.5
399.941	465.5
400.165	499.5
400.389	502.5
400.613	445.5
400.837	438.5
401.062	438.5
401.286	426.5
401.51	401.5
401.734	396.5
401.958	414.5
402.182	421.5
402.406	427.5
402.63	423.5
402.854	428.5
403.078	420.5
403.302	427.5
403.526	419.5
403.75	416.5
403.974	419.5
404.198	396.5
404.422	424.5
404.645	436.5
404.869	439.5
405.093	408.5
405.317	437.5
405.541	473.5
405.765	436.5
405.988	440.5
406.212	461.5
406.436	448.5
406.66	482.5
406.883	454.5
407.107	459.5
407.331	522.5
407.555	536.5
407.778	526.5
408.002	507.5
408.226	475.5
408.449	458.5
408.673	466.5
408.896	458.5
409.12	513.5
409.344	487.5
409.567	436.5
409.791	422.5
410.014	417.5
410.238	420.5
410.461	435.5
410.685	426.5
410.908	438.5
411.132	475.5
411.355	480.5
411.578	462.5
411.802	435.5
412.025	427.5
412.249	409.5
412.472	413.5
412.695	445.5
412.919	406.5
413.142	414.5
413.365	422.5
413.589	425.5
413.812	414.5
414.035	398.5
414.258	396.5
414.482	411.5
414.705	393.5
414.928	414.5
415.151	396.5
415.374	395.5
415.597	397.5
415.821	398.5
416.044	400.5
416.267	404.5
416.49	381.5
416.713	388.5
416.936	398.5
417.159	377.5
417.382	394.5
417.605	397.5
417.828	413.5
418.051	417.5
418.274	404.5
418.497	410.5
418.72	398.5
418.943	386.5
419.166	417.5
419.389	434.5
419.611	424.5
419.834	416.5
420.057	398.5
420.28	412.5
420.503	405.5
420.726	415.5
420.948	432.5
421.171	452.5
421.394	477.5
421.617	438.5
421.839	403.5
422.062	411.5
422.285	430.5
422.507	496.5
422.73	525.5
422.953	508.5
423.175	448.5
423.398	405.5
423.621	426.5
423.843	451.5
424.066	437.5
424.288	455.5
424.511	473.5
424.733	489.5
424.956	547.5
425.178	514.5
425.401	522.5
425.623	517.5
425.846	473.5
426.068	447.5
426.291	435.5
426.513	449.5
426.735	445.5
426.958	484.5
427.18	566.5
427.402	617.5
427.625	690.5
427.847	574.5
428.069	518.5
428.292	470.5
428.514	434.5
428.736	425.5
428.958	423.5
429.181	407.5
429.403	422.5
429.625	429.5
429.847	437.5
430.069	498.5
430.292	503.5
430.514	440.5
430.736	418.5
430.958	401.5
431.18	409.5
431.402	402.5
431.624	393.5
431.846	384.5
432.068	399.5
432.29	386.5
432.512	407.5
432.734	408.5
432.956	405.5
433.178	426.5
433.4	386.5
433.622	400.5
433.844	390.5
434.066	382.5
434.287	407.5
434.509	393.5
434.731	403.5
434.953	408.5
435.175	404.5
435.397	436.5
435.618	463.5
435.84	470.5
436.062	553.5
436.284	598.5
436.505	494.5
436.727	443.5
436.949	424.5
437.17	403.5
437.392	420.5
437.614	441.5
437.835	470.5
438.057	529.5
438.278	593.5
438.5	605.5
438.721	646.5
438.943	606.5
439.165	502.5
439.386	471.5
439.608	466.5
439.829	447.5
440.05	453.5
440.272	491.5
440.493	484.5
440.715	428.5
440.936	437.5
441.158	436.5
441.379	427.5
441.6	421.5
441.822	447.5
442.043	493.5
442.264	532.5
442.486	578.5
442.707	476.5
442.928	456.5
443.149	468.5
443.371	492.5
443.592	522.5
443.813	581.5
444.034	604.5
444.255	512.5
444.476	486.5
444.698	442.5
444.919	448.5
445.14	572.5
445.361	509.5
445.582	487.5
445.803	524.5
446.024	580.5
446.245	616.5
446.466	542.5
446.687	472.5
446.908	429.5
447.129	415.5
447.35	407.5
447.571	413.5
447.792	413.5
448.013	425.5
448.234	436.5
448.455	493.5
448.675	564.5
448.896	616.5
449.117	545.5
449.338	539.5
449.559	585.5
449.779	679.5
450	541.5
450.221	467.5
450.442	442.5
450.662	425.5
450.883	415.5
451.104	429.5
451.324	430.5
451.545	396.5
451.766	405.5
451.986	370.5
452.207	371.5
452.428	384.5
452.648	390.5
452.869	380.5
453.089	398.5
453.31	383.5
453.53	405.5
453.751	370.5
453.971	384.5
454.192	395.5
454.412	394.5
454.633	366.5
454.853	378.5
455.073	368.5
455.294	400.5
455.514	439.5
455.734	418.5
455.955	372.5
456.175	365.5
456.395	360.5
456.616	361.5
456.836	347.5
457.056	374.5
457.276	356.5
457.497	365.5
457.717	358.5
457.937	357.5
458.157	367.5
458.377	362.5
458.598	386.5
458.818	428.5
459.038	485.5
459.258	474.5
459.478	425.5
459.698	416.5
459.918	399.5
460.138	403.5
460.358	402.5
460.578	386.5
460.798	382.5
461.018	401.5
461.238	399.5
461.458	396.5
461.678	395.5
461.898	397.5
462.118	393.5
462.338	406.5
462.558	420.5
462.777	431.5
462.997	422.5
463.217	437.5
463.437	416.5
463.657	412.5
463.876	410.5
464.096	416.5
464.316	433.5
464.536	430.5
464.755	429.5
464.975	438.5
465.195	472.5
465.414	523.5
465.634	444.5
465.854	433.5
466.073	384.5
466.293	372.5
466.512	372.5
466.732	374.5
466.951	392.5
467.171	380.5
467.391	377.5
467.61	390.5
467.829	417.5
468.049	382.5
468.268	395.5
468.488	377.5
468.707	371.5
468.927	368.5
469.146	386.5
469.365	389.5
469.585	381.5
469.804	387.5
470.023	380.5
470.243	384.5
470.462	397.5
470.681	400.5
470.901	389.5
471.12	387.5
471.339	393.5
471.558	385.5
471.777	387.5
471.997	381.5
472.216	384.5
472.435	389.5
472.654	387.5
472.873	364.5
473.092	376.5
473.311	376.5
473.53	390.5
473.749	403.5
473.968	440.5
474.187	518.5
474.406	514.5
474.625	450.5
474.844	410.5
475.063	396.5
475.282	384.5
475.501	376.5
475.72	403.5
475.939	388.5
476.158	396.5
476.377	399.5
476.596	403.5
476.814	424.5
477.033	416.5
477.252	410.5
477.471	434.5
477.69	419.5
477.908	420.5
478.127	410.5
478.346	435.5
478.564	425.5
478.783	431.5
479.002	440.5
479.22	441.5
479.439	453.5
479.658	465.5
479.876	467.5
480.095	461.5
480.313	489.5
480.532	475.5
480.751	459.5
480.969	470.5
481.188	499.5
481.406	488.5
481.624	454.5
481.843	453.5
482.061	445.5
482.28	435.5
482.498	439.5
482.717	441.5
482.935	445.5
483.153	463.5
483.372	446.5
483.59	466.5
483.808	432.5
484.027	427.5
484.245	434.5
484.463	438.5
484.681	455.5
484.9	469.5
485.118	431.5
485.336	475.5
485.554	446.5
485.772	466.5
485.99	465.5
486.209	457.5
486.427	466.5
486.645	484.5
486.863	491.5
487.081	482.5
487.299	478.5
487.517	473.5
487.735	486.5
487.953	480.5
488.171	488.5
488.389	490.5
488.607	509.5
488.825	503.5
489.043	477.5
489.261	494.5
489.479	493.5
489.696	465.5
489.914	492.5
490.132	488.5
490.35	513.5
490.568	514.5
490.786	515.5
491.003	523.5
491.221	505.5
491.439	523.5
491.657	534.5
491.874	529.5
492.092	548.5
492.31	560.5
492.527	545.5
492.745	556.5
492.963	546.5
493.18	561.5
493.398	588.5
493.615	578.5
493.833	578.5
494.05	568.5
494.268	550.5
494.485	588.5
494.703	572.5
494.92	566.5
495.138	572.5
495.355	567.5
495.573	560.5
495.79	582.5
496.008	557.5
496.225	590.5
496.442	586.5
496.66	597.5
496.877	568.5
497.094	571.5
497.312	568.5
497.529	595.5
497.746	589.5
497.963	599.5
498.181	642.5
498.398	606.5
498.615	634.5
498.832	646.5
499.049	636.5
499.267	672.5
499.484	681.5
499.701	715.5
499.918	726.5
500.135	733.5
500.352	758.5
500.569	764.5
500.786	758.5
501.003	765.5
501.22	740.5
501.437	716.5
501.654	689.5
501.871	698.5
502.088	689.5
502.305	694.5
502.522	626.5
502.739	614.5
502.956	606.5
503.172	589.5
503.389	620.5
503.606	603.5
503.823	626.5
504.04	577.5
504.256	563.5
504.473	572.5
504.69	571.5
504.907	558.5
505.123	588.5
505.34	554.5
505.557	547.5
505.773	551.5
505.99	547.5
506.207	553.5
506.423	545.5
506.64	552.5
506.856	544.5
507.073	554.5
507.289	544.5
507.506	529.5
507.722	551.5
507.939	576.5
508.155	527.5
508.372	533.5
508.588	510.5
508.805	536.5
509.021	522.5
509.238	545.5
509.454	531.5
509.67	540.5
509.887	517.5
510.103	516.5
510.319	524.5
510.536	601.5
510.752	987.5
510.968	794.5
511.184	550.5
511.401	493.5
511.617	494.5
511.833	498.5
512.049	488.5
512.265	478.5
512.481	485.5
512.698	480.5
512.914	487.5
513.13	493.5
513.346	483.5
513.562	483.5
513.778	490.5
513.994	491.5
514.21	502.5
514.426	538.5
514.642	574.5
514.858	615.5
515.074	600.5
515.29	714.5
515.506	1133.5
515.721	920.5
515.937	599.5
516.153	540.5
516.369	544.5
516.585	530.5
516.801	498.5
517.016	503.5
517.232	505.5
517.448	505.5
517.664	477.5
517.879	495.5
518.095	486.5
518.311	514.5
518.527	525.5
518.742	498.5
518.958	499.5
519.173	476.5
519.389	493.5
519.605	506.5
519.82	514.5
520.036	485.5
