Data from 1983.PennyLincolnUp.Lamp.En5.5.200Scan.071819.P1_HRD10591_16-52-46-965.txt Node
Date: Thu Jul 18 16:52:46 EDT 2019
User: cochatt
Spectrometer: HR+D1059
Trigger mode: 1
Integration Time (sec): 1.000000E-1
Scans to average: 1
Electric dark correction enabled: true
Nonlinearity correction enabled: false
Boxcar width: 0
XAxis mode: Wavelengths
Number of Pixels in Spectrum: 2048
>>>>>Begin Spectral Data<<<<<
223.165	-19.06
223.4	-19.06
223.635	-19.06
223.869	-19.06
224.104	-26.06
224.338	-12.06
224.573	-24.06
224.808	-6.06
225.042	-12.06
225.277	0.94
225.511	0.94
225.746	1.94
225.98	7.94
226.215	20.94
226.449	9.94
226.683	12.94
226.918	23.94
227.152	38.94
227.387	12.94
227.621	26.94
227.856	44.94
228.09	49.94
228.324	46.94
228.559	36.94
228.793	67.94
229.027	92.94
229.262	87.94
229.496	98.94
229.73	112.94
229.964	121.94
230.199	119.94
230.433	98.94
230.667	100.94
230.901	111.94
231.136	109.94
231.37	109.94
231.604	96.94
231.838	110.94
232.072	101.94
232.306	95.94
232.541	99.94
232.775	107.94
233.009	97.94
233.243	101.94
233.477	118.94
233.711	114.94
233.945	103.94
234.179	106.94
234.413	118.94
234.647	120.94
234.881	95.94
235.115	115.94
235.349	102.94
235.583	107.94
235.817	111.94
236.051	100.94
236.285	116.94
236.519	136.94
236.753	115.94
236.987	137.94
237.221	166.94
237.455	197.94
237.689	171.94
237.922	127.94
238.156	119.94
238.39	126.94
238.624	125.94
238.858	112.94
239.091	100.94
239.325	101.94
239.559	117.94
239.793	119.94
240.027	128.94
240.26	142.94
240.494	149.94
240.728	126.94
240.961	131.94
241.195	120.94
241.429	131.94
241.662	137.94
241.896	114.94
242.13	113.94
242.363	113.94
242.597	115.94
242.83	119.94
243.064	125.94
243.298	120.94
243.531	131.94
243.765	125.94
243.998	129.94
244.232	128.94
244.465	142.94
244.699	137.94
244.932	127.94
245.166	149.94
245.399	124.94
245.633	120.94
245.866	116.94
246.099	125.94
246.333	132.94
246.566	146.94
246.8	141.94
247.033	123.94
247.266	139.94
247.5	145.94
247.733	145.94
247.966	164.94
248.2	161.94
248.433	149.94
248.666	143.94
248.899	156.94
249.133	168.94
249.366	177.94
249.599	159.94
249.832	156.94
250.066	160.94
250.299	166.94
250.532	175.94
250.765	171.94
250.998	179.94
251.231	178.94
251.465	188.94
251.698	184.94
251.931	176.94
252.164	180.94
252.397	163.94
252.63	160.94
252.863	169.94
253.096	181.94
253.329	197.94
253.562	192.94
253.795	208.94
254.028	170.94
254.261	209.94
254.494	181.94
254.727	221.94
254.96	240.94
255.193	222.94
255.426	218.94
255.659	207.94
255.892	208.94
256.124	191.94
256.357	171.94
256.59	197.94
256.823	180.94
257.056	184.94
257.289	175.94
257.521	188.94
257.754	183.94
257.987	167.94
258.22	173.94
258.452	174.94
258.685	184.94
258.918	179.94
259.151	173.94
259.383	180.94
259.616	204.94
259.849	194.94
260.081	217.94
260.314	224.94
260.547	255.94
260.779	211.94
261.012	204.94
261.244	198.94
261.477	200.94
261.71	211.94
261.942	215.94
262.175	198.94
262.407	204.94
262.64	197.94
262.872	185.94
263.105	198.94
263.337	192.94
263.57	190.94
263.802	196.94
264.035	204.94
264.267	194.94
264.499	185.94
264.732	187.94
264.964	189.94
265.197	199.94
265.429	203.94
265.661	185.94
265.894	199.94
266.126	186.94
266.358	195.94
266.591	190.94
266.823	203.94
267.055	203.94
267.287	199.94
267.52	194.94
267.752	191.94
267.984	183.94
268.216	205.94
268.448	197.94
268.681	220.94
268.913	211.94
269.145	243.94
269.377	237.94
269.609	254.94
269.841	239.94
270.073	235.94
270.306	252.94
270.538	258.94
270.77	273.94
271.002	248.94
271.234	253.94
271.466	263.94
271.698	277.94
271.93	280.94
272.162	272.94
272.394	264.94
272.626	251.94
272.858	255.94
273.09	242.94
273.322	243.94
273.553	237.94
273.785	228.94
274.017	236.94
274.249	232.94
274.481	231.94
274.713	237.94
274.945	230.94
275.176	216.94
275.408	232.94
275.64	231.94
275.872	216.94
276.104	229.94
276.335	244.94
276.567	218.94
276.799	268.94
277.031	266.94
277.262	271.94
277.494	265.94
277.726	251.94
277.957	260.94
278.189	237.94
278.421	214.94
278.652	230.94
278.884	233.94
279.115	242.94
279.347	228.94
279.579	241.94
279.81	230.94
280.042	221.94
280.273	228.94
280.505	236.94
280.736	237.94
280.968	236.94
281.199	232.94
281.431	229.94
281.662	241.94
281.894	220.94
282.125	209.94
282.356	252.94
282.588	253.94
282.819	260.94
283.051	243.94
283.282	241.94
283.513	241.94
283.745	229.94
283.976	239.94
284.207	234.94
284.439	241.94
284.67	241.94
284.901	260.94
285.132	231.94
285.364	231.94
285.595	252.94
285.826	239.94
286.057	232.94
286.288	259.94
286.52	230.94
286.751	243.94
286.982	255.94
287.213	261.94
287.444	252.94
287.675	247.94
287.906	243.94
288.138	265.94
288.369	253.94
288.6	233.94
288.831	263.94
289.062	251.94
289.293	262.94
289.524	255.94
289.755	246.94
289.986	251.94
290.217	245.94
290.448	241.94
290.679	254.94
290.91	244.94
291.141	269.94
291.371	253.94
291.602	239.94
291.833	246.94
292.064	260.94
292.295	243.94
292.526	240.94
292.757	252.94
292.987	267.94
293.218	261.94
293.449	260.94
293.68	256.94
293.91	259.94
294.141	243.94
294.372	244.94
294.603	253.94
294.833	256.94
295.064	255.94
295.295	231.94
295.525	254.94
295.756	259.94
295.987	265.94
296.217	288.94
296.448	283.94
296.679	264.94
296.909	267.94
297.14	273.94
297.37	252.94
297.601	262.94
297.831	259.94
298.062	283.94
298.292	261.94
298.523	274.94
298.753	269.94
298.984	257.94
299.214	283.94
299.445	253.94
299.675	288.94
299.905	281.94
300.136	267.94
300.366	271.94
300.597	264.94
300.827	283.94
301.057	269.94
301.288	261.94
301.518	286.94
301.748	283.94
301.979	293.94
302.209	284.94
302.439	268.94
302.669	283.94
302.9	285.94
303.13	285.94
303.36	293.94
303.59	292.94
303.82	292.94
304.051	320.94
304.281	283.94
304.511	286.94
304.741	291.94
304.971	273.94
305.201	282.94
305.431	271.94
305.661	271.94
305.891	286.94
306.121	293.94
306.352	279.94
306.582	288.94
306.812	309.94
307.042	281.94
307.272	304.94
307.502	273.94
307.731	293.94
307.961	282.94
308.191	285.94
308.421	286.94
308.651	307.94
308.881	292.94
309.111	309.94
309.341	305.94
309.571	302.94
309.8	302.94
310.03	347.94
310.26	329.94
310.49	327.94
310.72	319.94
310.949	347.94
311.179	325.94
311.409	318.94
311.639	324.94
311.868	343.94
312.098	332.94
312.328	345.94
312.557	336.94
312.787	366.94
313.017	354.94
313.246	353.94
313.476	332.94
313.706	339.94
313.935	345.94
314.165	330.94
314.394	356.94
314.624	353.94
314.853	330.94
315.083	339.94
315.312	339.94
315.542	320.94
315.771	331.94
316.001	331.94
316.23	345.94
316.46	317.94
316.689	337.94
316.919	352.94
317.148	334.94
317.377	346.94
317.607	334.94
317.836	340.94
318.065	309.94
318.295	336.94
318.524	323.94
318.753	339.94
318.983	327.94
319.212	331.94
319.441	337.94
319.67	334.94
319.9	350.94
320.129	346.94
320.358	338.94
320.587	325.94
320.816	341.94
321.046	326.94
321.275	359.94
321.504	357.94
321.733	345.94
321.962	351.94
322.191	353.94
322.42	369.94
322.649	383.94
322.878	382.94
323.108	400.94
323.337	432.94
323.566	444.94
323.795	469.94
324.024	528.94
324.253	593.94
324.482	863.94
324.71	1315.94
324.939	1781.94
325.168	1465.94
325.397	799.94
325.626	535.94
325.855	480.94
326.084	444.94
326.313	435.94
326.542	444.94
326.77	511.94
326.999	572.94
327.228	776.94
327.457	1133.94
327.686	1332.94
327.914	891.94
328.143	603.94
328.372	519.94
328.6	505.94
328.829	478.94
329.058	494.94
329.287	477.94
329.515	468.94
329.744	428.94
329.972	419.94
330.201	404.94
330.43	439.94
330.658	476.94
330.887	503.94
331.115	518.94
331.344	422.94
331.572	421.94
331.801	423.94
332.03	404.94
332.258	407.94
332.486	375.94
332.715	375.94
332.943	398.94
333.172	378.94
333.4	372.94
333.629	390.94
333.857	391.94
334.085	402.94
334.314	389.94
334.542	401.94
334.771	412.94
334.999	401.94
335.227	407.94
335.455	384.94
335.684	389.94
335.912	366.94
336.14	378.94
336.369	387.94
336.597	393.94
336.825	381.94
337.053	377.94
337.281	364.94
337.51	382.94
337.738	365.94
337.966	378.94
338.194	379.94
338.422	357.94
338.65	372.94
338.878	364.94
339.106	353.94
339.334	361.94
339.562	375.94
339.79	353.94
340.018	356.94
340.246	371.94
340.474	379.94
340.702	379.94
340.93	377.94
341.158	376.94
341.386	377.94
341.614	374.94
341.842	352.94
342.07	363.94
342.298	391.94
342.526	359.94
342.754	363.94
342.981	349.94
343.209	349.94
343.437	374.94
343.665	359.94
343.893	375.94
344.12	395.94
344.348	383.94
344.576	363.94
344.804	377.94
345.031	374.94
345.259	378.94
345.487	369.94
345.714	371.94
345.942	361.94
346.17	375.94
346.397	353.94
346.625	343.94
346.853	356.94
347.08	351.94
347.308	362.94
347.535	369.94
347.763	364.94
347.99	372.94
348.218	396.94
348.445	384.94
348.673	376.94
348.9	345.94
349.128	358.94
349.355	359.94
349.583	354.94
349.81	351.94
350.037	349.94
350.265	340.94
350.492	357.94
350.72	345.94
350.947	357.94
351.174	372.94
351.402	373.94
351.629	361.94
351.856	363.94
352.083	373.94
352.311	383.94
352.538	368.94
352.765	383.94
352.992	362.94
353.22	343.94
353.447	353.94
353.674	350.94
353.901	349.94
354.128	330.94
354.355	340.94
354.583	340.94
354.81	347.94
355.037	341.94
355.264	327.94
355.491	334.94
355.718	316.94
355.945	331.94
356.172	328.94
356.399	344.94
356.626	333.94
356.853	333.94
357.08	331.94
357.307	329.94
357.534	334.94
357.761	349.94
357.988	343.94
358.215	343.94
358.441	339.94
358.668	349.94
358.895	351.94
359.122	320.94
359.349	344.94
359.576	356.94
359.802	375.94
360.029	407.94
360.256	415.94
360.483	383.94
360.709	360.94
360.936	355.94
361.163	354.94
361.39	360.94
361.616	356.94
361.843	351.94
362.07	375.94
362.296	375.94
362.523	353.94
362.749	354.94
362.976	344.94
363.203	354.94
363.429	355.94
363.656	337.94
363.882	330.94
364.109	348.94
364.335	334.94
364.562	342.94
364.788	333.94
365.015	329.94
365.241	348.94
365.468	356.94
365.694	341.94
365.92	357.94
366.147	349.94
366.373	335.94
366.599	343.94
366.826	349.94
367.052	331.94
367.278	322.94
367.505	348.94
367.731	332.94
367.957	335.94
368.184	351.94
368.41	364.94
368.636	363.94
368.862	351.94
369.089	339.94
369.315	343.94
369.541	356.94
369.767	342.94
369.993	358.94
370.219	335.94
370.445	341.94
370.672	330.94
370.898	342.94
371.124	338.94
371.35	341.94
371.576	327.94
371.802	319.94
372.028	321.94
372.254	340.94
372.48	332.94
372.706	335.94
372.932	350.94
373.158	339.94
373.384	354.94
373.61	329.94
373.835	336.94
374.061	347.94
374.287	338.94
374.513	336.94
374.739	339.94
374.965	349.94
375.191	350.94
375.416	350.94
375.642	336.94
375.868	354.94
376.094	338.94
376.319	331.94
376.545	344.94
376.771	327.94
376.997	335.94
377.222	339.94
377.448	336.94
377.674	321.94
377.899	340.94
378.125	347.94
378.35	326.94
378.576	348.94
378.802	350.94
379.027	332.94
379.253	332.94
379.478	328.94
379.704	314.94
379.929	349.94
380.155	341.94
380.38	356.94
380.606	334.94
380.831	345.94
381.057	360.94
381.282	343.94
381.507	339.94
381.733	339.94
381.958	324.94
382.184	344.94
382.409	336.94
382.634	339.94
382.86	328.94
383.085	327.94
383.31	352.94
383.535	342.94
383.761	358.94
383.986	350.94
384.211	348.94
384.436	344.94
384.662	341.94
384.887	352.94
385.112	361.94
385.337	359.94
385.562	349.94
385.787	351.94
386.013	388.94
386.238	387.94
386.463	374.94
386.688	349.94
386.913	358.94
387.138	351.94
387.363	367.94
387.588	361.94
387.813	356.94
388.038	355.94
388.263	337.94
388.488	376.94
388.713	369.94
388.938	358.94
389.163	361.94
389.387	354.94
389.612	354.94
389.837	367.94
390.062	356.94
390.287	347.94
390.512	367.94
390.736	373.94
390.961	353.94
391.186	367.94
391.411	360.94
391.636	366.94
391.86	363.94
392.085	385.94
392.31	359.94
392.534	367.94
392.759	377.94
392.984	372.94
393.208	366.94
393.433	348.94
393.658	360.94
393.882	360.94
394.107	365.94
394.331	369.94
394.556	371.94
394.78	379.94
395.005	368.94
395.229	360.94
395.454	373.94
395.678	369.94
395.903	390.94
396.127	399.94
396.352	405.94
396.576	381.94
396.801	381.94
397.025	373.94
397.249	378.94
397.474	372.94
397.698	377.94
397.922	382.94
398.147	408.94
398.371	404.94
398.595	409.94
398.82	397.94
399.044	415.94
399.268	429.94
399.492	429.94
399.717	446.94
399.941	471.94
400.165	509.94
400.389	496.94
400.613	461.94
400.837	429.94
401.062	432.94
401.286	432.94
401.51	416.94
401.734	422.94
401.958	407.94
402.182	425.94
402.406	415.94
402.63	414.94
402.854	435.94
403.078	420.94
403.302	427.94
403.526	439.94
403.75	430.94
403.974	430.94
404.198	436.94
404.422	430.94
404.645	433.94
404.869	433.94
405.093	424.94
405.317	451.94
405.541	496.94
405.765	435.94
405.988	437.94
406.212	445.94
406.436	473.94
406.66	465.94
406.883	468.94
407.107	465.94
407.331	499.94
407.555	565.94
407.778	545.94
408.002	497.94
408.226	469.94
408.449	445.94
408.673	461.94
408.896	467.94
409.12	494.94
409.344	495.94
409.567	472.94
409.791	444.94
410.014	408.94
410.238	431.94
410.461	409.94
410.685	438.94
410.908	431.94
411.132	474.94
411.355	488.94
411.578	480.94
411.802	445.94
412.025	415.94
412.249	429.94
412.472	446.94
412.695	427.94
412.919	429.94
413.142	382.94
413.365	419.94
413.589	403.94
413.812	397.94
414.035	403.94
414.258	418.94
414.482	399.94
414.705	402.94
414.928	403.94
415.151	406.94
415.374	404.94
415.597	396.94
415.821	381.94
416.044	400.94
416.267	415.94
416.49	414.94
416.713	400.94
416.936	409.94
417.159	405.94
417.382	392.94
417.605	395.94
417.828	387.94
418.051	435.94
418.274	402.94
418.497	403.94
418.72	427.94
418.943	400.94
419.166	391.94
419.389	434.94
419.611	440.94
419.834	428.94
420.057	417.94
420.28	414.94
420.503	405.94
420.726	421.94
420.948	446.94
421.171	436.94
421.394	464.94
421.617	435.94
421.839	414.94
422.062	417.94
422.285	440.94
422.507	450.94
422.73	527.94
422.953	500.94
423.175	446.94
423.398	423.94
423.621	443.94
423.843	437.94
424.066	443.94
424.288	440.94
424.511	474.94
424.733	520.94
424.956	561.94
425.178	545.94
425.401	558.94
425.623	569.94
425.846	494.94
426.068	456.94
426.291	453.94
426.513	446.94
426.735	449.94
426.958	501.94
427.18	579.94
427.402	644.94
427.625	710.94
427.847	605.94
428.069	511.94
428.292	464.94
428.514	453.94
428.736	431.94
428.958	426.94
429.181	409.94
429.403	408.94
429.625	437.94
429.847	431.94
430.069	503.94
430.292	495.94
430.514	432.94
430.736	419.94
430.958	413.94
431.18	397.94
431.402	386.94
431.624	376.94
431.846	397.94
432.068	410.94
432.29	394.94
432.512	389.94
432.734	405.94
432.956	396.94
433.178	393.94
433.4	419.94
433.622	427.94
433.844	379.94
434.066	388.94
434.287	418.94
434.509	405.94
434.731	411.94
434.953	408.94
435.175	434.94
435.397	444.94
435.618	443.94
435.84	504.94
436.062	553.94
436.284	581.94
436.505	520.94
436.727	453.94
436.949	430.94
437.17	440.94
437.392	411.94
437.614	448.94
437.835	480.94
438.057	552.94
438.278	598.94
438.5	609.94
438.721	639.94
438.943	635.94
439.165	513.94
439.386	468.94
439.608	447.94
439.829	478.94
440.05	463.94
440.272	521.94
440.493	496.94
440.715	452.94
440.936	451.94
441.158	443.94
441.379	428.94
441.6	438.94
441.822	454.94
442.043	488.94
442.264	538.94
442.486	575.94
442.707	510.94
442.928	454.94
443.149	461.94
443.371	480.94
443.592	542.94
443.813	576.94
444.034	621.94
444.255	533.94
444.476	450.94
444.698	463.94
444.919	457.94
445.14	574.94
445.361	520.94
445.582	485.94
445.803	518.94
446.024	600.94
446.245	629.94
446.466	557.94
446.687	492.94
446.908	446.94
447.129	421.94
447.35	429.94
447.571	420.94
447.792	415.94
448.013	408.94
448.234	437.94
448.455	451.94
448.675	570.94
448.896	628.94
449.117	525.94
449.338	534.94
449.559	624.94
449.779	668.94
450	560.94
450.221	464.94
450.442	427.94
450.662	417.94
450.883	405.94
451.104	424.94
451.324	421.94
451.545	407.94
451.766	364.94
451.986	368.94
452.207	369.94
452.428	375.94
452.648	376.94
452.869	373.94
453.089	383.94
453.31	377.94
453.53	394.94
453.751	374.94
453.971	391.94
454.192	405.94
454.412	394.94
454.633	375.94
454.853	356.94
455.073	367.94
455.294	383.94
455.514	455.94
455.734	418.94
455.955	368.94
456.175	372.94
456.395	362.94
456.616	367.94
456.836	358.94
457.056	353.94
457.276	346.94
457.497	379.94
457.717	344.94
457.937	373.94
458.157	358.94
458.377	396.94
458.598	389.94
458.818	443.94
459.038	513.94
459.258	507.94
459.478	439.94
459.698	401.94
459.918	383.94
460.138	403.94
460.358	394.94
460.578	405.94
460.798	383.94
461.018	409.94
461.238	396.94
461.458	408.94
461.678	392.94
461.898	392.94
462.118	402.94
462.338	421.94
462.558	433.94
462.777	402.94
462.997	418.94
463.217	407.94
463.437	451.94
463.657	433.94
463.876	423.94
464.096	438.94
464.316	421.94
464.536	439.94
464.755	436.94
464.975	445.94
465.195	455.94
465.414	525.94
465.634	448.94
465.854	443.94
466.073	413.94
466.293	404.94
466.512	392.94
466.732	368.94
466.951	370.94
467.171	385.94
467.391	402.94
467.61	389.94
467.829	408.94
468.049	393.94
468.268	365.94
468.488	381.94
468.707	384.94
468.927	371.94
469.146	379.94
469.365	387.94
469.585	370.94
469.804	363.94
470.023	406.94
470.243	387.94
470.462	409.94
470.681	440.94
470.901	391.94
471.12	392.94
471.339	408.94
471.558	404.94
471.777	393.94
471.997	361.94
472.216	373.94
472.435	369.94
472.654	375.94
472.873	376.94
473.092	374.94
473.311	386.94
473.53	380.94
473.749	413.94
473.968	429.94
474.187	508.94
474.406	530.94
474.625	455.94
474.844	388.94
475.063	384.94
475.282	403.94
475.501	385.94
475.72	404.94
475.939	395.94
476.158	394.94
476.377	404.94
476.596	418.94
476.814	409.94
477.033	422.94
477.252	435.94
477.471	390.94
477.69	414.94
477.908	429.94
478.127	414.94
478.346	415.94
478.564	430.94
478.783	432.94
479.002	422.94
479.22	434.94
479.439	462.94
479.658	468.94
479.876	488.94
480.095	473.94
480.313	477.94
480.532	487.94
480.751	486.94
480.969	457.94
481.188	479.94
481.406	483.94
481.624	471.94
481.843	456.94
482.061	442.94
482.28	449.94
482.498	457.94
482.717	425.94
482.935	455.94
483.153	448.94
483.372	463.94
483.59	463.94
483.808	454.94
484.027	468.94
484.245	456.94
484.463	449.94
484.681	462.94
484.9	459.94
485.118	468.94
485.336	454.94
485.554	440.94
485.772	470.94
485.99	467.94
486.209	480.94
486.427	469.94
486.645	498.94
486.863	498.94
487.081	485.94
487.299	493.94
487.517	502.94
487.735	492.94
487.953	479.94
488.171	466.94
488.389	498.94
488.607	494.94
488.825	483.94
489.043	489.94
489.261	469.94
489.479	488.94
489.696	517.94
489.914	490.94
490.132	516.94
490.35	490.94
490.568	503.94
490.786	524.94
491.003	525.94
491.221	539.94
491.439	519.94
491.657	547.94
491.874	546.94
492.092	535.94
492.31	557.94
492.527	550.94
492.745	571.94
492.963	568.94
493.18	574.94
493.398	571.94
493.615	569.94
493.833	588.94
494.05	584.94
494.268	580.94
494.485	568.94
494.703	557.94
494.92	572.94
495.138	584.94
495.355	584.94
495.573	592.94
495.79	600.94
496.008	581.94
496.225	580.94
496.442	575.94
496.66	568.94
496.877	551.94
497.094	571.94
497.312	597.94
497.529	615.94
497.746	583.94
497.963	602.94
498.181	633.94
498.398	616.94
498.615	639.94
498.832	647.94
499.049	673.94
499.267	683.94
499.484	657.94
499.701	676.94
499.918	726.94
500.135	748.94
500.352	767.94
500.569	781.94
500.786	803.94
501.003	785.94
501.22	759.94
501.437	733.94
501.654	728.94
501.871	712.94
502.088	691.94
