Data from 1983.PennyLincolnUp.Lamp.En5.5.200Scan.071819.P1_HRD10591_16-52-58-965.txt Node
Date: Thu Jul 18 16:52:58 EDT 2019
User: cochatt
Spectrometer: HR+D1059
Trigger mode: 1
Integration Time (sec): 1.000000E-1
Scans to average: 1
Electric dark correction enabled: true
Nonlinearity correction enabled: false
Boxcar width: 0
XAxis mode: Wavelengths
Number of Pixels in Spectrum: 2048
>>>>>Begin Spectral Data<<<<<
223.165	-16.75
223.4	-16.75
223.635	-16.75
223.869	-9.75
224.104	-23.75
224.338	-18.75
224.573	-8.75
224.808	-14.75
225.042	0.25
225.277	-10.75
225.511	4.25
225.746	3.25
225.98	4.25
226.215	4.25
226.449	12.25
226.683	15.25
226.918	22.25
227.152	37.25
227.387	43.25
227.621	27.25
227.856	32.25
228.09	51.25
228.324	42.25
228.559	41.25
228.793	50.25
229.027	81.25
229.262	90.25
229.496	102.25
229.73	123.25
229.964	126.25
230.199	92.25
230.433	105.25
230.667	109.25
230.901	89.25
231.136	91.25
231.37	99.25
231.604	101.25
231.838	100.25
232.072	111.25
232.306	100.25
232.541	104.25
232.775	102.25
233.009	90.25
233.243	113.25
233.477	115.25
233.711	103.25
233.945	98.25
234.179	104.25
234.413	100.25
234.647	100.25
234.881	114.25
235.115	97.25
235.349	104.25
235.583	113.25
235.817	119.25
236.051	126.25
236.285	116.25
236.519	107.25
236.753	133.25
236.987	119.25
237.221	163.25
237.455	191.25
237.689	177.25
237.922	123.25
238.156	118.25
238.39	122.25
238.624	121.25
238.858	113.25
239.091	101.25
239.325	107.25
239.559	119.25
239.793	123.25
240.027	127.25
240.26	101.25
240.494	151.25
240.728	133.25
240.961	139.25
241.195	121.25
241.429	124.25
241.662	123.25
241.896	126.25
242.13	124.25
242.363	125.25
242.597	117.25
242.83	118.25
243.064	105.25
243.298	117.25
243.531	124.25
243.765	123.25
243.998	132.25
244.232	139.25
244.465	129.25
244.699	118.25
244.932	131.25
245.166	119.25
245.399	123.25
245.633	137.25
245.866	139.25
246.099	140.25
246.333	132.25
246.566	136.25
246.8	142.25
247.033	137.25
247.266	128.25
247.5	139.25
247.733	143.25
247.966	151.25
248.2	161.25
248.433	145.25
248.666	146.25
248.899	164.25
249.133	159.25
249.366	191.25
249.599	155.25
249.832	157.25
250.066	162.25
250.299	177.25
250.532	168.25
250.765	160.25
250.998	186.25
251.231	193.25
251.465	187.25
251.698	181.25
251.931	182.25
252.164	179.25
252.397	187.25
252.63	183.25
252.863	194.25
253.096	195.25
253.329	211.25
253.562	200.25
253.795	201.25
254.028	197.25
254.261	193.25
254.494	196.25
254.727	215.25
254.96	261.25
255.193	245.25
255.426	208.25
255.659	210.25
255.892	188.25
256.124	187.25
256.357	201.25
256.59	170.25
256.823	180.25
257.056	185.25
257.289	201.25
257.521	189.25
257.754	193.25
257.987	184.25
258.22	194.25
258.452	193.25
258.685	200.25
258.918	193.25
259.151	188.25
259.383	187.25
259.616	192.25
259.849	222.25
260.081	208.25
260.314	226.25
260.547	217.25
260.779	191.25
261.012	185.25
261.244	213.25
261.477	198.25
261.71	212.25
261.942	210.25
262.175	210.25
262.407	203.25
262.64	201.25
262.872	184.25
263.105	176.25
263.337	195.25
263.57	198.25
263.802	194.25
264.035	222.25
264.267	193.25
264.499	202.25
264.732	184.25
264.964	200.25
265.197	187.25
265.429	187.25
265.661	196.25
265.894	189.25
266.126	200.25
266.358	188.25
266.591	192.25
266.823	204.25
267.055	210.25
267.287	190.25
267.52	202.25
267.752	190.25
267.984	218.25
268.216	196.25
268.448	208.25
268.681	214.25
268.913	209.25
269.145	241.25
269.377	241.25
269.609	231.25
269.841	230.25
270.073	242.25
270.306	257.25
270.538	270.25
270.77	298.25
271.002	293.25
271.234	254.25
271.466	259.25
271.698	266.25
271.93	279.25
272.162	271.25
272.394	276.25
272.626	284.25
272.858	263.25
273.09	232.25
273.322	249.25
273.553	227.25
273.785	223.25
274.017	241.25
274.249	226.25
274.481	246.25
274.713	249.25
274.945	224.25
275.176	244.25
275.408	232.25
275.64	223.25
275.872	227.25
276.104	257.25
276.335	225.25
276.567	231.25
276.799	260.25
277.031	278.25
277.262	274.25
277.494	277.25
277.726	268.25
277.957	251.25
278.189	249.25
278.421	235.25
278.652	237.25
278.884	239.25
279.115	235.25
279.347	225.25
279.579	224.25
279.81	243.25
280.042	230.25
280.273	245.25
280.505	234.25
280.736	242.25
280.968	220.25
281.199	238.25
281.431	237.25
281.662	211.25
281.894	229.25
282.125	228.25
282.356	256.25
282.588	287.25
282.819	270.25
283.051	245.25
283.282	229.25
283.513	242.25
283.745	246.25
283.976	261.25
284.207	243.25
284.439	246.25
284.67	244.25
284.901	243.25
285.132	244.25
285.364	243.25
285.595	236.25
285.826	257.25
286.057	245.25
286.288	248.25
286.52	246.25
286.751	251.25
286.982	255.25
287.213	241.25
287.444	271.25
287.675	260.25
287.906	259.25
288.138	267.25
288.369	270.25
288.6	260.25
288.831	279.25
289.062	259.25
289.293	250.25
289.524	265.25
289.755	249.25
289.986	258.25
290.217	267.25
290.448	264.25
290.679	265.25
290.91	269.25
291.141	257.25
291.371	244.25
291.602	233.25
291.833	262.25
292.064	257.25
292.295	259.25
292.526	260.25
292.757	243.25
292.987	251.25
293.218	266.25
293.449	236.25
293.68	261.25
293.91	247.25
294.141	260.25
294.372	248.25
294.603	264.25
294.833	264.25
295.064	252.25
295.295	274.25
295.525	257.25
295.756	268.25
295.987	296.25
296.217	290.25
296.448	291.25
296.679	285.25
296.909	250.25
297.14	272.25
297.37	257.25
297.601	243.25
297.831	253.25
298.062	268.25
298.292	277.25
298.523	274.25
298.753	278.25
298.984	274.25
299.214	257.25
299.445	265.25
299.675	270.25
299.905	306.25
300.136	274.25
300.366	273.25
300.597	284.25
300.827	283.25
301.057	292.25
301.288	312.25
301.518	292.25
301.748	296.25
301.979	294.25
302.209	273.25
302.439	297.25
302.669	280.25
302.9	295.25
303.13	292.25
303.36	284.25
303.59	279.25
303.82	277.25
304.051	283.25
304.281	284.25
304.511	313.25
304.741	283.25
304.971	274.25
305.201	286.25
305.431	276.25
305.661	285.25
305.891	286.25
306.121	266.25
306.352	285.25
306.582	290.25
306.812	296.25
307.042	282.25
307.272	289.25
307.502	293.25
307.731	286.25
307.961	321.25
308.191	311.25
308.421	299.25
308.651	288.25
308.881	294.25
309.111	304.25
309.341	307.25
309.571	305.25
309.8	326.25
310.03	319.25
310.26	315.25
310.49	331.25
310.72	332.25
310.949	336.25
311.179	340.25
311.409	317.25
311.639	319.25
311.868	314.25
312.098	347.25
312.328	339.25
312.557	347.25
312.787	353.25
313.017	365.25
313.246	347.25
313.476	332.25
313.706	337.25
313.935	350.25
314.165	344.25
314.394	369.25
314.624	376.25
314.853	354.25
315.083	332.25
315.312	314.25
315.542	327.25
315.771	327.25
316.001	315.25
316.23	320.25
316.46	315.25
316.689	315.25
316.919	328.25
317.148	351.25
317.377	361.25
317.607	350.25
317.836	342.25
318.065	320.25
318.295	308.25
318.524	327.25
318.753	340.25
318.983	356.25
319.212	343.25
319.441	349.25
319.67	339.25
319.9	342.25
320.129	353.25
320.358	316.25
320.587	333.25
320.816	351.25
321.046	357.25
321.275	341.25
321.504	367.25
321.733	329.25
321.962	361.25
322.191	370.25
322.42	388.25
322.649	379.25
322.878	408.25
323.108	391.25
323.337	437.25
323.566	442.25
323.795	480.25
324.024	503.25
324.253	632.25
324.482	891.25
324.71	1302.25
324.939	1745.25
325.168	1500.25
325.397	805.25
325.626	551.25
325.855	482.25
326.084	443.25
326.313	441.25
326.542	460.25
326.77	466.25
326.999	584.25
327.228	797.25
327.457	1152.25
327.686	1304.25
327.914	891.25
328.143	631.25
328.372	544.25
328.6	500.25
328.829	498.25
329.058	498.25
329.287	489.25
329.515	469.25
329.744	443.25
329.972	426.25
330.201	453.25
330.43	449.25
330.658	475.25
330.887	541.25
331.115	496.25
331.344	454.25
331.572	423.25
331.801	423.25
332.03	434.25
332.258	428.25
332.486	389.25
332.715	402.25
332.943	398.25
333.172	387.25
333.4	395.25
333.629	414.25
333.857	399.25
334.085	386.25
334.314	401.25
334.542	398.25
334.771	393.25
334.999	408.25
335.227	396.25
335.455	395.25
335.684	395.25
335.912	381.25
336.14	378.25
336.369	380.25
336.597	402.25
336.825	397.25
337.053	374.25
337.281	392.25
337.51	390.25
337.738	385.25
337.966	387.25
338.194	377.25
338.422	377.25
338.65	378.25
338.878	360.25
339.106	387.25
339.334	376.25
339.562	359.25
339.79	373.25
340.018	391.25
340.246	387.25
340.474	378.25
340.702	364.25
340.93	383.25
341.158	378.25
341.386	336.25
341.614	387.25
341.842	380.25
342.07	373.25
342.298	352.25
342.526	369.25
342.754	348.25
342.981	358.25
343.209	375.25
343.437	391.25
343.665	376.25
343.893	367.25
344.12	388.25
344.348	373.25
344.576	387.25
344.804	371.25
345.031	386.25
345.259	423.25
345.487	391.25
345.714	365.25
345.942	367.25
346.17	345.25
346.397	356.25
346.625	363.25
346.853	347.25
347.08	353.25
347.308	369.25
347.535	356.25
347.763	379.25
347.99	353.25
348.218	367.25
348.445	355.25
348.673	375.25
348.9	359.25
349.128	362.25
349.355	350.25
349.583	332.25
349.81	351.25
350.037	357.25
350.265	356.25
350.492	372.25
350.72	335.25
350.947	363.25
351.174	353.25
351.402	390.25
351.629	369.25
351.856	371.25
352.083	365.25
352.311	385.25
352.538	389.25
352.765	378.25
352.992	381.25
353.22	364.25
353.447	347.25
353.674	351.25
353.901	362.25
354.128	340.25
354.355	338.25
354.583	351.25
354.81	347.25
355.037	346.25
355.264	346.25
355.491	326.25
355.718	325.25
355.945	339.25
356.172	342.25
356.399	326.25
356.626	344.25
356.853	330.25
357.08	329.25
357.307	328.25
357.534	339.25
357.761	331.25
357.988	351.25
358.215	316.25
358.441	311.25
358.668	325.25
358.895	346.25
359.122	362.25
359.349	348.25
359.576	372.25
359.802	398.25
360.029	413.25
360.256	416.25
360.483	385.25
360.709	368.25
360.936	351.25
361.163	372.25
361.39	379.25
361.616	378.25
361.843	381.25
362.07	378.25
362.296	348.25
362.523	357.25
362.749	367.25
362.976	339.25
363.203	375.25
363.429	330.25
363.656	339.25
363.882	333.25
364.109	351.25
364.335	338.25
364.562	358.25
364.788	339.25
365.015	341.25
365.241	353.25
365.468	352.25
365.694	368.25
365.92	347.25
366.147	353.25
366.373	337.25
366.599	339.25
366.826	343.25
367.052	342.25
367.278	355.25
367.505	344.25
367.731	337.25
367.957	348.25
368.184	326.25
368.41	357.25
368.636	365.25
368.862	344.25
369.089	358.25
369.315	341.25
369.541	360.25
369.767	345.25
369.993	338.25
370.219	358.25
370.445	343.25
370.672	326.25
370.898	326.25
371.124	327.25
371.35	353.25
371.576	359.25
371.802	348.25
372.028	344.25
372.254	337.25
372.48	354.25
372.706	353.25
372.932	347.25
373.158	339.25
373.384	352.25
373.61	343.25
373.835	351.25
374.061	334.25
374.287	369.25
374.513	361.25
374.739	360.25
374.965	353.25
375.191	342.25
375.416	347.25
375.642	343.25
375.868	340.25
376.094	333.25
376.319	336.25
376.545	337.25
376.771	336.25
376.997	340.25
377.222	344.25
377.448	360.25
377.674	331.25
377.899	347.25
378.125	337.25
378.35	352.25
378.576	321.25
378.802	331.25
379.027	339.25
379.253	348.25
379.478	332.25
379.704	340.25
379.929	347.25
380.155	357.25
380.38	347.25
380.606	338.25
380.831	318.25
381.057	342.25
381.282	335.25
381.507	354.25
381.733	354.25
381.958	348.25
382.184	368.25
382.409	327.25
382.634	353.25
382.86	341.25
383.085	344.25
383.31	370.25
383.535	348.25
383.761	332.25
383.986	341.25
384.211	342.25
384.436	347.25
384.662	352.25
384.887	367.25
385.112	349.25
385.337	367.25
385.562	358.25
385.787	373.25
386.013	393.25
386.238	375.25
386.463	352.25
386.688	372.25
386.913	369.25
387.138	359.25
387.363	365.25
387.588	346.25
387.813	364.25
388.038	369.25
388.263	356.25
388.488	376.25
388.713	375.25
388.938	358.25
389.163	368.25
389.387	371.25
389.612	351.25
389.837	373.25
390.062	365.25
390.287	371.25
390.512	359.25
390.736	350.25
390.961	370.25
391.186	349.25
391.411	379.25
391.636	396.25
391.86	374.25
392.085	383.25
392.31	364.25
392.534	369.25
392.759	375.25
392.984	389.25
393.208	379.25
393.433	373.25
393.658	365.25
393.882	377.25
394.107	354.25
394.331	365.25
394.556	374.25
394.78	391.25
395.005	381.25
395.229	367.25
395.454	375.25
395.678	383.25
395.903	387.25
396.127	396.25
396.352	405.25
396.576	390.25
396.801	397.25
397.025	380.25
397.249	387.25
397.474	378.25
397.698	394.25
397.922	415.25
398.147	403.25
398.371	416.25
398.595	411.25
398.82	399.25
399.044	407.25
399.268	431.25
399.492	461.25
399.717	483.25
399.941	489.25
400.165	488.25
400.389	506.25
400.613	461.25
400.837	453.25
401.062	421.25
401.286	398.25
401.51	404.25
401.734	395.25
401.958	436.25
402.182	412.25
402.406	433.25
402.63	417.25
402.854	436.25
403.078	426.25
403.302	433.25
403.526	425.25
403.75	438.25
403.974	415.25
404.198	435.25
404.422	397.25
404.645	440.25
404.869	428.25
405.093	439.25
405.317	447.25
405.541	467.25
405.765	451.25
405.988	428.25
406.212	453.25
406.436	501.25
406.66	495.25
406.883	469.25
407.107	475.25
407.331	500.25
407.555	545.25
407.778	531.25
408.002	517.25
408.226	485.25
408.449	474.25
408.673	467.25
408.896	510.25
409.12	513.25
409.344	496.25
409.567	458.25
409.791	436.25
410.014	441.25
410.238	435.25
410.461	431.25
410.685	452.25
410.908	448.25
411.132	462.25
411.355	469.25
411.578	455.25
411.802	431.25
412.025	415.25
412.249	419.25
412.472	422.25
412.695	449.25
412.919	415.25
413.142	411.25
413.365	401.25
413.589	403.25
413.812	412.25
414.035	409.25
414.258	409.25
414.482	393.25
414.705	387.25
414.928	404.25
415.151	404.25
415.374	419.25
415.597	389.25
415.821	382.25
416.044	395.25
416.267	415.25
416.49	411.25
416.713	380.25
416.936	409.25
417.159	392.25
417.382	409.25
417.605	425.25
417.828	420.25
418.051	429.25
418.274	423.25
418.497	378.25
418.72	396.25
418.943	401.25
419.166	427.25
419.389	440.25
419.611	417.25
419.834	421.25
420.057	428.25
420.28	407.25
420.503	417.25
420.726	417.25
420.948	423.25
421.171	444.25
421.394	470.25
421.617	435.25
421.839	427.25
422.062	406.25
422.285	428.25
422.507	474.25
422.73	579.25
422.953	503.25
423.175	458.25
423.398	436.25
423.621	452.25
423.843	449.25
424.066	449.25
424.288	443.25
424.511	449.25
424.733	529.25
424.956	563.25
425.178	533.25
425.401	528.25
425.623	539.25
425.846	498.25
426.068	461.25
426.291	446.25
426.513	484.25
426.735	463.25
426.958	498.25
427.18	536.25
427.402	646.25
427.625	684.25
427.847	621.25
428.069	539.25
428.292	471.25
428.514	447.25
428.736	429.25
428.958	450.25
429.181	425.25
429.403	407.25
429.625	432.25
429.847	469.25
430.069	481.25
430.292	491.25
430.514	441.25
430.736	428.25
430.958	426.25
431.18	412.25
431.402	403.25
431.624	409.25
431.846	406.25
432.068	401.25
432.29	388.25
432.512	403.25
432.734	416.25
432.956	402.25
433.178	412.25
433.4	405.25
433.622	397.25
433.844	407.25
434.066	427.25
434.287	411.25
434.509	394.25
434.731	417.25
434.953	413.25
435.175	428.25
435.397	465.25
435.618	463.25
435.84	490.25
436.062	539.25
436.284	583.25
436.505	504.25
436.727	461.25
436.949	441.25
437.17	426.25
437.392	431.25
437.614	459.25
437.835	473.25
438.057	552.25
438.278	627.25
438.5	574.25
438.721	657.25
438.943	613.25
439.165	509.25
439.386	479.25
439.608	470.25
439.829	471.25
440.05	493.25
440.272	520.25
440.493	502.25
440.715	455.25
440.936	411.25
441.158	423.25
441.379	417.25
441.6	445.25
441.822	462.25
442.043	489.25
442.264	555.25
442.486	599.25
442.707	513.25
442.928	486.25
443.149	485.25
443.371	516.25
443.592	535.25
443.813	577.25
444.034	642.25
444.255	547.25
444.476	464.25
444.698	454.25
444.919	467.25
445.14	565.25
445.361	514.25
445.582	506.25
445.803	534.25
446.024	604.25
446.245	613.25
446.466	590.25
446.687	488.25
446.908	469.25
447.129	454.25
447.35	427.25
447.571	399.25
447.792	418.25
448.013	434.25
448.234	460.25
448.455	477.25
448.675	569.25
448.896	643.25
449.117	531.25
449.338	532.25
449.559	616.25
449.779	660.25
450	541.25
450.221	474.25
450.442	441.25
450.662	424.25
450.883	432.25
451.104	434.25
451.324	435.25
451.545	411.25
451.766	401.25
451.986	397.25
452.207	393.25
452.428	375.25
452.648	369.25
452.869	391.25
453.089	391.25
453.31	405.25
453.53	397.25
453.751	385.25
453.971	373.25
454.192	404.25
454.412	389.25
454.633	379.25
454.853	384.25
455.073	367.25
455.294	401.25
455.514	443.25
455.734	444.25
455.955	387.25
456.175	369.25
456.395	378.25
456.616	348.25
456.836	369.25
457.056	343.25
457.276	350.25
457.497	370.25
457.717	364.25
457.937	360.25
458.157	355.25
458.377	374.25
458.598	388.25
458.818	446.25
459.038	522.25
459.258	490.25
459.478	425.25
459.698	402.25
459.918	399.25
460.138	389.25
460.358	402.25
460.578	401.25
460.798	416.25
461.018	423.25
461.238	415.25
461.458	410.25
461.678	400.25
461.898	400.25
462.118	420.25
462.338	416.25
462.558	406.25
462.777	394.25
462.997	434.25
463.217	420.25
463.437	443.25
463.657	425.25
463.876	417.25
464.096	435.25
464.316	425.25
464.536	435.25
464.755	439.25
464.975	440.25
465.195	480.25
465.414	533.25
465.634	469.25
465.854	461.25
466.073	438.25
466.293	388.25
466.512	388.25
466.732	403.25
466.951	389.25
467.171	386.25
467.391	393.25
467.61	396.25
467.829	409.25
468.049	393.25
468.268	395.25
468.488	379.25
468.707	374.25
468.927	379.25
469.146	385.25
469.365	401.25
469.585	389.25
469.804	396.25
470.023	396.25
470.243	424.25
470.462	405.25
470.681	417.25
470.901	415.25
471.12	395.25
471.339	409.25
471.558	398.25
471.777	391.25
471.997	383.25
472.216	385.25
472.435	401.25
472.654	372.25
472.873	379.25
473.092	390.25
473.311	393.25
473.53	390.25
473.749	389.25
473.968	437.25
474.187	520.25
474.406	505.25
474.625	438.25
474.844	410.25
475.063	381.25
475.282	382.25
475.501	396.25
475.72	377.25
475.939	408.25
476.158	415.25
476.377	406.25
476.596	393.25
476.814	420.25
477.033	415.25
477.252	437.25
477.471	420.25
477.69	417.25
477.908	416.25
478.127	414.25
478.346	438.25
478.564	423.25
478.783	440.25
479.002	465.25
479.22	439.25
479.439	449.25
479.658	473.25
479.876	468.25
480.095	479.25
480.313	492.25
480.532	491.25
480.751	490.25
480.969	464.25
481.188	486.25
481.406	471.25
481.624	447.25
481.843	441.25
482.061	451.25
482.28	454.25
482.498	440.25
482.717	460.25
482.935	450.25
483.153	471.25
483.372	447.25
483.59	474.25
483.808	451.25
484.027	466.25
484.245	459.25
484.463	459.25
484.681	458.25
484.9	488.25
485.118	464.25
485.336	466.25
485.554	491.25
485.772	470.25
485.99	468.25
486.209	465.25
486.427	482.25
486.645	482.25
486.863	502.25
487.081	515.25
487.299	503.25
487.517	501.25
487.735	461.25
487.953	474.25
488.171	476.25
488.389	507.25
488.607	492.25
488.825	487.25
489.043	489.25
489.261	492.25
489.479	504.25
489.696	504.25
489.914	501.25
490.132	536.25
490.35	508.25
490.568	526.25
490.786	546.25
491.003	559.25
491.221	550.25
491.439	564.25
491.657	535.25
491.874	574.25
492.092	557.25
492.31	562.25
492.527	561.25
492.745	577.25
492.963	585.25
493.18	567.25
493.398	557.25
493.615	597.25
493.833	556.25
494.05	576.25
494.268	578.25
494.485	560.25
494.703	585.25
494.92	585.25
495.138	565.25
495.355	593.25
495.573	586.25
495.79	602.25
496.008	570.25
496.225	581.25
496.442	567.25
496.66	590.25
496.877	599.25
497.094	597.25
497.312	593.25
497.529	579.25
497.746	604.25
497.963	629.25
498.181	645.25
498.398	629.25
498.615	627.25
498.832	640.25
499.049	656.25
499.267	645.25
499.484	665.25
499.701	703.25
499.918	701.25
500.135	747.25
500.352	753.25
500.569	807.25
500.786	798.25
501.003	780.25
501.22	763.25
501.437	742.25
501.654	720.25
501.871	731.25
502.088	708.25
