Data from 1983.PennyLincolnUp.Lamp.En5.5.200Scan.071819.P1_HRD10591_16-52-11-964.txt Node
Date: Thu Jul 18 16:52:11 EDT 2019
User: cochatt
Spectrometer: HR+D1059
Trigger mode: 1
Integration Time (sec): 1.000000E-1
Scans to average: 1
Electric dark correction enabled: true
Nonlinearity correction enabled: false
Boxcar width: 0
XAxis mode: Wavelengths
Number of Pixels in Spectrum: 2048
>>>>>Begin Spectral Data<<<<<
223.165	-14.94
223.4	-14.94
223.635	-14.94
223.869	-22.94
224.104	-16.94
224.338	-8.94
224.573	-27.94
224.808	-9.94
225.042	-6.94
225.277	0.06
225.511	-9.94
225.746	8.06
225.98	7.06
226.215	4.06
226.449	22.06
226.683	18.06
226.918	35.06
227.152	24.06
227.387	39.06
227.621	40.06
227.856	56.06
228.09	60.06
228.324	55.06
228.559	59.06
228.793	53.06
229.027	85.06
229.262	86.06
229.496	81.06
229.73	108.06
229.964	115.06
230.199	106.06
230.433	100.06
230.667	95.06
230.901	88.06
231.136	93.06
231.37	109.06
231.604	101.06
231.838	86.06
232.072	108.06
232.306	96.06
232.541	115.06
232.775	88.06
233.009	104.06
233.243	110.06
233.477	109.06
233.711	106.06
233.945	104.06
234.179	115.06
234.413	119.06
234.647	92.06
234.881	93.06
235.115	97.06
235.349	115.06
235.583	103.06
235.817	108.06
236.051	111.06
236.285	120.06
236.519	94.06
236.753	98.06
236.987	115.06
237.221	133.06
237.455	162.06
237.689	126.06
237.922	124.06
238.156	112.06
238.39	98.06
238.624	102.06
238.858	102.06
239.091	106.06
239.325	103.06
239.559	91.06
239.793	102.06
240.027	100.06
240.26	95.06
240.494	131.06
240.728	120.06
240.961	114.06
241.195	123.06
241.429	120.06
241.662	101.06
241.896	118.06
242.13	124.06
242.363	116.06
242.597	105.06
242.83	119.06
243.064	117.06
243.298	114.06
243.531	111.06
243.765	111.06
243.998	108.06
244.232	121.06
244.465	118.06
244.699	124.06
244.932	118.06
245.166	128.06
245.399	131.06
245.633	108.06
245.866	118.06
246.099	114.06
246.333	127.06
246.566	127.06
246.8	139.06
247.033	121.06
247.266	129.06
247.5	131.06
247.733	135.06
247.966	150.06
248.2	155.06
248.433	135.06
248.666	153.06
248.899	150.06
249.133	156.06
249.366	166.06
249.599	142.06
249.832	141.06
250.066	147.06
250.299	152.06
250.532	139.06
250.765	170.06
250.998	174.06
251.231	178.06
251.465	175.06
251.698	164.06
251.931	166.06
252.164	154.06
252.397	159.06
252.63	161.06
252.863	158.06
253.096	158.06
253.329	172.06
253.562	162.06
253.795	168.06
254.028	172.06
254.261	176.06
254.494	169.06
254.727	192.06
254.96	196.06
255.193	202.06
255.426	183.06
255.659	186.06
255.892	167.06
256.124	154.06
256.357	166.06
256.59	170.06
256.823	179.06
257.056	174.06
257.289	165.06
257.521	171.06
257.754	151.06
257.987	161.06
258.22	174.06
258.452	159.06
258.685	168.06
258.918	182.06
259.151	172.06
259.383	184.06
259.616	171.06
259.849	176.06
260.081	185.06
260.314	205.06
260.547	196.06
260.779	183.06
261.012	174.06
261.244	178.06
261.477	165.06
261.71	173.06
261.942	162.06
262.175	164.06
262.407	179.06
262.64	190.06
262.872	147.06
263.105	171.06
263.337	169.06
263.57	163.06
263.802	174.06
264.035	182.06
264.267	182.06
264.499	167.06
264.732	182.06
264.964	151.06
265.197	159.06
265.429	163.06
265.661	180.06
265.894	170.06
266.126	179.06
266.358	188.06
266.591	176.06
266.823	159.06
267.055	190.06
267.287	191.06
267.52	182.06
267.752	181.06
267.984	179.06
268.216	200.06
268.448	182.06
268.681	198.06
268.913	187.06
269.145	197.06
269.377	193.06
269.609	197.06
269.841	199.06
270.073	203.06
270.306	207.06
270.538	246.06
270.77	224.06
271.002	213.06
271.234	213.06
271.466	210.06
271.698	234.06
271.93	230.06
272.162	217.06
272.394	228.06
272.626	216.06
272.858	196.06
273.09	210.06
273.322	203.06
273.553	207.06
273.785	207.06
274.017	192.06
274.249	193.06
274.481	202.06
274.713	203.06
274.945	199.06
275.176	186.06
275.408	211.06
275.64	206.06
275.872	196.06
276.104	207.06
276.335	202.06
276.567	203.06
276.799	204.06
277.031	215.06
277.262	247.06
277.494	222.06
277.726	233.06
277.957	222.06
278.189	219.06
278.421	190.06
278.652	213.06
278.884	195.06
279.115	186.06
279.347	206.06
279.579	218.06
279.81	205.06
280.042	189.06
280.273	222.06
280.505	216.06
280.736	203.06
280.968	212.06
281.199	203.06
281.431	199.06
281.662	210.06
281.894	221.06
282.125	207.06
282.356	223.06
282.588	225.06
282.819	221.06
283.051	225.06
283.282	218.06
283.513	206.06
283.745	208.06
283.976	197.06
284.207	226.06
284.439	227.06
284.67	210.06
284.901	205.06
285.132	215.06
285.364	216.06
285.595	212.06
285.826	215.06
286.057	230.06
286.288	204.06
286.52	205.06
286.751	198.06
286.982	200.06
287.213	210.06
287.444	219.06
287.675	218.06
287.906	236.06
288.138	229.06
288.369	232.06
288.6	232.06
288.831	216.06
289.062	215.06
289.293	226.06
289.524	210.06
289.755	223.06
289.986	236.06
290.217	223.06
290.448	230.06
290.679	188.06
290.91	220.06
291.141	228.06
291.371	236.06
291.602	219.06
291.833	221.06
292.064	233.06
292.295	217.06
292.526	222.06
292.757	230.06
292.987	219.06
293.218	223.06
293.449	204.06
293.68	218.06
293.91	219.06
294.141	215.06
294.372	216.06
294.603	222.06
294.833	229.06
295.064	224.06
295.295	229.06
295.525	221.06
295.756	232.06
295.987	237.06
296.217	235.06
296.448	226.06
296.679	212.06
296.909	239.06
297.14	236.06
297.37	231.06
297.601	245.06
297.831	244.06
298.062	223.06
298.292	233.06
298.523	236.06
298.753	239.06
298.984	241.06
299.214	230.06
299.445	241.06
299.675	242.06
299.905	239.06
300.136	238.06
300.366	235.06
300.597	227.06
300.827	244.06
301.057	242.06
301.288	242.06
301.518	228.06
301.748	251.06
301.979	231.06
302.209	229.06
302.439	263.06
302.669	237.06
302.9	266.06
303.13	242.06
303.36	243.06
303.59	239.06
303.82	245.06
304.051	246.06
304.281	247.06
304.511	245.06
304.741	239.06
304.971	239.06
305.201	242.06
305.431	239.06
305.661	238.06
305.891	248.06
306.121	243.06
306.352	269.06
306.582	245.06
306.812	252.06
307.042	262.06
307.272	257.06
307.502	249.06
307.731	244.06
307.961	246.06
308.191	241.06
308.421	251.06
308.651	245.06
308.881	266.06
309.111	246.06
309.341	260.06
309.571	271.06
309.8	271.06
310.03	277.06
310.26	281.06
310.49	278.06
310.72	282.06
310.949	291.06
311.179	296.06
311.409	248.06
311.639	263.06
311.868	277.06
312.098	267.06
312.328	294.06
312.557	292.06
312.787	284.06
313.017	282.06
313.246	284.06
313.476	282.06
313.706	280.06
313.935	273.06
314.165	288.06
314.394	276.06
314.624	279.06
314.853	287.06
315.083	280.06
315.312	272.06
315.542	278.06
315.771	292.06
316.001	291.06
316.23	277.06
316.46	294.06
316.689	290.06
316.919	286.06
317.148	288.06
317.377	265.06
317.607	282.06
317.836	293.06
318.065	277.06
318.295	271.06
318.524	264.06
318.753	281.06
318.983	291.06
319.212	276.06
319.441	281.06
319.67	286.06
319.9	292.06
320.129	295.06
320.358	287.06
320.587	271.06
320.816	267.06
321.046	294.06
321.275	285.06
321.504	285.06
321.733	284.06
321.962	276.06
322.191	297.06
322.42	293.06
322.649	305.06
322.878	297.06
323.108	314.06
323.337	337.06
323.566	329.06
323.795	374.06
324.024	372.06
324.253	444.06
324.482	573.06
324.71	844.06
324.939	1126.06
325.168	935.06
325.397	516.06
325.626	388.06
325.855	357.06
326.084	354.06
326.313	336.06
326.542	342.06
326.77	372.06
326.999	412.06
327.228	534.06
327.457	761.06
327.686	834.06
327.914	589.06
328.143	451.06
328.372	384.06
328.6	380.06
328.829	351.06
329.058	378.06
329.287	378.06
329.515	368.06
329.744	346.06
329.972	326.06
330.201	346.06
330.43	356.06
330.658	365.06
330.887	375.06
331.115	380.06
331.344	353.06
331.572	356.06
331.801	335.06
332.03	357.06
332.258	340.06
332.486	339.06
332.715	326.06
332.943	306.06
333.172	311.06
333.4	349.06
333.629	342.06
333.857	360.06
334.085	334.06
334.314	332.06
334.542	352.06
334.771	343.06
334.999	331.06
335.227	346.06
335.455	325.06
335.684	340.06
335.912	327.06
336.14	327.06
336.369	322.06
336.597	323.06
336.825	331.06
337.053	313.06
337.281	344.06
337.51	326.06
337.738	322.06
337.966	331.06
338.194	320.06
338.422	331.06
338.65	316.06
338.878	316.06
339.106	315.06
339.334	323.06
339.562	312.06
339.79	306.06
340.018	312.06
340.246	310.06
340.474	315.06
340.702	324.06
340.93	322.06
341.158	338.06
341.386	318.06
341.614	326.06
341.842	328.06
342.07	320.06
342.298	304.06
342.526	299.06
342.754	318.06
342.981	316.06
343.209	315.06
343.437	315.06
343.665	326.06
343.893	301.06
344.12	314.06
344.348	342.06
344.576	314.06
344.804	332.06
345.031	321.06
345.259	320.06
345.487	336.06
345.714	317.06
345.942	327.06
346.17	313.06
346.397	301.06
346.625	288.06
346.853	306.06
347.08	299.06
347.308	307.06
347.535	300.06
347.763	323.06
347.99	307.06
348.218	303.06
348.445	314.06
348.673	304.06
348.9	312.06
349.128	294.06
349.355	301.06
349.583	325.06
349.81	296.06
350.037	307.06
350.265	288.06
350.492	284.06
350.72	298.06
350.947	296.06
351.174	315.06
351.402	316.06
351.629	298.06
351.856	302.06
352.083	302.06
352.311	306.06
352.538	314.06
352.765	322.06
352.992	310.06
353.22	332.06
353.447	296.06
353.674	307.06
353.901	300.06
354.128	299.06
354.355	296.06
354.583	295.06
354.81	296.06
355.037	305.06
355.264	295.06
355.491	291.06
355.718	286.06
355.945	312.06
356.172	291.06
356.399	296.06
356.626	283.06
356.853	291.06
357.08	294.06
357.307	289.06
357.534	284.06
357.761	292.06
357.988	300.06
358.215	296.06
358.441	300.06
358.668	292.06
358.895	311.06
359.122	306.06
359.349	297.06
359.576	308.06
359.802	322.06
360.029	338.06
360.256	334.06
360.483	313.06
360.709	300.06
360.936	301.06
361.163	308.06
361.39	290.06
361.616	306.06
361.843	318.06
362.07	301.06
362.296	299.06
362.523	297.06
362.749	294.06
362.976	291.06
363.203	298.06
363.429	293.06
363.656	291.06
363.882	288.06
364.109	287.06
364.335	299.06
364.562	286.06
364.788	300.06
365.015	297.06
365.241	291.06
365.468	299.06
365.694	305.06
365.92	307.06
366.147	294.06
366.373	306.06
366.599	299.06
366.826	295.06
367.052	303.06
367.278	304.06
367.505	277.06
367.731	288.06
367.957	296.06
368.184	291.06
368.41	304.06
368.636	306.06
368.862	315.06
369.089	296.06
369.315	308.06
369.541	328.06
369.767	301.06
369.993	286.06
370.219	287.06
370.445	272.06
370.672	292.06
370.898	291.06
371.124	307.06
371.35	314.06
371.576	298.06
371.802	292.06
372.028	288.06
372.254	315.06
372.48	289.06
372.706	313.06
372.932	313.06
373.158	314.06
373.384	312.06
373.61	313.06
373.835	296.06
374.061	308.06
374.287	296.06
374.513	316.06
374.739	321.06
374.965	315.06
375.191	316.06
375.416	309.06
375.642	294.06
375.868	307.06
376.094	300.06
376.319	299.06
376.545	302.06
376.771	318.06
376.997	298.06
377.222	308.06
377.448	297.06
377.674	302.06
377.899	311.06
378.125	323.06
378.35	291.06
378.576	302.06
378.802	301.06
379.027	301.06
379.253	301.06
379.478	300.06
379.704	299.06
379.929	309.06
380.155	301.06
380.38	310.06
380.606	303.06
380.831	295.06
381.057	305.06
381.282	296.06
381.507	304.06
381.733	313.06
381.958	297.06
382.184	325.06
382.409	303.06
382.634	316.06
382.86	315.06
383.085	297.06
383.31	324.06
383.535	325.06
383.761	322.06
383.986	322.06
384.211	328.06
384.436	314.06
384.662	320.06
384.887	320.06
385.112	336.06
385.337	315.06
385.562	314.06
385.787	321.06
386.013	353.06
386.238	337.06
386.463	354.06
386.688	335.06
386.913	334.06
387.138	334.06
387.363	328.06
387.588	316.06
387.813	340.06
388.038	330.06
388.263	324.06
388.488	360.06
388.713	340.06
388.938	337.06
389.163	335.06
389.387	329.06
389.612	314.06
389.837	330.06
390.062	321.06
390.287	326.06
390.512	318.06
390.736	324.06
390.961	319.06
391.186	327.06
391.411	350.06
391.636	354.06
391.86	343.06
392.085	338.06
392.31	338.06
392.534	340.06
392.759	335.06
392.984	336.06
393.208	328.06
393.433	366.06
393.658	346.06
393.882	334.06
394.107	334.06
394.331	329.06
394.556	322.06
394.78	328.06
395.005	346.06
395.229	337.06
395.454	352.06
395.678	345.06
395.903	341.06
396.127	344.06
396.352	366.06
396.576	346.06
396.801	345.06
397.025	349.06
397.249	341.06
397.474	352.06
397.698	347.06
397.922	358.06
398.147	370.06
398.371	350.06
398.595	334.06
398.82	372.06
399.044	370.06
399.268	392.06
399.492	411.06
399.717	428.06
399.941	434.06
400.165	440.06
400.389	424.06
400.613	412.06
400.837	382.06
401.062	364.06
401.286	368.06
401.51	362.06
401.734	376.06
401.958	378.06
402.182	359.06
402.406	364.06
402.63	371.06
402.854	365.06
403.078	380.06
403.302	374.06
403.526	390.06
403.75	380.06
403.974	372.06
404.198	364.06
404.422	386.06
404.645	386.06
404.869	377.06
405.093	387.06
405.317	398.06
405.541	420.06
405.765	406.06
405.988	378.06
406.212	391.06
406.436	402.06
406.66	384.06
406.883	399.06
407.107	425.06
407.331	423.06
407.555	466.06
407.778	468.06
408.002	440.06
408.226	400.06
408.449	404.06
408.673	405.06
408.896	415.06
409.12	437.06
409.344	422.06
409.567	388.06
409.791	375.06
410.014	376.06
410.238	362.06
410.461	378.06
410.685	386.06
410.908	394.06
411.132	411.06
411.355	423.06
411.578	406.06
411.802	398.06
412.025	372.06
412.249	358.06
412.472	375.06
412.695	375.06
412.919	378.06
413.142	371.06
413.365	365.06
413.589	358.06
413.812	346.06
414.035	356.06
414.258	370.06
414.482	357.06
414.705	372.06
414.928	354.06
415.151	359.06
415.374	359.06
415.597	349.06
415.821	376.06
416.044	362.06
416.267	357.06
416.49	373.06
416.713	354.06
416.936	351.06
417.159	351.06
417.382	344.06
417.605	355.06
417.828	351.06
418.051	374.06
418.274	375.06
418.497	342.06
418.72	344.06
418.943	355.06
419.166	360.06
419.389	401.06
419.611	387.06
419.834	380.06
420.057	378.06
420.28	368.06
420.503	373.06
420.726	372.06
420.948	357.06
421.171	380.06
421.394	412.06
421.617	370.06
421.839	371.06
422.062	374.06
422.285	374.06
422.507	377.06
422.73	413.06
422.953	428.06
423.175	382.06
423.398	380.06
423.621	378.06
423.843	393.06
424.066	391.06
424.288	402.06
424.511	387.06
424.733	430.06
424.956	482.06
425.178	456.06
425.401	436.06
425.623	459.06
425.846	390.06
426.068	373.06
426.291	396.06
426.513	380.06
426.735	413.06
426.958	422.06
427.18	480.06
427.402	519.06
427.625	554.06
427.847	514.06
428.069	446.06
428.292	408.06
428.514	380.06
428.736	356.06
428.958	356.06
429.181	362.06
429.403	371.06
429.625	366.06
429.847	375.06
430.069	428.06
430.292	426.06
430.514	383.06
430.736	374.06
430.958	362.06
431.18	345.06
431.402	344.06
431.624	360.06
431.846	334.06
432.068	346.06
432.29	355.06
432.512	360.06
432.734	360.06
432.956	372.06
433.178	349.06
433.4	376.06
433.622	355.06
433.844	343.06
434.066	375.06
434.287	357.06
434.509	366.06
434.731	358.06
434.953	349.06
435.175	370.06
435.397	394.06
435.618	373.06
435.84	392.06
436.062	465.06
436.284	487.06
436.505	399.06
436.727	392.06
436.949	356.06
437.17	377.06
437.392	354.06
437.614	370.06
437.835	404.06
438.057	418.06
438.278	483.06
438.5	494.06
438.721	573.06
438.943	504.06
439.165	420.06
439.386	391.06
439.608	394.06
439.829	378.06
440.05	388.06
440.272	400.06
440.493	389.06
440.715	375.06
440.936	383.06
441.158	357.06
441.379	383.06
441.6	362.06
441.822	378.06
442.043	404.06
442.264	454.06
442.486	478.06
442.707	416.06
442.928	418.06
443.149	416.06
443.371	415.06
443.592	431.06
443.813	485.06
444.034	515.06
444.255	466.06
444.476	409.06
444.698	378.06
444.919	403.06
445.14	534.06
445.361	442.06
445.582	420.06
445.803	418.06
446.024	499.06
446.245	501.06
446.466	468.06
446.687	404.06
446.908	384.06
447.129	387.06
447.35	386.06
447.571	363.06
447.792	356.06
448.013	398.06
448.234	373.06
448.455	400.06
448.675	485.06
448.896	534.06
449.117	456.06
449.338	455.06
449.559	518.06
449.779	560.06
450	434.06
450.221	366.06
450.442	371.06
450.662	337.06
450.883	354.06
451.104	363.06
451.324	362.06
451.545	352.06
451.766	342.06
451.986	332.06
452.207	334.06
452.428	327.06
452.648	317.06
452.869	313.06
453.089	355.06
453.31	327.06
453.53	324.06
453.751	335.06
453.971	336.06
454.192	324.06
454.412	347.06
454.633	323.06
454.853	300.06
455.073	303.06
455.294	340.06
455.514	370.06
455.734	372.06
455.955	321.06
456.175	316.06
456.395	332.06
456.616	324.06
456.836	319.06
457.056	296.06
457.276	281.06
457.497	319.06
457.717	311.06
457.937	327.06
458.157	300.06
458.377	332.06
458.598	327.06
458.818	381.06
459.038	414.06
459.258	414.06
459.478	368.06
459.698	362.06
459.918	360.06
460.138	332.06
460.358	373.06
460.578	353.06
460.798	358.06
461.018	358.06
461.238	355.06
461.458	370.06
461.678	343.06
461.898	358.06
462.118	362.06
462.338	354.06
462.558	362.06
462.777	380.06
462.997	379.06
463.217	401.06
463.437	384.06
463.657	374.06
463.876	386.06
464.096	377.06
464.316	381.06
464.536	384.06
464.755	371.06
464.975	381.06
465.195	426.06
465.414	408.06
465.634	397.06
465.854	344.06
466.073	353.06
466.293	344.06
466.512	338.06
466.732	328.06
466.951	350.06
467.171	360.06
467.391	353.06
467.61	342.06
467.829	354.06
468.049	348.06
468.268	340.06
468.488	334.06
468.707	322.06
468.927	335.06
469.146	327.06
469.365	321.06
469.585	325.06
469.804	331.06
470.023	341.06
470.243	327.06
470.462	340.06
470.681	347.06
470.901	363.06
471.12	341.06
471.339	346.06
471.558	354.06
471.777	359.06
471.997	343.06
472.216	358.06
472.435	352.06
472.654	330.06
472.873	345.06
473.092	339.06
473.311	337.06
473.53	333.06
473.749	332.06
473.968	357.06
474.187	439.06
474.406	423.06
474.625	384.06
474.844	348.06
475.063	342.06
475.282	348.06
475.501	359.06
475.72	355.06
475.939	359.06
476.158	351.06
476.377	361.06
476.596	361.06
476.814	355.06
477.033	360.06
477.252	371.06
477.471	350.06
477.69	376.06
477.908	386.06
478.127	373.06
478.346	376.06
478.564	382.06
478.783	375.06
479.002	396.06
479.22	371.06
479.439	387.06
479.658	420.06
479.876	400.06
480.095	403.06
480.313	440.06
480.532	427.06
480.751	414.06
480.969	421.06
481.188	412.06
481.406	427.06
481.624	419.06
481.843	416.06
482.061	382.06
482.28	387.06
482.498	415.06
482.717	387.06
482.935	402.06
483.153	399.06
483.372	410.06
483.59	380.06
483.808	386.06
484.027	387.06
484.245	401.06
484.463	420.06
484.681	404.06
484.9	405.06
485.118	401.06
485.336	405.06
485.554	415.06
485.772	394.06
485.99	404.06
486.209	415.06
486.427	418.06
486.645	418.06
486.863	435.06
487.081	446.06
487.299	412.06
487.517	424.06
487.735	421.06
487.953	429.06
488.171	417.06
488.389	425.06
488.607	403.06
488.825	436.06
489.043	443.06
489.261	417.06
489.479	409.06
489.696	430.06
489.914	440.06
490.132	418.06
490.35	420.06
490.568	428.06
490.786	446.06
491.003	432.06
491.221	450.06
491.439	474.06
491.657	464.06
491.874	487.06
492.092	475.06
492.31	499.06
492.527	475.06
492.745	460.06
492.963	476.06
493.18	482.06
493.398	474.06
493.615	479.06
493.833	478.06
494.05	477.06
494.268	479.06
494.485	476.06
494.703	463.06
494.92	468.06
495.138	504.06
495.355	496.06
495.573	505.06
495.79	510.06
496.008	486.06
496.225	480.06
496.442	500.06
496.66	489.06
496.877	490.06
497.094	464.06
497.312	495.06
497.529	520.06
497.746	521.06
497.963	500.06
498.181	515.06
498.398	543.06
498.615	540.06
498.832	565.06
499.049	558.06
499.267	581.06
499.484	599.06
499.701	589.06
499.918	615.06
500.135	672.06
500.352	684.06
500.569	688.06
500.786	672.06
501.003	684.06
501.22	673.06
501.437	654.06
501.654	619.06
501.871	613.06
502.088	577.06
502.305	574.06
