Data from 1983.PennyLincolnUp.Lamp.En5.5.200Scan.071819.P1_HRD10591_16-54-32-968.txt Node
Date: Thu Jul 18 16:54:32 EDT 2019
User: cochatt
Spectrometer: HR+D1059
Trigger mode: 1
Integration Time (sec): 1.000000E-1
Scans to average: 1
Electric dark correction enabled: true
Nonlinearity correction enabled: false
Boxcar width: 0
XAxis mode: Wavelengths
Number of Pixels in Spectrum: 2048
>>>>>Begin Spectral Data<<<<<
223.165	-13.88
223.4	-13.88
223.635	-13.88
223.869	-10.88
224.104	-6.88
224.338	-11.88
224.573	-24.88
224.808	-7.88
225.042	-10.88
225.277	4.12
225.511	-4.88
225.746	-6.88
225.98	14.12
226.215	11.12
226.449	1.12
226.683	14.12
226.918	24.12
227.152	30.12
227.387	33.12
227.621	24.12
227.856	35.12
228.09	52.12
228.324	44.12
228.559	68.12
228.793	68.12
229.027	96.12
229.262	93.12
229.496	98.12
229.73	118.12
229.964	142.12
230.199	128.12
230.433	109.12
230.667	96.12
230.901	105.12
231.136	115.12
231.37	115.12
231.604	112.12
231.838	116.12
232.072	109.12
232.306	99.12
232.541	92.12
232.775	109.12
233.009	109.12
233.243	112.12
233.477	117.12
233.711	100.12
233.945	119.12
234.179	105.12
234.413	117.12
234.647	109.12
234.881	120.12
235.115	118.12
235.349	113.12
235.583	122.12
235.817	129.12
236.051	112.12
236.285	112.12
236.519	116.12
236.753	129.12
236.987	134.12
237.221	170.12
237.455	228.12
237.689	165.12
237.922	127.12
238.156	123.12
238.39	119.12
238.624	123.12
238.858	110.12
239.091	101.12
239.325	106.12
239.559	134.12
239.793	122.12
240.027	137.12
240.26	130.12
240.494	152.12
240.728	130.12
240.961	118.12
241.195	132.12
241.429	134.12
241.662	124.12
241.896	132.12
242.13	115.12
242.363	125.12
242.597	124.12
242.83	137.12
243.064	129.12
243.298	137.12
243.531	126.12
243.765	134.12
243.998	140.12
244.232	129.12
244.465	126.12
244.699	130.12
244.932	128.12
245.166	121.12
245.399	140.12
245.633	139.12
245.866	134.12
246.099	155.12
246.333	153.12
246.566	132.12
246.8	148.12
247.033	134.12
247.266	132.12
247.5	159.12
247.733	155.12
247.966	155.12
248.2	168.12
248.433	171.12
248.666	159.12
248.899	169.12
249.133	177.12
249.366	180.12
249.599	165.12
249.832	171.12
250.066	171.12
250.299	152.12
250.532	182.12
250.765	185.12
250.998	206.12
251.231	198.12
251.465	202.12
251.698	166.12
251.931	199.12
252.164	171.12
252.397	178.12
252.63	200.12
252.863	180.12
253.096	193.12
253.329	200.12
253.562	202.12
253.795	199.12
254.028	210.12
254.261	189.12
254.494	218.12
254.727	236.12
254.96	254.12
255.193	246.12
255.426	233.12
255.659	214.12
255.892	210.12
256.124	226.12
256.357	222.12
256.59	209.12
256.823	204.12
257.056	217.12
257.289	195.12
257.521	204.12
257.754	198.12
257.987	181.12
258.22	208.12
258.452	192.12
258.685	180.12
258.918	190.12
259.151	181.12
259.383	200.12
259.616	202.12
259.849	218.12
260.081	227.12
260.314	222.12
260.547	231.12
260.779	236.12
261.012	225.12
261.244	223.12
261.477	203.12
261.71	201.12
261.942	208.12
262.175	232.12
262.407	203.12
262.64	206.12
262.872	200.12
263.105	201.12
263.337	193.12
263.57	203.12
263.802	189.12
264.035	197.12
264.267	194.12
264.499	202.12
264.732	193.12
264.964	200.12
265.197	206.12
265.429	200.12
265.661	190.12
265.894	200.12
266.126	194.12
266.358	204.12
266.591	207.12
266.823	202.12
267.055	216.12
267.287	209.12
267.52	199.12
267.752	209.12
267.984	219.12
268.216	193.12
268.448	213.12
268.681	206.12
268.913	229.12
269.145	225.12
269.377	262.12
269.609	234.12
269.841	230.12
270.073	264.12
270.306	256.12
270.538	291.12
270.77	306.12
271.002	277.12
271.234	266.12
271.466	294.12
271.698	298.12
271.93	302.12
272.162	281.12
272.394	294.12
272.626	273.12
272.858	261.12
273.09	256.12
273.322	244.12
273.553	242.12
273.785	261.12
274.017	235.12
274.249	240.12
274.481	260.12
274.713	253.12
274.945	235.12
275.176	242.12
275.408	260.12
275.64	245.12
275.872	229.12
276.104	252.12
276.335	228.12
276.567	242.12
276.799	276.12
277.031	289.12
277.262	292.12
277.494	287.12
277.726	293.12
277.957	252.12
278.189	245.12
278.421	247.12
278.652	265.12
278.884	254.12
279.115	270.12
279.347	242.12
279.579	255.12
279.81	258.12
280.042	257.12
280.273	238.12
280.505	246.12
280.736	242.12
280.968	224.12
281.199	241.12
281.431	240.12
281.662	245.12
281.894	242.12
282.125	258.12
282.356	271.12
282.588	283.12
282.819	287.12
283.051	272.12
283.282	256.12
283.513	249.12
283.745	248.12
283.976	261.12
284.207	246.12
284.439	262.12
284.67	259.12
284.901	267.12
285.132	268.12
285.364	263.12
285.595	248.12
285.826	263.12
286.057	253.12
286.288	251.12
286.52	251.12
286.751	243.12
286.982	257.12
287.213	257.12
287.444	261.12
287.675	265.12
287.906	273.12
288.138	288.12
288.369	293.12
288.6	269.12
288.831	280.12
289.062	272.12
289.293	273.12
289.524	258.12
289.755	261.12
289.986	254.12
290.217	259.12
290.448	258.12
290.679	260.12
290.91	268.12
291.141	265.12
291.371	271.12
291.602	265.12
291.833	273.12
292.064	251.12
292.295	277.12
292.526	278.12
292.757	284.12
292.987	289.12
293.218	267.12
293.449	279.12
293.68	289.12
293.91	260.12
294.141	259.12
294.372	274.12
294.603	279.12
294.833	276.12
295.064	265.12
295.295	261.12
295.525	282.12
295.756	282.12
295.987	271.12
296.217	292.12
296.448	299.12
296.679	287.12
296.909	276.12
297.14	282.12
297.37	276.12
297.601	290.12
297.831	272.12
298.062	283.12
298.292	289.12
298.523	302.12
298.753	318.12
298.984	281.12
299.214	292.12
299.445	292.12
299.675	275.12
299.905	289.12
300.136	309.12
300.366	306.12
300.597	279.12
300.827	298.12
301.057	281.12
301.288	308.12
301.518	294.12
301.748	278.12
301.979	298.12
302.209	315.12
302.439	310.12
302.669	298.12
302.9	319.12
303.13	302.12
303.36	321.12
303.59	305.12
303.82	316.12
304.051	298.12
304.281	284.12
304.511	296.12
304.741	298.12
304.971	294.12
305.201	284.12
305.431	292.12
305.661	291.12
305.891	293.12
306.121	295.12
306.352	312.12
306.582	313.12
306.812	309.12
307.042	299.12
307.272	297.12
307.502	296.12
307.731	296.12
307.961	300.12
308.191	304.12
308.421	312.12
308.651	323.12
308.881	319.12
309.111	325.12
309.341	326.12
309.571	328.12
309.8	336.12
310.03	345.12
310.26	361.12
310.49	369.12
310.72	372.12
310.949	388.12
311.179	390.12
311.409	345.12
311.639	360.12
311.868	334.12
312.098	370.12
312.328	374.12
312.557	381.12
312.787	382.12
313.017	398.12
313.246	377.12
313.476	339.12
313.706	341.12
313.935	341.12
314.165	371.12
314.394	377.12
314.624	358.12
314.853	359.12
315.083	376.12
315.312	342.12
315.542	358.12
315.771	356.12
316.001	329.12
316.23	347.12
316.46	373.12
316.689	360.12
316.919	362.12
317.148	350.12
317.377	365.12
317.607	362.12
317.836	354.12
318.065	357.12
318.295	356.12
318.524	355.12
318.753	343.12
318.983	350.12
319.212	357.12
319.441	360.12
319.67	374.12
319.9	358.12
320.129	352.12
320.358	354.12
320.587	348.12
320.816	360.12
321.046	372.12
321.275	370.12
321.504	378.12
321.733	382.12
321.962	389.12
322.191	409.12
322.42	423.12
322.649	405.12
322.878	426.12
323.108	423.12
323.337	460.12
323.566	485.12
323.795	504.12
324.024	581.12
324.253	680.12
324.482	1017.12
324.71	1555.12
324.939	2092.12
325.168	1730.12
325.397	932.12
325.626	634.12
325.855	518.12
326.084	494.12
326.313	486.12
326.542	488.12
326.77	550.12
326.999	664.12
327.228	916.12
327.457	1342.12
327.686	1536.12
327.914	1048.12
328.143	714.12
328.372	614.12
328.6	589.12
328.829	566.12
329.058	562.12
329.287	558.12
329.515	538.12
329.744	471.12
329.972	476.12
330.201	491.12
330.43	538.12
330.658	585.12
330.887	606.12
331.115	589.12
331.344	512.12
331.572	467.12
331.801	464.12
332.03	459.12
332.258	434.12
332.486	418.12
332.715	421.12
332.943	418.12
333.172	412.12
333.4	427.12
333.629	426.12
333.857	437.12
334.085	443.12
334.314	492.12
334.542	502.12
334.771	498.12
334.999	453.12
335.227	438.12
335.455	415.12
335.684	413.12
335.912	426.12
336.14	417.12
336.369	389.12
336.597	417.12
336.825	421.12
337.053	377.12
337.281	400.12
337.51	402.12
337.738	395.12
337.966	398.12
338.194	416.12
338.422	421.12
338.65	403.12
338.878	383.12
339.106	385.12
339.334	386.12
339.562	393.12
339.79	377.12
340.018	378.12
340.246	387.12
340.474	405.12
340.702	388.12
340.93	382.12
341.158	396.12
341.386	382.12
341.614	402.12
341.842	398.12
342.07	380.12
342.298	397.12
342.526	365.12
342.754	371.12
342.981	352.12
343.209	378.12
343.437	376.12
343.665	386.12
343.893	392.12
344.12	404.12
344.348	396.12
344.576	418.12
344.804	398.12
345.031	397.12
345.259	412.12
345.487	411.12
345.714	370.12
345.942	398.12
346.17	398.12
346.397	375.12
346.625	388.12
346.853	383.12
347.08	387.12
347.308	382.12
347.535	399.12
347.763	398.12
347.99	384.12
348.218	364.12
348.445	400.12
348.673	384.12
348.9	384.12
349.128	386.12
349.355	354.12
349.583	386.12
349.81	360.12
350.037	377.12
350.265	373.12
350.492	365.12
350.72	358.12
350.947	375.12
351.174	400.12
351.402	396.12
351.629	392.12
351.856	383.12
352.083	404.12
352.311	404.12
352.538	395.12
352.765	399.12
352.992	387.12
353.22	384.12
353.447	376.12
353.674	376.12
353.901	356.12
354.128	366.12
354.355	355.12
354.583	353.12
354.81	353.12
355.037	340.12
355.264	345.12
355.491	344.12
355.718	348.12
355.945	347.12
356.172	352.12
356.399	356.12
356.626	343.12
356.853	324.12
357.08	368.12
357.307	352.12
357.534	360.12
357.761	344.12
357.988	365.12
358.215	359.12
358.441	330.12
358.668	379.12
358.895	365.12
359.122	367.12
359.349	380.12
359.576	380.12
359.802	396.12
360.029	428.12
360.256	443.12
360.483	421.12
360.709	388.12
360.936	383.12
361.163	372.12
361.39	385.12
361.616	389.12
361.843	373.12
362.07	377.12
362.296	383.12
362.523	368.12
362.749	374.12
362.976	395.12
363.203	364.12
363.429	372.12
363.656	370.12
363.882	351.12
364.109	363.12
364.335	368.12
364.562	350.12
364.788	348.12
365.015	386.12
365.241	368.12
365.468	362.12
365.694	360.12
365.92	374.12
366.147	384.12
366.373	342.12
366.599	350.12
366.826	347.12
367.052	334.12
367.278	355.12
367.505	362.12
367.731	377.12
367.957	350.12
368.184	346.12
368.41	382.12
368.636	354.12
368.862	376.12
369.089	362.12
369.315	352.12
369.541	353.12
369.767	356.12
369.993	354.12
370.219	361.12
370.445	357.12
370.672	351.12
370.898	345.12
371.124	355.12
371.35	352.12
371.576	357.12
371.802	349.12
372.028	335.12
372.254	365.12
372.48	325.12
372.706	370.12
372.932	339.12
373.158	363.12
373.384	341.12
373.61	346.12
373.835	348.12
374.061	348.12
374.287	360.12
374.513	345.12
374.739	336.12
374.965	348.12
375.191	345.12
375.416	366.12
375.642	364.12
375.868	348.12
376.094	368.12
376.319	355.12
376.545	334.12
376.771	382.12
376.997	325.12
377.222	362.12
377.448	344.12
377.674	347.12
377.899	340.12
378.125	366.12
378.35	353.12
378.576	352.12
378.802	355.12
379.027	346.12
379.253	352.12
379.478	347.12
379.704	359.12
379.929	389.12
380.155	364.12
380.38	346.12
380.606	361.12
380.831	338.12
381.057	349.12
381.282	354.12
381.507	356.12
381.733	365.12
381.958	350.12
382.184	346.12
382.409	352.12
382.634	343.12
382.86	339.12
383.085	371.12
383.31	364.12
383.535	365.12
383.761	365.12
383.986	371.12
384.211	359.12
384.436	364.12
384.662	359.12
384.887	357.12
385.112	344.12
385.337	375.12
385.562	363.12
385.787	376.12
386.013	384.12
386.238	383.12
386.463	398.12
386.688	385.12
386.913	376.12
387.138	378.12
387.363	379.12
387.588	369.12
387.813	372.12
388.038	359.12
388.263	388.12
388.488	372.12
388.713	385.12
388.938	359.12
389.163	392.12
389.387	379.12
389.612	372.12
389.837	363.12
390.062	377.12
390.287	366.12
390.512	352.12
390.736	361.12
390.961	380.12
391.186	386.12
391.411	390.12
391.636	387.12
391.86	396.12
392.085	405.12
392.31	406.12
392.534	382.12
392.759	383.12
392.984	389.12
393.208	393.12
393.433	374.12
393.658	376.12
393.882	377.12
394.107	379.12
394.331	385.12
394.556	372.12
394.78	350.12
395.005	366.12
395.229	381.12
395.454	395.12
395.678	411.12
395.903	398.12
396.127	408.12
396.352	400.12
396.576	393.12
396.801	382.12
397.025	373.12
397.249	401.12
397.474	396.12
397.698	418.12
397.922	404.12
398.147	432.12
398.371	432.12
398.595	435.12
398.82	413.12
399.044	431.12
399.268	432.12
399.492	437.12
399.717	452.12
399.941	486.12
400.165	513.12
400.389	506.12
400.613	468.12
400.837	449.12
401.062	426.12
401.286	427.12
401.51	405.12
401.734	404.12
401.958	445.12
402.182	426.12
402.406	445.12
402.63	463.12
402.854	419.12
403.078	428.12
403.302	420.12
403.526	440.12
403.75	421.12
403.974	424.12
404.198	466.12
404.422	446.12
404.645	465.12
404.869	438.12
405.093	469.12
405.317	497.12
405.541	520.12
405.765	488.12
405.988	460.12
406.212	479.12
406.436	488.12
406.66	512.12
406.883	474.12
407.107	510.12
407.331	522.12
407.555	586.12
407.778	572.12
408.002	520.12
408.226	489.12
408.449	498.12
408.673	473.12
408.896	514.12
409.12	521.12
409.344	501.12
409.567	471.12
409.791	471.12
410.014	447.12
410.238	444.12
410.461	440.12
410.685	432.12
410.908	463.12
411.132	481.12
411.355	510.12
411.578	460.12
411.802	434.12
412.025	411.12
412.249	450.12
412.472	462.12
412.695	494.12
412.919	466.12
413.142	444.12
413.365	436.12
413.589	421.12
413.812	412.12
414.035	415.12
414.258	405.12
414.482	413.12
414.705	407.12
414.928	418.12
415.151	406.12
415.374	428.12
415.597	425.12
415.821	406.12
416.044	395.12
416.267	430.12
416.49	412.12
416.713	402.12
416.936	416.12
417.159	415.12
417.382	395.12
417.605	432.12
417.828	408.12
418.051	446.12
418.274	429.12
418.497	424.12
418.72	420.12
418.943	407.12
419.166	423.12
419.389	437.12
419.611	453.12
419.834	414.12
420.057	454.12
420.28	442.12
420.503	452.12
420.726	444.12
420.948	438.12
421.171	503.12
421.394	511.12
421.617	456.12
421.839	436.12
422.062	444.12
422.285	427.12
422.507	500.12
422.73	530.12
422.953	539.12
423.175	464.12
423.398	466.12
423.621	442.12
423.843	459.12
424.066	464.12
424.288	462.12
424.511	481.12
424.733	538.12
424.956	575.12
425.178	571.12
425.401	579.12
425.623	581.12
425.846	489.12
426.068	465.12
426.291	468.12
426.513	473.12
426.735	493.12
426.958	510.12
427.18	579.12
427.402	674.12
427.625	716.12
427.847	659.12
428.069	573.12
428.292	517.12
428.514	465.12
428.736	452.12
428.958	421.12
429.181	428.12
429.403	406.12
429.625	459.12
429.847	466.12
430.069	536.12
430.292	502.12
430.514	440.12
430.736	431.12
430.958	438.12
431.18	421.12
431.402	420.12
431.624	394.12
431.846	394.12
432.068	414.12
432.29	386.12
432.512	423.12
432.734	416.12
432.956	417.12
433.178	428.12
433.4	423.12
433.622	432.12
433.844	406.12
434.066	449.12
434.287	412.12
434.509	422.12
434.731	419.12
434.953	419.12
435.175	448.12
435.397	471.12
435.618	467.12
435.84	520.12
436.062	564.12
436.284	608.12
436.505	526.12
436.727	476.12
436.949	442.12
437.17	452.12
437.392	434.12
437.614	451.12
437.835	501.12
438.057	577.12
438.278	640.12
438.5	612.12
438.721	673.12
438.943	633.12
439.165	530.12
439.386	512.12
439.608	488.12
439.829	491.12
440.05	490.12
440.272	542.12
440.493	488.12
440.715	485.12
440.936	456.12
441.158	437.12
441.379	428.12
441.6	462.12
441.822	481.12
442.043	508.12
442.264	572.12
442.486	587.12
442.707	529.12
442.928	480.12
443.149	480.12
443.371	508.12
443.592	550.12
443.813	606.12
444.034	660.12
444.255	544.12
444.476	498.12
444.698	489.12
444.919	472.12
445.14	596.12
445.361	561.12
445.582	521.12
445.803	554.12
446.024	639.12
446.245	644.12
446.466	596.12
446.687	530.12
446.908	476.12
447.129	457.12
447.35	429.12
447.571	435.12
447.792	421.12
448.013	463.12
448.234	450.12
448.455	501.12
448.675	596.12
448.896	668.12
449.117	564.12
449.338	553.12
449.559	626.12
449.779	728.12
450	555.12
450.221	472.12
450.442	443.12
450.662	437.12
450.883	450.12
451.104	466.12
451.324	456.12
451.545	410.12
451.766	420.12
451.986	382.12
452.207	395.12
452.428	400.12
452.648	406.12
452.869	391.12
453.089	395.12
453.31	419.12
453.53	410.12
453.751	388.12
453.971	400.12
454.192	416.12
454.412	409.12
454.633	392.12
454.853	383.12
455.073	389.12
455.294	395.12
455.514	474.12
455.734	450.12
455.955	392.12
456.175	390.12
456.395	362.12
456.616	361.12
456.836	380.12
457.056	372.12
457.276	387.12
457.497	376.12
457.717	358.12
457.937	379.12
458.157	378.12
458.377	378.12
458.598	416.12
458.818	462.12
459.038	547.12
459.258	532.12
459.478	438.12
459.698	412.12
459.918	401.12
460.138	422.12
460.358	398.12
460.578	405.12
460.798	396.12
461.018	424.12
461.238	412.12
461.458	393.12
461.678	408.12
461.898	417.12
462.118	389.12
462.338	440.12
462.558	420.12
462.777	420.12
462.997	430.12
463.217	432.12
463.437	426.12
463.657	445.12
463.876	437.12
464.096	442.12
464.316	418.12
464.536	439.12
464.755	434.12
464.975	434.12
465.195	497.12
465.414	580.12
465.634	494.12
465.854	453.12
466.073	438.12
466.293	411.12
466.512	413.12
466.732	397.12
466.951	403.12
467.171	392.12
467.391	404.12
467.61	406.12
467.829	417.12
468.049	434.12
468.268	422.12
468.488	395.12
468.707	402.12
468.927	392.12
469.146	395.12
469.365	411.12
469.585	372.12
469.804	396.12
470.023	408.12
470.243	407.12
470.462	418.12
470.681	431.12
470.901	432.12
471.12	417.12
471.339	401.12
471.558	416.12
471.777	408.12
471.997	394.12
472.216	416.12
472.435	434.12
472.654	431.12
472.873	399.12
473.092	391.12
473.311	394.12
473.53	420.12
473.749	401.12
473.968	476.12
474.187	536.12
474.406	562.12
474.625	466.12
474.844	410.12
475.063	424.12
475.282	436.12
475.501	410.12
475.72	397.12
475.939	404.12
476.158	408.12
476.377	436.12
476.596	418.12
476.814	419.12
477.033	424.12
477.252	437.12
477.471	429.12
477.69	428.12
477.908	418.12
478.127	426.12
478.346	439.12
478.564	445.12
478.783	440.12
479.002	453.12
479.22	453.12
479.439	464.12
479.658	502.12
479.876	478.12
480.095	498.12
480.313	539.12
480.532	512.12
480.751	496.12
480.969	524.12
481.188	542.12
481.406	629.12
481.624	546.12
481.843	500.12
482.061	504.12
482.28	486.12
482.498	460.12
482.717	468.12
482.935	482.12
483.153	482.12
483.372	471.12
483.59	493.12
483.808	478.12
484.027	495.12
484.245	483.12
484.463	474.12
484.681	485.12
484.9	482.12
485.118	460.12
485.336	497.12
485.554	497.12
485.772	491.12
485.99	474.12
486.209	460.12
486.427	484.12
486.645	508.12
486.863	514.12
487.081	539.12
487.299	520.12
487.517	500.12
487.735	519.12
487.953	498.12
488.171	500.12
488.389	497.12
488.607	500.12
488.825	505.12
489.043	519.12
489.261	538.12
489.479	530.12
489.696	499.12
489.914	524.12
490.132	533.12
490.35	520.12
490.568	544.12
490.786	547.12
491.003	570.12
491.221	573.12
491.439	552.12
491.657	591.12
491.874	596.12
492.092	596.12
492.31	619.12
492.527	612.12
492.745	600.12
492.963	597.12
493.18	590.12
493.398	610.12
493.615	612.12
493.833	585.12
494.05	613.12
494.268	597.12
494.485	612.12
494.703	579.12
494.92	612.12
495.138	606.12
495.355	603.12
495.573	606.12
495.79	629.12
496.008	612.12
496.225	612.12
496.442	597.12
496.66	630.12
496.877	610.12
497.094	617.12
497.312	617.12
497.529	603.12
497.746	624.12
497.963	640.12
498.181	662.12
498.398	648.12
498.615	650.12
498.832	664.12
499.049	682.12
499.267	686.12
499.484	658.12
499.701	699.12
499.918	727.12
500.135	748.12
500.352	788.12
500.569	790.12
500.786	789.12
501.003	787.12
501.22	793.12
501.437	766.12
501.654	755.12
501.871	739.12
502.088	694.12
