Data from 1983.PennyLincolnUp.Lamp.En5.5.200Scan.071819.P1_HRD10591_16-55-03-965.txt Node
Date: Thu Jul 18 16:55:03 EDT 2019
User: cochatt
Spectrometer: HR+D1059
Trigger mode: 1
Integration Time (sec): 1.000000E-1
Scans to average: 1
Electric dark correction enabled: true
Nonlinearity correction enabled: false
Boxcar width: 0
XAxis mode: Wavelengths
Number of Pixels in Spectrum: 2048
>>>>>Begin Spectral Data<<<<<
223.165	-12.56
223.4	-12.56
223.635	-12.56
223.869	-25.56
224.104	-10.56
224.338	-19.56
224.573	-23.56
224.808	-18.56
225.042	-5.56
225.277	-5.56
225.511	6.44
225.746	-8.56
225.98	16.44
226.215	16.44
226.449	22.44
226.683	17.44
226.918	17.44
227.152	33.44
227.387	45.44
227.621	41.44
227.856	39.44
228.09	48.44
228.324	58.44
228.559	61.44
228.793	74.44
229.027	105.44
229.262	99.44
229.496	113.44
229.73	133.44
229.964	146.44
230.199	134.44
230.433	113.44
230.667	107.44
230.901	112.44
231.136	121.44
231.37	118.44
231.604	116.44
231.838	120.44
232.072	113.44
232.306	113.44
232.541	118.44
232.775	123.44
233.009	122.44
233.243	111.44
233.477	109.44
233.711	117.44
233.945	109.44
234.179	112.44
234.413	117.44
234.647	130.44
234.881	110.44
235.115	120.44
235.349	121.44
235.583	115.44
235.817	127.44
236.051	119.44
236.285	118.44
236.519	128.44
236.753	138.44
236.987	141.44
237.221	188.44
237.455	233.44
237.689	191.44
237.922	148.44
238.156	128.44
238.39	141.44
238.624	128.44
238.858	126.44
239.091	141.44
239.325	123.44
239.559	124.44
239.793	129.44
240.027	133.44
240.26	128.44
240.494	156.44
240.728	139.44
240.961	129.44
241.195	135.44
241.429	128.44
241.662	130.44
241.896	131.44
242.13	125.44
242.363	132.44
242.597	120.44
242.83	124.44
243.064	143.44
243.298	141.44
243.531	121.44
243.765	143.44
243.998	148.44
244.232	133.44
244.465	137.44
244.699	131.44
244.932	124.44
245.166	129.44
245.399	136.44
245.633	142.44
245.866	135.44
246.099	141.44
246.333	154.44
246.566	140.44
246.8	149.44
247.033	138.44
247.266	158.44
247.5	147.44
247.733	166.44
247.966	161.44
248.2	159.44
248.433	172.44
248.666	162.44
248.899	169.44
249.133	199.44
249.366	214.44
249.599	190.44
249.832	178.44
250.066	161.44
250.299	182.44
250.532	201.44
250.765	200.44
250.998	226.44
251.231	218.44
251.465	211.44
251.698	211.44
251.931	189.44
252.164	179.44
252.397	185.44
252.63	193.44
252.863	201.44
253.096	215.44
253.329	228.44
253.562	202.44
253.795	215.44
254.028	211.44
254.261	201.44
254.494	222.44
254.727	241.44
254.96	263.44
255.193	255.44
255.426	237.44
255.659	224.44
255.892	225.44
256.124	247.44
256.357	254.44
256.59	234.44
256.823	215.44
257.056	223.44
257.289	200.44
257.521	203.44
257.754	195.44
257.987	187.44
258.22	206.44
258.452	211.44
258.685	197.44
258.918	210.44
259.151	202.44
259.383	206.44
259.616	214.44
259.849	230.44
260.081	220.44
260.314	226.44
260.547	239.44
260.779	237.44
261.012	214.44
261.244	218.44
261.477	238.44
261.71	197.44
261.942	219.44
262.175	234.44
262.407	216.44
262.64	220.44
262.872	190.44
263.105	199.44
263.337	192.44
263.57	194.44
263.802	198.44
264.035	214.44
264.267	203.44
264.499	187.44
264.732	193.44
264.964	198.44
265.197	203.44
265.429	218.44
265.661	197.44
265.894	213.44
266.126	229.44
266.358	221.44
266.591	207.44
266.823	223.44
267.055	205.44
267.287	217.44
267.52	204.44
267.752	217.44
267.984	206.44
268.216	222.44
268.448	207.44
268.681	225.44
268.913	218.44
269.145	233.44
269.377	259.44
269.609	261.44
269.841	260.44
270.073	247.44
270.306	269.44
270.538	313.44
270.77	317.44
271.002	288.44
271.234	279.44
271.466	295.44
271.698	293.44
271.93	295.44
272.162	295.44
272.394	313.44
272.626	289.44
272.858	263.44
273.09	272.44
273.322	247.44
273.553	255.44
273.785	259.44
274.017	272.44
274.249	263.44
274.481	264.44
274.713	254.44
274.945	259.44
275.176	254.44
275.408	265.44
275.64	252.44
275.872	235.44
276.104	248.44
276.335	257.44
276.567	278.44
276.799	278.44
277.031	292.44
277.262	303.44
277.494	290.44
277.726	273.44
277.957	270.44
278.189	260.44
278.421	273.44
278.652	255.44
278.884	237.44
279.115	253.44
279.347	248.44
279.579	252.44
279.81	249.44
280.042	249.44
280.273	272.44
280.505	261.44
280.736	253.44
280.968	233.44
281.199	265.44
281.431	248.44
281.662	253.44
281.894	265.44
282.125	260.44
282.356	267.44
282.588	294.44
282.819	291.44
283.051	274.44
283.282	248.44
283.513	252.44
283.745	280.44
283.976	271.44
284.207	248.44
284.439	253.44
284.67	273.44
284.901	273.44
285.132	273.44
285.364	273.44
285.595	255.44
285.826	257.44
286.057	249.44
286.288	263.44
286.52	264.44
286.751	264.44
286.982	268.44
287.213	257.44
287.444	271.44
287.675	265.44
287.906	269.44
288.138	276.44
288.369	277.44
288.6	297.44
288.831	274.44
289.062	271.44
289.293	257.44
289.524	263.44
289.755	265.44
289.986	268.44
290.217	272.44
290.448	264.44
290.679	251.44
290.91	264.44
291.141	274.44
291.371	288.44
291.602	287.44
291.833	280.44
292.064	280.44
292.295	256.44
292.526	272.44
292.757	266.44
292.987	277.44
293.218	278.44
293.449	281.44
293.68	265.44
293.91	251.44
294.141	285.44
294.372	265.44
294.603	290.44
294.833	269.44
295.064	286.44
295.295	265.44
295.525	298.44
295.756	302.44
295.987	282.44
296.217	303.44
296.448	309.44
296.679	289.44
296.909	284.44
297.14	279.44
297.37	265.44
297.601	279.44
297.831	278.44
298.062	287.44
298.292	309.44
298.523	295.44
298.753	266.44
298.984	282.44
299.214	290.44
299.445	275.44
299.675	294.44
299.905	293.44
300.136	287.44
300.366	283.44
300.597	293.44
300.827	316.44
301.057	306.44
301.288	303.44
301.518	309.44
301.748	322.44
301.979	294.44
302.209	297.44
302.439	313.44
302.669	309.44
302.9	290.44
303.13	317.44
303.36	298.44
303.59	315.44
303.82	311.44
304.051	314.44
304.281	318.44
304.511	291.44
304.741	294.44
304.971	299.44
305.201	304.44
305.431	299.44
305.661	310.44
305.891	309.44
306.121	314.44
306.352	314.44
306.582	307.44
306.812	304.44
307.042	317.44
307.272	299.44
307.502	314.44
307.731	303.44
307.961	316.44
308.191	302.44
308.421	323.44
308.651	335.44
308.881	320.44
309.111	315.44
309.341	338.44
309.571	339.44
309.8	332.44
310.03	350.44
310.26	352.44
310.49	356.44
310.72	377.44
310.949	368.44
311.179	373.44
311.409	351.44
311.639	376.44
311.868	361.44
312.098	355.44
312.328	357.44
312.557	364.44
312.787	376.44
313.017	380.44
313.246	399.44
313.476	357.44
313.706	338.44
313.935	369.44
314.165	376.44
314.394	377.44
314.624	368.44
314.853	361.44
315.083	363.44
315.312	361.44
315.542	367.44
315.771	354.44
316.001	340.44
316.23	363.44
316.46	344.44
316.689	373.44
316.919	367.44
317.148	363.44
317.377	380.44
317.607	365.44
317.836	375.44
318.065	353.44
318.295	354.44
318.524	370.44
318.753	344.44
318.983	352.44
319.212	373.44
319.441	363.44
319.67	373.44
319.9	377.44
320.129	353.44
320.358	351.44
320.587	376.44
320.816	377.44
321.046	363.44
321.275	376.44
321.504	378.44
321.733	353.44
321.962	393.44
322.191	399.44
322.42	418.44
322.649	455.44
322.878	417.44
323.108	465.44
323.337	467.44
323.566	491.44
323.795	519.44
324.024	573.44
324.253	703.44
324.482	1042.44
324.71	1537.44
324.939	2109.44
325.168	1773.44
325.397	957.44
325.626	649.44
325.855	538.44
326.084	502.44
326.313	463.44
326.542	476.44
326.77	562.44
326.999	680.44
327.228	905.44
327.457	1342.44
327.686	1581.44
327.914	1062.44
328.143	697.44
328.372	645.44
328.6	591.44
328.829	568.44
329.058	557.44
329.287	609.44
329.515	518.44
329.744	519.44
329.972	498.44
330.201	548.44
330.43	602.44
330.658	618.44
330.887	622.44
331.115	599.44
331.344	524.44
331.572	473.44
331.801	494.44
332.03	497.44
332.258	443.44
332.486	458.44
332.715	447.44
332.943	427.44
333.172	443.44
333.4	456.44
333.629	446.44
333.857	474.44
334.085	490.44
334.314	502.44
334.542	579.44
334.771	615.44
334.999	499.44
335.227	457.44
335.455	455.44
335.684	437.44
335.912	415.44
336.14	415.44
336.369	402.44
336.597	429.44
336.825	425.44
337.053	414.44
337.281	410.44
337.51	399.44
337.738	404.44
337.966	418.44
338.194	418.44
338.422	391.44
338.65	395.44
338.878	395.44
339.106	373.44
339.334	393.44
339.562	399.44
339.79	391.44
340.018	423.44
340.246	410.44
340.474	412.44
340.702	393.44
340.93	391.44
341.158	384.44
341.386	382.44
341.614	402.44
341.842	408.44
342.07	388.44
342.298	384.44
342.526	373.44
342.754	379.44
342.981	394.44
343.209	367.44
343.437	378.44
343.665	384.44
343.893	403.44
344.12	403.44
344.348	409.44
344.576	399.44
344.804	407.44
345.031	408.44
345.259	433.44
345.487	416.44
345.714	400.44
345.942	385.44
346.17	382.44
346.397	386.44
346.625	392.44
346.853	385.44
347.08	384.44
347.308	404.44
347.535	395.44
347.763	411.44
347.99	396.44
348.218	394.44
348.445	400.44
348.673	397.44
348.9	379.44
349.128	380.44
349.355	359.44
349.583	377.44
349.81	367.44
350.037	381.44
350.265	359.44
350.492	370.44
350.72	358.44
350.947	370.44
351.174	367.44
351.402	371.44
351.629	390.44
351.856	393.44
352.083	377.44
352.311	391.44
352.538	416.44
352.765	409.44
352.992	397.44
353.22	374.44
353.447	399.44
353.674	379.44
353.901	391.44
354.128	378.44
354.355	380.44
354.583	371.44
354.81	364.44
355.037	352.44
355.264	360.44
355.491	372.44
355.718	359.44
355.945	356.44
356.172	345.44
356.399	339.44
356.626	363.44
356.853	347.44
357.08	354.44
357.307	353.44
357.534	353.44
357.761	359.44
357.988	358.44
358.215	370.44
358.441	339.44
358.668	320.44
358.895	358.44
359.122	360.44
359.349	378.44
359.576	390.44
359.802	417.44
360.029	427.44
360.256	450.44
360.483	406.44
360.709	397.44
360.936	389.44
361.163	391.44
361.39	399.44
361.616	395.44
361.843	377.44
362.07	363.44
362.296	387.44
362.523	381.44
362.749	388.44
362.976	373.44
363.203	361.44
363.429	378.44
363.656	354.44
363.882	383.44
364.109	381.44
364.335	354.44
364.562	365.44
364.788	362.44
365.015	373.44
365.241	376.44
365.468	374.44
365.694	373.44
365.92	372.44
366.147	371.44
366.373	357.44
366.599	358.44
366.826	363.44
367.052	352.44
367.278	365.44
367.505	363.44
367.731	386.44
367.957	367.44
368.184	364.44
368.41	366.44
368.636	376.44
368.862	384.44
369.089	365.44
369.315	371.44
369.541	360.44
369.767	352.44
369.993	357.44
370.219	367.44
370.445	356.44
370.672	331.44
370.898	341.44
371.124	344.44
371.35	370.44
371.576	366.44
371.802	348.44
372.028	358.44
372.254	360.44
372.48	361.44
372.706	351.44
372.932	352.44
373.158	360.44
373.384	345.44
373.61	350.44
373.835	370.44
374.061	356.44
374.287	357.44
374.513	367.44
374.739	362.44
374.965	351.44
375.191	347.44
375.416	382.44
375.642	358.44
375.868	367.44
376.094	345.44
376.319	345.44
376.545	348.44
376.771	345.44
376.997	353.44
377.222	351.44
377.448	351.44
377.674	361.44
377.899	355.44
378.125	358.44
378.35	353.44
378.576	364.44
378.802	375.44
379.027	352.44
379.253	357.44
379.478	360.44
379.704	344.44
379.929	351.44
380.155	352.44
380.38	350.44
380.606	357.44
380.831	337.44
381.057	361.44
381.282	355.44
381.507	330.44
381.733	359.44
381.958	368.44
382.184	358.44
382.409	342.44
382.634	343.44
382.86	354.44
383.085	336.44
383.31	359.44
383.535	375.44
383.761	363.44
383.986	384.44
384.211	360.44
384.436	373.44
384.662	379.44
384.887	394.44
385.112	369.44
385.337	349.44
385.562	379.44
385.787	385.44
386.013	381.44
386.238	379.44
386.463	397.44
386.688	368.44
386.913	373.44
387.138	369.44
387.363	378.44
387.588	381.44
387.813	367.44
388.038	395.44
388.263	392.44
388.488	389.44
388.713	378.44
388.938	374.44
389.163	373.44
389.387	385.44
389.612	379.44
389.837	389.44
390.062	371.44
390.287	381.44
390.512	391.44
390.736	387.44
390.961	356.44
391.186	366.44
391.411	377.44
391.636	378.44
391.86	393.44
392.085	389.44
392.31	380.44
392.534	388.44
392.759	397.44
392.984	386.44
393.208	382.44
393.433	374.44
393.658	370.44
393.882	371.44
394.107	359.44
394.331	376.44
394.556	361.44
394.78	385.44
395.005	389.44
395.229	384.44
395.454	398.44
395.678	389.44
395.903	378.44
396.127	421.44
396.352	411.44
396.576	407.44
396.801	375.44
397.025	411.44
397.249	393.44
397.474	381.44
397.698	382.44
397.922	417.44
398.147	412.44
398.371	404.44
398.595	409.44
398.82	409.44
399.044	421.44
399.268	435.44
399.492	473.44
399.717	472.44
399.941	515.44
400.165	494.44
400.389	509.44
400.613	464.44
400.837	444.44
401.062	444.44
401.286	427.44
401.51	445.44
401.734	409.44
401.958	413.44
402.182	434.44
402.406	443.44
402.63	442.44
402.854	433.44
403.078	446.44
403.302	438.44
403.526	445.44
403.75	437.44
403.974	449.44
404.198	429.44
404.422	447.44
404.645	457.44
404.869	457.44
405.093	469.44
405.317	523.44
405.541	523.44
405.765	502.44
405.988	479.44
406.212	458.44
406.436	507.44
406.66	524.44
406.883	492.44
407.107	502.44
407.331	531.44
407.555	569.44
407.778	571.44
408.002	496.44
408.226	495.44
408.449	477.44
408.673	482.44
408.896	537.44
409.12	532.44
409.344	494.44
409.567	478.44
409.791	474.44
410.014	447.44
410.238	459.44
410.461	446.44
410.685	433.44
410.908	467.44
411.132	488.44
411.355	510.44
411.578	485.44
411.802	458.44
412.025	447.44
412.249	445.44
412.472	469.44
412.695	524.44
412.919	486.44
413.142	455.44
413.365	446.44
413.589	449.44
413.812	431.44
414.035	419.44
414.258	418.44
414.482	422.44
414.705	434.44
414.928	431.44
415.151	424.44
415.374	402.44
415.597	400.44
415.821	434.44
416.044	418.44
416.267	419.44
416.49	424.44
416.713	416.44
416.936	416.44
417.159	413.44
417.382	431.44
417.605	410.44
417.828	419.44
418.051	459.44
418.274	419.44
418.497	439.44
418.72	417.44
418.943	404.44
419.166	429.44
419.389	452.44
419.611	455.44
419.834	435.44
420.057	449.44
420.28	456.44
420.503	441.44
420.726	441.44
420.948	462.44
421.171	480.44
421.394	512.44
421.617	447.44
421.839	464.44
422.062	445.44
422.285	475.44
422.507	490.44
422.73	536.44
422.953	517.44
423.175	463.44
423.398	466.44
423.621	464.44
423.843	477.44
424.066	487.44
424.288	476.44
424.511	498.44
424.733	536.44
424.956	555.44
425.178	563.44
425.401	574.44
425.623	561.44
425.846	495.44
426.068	480.44
426.291	487.44
426.513	480.44
426.735	477.44
426.958	506.44
427.18	593.44
427.402	709.44
427.625	752.44
427.847	703.44
428.069	599.44
428.292	542.44
428.514	459.44
428.736	445.44
428.958	437.44
429.181	451.44
429.403	441.44
429.625	450.44
429.847	462.44
430.069	518.44
430.292	506.44
430.514	455.44
430.736	465.44
430.958	443.44
431.18	421.44
431.402	404.44
431.624	402.44
431.846	397.44
432.068	411.44
432.29	403.44
432.512	419.44
432.734	411.44
432.956	417.44
433.178	412.44
433.4	421.44
433.622	431.44
433.844	424.44
434.066	429.44
434.287	413.44
434.509	411.44
434.731	427.44
434.953	439.44
435.175	439.44
435.397	450.44
435.618	473.44
435.84	509.44
436.062	560.44
436.284	610.44
436.505	544.44
436.727	469.44
436.949	449.44
437.17	442.44
437.392	441.44
437.614	447.44
437.835	485.44
438.057	573.44
438.278	639.44
438.5	627.44
438.721	679.44
438.943	657.44
439.165	542.44
439.386	513.44
439.608	494.44
439.829	488.44
440.05	506.44
440.272	535.44
440.493	535.44
440.715	457.44
440.936	454.44
441.158	449.44
441.379	441.44
441.6	441.44
441.822	490.44
442.043	512.44
442.264	579.44
442.486	627.44
442.707	540.44
442.928	479.44
443.149	506.44
443.371	526.44
443.592	546.44
443.813	637.44
444.034	672.44
444.255	549.44
444.476	474.44
444.698	483.44
444.919	491.44
445.14	614.44
445.361	549.44
445.582	532.44
445.803	582.44
446.024	643.44
446.245	669.44
446.466	581.44
446.687	488.44
446.908	456.44
447.129	475.44
447.35	437.44
447.571	439.44
447.792	442.44
448.013	435.44
448.234	478.44
448.455	513.44
448.675	614.44
448.896	690.44
449.117	566.44
449.338	545.44
449.559	642.44
449.779	706.44
450	559.44
450.221	488.44
450.442	433.44
450.662	440.44
450.883	449.44
451.104	456.44
451.324	451.44
451.545	431.44
451.766	440.44
451.986	395.44
452.207	391.44
452.428	390.44
452.648	408.44
452.869	399.44
453.089	384.44
453.31	415.44
453.53	386.44
453.751	396.44
453.971	418.44
454.192	425.44
454.412	407.44
454.633	392.44
454.853	380.44
455.073	388.44
455.294	409.44
455.514	465.44
455.734	471.44
455.955	381.44
456.175	375.44
456.395	390.44
456.616	358.44
456.836	358.44
457.056	361.44
457.276	358.44
457.497	378.44
457.717	389.44
457.937	371.44
458.157	390.44
458.377	399.44
458.598	419.44
458.818	477.44
459.038	573.44
459.258	529.44
459.478	463.44
459.698	422.44
459.918	419.44
460.138	413.44
460.358	427.44
460.578	421.44
460.798	403.44
461.018	413.44
461.238	431.44
461.458	414.44
461.678	402.44
461.898	417.44
462.118	428.44
462.338	431.44
462.558	428.44
462.777	429.44
462.997	425.44
463.217	444.44
463.437	445.44
463.657	440.44
463.876	447.44
464.096	435.44
464.316	430.44
464.536	465.44
464.755	435.44
464.975	453.44
465.195	496.44
465.414	610.44
465.634	498.44
465.854	455.44
466.073	420.44
466.293	416.44
466.512	411.44
466.732	386.44
466.951	395.44
467.171	429.44
467.391	418.44
467.61	409.44
467.829	434.44
468.049	417.44
468.268	413.44
468.488	429.44
468.707	392.44
468.927	397.44
469.146	397.44
469.365	400.44
469.585	413.44
469.804	402.44
470.023	403.44
470.243	433.44
470.462	433.44
470.681	438.44
470.901	459.44
471.12	437.44
471.339	414.44
471.558	421.44
471.777	406.44
471.997	396.44
472.216	433.44
472.435	492.44
472.654	462.44
472.873	416.44
473.092	413.44
473.311	417.44
473.53	403.44
473.749	409.44
473.968	470.44
474.187	558.44
474.406	578.44
474.625	452.44
474.844	405.44
475.063	409.44
475.282	431.44
475.501	409.44
475.72	403.44
475.939	423.44
476.158	416.44
476.377	427.44
476.596	426.44
476.814	423.44
477.033	437.44
477.252	437.44
477.471	430.44
477.69	435.44
477.908	452.44
478.127	444.44
478.346	431.44
478.564	432.44
478.783	446.44
479.002	457.44
479.22	454.44
479.439	477.44
479.658	514.44
479.876	501.44
480.095	506.44
480.313	531.44
480.532	510.44
480.751	509.44
480.969	535.44
481.188	617.44
481.406	686.44
481.624	572.44
481.843	517.44
482.061	515.44
482.28	511.44
482.498	498.44
482.717	477.44
482.935	504.44
483.153	481.44
483.372	481.44
483.59	507.44
483.808	473.44
484.027	465.44
484.245	485.44
484.463	477.44
484.681	502.44
484.9	483.44
485.118	490.44
485.336	489.44
485.554	494.44
485.772	504.44
485.99	501.44
486.209	498.44
486.427	492.44
486.645	522.44
486.863	523.44
487.081	521.44
487.299	519.44
487.517	506.44
487.735	527.44
487.953	523.44
488.171	522.44
488.389	512.44
488.607	523.44
488.825	536.44
489.043	510.44
489.261	539.44
489.479	529.44
489.696	552.44
489.914	524.44
490.132	545.44
490.35	555.44
490.568	560.44
490.786	568.44
491.003	571.44
491.221	581.44
491.439	593.44
491.657	626.44
491.874	587.44
492.092	618.44
492.31	633.44
492.527	618.44
492.745	613.44
492.963	629.44
493.18	621.44
493.398	617.44
493.615	631.44
493.833	615.44
494.05	629.44
494.268	639.44
494.485	610.44
494.703	622.44
494.92	638.44
495.138	626.44
495.355	639.44
495.573	645.44
495.79	631.44
496.008	636.44
496.225	637.44
496.442	629.44
496.66	642.44
496.877	629.44
497.094	611.44
497.312	622.44
497.529	635.44
497.746	645.44
497.963	649.44
498.181	651.44
498.398	645.44
498.615	659.44
498.832	675.44
499.049	683.44
499.267	687.44
499.484	709.44
499.701	741.44
499.918	744.44
500.135	776.44
500.352	791.44
500.569	812.44
500.786	801.44
501.003	818.44
501.22	769.44
501.437	770.44
501.654	754.44
501.871	785.44
