Data from 1983.PennyLincolnUp.Lamp.En5.5.200Scan.071819.P1_HRD10591_16-55-05-966.txt Node
Date: Thu Jul 18 16:55:05 EDT 2019
User: cochatt
Spectrometer: HR+D1059
Trigger mode: 1
Integration Time (sec): 1.000000E-1
Scans to average: 1
Electric dark correction enabled: true
Nonlinearity correction enabled: false
Boxcar width: 0
XAxis mode: Wavelengths
Number of Pixels in Spectrum: 2048
>>>>>Begin Spectral Data<<<<<
223.165	-19.81
223.4	-19.81
223.635	-19.81
223.869	-4.81
224.104	-16.81
224.338	-13.81
224.573	-19.81
224.808	-12.81
225.042	-4.81
225.277	-4.81
225.511	-1.81
225.746	6.19
225.98	3.19
226.215	6.19
226.449	1.19
226.683	23.19
226.918	19.19
227.152	40.19
227.387	35.19
227.621	28.19
227.856	45.19
228.09	41.19
228.324	45.19
228.559	66.19
228.793	72.19
229.027	101.19
229.262	89.19
229.496	115.19
229.73	128.19
229.964	139.19
230.199	122.19
230.433	102.19
230.667	115.19
230.901	115.19
231.136	102.19
231.37	124.19
231.604	99.19
231.838	98.19
232.072	122.19
232.306	115.19
232.541	105.19
232.775	107.19
233.009	105.19
233.243	97.19
233.477	115.19
233.711	106.19
233.945	104.19
234.179	116.19
234.413	127.19
234.647	113.19
234.881	115.19
235.115	117.19
235.349	114.19
235.583	122.19
235.817	109.19
236.051	133.19
236.285	123.19
236.519	118.19
236.753	127.19
236.987	136.19
237.221	157.19
237.455	215.19
237.689	186.19
237.922	142.19
238.156	121.19
238.39	122.19
238.624	122.19
238.858	136.19
239.091	121.19
239.325	122.19
239.559	120.19
239.793	124.19
240.027	126.19
240.26	139.19
240.494	146.19
240.728	131.19
240.961	129.19
241.195	147.19
241.429	131.19
241.662	107.19
241.896	128.19
242.13	109.19
242.363	127.19
242.597	119.19
242.83	136.19
243.064	129.19
243.298	142.19
243.531	134.19
243.765	144.19
243.998	128.19
244.232	139.19
244.465	133.19
244.699	142.19
244.932	127.19
245.166	141.19
245.399	130.19
245.633	156.19
245.866	148.19
246.099	151.19
246.333	137.19
246.566	139.19
246.8	154.19
247.033	139.19
247.266	145.19
247.5	148.19
247.733	151.19
247.966	162.19
248.2	151.19
248.433	135.19
248.666	159.19
248.899	161.19
249.133	186.19
249.366	191.19
249.599	185.19
249.832	168.19
250.066	163.19
250.299	176.19
250.532	194.19
250.765	209.19
250.998	223.19
251.231	229.19
251.465	186.19
251.698	186.19
251.931	179.19
252.164	200.19
252.397	179.19
252.63	183.19
252.863	188.19
253.096	219.19
253.329	224.19
253.562	202.19
253.795	193.19
254.028	202.19
254.261	207.19
254.494	212.19
254.727	239.19
254.96	253.19
255.193	234.19
255.426	231.19
255.659	209.19
255.892	226.19
256.124	256.19
256.357	250.19
256.59	209.19
256.823	230.19
257.056	209.19
257.289	219.19
257.521	208.19
257.754	216.19
257.987	198.19
258.22	208.19
258.452	173.19
258.685	194.19
258.918	209.19
259.151	229.19
259.383	205.19
259.616	196.19
259.849	215.19
260.081	216.19
260.314	232.19
260.547	237.19
260.779	225.19
261.012	222.19
261.244	216.19
261.477	208.19
261.71	226.19
261.942	215.19
262.175	214.19
262.407	228.19
262.64	211.19
262.872	195.19
263.105	205.19
263.337	219.19
263.57	201.19
263.802	197.19
264.035	203.19
264.267	215.19
264.499	198.19
264.732	197.19
264.964	208.19
265.197	187.19
265.429	198.19
265.661	188.19
265.894	210.19
266.126	215.19
266.358	197.19
266.591	209.19
266.823	219.19
267.055	206.19
267.287	212.19
267.52	208.19
267.752	216.19
267.984	207.19
268.216	233.19
268.448	227.19
268.681	218.19
268.913	227.19
269.145	241.19
269.377	252.19
269.609	255.19
269.841	257.19
270.073	248.19
270.306	252.19
270.538	289.19
270.77	305.19
271.002	277.19
271.234	280.19
271.466	272.19
271.698	309.19
271.93	285.19
272.162	303.19
272.394	300.19
272.626	284.19
272.858	268.19
273.09	250.19
273.322	261.19
273.553	243.19
273.785	244.19
274.017	257.19
274.249	244.19
274.481	255.19
274.713	237.19
274.945	251.19
275.176	243.19
275.408	259.19
275.64	256.19
275.872	248.19
276.104	250.19
276.335	257.19
276.567	268.19
276.799	285.19
277.031	284.19
277.262	307.19
277.494	298.19
277.726	289.19
277.957	268.19
278.189	258.19
278.421	253.19
278.652	258.19
278.884	249.19
279.115	244.19
279.347	258.19
279.579	263.19
279.81	258.19
280.042	235.19
280.273	243.19
280.505	272.19
280.736	239.19
280.968	256.19
281.199	259.19
281.431	246.19
281.662	236.19
281.894	224.19
282.125	267.19
282.356	272.19
282.588	283.19
282.819	285.19
283.051	253.19
283.282	272.19
283.513	267.19
283.745	265.19
283.976	250.19
284.207	275.19
284.439	271.19
284.67	273.19
284.901	243.19
285.132	237.19
285.364	249.19
285.595	256.19
285.826	255.19
286.057	258.19
286.288	250.19
286.52	276.19
286.751	253.19
286.982	253.19
287.213	255.19
287.444	280.19
287.675	250.19
287.906	271.19
288.138	295.19
288.369	264.19
288.6	295.19
288.831	284.19
289.062	281.19
289.293	277.19
289.524	264.19
289.755	275.19
289.986	263.19
290.217	263.19
290.448	271.19
290.679	272.19
290.91	281.19
291.141	278.19
291.371	261.19
291.602	279.19
291.833	256.19
292.064	275.19
292.295	269.19
292.526	263.19
292.757	256.19
292.987	261.19
293.218	258.19
293.449	280.19
293.68	266.19
293.91	269.19
294.141	289.19
294.372	260.19
294.603	264.19
294.833	284.19
295.064	263.19
295.295	279.19
295.525	277.19
295.756	294.19
295.987	299.19
296.217	292.19
296.448	319.19
296.679	279.19
296.909	267.19
297.14	265.19
297.37	263.19
297.601	274.19
297.831	279.19
298.062	283.19
298.292	280.19
298.523	293.19
298.753	281.19
298.984	279.19
299.214	279.19
299.445	269.19
299.675	277.19
299.905	289.19
300.136	277.19
300.366	271.19
300.597	297.19
300.827	297.19
301.057	301.19
301.288	290.19
301.518	305.19
301.748	300.19
301.979	295.19
302.209	296.19
302.439	301.19
302.669	289.19
302.9	296.19
303.13	309.19
303.36	296.19
303.59	296.19
303.82	313.19
304.051	315.19
304.281	307.19
304.511	325.19
304.741	293.19
304.971	288.19
305.201	320.19
305.431	289.19
305.661	286.19
305.891	296.19
306.121	307.19
306.352	306.19
306.582	314.19
306.812	306.19
307.042	308.19
307.272	316.19
307.502	301.19
307.731	308.19
307.961	312.19
308.191	314.19
308.421	307.19
308.651	324.19
308.881	321.19
309.111	313.19
309.341	335.19
309.571	339.19
309.8	331.19
310.03	339.19
310.26	337.19
310.49	347.19
310.72	356.19
310.949	384.19
311.179	364.19
311.409	360.19
311.639	369.19
311.868	340.19
312.098	356.19
312.328	359.19
312.557	355.19
312.787	380.19
313.017	377.19
313.246	370.19
313.476	349.19
313.706	351.19
313.935	346.19
314.165	362.19
314.394	378.19
314.624	374.19
314.853	361.19
315.083	348.19
315.312	348.19
315.542	348.19
315.771	361.19
316.001	346.19
316.23	357.19
316.46	370.19
316.689	344.19
316.919	363.19
317.148	349.19
317.377	365.19
317.607	362.19
317.836	360.19
318.065	351.19
318.295	347.19
318.524	366.19
318.753	356.19
318.983	350.19
319.212	356.19
319.441	357.19
319.67	355.19
319.9	357.19
320.129	373.19
320.358	341.19
320.587	352.19
320.816	364.19
321.046	352.19
321.275	369.19
321.504	371.19
321.733	371.19
321.962	369.19
322.191	396.19
322.42	412.19
322.649	427.19
322.878	424.19
323.108	423.19
323.337	460.19
323.566	492.19
323.795	508.19
324.024	545.19
324.253	687.19
324.482	1033.19
324.71	1562.19
324.939	2039.19
325.168	1706.19
325.397	943.19
325.626	608.19
325.855	512.19
326.084	493.19
326.313	483.19
326.542	500.19
326.77	534.19
326.999	653.19
327.228	891.19
327.457	1302.19
327.686	1539.19
327.914	1024.19
328.143	704.19
328.372	624.19
328.6	560.19
328.829	538.19
329.058	583.19
329.287	559.19
329.515	543.19
329.744	509.19
329.972	496.19
330.201	555.19
330.43	593.19
330.658	621.19
330.887	620.19
331.115	578.19
331.344	520.19
331.572	457.19
331.801	481.19
332.03	457.19
332.258	440.19
332.486	435.19
332.715	441.19
332.943	437.19
333.172	415.19
333.4	437.19
333.629	451.19
333.857	473.19
334.085	469.19
334.314	514.19
334.542	581.19
334.771	571.19
334.999	492.19
335.227	455.19
335.455	433.19
335.684	434.19
335.912	423.19
336.14	442.19
336.369	425.19
336.597	411.19
336.825	434.19
337.053	425.19
337.281	408.19
337.51	404.19
337.738	389.19
337.966	409.19
338.194	397.19
338.422	405.19
338.65	405.19
338.878	407.19
339.106	390.19
339.334	389.19
339.562	402.19
339.79	395.19
340.018	397.19
340.246	384.19
340.474	425.19
340.702	379.19
340.93	402.19
341.158	398.19
341.386	415.19
341.614	387.19
341.842	388.19
342.07	380.19
342.298	391.19
342.526	380.19
342.754	360.19
342.981	367.19
343.209	367.19
343.437	373.19
343.665	393.19
343.893	402.19
344.12	390.19
344.348	385.19
344.576	419.19
344.804	422.19
345.031	402.19
345.259	402.19
345.487	413.19
345.714	406.19
345.942	381.19
346.17	382.19
346.397	379.19
346.625	383.19
346.853	387.19
347.08	390.19
347.308	399.19
347.535	401.19
347.763	402.19
347.99	399.19
348.218	388.19
348.445	379.19
348.673	391.19
348.9	377.19
349.128	370.19
349.355	363.19
349.583	369.19
349.81	359.19
350.037	385.19
350.265	368.19
350.492	362.19
350.72	354.19
350.947	367.19
351.174	375.19
351.402	406.19
351.629	410.19
351.856	396.19
352.083	403.19
352.311	406.19
352.538	404.19
352.765	402.19
352.992	391.19
353.22	361.19
353.447	374.19
353.674	358.19
353.901	378.19
354.128	377.19
354.355	358.19
354.583	355.19
354.81	354.19
355.037	334.19
355.264	357.19
355.491	352.19
355.718	340.19
355.945	335.19
356.172	347.19
356.399	336.19
356.626	358.19
356.853	359.19
357.08	351.19
357.307	347.19
357.534	351.19
357.761	352.19
357.988	357.19
358.215	362.19
358.441	338.19
358.668	345.19
358.895	348.19
359.122	342.19
359.349	383.19
359.576	381.19
359.802	417.19
360.029	440.19
360.256	423.19
360.483	417.19
360.709	393.19
360.936	381.19
361.163	392.19
361.39	367.19
361.616	383.19
361.843	388.19
362.07	376.19
362.296	398.19
362.523	363.19
362.749	365.19
362.976	383.19
363.203	385.19
363.429	366.19
363.656	372.19
363.882	343.19
364.109	365.19
364.335	351.19
364.562	353.19
364.788	368.19
365.015	369.19
365.241	359.19
365.468	367.19
365.694	362.19
365.92	375.19
366.147	370.19
366.373	373.19
366.599	369.19
366.826	358.19
367.052	364.19
367.278	349.19
367.505	367.19
367.731	363.19
367.957	342.19
368.184	357.19
368.41	370.19
368.636	379.19
368.862	374.19
369.089	362.19
369.315	367.19
369.541	357.19
369.767	367.19
369.993	351.19
370.219	340.19
370.445	346.19
370.672	353.19
370.898	356.19
371.124	362.19
371.35	352.19
371.576	358.19
371.802	371.19
372.028	360.19
372.254	353.19
372.48	353.19
372.706	356.19
372.932	335.19
373.158	344.19
373.384	346.19
373.61	347.19
373.835	346.19
374.061	348.19
374.287	358.19
374.513	373.19
374.739	371.19
374.965	364.19
375.191	365.19
375.416	371.19
375.642	352.19
375.868	367.19
376.094	355.19
376.319	340.19
376.545	367.19
376.771	352.19
376.997	348.19
377.222	371.19
377.448	365.19
377.674	357.19
377.899	339.19
378.125	346.19
378.35	343.19
378.576	352.19
378.802	346.19
379.027	347.19
379.253	351.19
379.478	321.19
379.704	352.19
379.929	347.19
380.155	336.19
380.38	347.19
380.606	346.19
380.831	353.19
381.057	376.19
381.282	367.19
381.507	362.19
381.733	357.19
381.958	338.19
382.184	363.19
382.409	361.19
382.634	345.19
382.86	362.19
383.085	353.19
383.31	348.19
383.535	355.19
383.761	375.19
383.986	359.19
384.211	367.19
384.436	348.19
384.662	372.19
384.887	368.19
385.112	367.19
385.337	372.19
385.562	373.19
385.787	371.19
386.013	402.19
386.238	375.19
386.463	378.19
386.688	380.19
386.913	394.19
387.138	372.19
387.363	374.19
387.588	371.19
387.813	380.19
388.038	366.19
388.263	379.19
388.488	377.19
388.713	363.19
388.938	379.19
389.163	374.19
389.387	387.19
389.612	369.19
389.837	360.19
390.062	378.19
390.287	377.19
390.512	360.19
390.736	365.19
390.961	374.19
391.186	389.19
391.411	373.19
391.636	368.19
391.86	391.19
392.085	388.19
392.31	388.19
392.534	395.19
392.759	384.19
392.984	371.19
393.208	383.19
393.433	365.19
393.658	379.19
393.882	387.19
394.107	361.19
394.331	395.19
394.556	380.19
394.78	365.19
395.005	387.19
395.229	385.19
395.454	384.19
395.678	388.19
395.903	392.19
396.127	422.19
396.352	410.19
396.576	385.19
396.801	377.19
397.025	389.19
397.249	392.19
397.474	393.19
397.698	390.19
397.922	404.19
398.147	407.19
398.371	428.19
398.595	411.19
398.82	421.19
399.044	412.19
399.268	448.19
399.492	463.19
399.717	474.19
399.941	481.19
400.165	533.19
400.389	507.19
400.613	471.19
400.837	450.19
401.062	420.19
401.286	439.19
401.51	439.19
401.734	418.19
401.958	437.19
402.182	444.19
402.406	449.19
402.63	426.19
402.854	449.19
403.078	433.19
403.302	414.19
403.526	432.19
403.75	451.19
403.974	454.19
404.198	442.19
404.422	464.19
404.645	480.19
404.869	457.19
405.093	468.19
405.317	547.19
405.541	548.19
405.765	516.19
405.988	473.19
406.212	479.19
406.436	501.19
406.66	515.19
406.883	493.19
407.107	504.19
407.331	527.19
407.555	597.19
407.778	564.19
408.002	523.19
408.226	487.19
408.449	475.19
408.673	479.19
408.896	495.19
409.12	522.19
409.344	516.19
409.567	468.19
409.791	462.19
410.014	438.19
410.238	429.19
410.461	448.19
410.685	447.19
410.908	467.19
411.132	474.19
411.355	523.19
411.578	485.19
411.802	464.19
412.025	436.19
412.249	457.19
412.472	481.19
412.695	503.19
412.919	506.19
413.142	474.19
413.365	457.19
413.589	445.19
413.812	440.19
414.035	439.19
414.258	420.19
414.482	440.19
414.705	421.19
414.928	437.19
415.151	427.19
415.374	417.19
415.597	424.19
415.821	419.19
416.044	409.19
416.267	435.19
416.49	410.19
416.713	402.19
416.936	437.19
417.159	428.19
417.382	433.19
417.605	419.19
417.828	435.19
418.051	452.19
418.274	449.19
418.497	429.19
418.72	416.19
418.943	428.19
419.166	450.19
419.389	448.19
419.611	442.19
419.834	431.19
420.057	453.19
420.28	469.19
420.503	473.19
420.726	439.19
420.948	448.19
421.171	476.19
421.394	509.19
421.617	449.19
421.839	439.19
422.062	443.19
422.285	466.19
422.507	489.19
422.73	551.19
422.953	507.19
423.175	483.19
423.398	481.19
423.621	471.19
423.843	455.19
424.066	460.19
424.288	464.19
424.511	458.19
424.733	522.19
424.956	589.19
425.178	554.19
425.401	577.19
425.623	556.19
425.846	506.19
426.068	488.19
426.291	469.19
426.513	464.19
426.735	474.19
426.958	514.19
427.18	587.19
427.402	681.19
427.625	721.19
427.847	653.19
428.069	596.19
428.292	531.19
428.514	466.19
428.736	451.19
428.958	450.19
429.181	426.19
429.403	441.19
429.625	425.19
429.847	460.19
430.069	538.19
430.292	512.19
430.514	490.19
430.736	431.19
430.958	429.19
431.18	410.19
431.402	420.19
431.624	423.19
431.846	405.19
432.068	412.19
432.29	437.19
432.512	416.19
432.734	419.19
432.956	434.19
433.178	426.19
433.4	427.19
433.622	417.19
433.844	409.19
434.066	413.19
434.287	407.19
434.509	401.19
434.731	425.19
434.953	438.19
435.175	437.19
435.397	459.19
435.618	499.19
435.84	499.19
436.062	604.19
436.284	603.19
436.505	540.19
436.727	481.19
436.949	461.19
437.17	459.19
437.392	458.19
437.614	448.19
437.835	488.19
438.057	569.19
438.278	631.19
438.5	639.19
438.721	672.19
438.943	647.19
439.165	537.19
439.386	495.19
439.608	478.19
439.829	464.19
440.05	531.19
440.272	530.19
440.493	529.19
440.715	483.19
440.936	449.19
441.158	444.19
441.379	454.19
441.6	452.19
441.822	473.19
442.043	520.19
442.264	580.19
442.486	604.19
442.707	537.19
442.928	503.19
443.149	481.19
443.371	516.19
443.592	547.19
443.813	622.19
444.034	670.19
444.255	555.19
444.476	509.19
444.698	464.19
444.919	477.19
445.14	569.19
445.361	522.19
445.582	503.19
445.803	573.19
446.024	654.19
446.245	643.19
446.466	577.19
446.687	515.19
446.908	472.19
447.129	443.19
447.35	446.19
447.571	444.19
447.792	450.19
448.013	440.19
448.234	466.19
448.455	514.19
448.675	583.19
448.896	675.19
449.117	594.19
449.338	550.19
449.559	631.19
449.779	705.19
450	572.19
450.221	488.19
450.442	454.19
450.662	438.19
450.883	434.19
451.104	461.19
451.324	450.19
451.545	428.19
451.766	422.19
451.986	412.19
452.207	401.19
452.428	382.19
452.648	397.19
452.869	391.19
453.089	404.19
453.31	407.19
453.53	428.19
453.751	395.19
453.971	404.19
454.192	428.19
454.412	426.19
454.633	413.19
454.853	407.19
455.073	401.19
455.294	428.19
455.514	474.19
455.734	456.19
455.955	399.19
456.175	363.19
456.395	372.19
456.616	377.19
456.836	388.19
457.056	381.19
457.276	358.19
457.497	359.19
457.717	392.19
457.937	369.19
458.157	391.19
458.377	395.19
458.598	398.19
458.818	495.19
459.038	525.19
459.258	545.19
459.478	444.19
459.698	433.19
459.918	410.19
460.138	405.19
460.358	425.19
460.578	410.19
460.798	426.19
461.018	412.19
461.238	417.19
461.458	409.19
461.678	409.19
461.898	415.19
462.118	406.19
462.338	420.19
462.558	420.19
462.777	420.19
462.997	459.19
463.217	460.19
463.437	451.19
463.657	439.19
463.876	414.19
464.096	425.19
464.316	415.19
464.536	464.19
464.755	459.19
464.975	455.19
465.195	500.19
465.414	590.19
465.634	484.19
465.854	458.19
466.073	452.19
466.293	420.19
466.512	421.19
466.732	401.19
466.951	401.19
467.171	390.19
467.391	392.19
467.61	426.19
467.829	408.19
468.049	446.19
468.268	441.19
468.488	405.19
468.707	378.19
468.927	415.19
469.146	409.19
469.365	399.19
469.585	409.19
469.804	422.19
470.023	401.19
470.243	428.19
470.462	442.19
470.681	424.19
470.901	435.19
471.12	428.19
471.339	401.19
471.558	416.19
471.777	404.19
471.997	442.19
472.216	435.19
472.435	491.19
472.654	459.19
472.873	414.19
473.092	422.19
473.311	421.19
473.53	432.19
473.749	417.19
473.968	472.19
474.187	548.19
474.406	540.19
474.625	441.19
474.844	437.19
475.063	409.19
475.282	415.19
475.501	415.19
475.72	433.19
475.939	415.19
476.158	443.19
476.377	423.19
476.596	410.19
476.814	439.19
477.033	449.19
477.252	446.19
477.471	441.19
477.69	449.19
477.908	420.19
478.127	450.19
478.346	451.19
478.564	437.19
478.783	453.19
479.002	462.19
479.22	474.19
479.439	481.19
479.658	503.19
479.876	487.19
480.095	526.19
480.313	507.19
480.532	490.19
480.751	506.19
480.969	498.19
481.188	605.19
481.406	684.19
481.624	538.19
481.843	525.19
482.061	495.19
482.28	514.19
482.498	506.19
482.717	491.19
482.935	493.19
483.153	479.19
483.372	480.19
483.59	489.19
483.808	477.19
484.027	485.19
484.245	472.19
484.463	478.19
484.681	517.19
484.9	480.19
485.118	512.19
485.336	494.19
485.554	498.19
485.772	495.19
485.99	498.19
486.209	516.19
486.427	495.19
486.645	518.19
486.863	541.19
487.081	545.19
487.299	537.19
487.517	512.19
487.735	496.19
487.953	513.19
488.171	524.19
488.389	528.19
488.607	526.19
488.825	510.19
489.043	511.19
489.261	511.19
489.479	531.19
489.696	532.19
489.914	521.19
490.132	532.19
490.35	563.19
490.568	552.19
490.786	543.19
491.003	567.19
491.221	587.19
491.439	577.19
491.657	590.19
491.874	613.19
492.092	615.19
492.31	630.19
492.527	625.19
492.745	641.19
492.963	616.19
493.18	617.19
493.398	619.19
493.615	635.19
493.833	654.19
494.05	626.19
494.268	622.19
494.485	627.19
494.703	629.19
494.92	644.19
495.138	626.19
495.355	628.19
495.573	611.19
495.79	638.19
496.008	625.19
496.225	634.19
496.442	627.19
496.66	630.19
496.877	632.19
497.094	628.19
497.312	621.19
497.529	623.19
497.746	649.19
497.963	651.19
498.181	659.19
498.398	665.19
498.615	668.19
498.832	672.19
499.049	667.19
499.267	683.19
499.484	695.19
499.701	738.19
499.918	740.19
500.135	747.19
500.352	816.19
500.569	809.19
500.786	793.19
501.003	802.19
501.22	801.19
501.437	761.19
501.654	727.19
501.871	758.19
502.088	755.19
