Data from 1983.PennyLincolnUp.Lamp.En5.5.200Scan.071819.P1_HRD10591_16-54-47-965.txt Node
Date: Thu Jul 18 16:54:47 EDT 2019
User: cochatt
Spectrometer: HR+D1059
Trigger mode: 1
Integration Time (sec): 1.000000E-1
Scans to average: 1
Electric dark correction enabled: true
Nonlinearity correction enabled: false
Boxcar width: 0
XAxis mode: Wavelengths
Number of Pixels in Spectrum: 2048
>>>>>Begin Spectral Data<<<<<
223.165	-21.19
223.4	-21.19
223.635	-21.19
223.869	-21.19
224.104	-9.19
224.338	-21.19
224.573	-14.19
224.808	-13.19
225.042	-14.19
225.277	-6.19
225.511	10.81
225.746	6.81
225.98	21.81
226.215	12.81
226.449	6.81
226.683	20.81
226.918	12.81
227.152	27.81
227.387	35.81
227.621	41.81
227.856	39.81
228.09	36.81
228.324	45.81
228.559	49.81
228.793	58.81
229.027	84.81
229.262	105.81
229.496	112.81
229.73	124.81
229.964	141.81
230.199	124.81
230.433	120.81
230.667	108.81
230.901	114.81
231.136	112.81
231.37	116.81
231.604	101.81
231.838	99.81
232.072	108.81
232.306	102.81
232.541	103.81
232.775	117.81
233.009	110.81
233.243	105.81
233.477	110.81
233.711	96.81
233.945	112.81
234.179	111.81
234.413	119.81
234.647	110.81
234.881	114.81
235.115	112.81
235.349	105.81
235.583	101.81
235.817	104.81
236.051	117.81
236.285	126.81
236.519	121.81
236.753	109.81
236.987	134.81
237.221	166.81
237.455	210.81
237.689	153.81
237.922	119.81
238.156	125.81
238.39	133.81
238.624	127.81
238.858	116.81
239.091	106.81
239.325	128.81
239.559	118.81
239.793	109.81
240.027	130.81
240.26	133.81
240.494	136.81
240.728	121.81
240.961	150.81
241.195	150.81
241.429	132.81
241.662	112.81
241.896	130.81
242.13	122.81
242.363	122.81
242.597	133.81
242.83	134.81
243.064	125.81
243.298	134.81
243.531	120.81
243.765	138.81
243.998	134.81
244.232	146.81
244.465	119.81
244.699	132.81
244.932	143.81
245.166	138.81
245.399	137.81
245.633	146.81
245.866	131.81
246.099	146.81
246.333	129.81
246.566	150.81
246.8	139.81
247.033	140.81
247.266	136.81
247.5	148.81
247.733	167.81
247.966	156.81
248.2	162.81
248.433	156.81
248.666	161.81
248.899	167.81
249.133	190.81
249.366	196.81
249.599	189.81
249.832	169.81
250.066	170.81
250.299	176.81
250.532	193.81
250.765	190.81
250.998	195.81
251.231	198.81
251.465	202.81
251.698	170.81
251.931	176.81
252.164	187.81
252.397	180.81
252.63	171.81
252.863	199.81
253.096	208.81
253.329	206.81
253.562	198.81
253.795	192.81
254.028	197.81
254.261	193.81
254.494	206.81
254.727	231.81
254.96	272.81
255.193	259.81
255.426	233.81
255.659	217.81
255.892	214.81
256.124	219.81
256.357	214.81
256.59	216.81
256.823	203.81
257.056	220.81
257.289	212.81
257.521	206.81
257.754	193.81
257.987	195.81
258.22	184.81
258.452	189.81
258.685	198.81
258.918	202.81
259.151	195.81
259.383	202.81
259.616	212.81
259.849	218.81
260.081	224.81
260.314	227.81
260.547	242.81
260.779	216.81
261.012	208.81
261.244	218.81
261.477	211.81
261.71	201.81
261.942	229.81
262.175	226.81
262.407	219.81
262.64	206.81
262.872	201.81
263.105	201.81
263.337	190.81
263.57	209.81
263.802	185.81
264.035	202.81
264.267	181.81
264.499	195.81
264.732	198.81
264.964	185.81
265.197	201.81
265.429	213.81
265.661	205.81
265.894	196.81
266.126	197.81
266.358	219.81
266.591	205.81
266.823	214.81
267.055	210.81
267.287	203.81
267.52	211.81
267.752	221.81
267.984	218.81
268.216	219.81
268.448	225.81
268.681	204.81
268.913	233.81
269.145	244.81
269.377	262.81
269.609	250.81
269.841	256.81
270.073	248.81
270.306	262.81
270.538	288.81
270.77	288.81
271.002	281.81
271.234	264.81
271.466	267.81
271.698	299.81
271.93	283.81
272.162	309.81
272.394	294.81
272.626	291.81
272.858	257.81
273.09	259.81
273.322	246.81
273.553	254.81
273.785	238.81
274.017	237.81
274.249	263.81
274.481	254.81
274.713	227.81
274.945	235.81
275.176	260.81
275.408	247.81
275.64	242.81
275.872	247.81
276.104	250.81
276.335	247.81
276.567	254.81
276.799	274.81
277.031	295.81
277.262	320.81
277.494	297.81
277.726	276.81
277.957	269.81
278.189	262.81
278.421	243.81
278.652	256.81
278.884	242.81
279.115	260.81
279.347	241.81
279.579	244.81
279.81	268.81
280.042	246.81
280.273	258.81
280.505	256.81
280.736	246.81
280.968	257.81
281.199	249.81
281.431	236.81
281.662	250.81
281.894	242.81
282.125	270.81
282.356	265.81
282.588	273.81
282.819	280.81
283.051	254.81
283.282	247.81
283.513	261.81
283.745	274.81
283.976	268.81
284.207	266.81
284.439	244.81
284.67	254.81
284.901	240.81
285.132	249.81
285.364	258.81
285.595	251.81
285.826	257.81
286.057	270.81
286.288	265.81
286.52	242.81
286.751	264.81
286.982	265.81
287.213	254.81
287.444	272.81
287.675	277.81
287.906	258.81
288.138	275.81
288.369	283.81
288.6	286.81
288.831	292.81
289.062	265.81
289.293	274.81
289.524	263.81
289.755	266.81
289.986	262.81
290.217	264.81
290.448	255.81
290.679	252.81
290.91	254.81
291.141	260.81
291.371	261.81
291.602	274.81
291.833	275.81
292.064	263.81
292.295	264.81
292.526	254.81
292.757	284.81
292.987	246.81
293.218	253.81
293.449	267.81
293.68	260.81
293.91	276.81
294.141	285.81
294.372	268.81
294.603	280.81
294.833	276.81
295.064	252.81
295.295	266.81
295.525	256.81
295.756	274.81
295.987	287.81
296.217	309.81
296.448	294.81
296.679	286.81
296.909	270.81
297.14	272.81
297.37	282.81
297.601	264.81
297.831	261.81
298.062	276.81
298.292	272.81
298.523	278.81
298.753	275.81
298.984	297.81
299.214	277.81
299.445	274.81
299.675	284.81
299.905	280.81
300.136	277.81
300.366	286.81
300.597	278.81
300.827	301.81
301.057	298.81
301.288	304.81
301.518	300.81
301.748	290.81
301.979	306.81
302.209	292.81
302.439	292.81
302.669	314.81
302.9	310.81
303.13	299.81
303.36	309.81
303.59	313.81
303.82	305.81
304.051	326.81
304.281	322.81
304.511	301.81
304.741	309.81
304.971	286.81
305.201	313.81
305.431	308.81
305.661	306.81
305.891	299.81
306.121	314.81
306.352	314.81
306.582	296.81
306.812	293.81
307.042	297.81
307.272	300.81
307.502	322.81
307.731	305.81
307.961	314.81
308.191	290.81
308.421	307.81
308.651	318.81
308.881	332.81
309.111	327.81
309.341	293.81
309.571	322.81
309.8	330.81
310.03	345.81
310.26	331.81
310.49	349.81
310.72	358.81
310.949	377.81
311.179	372.81
311.409	367.81
311.639	348.81
311.868	344.81
312.098	352.81
312.328	357.81
312.557	370.81
312.787	384.81
313.017	364.81
313.246	360.81
313.476	365.81
313.706	339.81
313.935	372.81
314.165	368.81
314.394	364.81
314.624	351.81
314.853	362.81
315.083	342.81
315.312	357.81
315.542	337.81
315.771	318.81
316.001	343.81
316.23	330.81
316.46	338.81
316.689	344.81
316.919	349.81
317.148	350.81
317.377	359.81
317.607	365.81
317.836	354.81
318.065	349.81
318.295	336.81
318.524	353.81
318.753	337.81
318.983	345.81
319.212	348.81
319.441	364.81
319.67	378.81
319.9	349.81
320.129	354.81
320.358	355.81
320.587	350.81
320.816	375.81
321.046	354.81
321.275	372.81
321.504	376.81
321.733	377.81
321.962	396.81
322.191	394.81
322.42	407.81
322.649	440.81
322.878	428.81
323.108	449.81
323.337	442.81
323.566	491.81
323.795	516.81
324.024	558.81
324.253	675.81
324.482	1009.81
324.71	1495.81
324.939	2017.81
325.168	1694.81
325.397	894.81
325.626	615.81
325.855	522.81
326.084	480.81
326.313	483.81
326.542	472.81
326.77	521.81
326.999	656.81
327.228	882.81
327.457	1315.81
327.686	1474.81
327.914	1010.81
328.143	686.81
328.372	611.81
328.6	575.81
328.829	552.81
329.058	552.81
329.287	558.81
329.515	530.81
329.744	481.81
329.972	470.81
330.201	541.81
330.43	548.81
330.658	562.81
330.887	602.81
331.115	555.81
331.344	479.81
331.572	448.81
331.801	459.81
332.03	467.81
332.258	442.81
332.486	433.81
332.715	399.81
332.943	428.81
333.172	421.81
333.4	412.81
333.629	422.81
333.857	440.81
334.085	469.81
334.314	489.81
334.542	535.81
334.771	522.81
334.999	496.81
335.227	448.81
335.455	434.81
335.684	441.81
335.912	440.81
336.14	393.81
336.369	405.81
336.597	431.81
336.825	399.81
337.053	427.81
337.281	409.81
337.51	395.81
337.738	402.81
337.966	392.81
338.194	414.81
338.422	383.81
338.65	406.81
338.878	395.81
339.106	384.81
339.334	384.81
339.562	372.81
339.79	377.81
340.018	389.81
340.246	407.81
340.474	394.81
340.702	393.81
340.93	393.81
341.158	382.81
341.386	382.81
341.614	390.81
341.842	398.81
342.07	386.81
342.298	362.81
342.526	376.81
342.754	384.81
342.981	356.81
343.209	363.81
343.437	386.81
343.665	401.81
343.893	392.81
344.12	396.81
344.348	403.81
344.576	372.81
344.804	398.81
345.031	413.81
345.259	406.81
345.487	391.81
345.714	388.81
345.942	373.81
346.17	394.81
346.397	373.81
346.625	361.81
346.853	375.81
347.08	392.81
347.308	377.81
347.535	400.81
347.763	407.81
347.99	382.81
348.218	388.81
348.445	397.81
348.673	390.81
348.9	398.81
349.128	377.81
349.355	339.81
349.583	352.81
349.81	361.81
350.037	363.81
350.265	365.81
350.492	385.81
350.72	356.81
350.947	378.81
351.174	378.81
351.402	374.81
351.629	375.81
351.856	364.81
352.083	396.81
352.311	404.81
352.538	408.81
352.765	397.81
352.992	406.81
353.22	384.81
353.447	379.81
353.674	352.81
353.901	363.81
354.128	354.81
354.355	378.81
354.583	365.81
354.81	370.81
355.037	344.81
355.264	340.81
355.491	343.81
355.718	343.81
355.945	345.81
356.172	339.81
356.399	348.81
356.626	376.81
356.853	351.81
357.08	349.81
357.307	344.81
357.534	355.81
357.761	380.81
357.988	355.81
358.215	359.81
358.441	350.81
358.668	344.81
358.895	348.81
359.122	361.81
359.349	365.81
359.576	369.81
359.802	426.81
360.029	446.81
360.256	470.81
360.483	408.81
360.709	386.81
360.936	361.81
361.163	374.81
361.39	392.81
361.616	406.81
361.843	377.81
362.07	369.81
362.296	383.81
362.523	362.81
362.749	359.81
362.976	388.81
363.203	376.81
363.429	360.81
363.656	375.81
363.882	374.81
364.109	345.81
364.335	365.81
364.562	369.81
364.788	352.81
365.015	316.81
365.241	349.81
365.468	371.81
365.694	374.81
365.92	365.81
366.147	357.81
366.373	365.81
366.599	358.81
366.826	341.81
367.052	359.81
367.278	343.81
367.505	346.81
367.731	362.81
367.957	369.81
368.184	368.81
368.41	375.81
368.636	370.81
368.862	401.81
369.089	353.81
369.315	366.81
369.541	373.81
369.767	353.81
369.993	344.81
370.219	346.81
370.445	342.81
370.672	360.81
370.898	371.81
371.124	356.81
371.35	346.81
371.576	349.81
371.802	347.81
372.028	340.81
372.254	371.81
372.48	362.81
372.706	347.81
372.932	353.81
373.158	368.81
373.384	354.81
373.61	346.81
373.835	357.81
374.061	343.81
374.287	361.81
374.513	353.81
374.739	355.81
374.965	358.81
375.191	357.81
375.416	361.81
375.642	355.81
375.868	346.81
376.094	348.81
376.319	339.81
376.545	340.81
376.771	355.81
376.997	353.81
377.222	342.81
377.448	368.81
377.674	361.81
377.899	338.81
378.125	362.81
378.35	347.81
378.576	348.81
378.802	340.81
379.027	355.81
379.253	348.81
379.478	337.81
379.704	332.81
379.929	349.81
380.155	360.81
380.38	342.81
380.606	364.81
380.831	348.81
381.057	372.81
381.282	352.81
381.507	342.81
381.733	336.81
381.958	347.81
382.184	355.81
382.409	353.81
382.634	351.81
382.86	345.81
383.085	347.81
383.31	348.81
383.535	360.81
383.761	369.81
383.986	354.81
384.211	358.81
384.436	347.81
384.662	363.81
384.887	361.81
385.112	371.81
385.337	378.81
385.562	374.81
385.787	358.81
386.013	367.81
386.238	382.81
386.463	392.81
386.688	377.81
386.913	363.81
387.138	364.81
387.363	391.81
387.588	384.81
387.813	376.81
388.038	384.81
388.263	369.81
388.488	371.81
388.713	372.81
388.938	378.81
389.163	366.81
389.387	388.81
389.612	381.81
389.837	362.81
390.062	371.81
390.287	384.81
390.512	373.81
390.736	369.81
390.961	373.81
391.186	371.81
391.411	361.81
391.636	373.81
391.86	386.81
392.085	390.81
392.31	387.81
392.534	381.81
392.759	391.81
392.984	367.81
393.208	385.81
393.433	378.81
393.658	374.81
393.882	366.81
394.107	379.81
394.331	376.81
394.556	374.81
394.78	376.81
395.005	372.81
395.229	390.81
395.454	383.81
395.678	383.81
395.903	386.81
396.127	412.81
396.352	409.81
396.576	399.81
396.801	389.81
397.025	388.81
397.249	373.81
397.474	393.81
397.698	416.81
397.922	404.81
398.147	436.81
398.371	400.81
398.595	414.81
398.82	393.81
399.044	423.81
399.268	422.81
399.492	440.81
399.717	485.81
399.941	484.81
400.165	514.81
400.389	525.81
400.613	470.81
400.837	452.81
401.062	440.81
401.286	432.81
401.51	422.81
401.734	423.81
401.958	419.81
402.182	412.81
402.406	425.81
402.63	439.81
402.854	441.81
403.078	436.81
403.302	429.81
403.526	448.81
403.75	444.81
403.974	436.81
404.198	437.81
404.422	438.81
404.645	449.81
404.869	442.81
405.093	467.81
405.317	506.81
405.541	519.81
405.765	494.81
405.988	475.81
406.212	486.81
406.436	497.81
406.66	498.81
406.883	493.81
407.107	498.81
407.331	502.81
407.555	577.81
407.778	574.81
408.002	531.81
408.226	493.81
408.449	462.81
408.673	481.81
408.896	502.81
409.12	501.81
409.344	505.81
409.567	460.81
409.791	446.81
410.014	447.81
410.238	450.81
410.461	441.81
410.685	438.81
410.908	462.81
411.132	461.81
411.355	492.81
411.578	484.81
411.802	452.81
412.025	464.81
412.249	454.81
412.472	467.81
412.695	493.81
412.919	486.81
413.142	451.81
413.365	442.81
413.589	423.81
413.812	443.81
414.035	418.81
414.258	434.81
414.482	414.81
414.705	424.81
414.928	398.81
415.151	409.81
415.374	425.81
415.597	412.81
415.821	403.81
416.044	412.81
416.267	418.81
416.49	399.81
416.713	406.81
416.936	417.81
417.159	402.81
417.382	432.81
417.605	413.81
417.828	408.81
418.051	439.81
418.274	426.81
418.497	409.81
418.72	410.81
418.943	421.81
419.166	437.81
419.389	444.81
419.611	453.81
419.834	456.81
420.057	437.81
420.28	439.81
420.503	420.81
420.726	452.81
420.948	440.81
421.171	487.81
421.394	513.81
421.617	441.81
421.839	429.81
422.062	445.81
422.285	472.81
422.507	488.81
422.73	547.81
422.953	536.81
423.175	462.81
423.398	436.81
423.621	435.81
423.843	480.81
424.066	465.81
424.288	476.81
424.511	476.81
424.733	517.81
424.956	595.81
425.178	556.81
425.401	576.81
425.623	563.81
425.846	486.81
426.068	448.81
426.291	455.81
426.513	467.81
426.735	472.81
426.958	498.81
427.18	550.81
427.402	653.81
427.625	714.81
427.847	641.81
428.069	577.81
428.292	515.81
428.514	469.81
428.736	480.81
428.958	441.81
429.181	434.81
429.403	459.81
429.625	444.81
429.847	466.81
430.069	536.81
430.292	507.81
430.514	436.81
430.736	439.81
430.958	430.81
431.18	425.81
431.402	398.81
431.624	378.81
431.846	416.81
432.068	393.81
432.29	411.81
432.512	413.81
432.734	411.81
432.956	420.81
433.178	428.81
433.4	428.81
433.622	411.81
433.844	414.81
434.066	389.81
434.287	423.81
434.509	418.81
434.731	414.81
434.953	427.81
435.175	439.81
435.397	456.81
435.618	472.81
435.84	491.81
436.062	568.81
436.284	617.81
436.505	530.81
436.727	479.81
436.949	439.81
437.17	444.81
437.392	425.81
437.614	466.81
437.835	478.81
438.057	573.81
438.278	631.81
438.5	640.81
438.721	681.81
438.943	640.81
439.165	530.81
439.386	484.81
439.608	472.81
439.829	466.81
440.05	501.81
440.272	534.81
440.493	501.81
440.715	465.81
440.936	460.81
441.158	441.81
441.379	447.81
441.6	477.81
441.822	480.81
442.043	504.81
442.264	568.81
442.486	584.81
442.707	517.81
442.928	476.81
443.149	493.81
443.371	513.81
443.592	547.81
443.813	626.81
444.034	637.81
444.255	539.81
444.476	483.81
444.698	458.81
444.919	468.81
445.14	584.81
445.361	545.81
445.582	502.81
445.803	548.81
446.024	656.81
446.245	637.81
446.466	570.81
446.687	518.81
446.908	467.81
447.129	436.81
447.35	426.81
447.571	434.81
447.792	427.81
448.013	445.81
448.234	455.81
448.455	500.81
448.675	599.81
448.896	652.81
449.117	547.81
449.338	530.81
449.559	648.81
449.779	708.81
450	573.81
450.221	486.81
450.442	449.81
450.662	431.81
450.883	422.81
451.104	468.81
451.324	446.81
451.545	395.81
451.766	421.81
451.986	401.81
452.207	384.81
452.428	404.81
452.648	409.81
452.869	402.81
453.089	414.81
453.31	391.81
453.53	406.81
453.751	412.81
453.971	410.81
454.192	423.81
454.412	408.81
454.633	392.81
454.853	388.81
455.073	385.81
455.294	407.81
455.514	457.81
455.734	443.81
455.955	407.81
456.175	377.81
456.395	365.81
456.616	351.81
456.836	384.81
457.056	349.81
457.276	365.81
457.497	365.81
457.717	371.81
457.937	385.81
458.157	373.81
458.377	372.81
458.598	400.81
458.818	480.81
459.038	544.81
459.258	530.81
459.478	449.81
459.698	406.81
459.918	422.81
460.138	410.81
460.358	389.81
460.578	414.81
460.798	408.81
461.018	417.81
461.238	386.81
461.458	413.81
461.678	392.81
461.898	393.81
462.118	407.81
462.338	432.81
462.558	395.81
462.777	418.81
462.997	452.81
463.217	442.81
463.437	430.81
463.657	425.81
463.876	454.81
464.096	434.81
464.316	440.81
464.536	445.81
464.755	442.81
464.975	470.81
465.195	496.81
465.414	552.81
465.634	497.81
465.854	457.81
466.073	439.81
466.293	412.81
466.512	399.81
466.732	393.81
466.951	404.81
467.171	389.81
467.391	382.81
467.61	423.81
467.829	432.81
468.049	400.81
468.268	412.81
468.488	393.81
468.707	388.81
468.927	378.81
469.146	387.81
469.365	407.81
469.585	392.81
469.804	416.81
470.023	388.81
470.243	416.81
470.462	430.81
470.681	439.81
470.901	445.81
471.12	412.81
471.339	417.81
471.558	407.81
471.777	408.81
471.997	418.81
472.216	397.81
472.435	459.81
472.654	449.81
472.873	416.81
473.092	434.81
473.311	428.81
473.53	399.81
473.749	418.81
473.968	428.81
474.187	538.81
474.406	538.81
474.625	457.81
474.844	421.81
475.063	413.81
475.282	409.81
475.501	413.81
475.72	421.81
475.939	421.81
476.158	412.81
476.377	429.81
476.596	410.81
476.814	416.81
477.033	454.81
477.252	432.81
477.471	413.81
477.69	452.81
477.908	432.81
478.127	425.81
478.346	427.81
478.564	425.81
478.783	439.81
479.002	450.81
479.22	454.81
479.439	472.81
479.658	480.81
479.876	511.81
480.095	492.81
480.313	547.81
480.532	523.81
480.751	483.81
480.969	505.81
481.188	582.81
481.406	634.81
481.624	547.81
481.843	506.81
482.061	515.81
482.28	480.81
482.498	469.81
482.717	489.81
482.935	505.81
483.153	479.81
483.372	485.81
483.59	473.81
483.808	489.81
484.027	458.81
484.245	469.81
484.463	489.81
484.681	484.81
484.9	485.81
485.118	489.81
485.336	485.81
485.554	498.81
485.772	486.81
485.99	491.81
486.209	500.81
486.427	491.81
486.645	478.81
486.863	531.81
487.081	510.81
487.299	514.81
487.517	523.81
487.735	488.81
487.953	530.81
488.171	532.81
488.389	482.81
488.607	532.81
488.825	543.81
489.043	506.81
489.261	501.81
489.479	532.81
489.696	531.81
489.914	531.81
490.132	560.81
490.35	517.81
490.568	562.81
490.786	540.81
491.003	564.81
491.221	574.81
491.439	586.81
491.657	578.81
491.874	584.81
492.092	583.81
492.31	584.81
492.527	606.81
492.745	601.81
492.963	586.81
493.18	614.81
493.398	587.81
493.615	625.81
493.833	632.81
494.05	611.81
494.268	617.81
494.485	621.81
494.703	602.81
494.92	618.81
495.138	620.81
495.355	631.81
495.573	629.81
495.79	603.81
496.008	594.81
496.225	624.81
496.442	608.81
496.66	599.81
496.877	622.81
497.094	605.81
497.312	613.81
497.529	604.81
497.746	617.81
497.963	646.81
498.181	660.81
498.398	648.81
498.615	670.81
498.832	656.81
499.049	659.81
499.267	692.81
499.484	685.81
499.701	709.81
499.918	730.81
500.135	771.81
500.352	802.81
500.569	819.81
500.786	796.81
501.003	788.81
501.22	781.81
501.437	743.81
501.654	730.81
501.871	750.81
