Data from 1983.PennyLincolnUp.Lamp.En5.5.200Scan.071819.P1_HRD10591_16-53-49-965.txt Node
Date: Thu Jul 18 16:53:49 EDT 2019
User: cochatt
Spectrometer: HR+D1059
Trigger mode: 1
Integration Time (sec): 1.000000E-1
Scans to average: 1
Electric dark correction enabled: true
Nonlinearity correction enabled: false
Boxcar width: 0
XAxis mode: Wavelengths
Number of Pixels in Spectrum: 2048
>>>>>Begin Spectral Data<<<<<
223.165	-16.19
223.4	-16.19
223.635	-16.19
223.869	-18.19
224.104	-26.19
224.338	-26.19
224.573	-21.19
224.808	1.81
225.042	-5.19
225.277	-8.19
225.511	-4.19
225.746	5.81
225.98	-2.19
226.215	10.81
226.449	14.81
226.683	20.81
226.918	36.81
227.152	36.81
227.387	30.81
227.621	41.81
227.856	42.81
228.09	46.81
228.324	59.81
228.559	51.81
228.793	59.81
229.027	105.81
229.262	81.81
229.496	101.81
229.73	106.81
229.964	130.81
230.199	136.81
230.433	90.81
230.667	110.81
230.901	104.81
231.136	121.81
231.37	104.81
231.604	123.81
231.838	111.81
232.072	116.81
232.306	120.81
232.541	119.81
232.775	111.81
233.009	112.81
233.243	103.81
233.477	103.81
233.711	108.81
233.945	106.81
234.179	119.81
234.413	100.81
234.647	99.81
234.881	119.81
235.115	124.81
235.349	115.81
235.583	121.81
235.817	105.81
236.051	116.81
236.285	113.81
236.519	118.81
236.753	131.81
236.987	130.81
237.221	166.81
237.455	203.81
237.689	152.81
237.922	127.81
238.156	129.81
238.39	124.81
238.624	110.81
238.858	126.81
239.091	110.81
239.325	125.81
239.559	114.81
239.793	134.81
240.027	131.81
240.26	119.81
240.494	142.81
240.728	137.81
240.961	149.81
241.195	140.81
241.429	130.81
241.662	141.81
241.896	122.81
242.13	112.81
242.363	126.81
242.597	130.81
242.83	129.81
243.064	138.81
243.298	122.81
243.531	136.81
243.765	108.81
243.998	132.81
244.232	128.81
244.465	135.81
244.699	141.81
244.932	127.81
245.166	141.81
245.399	136.81
245.633	123.81
245.866	136.81
246.099	130.81
246.333	146.81
246.566	138.81
246.8	139.81
247.033	140.81
247.266	153.81
247.5	154.81
247.733	158.81
247.966	158.81
248.2	163.81
248.433	155.81
248.666	164.81
248.899	164.81
249.133	168.81
249.366	192.81
249.599	182.81
249.832	168.81
250.066	168.81
250.299	165.81
250.532	157.81
250.765	179.81
250.998	186.81
251.231	189.81
251.465	189.81
251.698	180.81
251.931	182.81
252.164	192.81
252.397	176.81
252.63	177.81
252.863	184.81
253.096	180.81
253.329	208.81
253.562	208.81
253.795	205.81
254.028	196.81
254.261	190.81
254.494	210.81
254.727	233.81
254.96	243.81
255.193	245.81
255.426	211.81
255.659	222.81
255.892	204.81
256.124	202.81
256.357	192.81
256.59	190.81
256.823	182.81
257.056	194.81
257.289	182.81
257.521	183.81
257.754	170.81
257.987	202.81
258.22	198.81
258.452	189.81
258.685	178.81
258.918	178.81
259.151	192.81
259.383	204.81
259.616	194.81
259.849	200.81
260.081	206.81
260.314	229.81
260.547	229.81
260.779	230.81
261.012	212.81
261.244	203.81
261.477	198.81
261.71	198.81
261.942	194.81
262.175	222.81
262.407	186.81
262.64	193.81
262.872	179.81
263.105	191.81
263.337	190.81
263.57	178.81
263.802	186.81
264.035	198.81
264.267	195.81
264.499	185.81
264.732	209.81
264.964	191.81
265.197	191.81
265.429	186.81
265.661	186.81
265.894	189.81
266.126	184.81
266.358	184.81
266.591	195.81
266.823	168.81
267.055	205.81
267.287	198.81
267.52	199.81
267.752	206.81
267.984	195.81
268.216	211.81
268.448	195.81
268.681	193.81
268.913	216.81
269.145	224.81
269.377	246.81
269.609	235.81
269.841	229.81
270.073	223.81
270.306	260.81
270.538	292.81
270.77	270.81
271.002	284.81
271.234	251.81
271.466	271.81
271.698	284.81
271.93	255.81
272.162	256.81
272.394	281.81
272.626	269.81
272.858	272.81
273.09	249.81
273.322	229.81
273.553	242.81
273.785	232.81
274.017	234.81
274.249	236.81
274.481	221.81
274.713	220.81
274.945	241.81
275.176	262.81
275.408	220.81
275.64	230.81
275.872	219.81
276.104	244.81
276.335	228.81
276.567	244.81
276.799	259.81
277.031	268.81
277.262	266.81
277.494	278.81
277.726	260.81
277.957	237.81
278.189	223.81
278.421	245.81
278.652	229.81
278.884	227.81
279.115	221.81
279.347	237.81
279.579	223.81
279.81	221.81
280.042	221.81
280.273	231.81
280.505	218.81
280.736	216.81
280.968	237.81
281.199	223.81
281.431	222.81
281.662	230.81
281.894	225.81
282.125	238.81
282.356	263.81
282.588	264.81
282.819	265.81
283.051	242.81
283.282	228.81
283.513	244.81
283.745	246.81
283.976	229.81
284.207	256.81
284.439	236.81
284.67	237.81
284.901	238.81
285.132	231.81
285.364	239.81
285.595	262.81
285.826	231.81
286.057	236.81
286.288	242.81
286.52	238.81
286.751	222.81
286.982	230.81
287.213	260.81
287.444	245.81
287.675	251.81
287.906	259.81
288.138	271.81
288.369	267.81
288.6	247.81
288.831	270.81
289.062	267.81
289.293	244.81
289.524	264.81
289.755	259.81
289.986	247.81
290.217	241.81
290.448	242.81
290.679	235.81
290.91	240.81
291.141	248.81
291.371	269.81
291.602	249.81
291.833	250.81
292.064	245.81
292.295	254.81
292.526	258.81
292.757	258.81
292.987	234.81
293.218	225.81
293.449	239.81
293.68	261.81
293.91	262.81
294.141	243.81
294.372	248.81
294.603	249.81
294.833	236.81
295.064	272.81
295.295	263.81
295.525	267.81
295.756	244.81
295.987	265.81
296.217	286.81
296.448	275.81
296.679	292.81
296.909	252.81
297.14	222.81
297.37	255.81
297.601	281.81
297.831	256.81
298.062	248.81
298.292	257.81
298.523	259.81
298.753	267.81
298.984	257.81
299.214	262.81
299.445	240.81
299.675	272.81
299.905	264.81
300.136	287.81
300.366	281.81
300.597	281.81
300.827	285.81
301.057	281.81
301.288	277.81
301.518	288.81
301.748	281.81
301.979	268.81
302.209	294.81
302.439	287.81
302.669	284.81
302.9	286.81
303.13	284.81
303.36	295.81
303.59	278.81
303.82	292.81
304.051	296.81
304.281	289.81
304.511	275.81
304.741	289.81
304.971	279.81
305.201	278.81
305.431	265.81
305.661	271.81
305.891	286.81
306.121	282.81
306.352	271.81
306.582	292.81
306.812	279.81
307.042	278.81
307.272	275.81
307.502	272.81
307.731	278.81
307.961	286.81
308.191	279.81
308.421	291.81
308.651	292.81
308.881	290.81
309.111	282.81
309.341	301.81
309.571	317.81
309.8	305.81
310.03	323.81
310.26	330.81
310.49	324.81
310.72	340.81
310.949	336.81
311.179	332.81
311.409	340.81
311.639	338.81
311.868	313.81
312.098	337.81
312.328	328.81
312.557	351.81
312.787	354.81
313.017	350.81
313.246	313.81
313.476	310.81
313.706	319.81
313.935	332.81
314.165	337.81
314.394	346.81
314.624	363.81
314.853	326.81
315.083	325.81
315.312	335.81
315.542	309.81
315.771	345.81
316.001	323.81
316.23	324.81
316.46	330.81
316.689	329.81
316.919	331.81
317.148	335.81
317.377	343.81
317.607	339.81
317.836	334.81
318.065	320.81
318.295	302.81
318.524	320.81
318.753	338.81
318.983	322.81
319.212	314.81
319.441	323.81
319.67	334.81
319.9	311.81
320.129	349.81
320.358	333.81
320.587	322.81
320.816	339.81
321.046	352.81
321.275	356.81
321.504	338.81
321.733	347.81
321.962	365.81
322.191	367.81
322.42	356.81
322.649	401.81
322.878	410.81
323.108	404.81
323.337	414.81
323.566	456.81
323.795	477.81
324.024	523.81
324.253	651.81
324.482	913.81
324.71	1372.81
324.939	1854.81
325.168	1511.81
325.397	850.81
325.626	575.81
325.855	476.81
326.084	436.81
326.313	423.81
326.542	456.81
326.77	491.81
326.999	594.81
327.228	835.81
327.457	1169.81
327.686	1380.81
327.914	922.81
328.143	619.81
328.372	544.81
328.6	510.81
328.829	493.81
329.058	528.81
329.287	512.81
329.515	490.81
329.744	428.81
329.972	442.81
330.201	453.81
330.43	479.81
330.658	480.81
330.887	552.81
331.115	533.81
331.344	454.81
331.572	436.81
331.801	411.81
332.03	424.81
332.258	410.81
332.486	384.81
332.715	390.81
332.943	390.81
333.172	371.81
333.4	380.81
333.629	390.81
333.857	398.81
334.085	413.81
334.314	384.81
334.542	415.81
334.771	413.81
334.999	409.81
335.227	377.81
335.455	374.81
335.684	360.81
335.912	384.81
336.14	380.81
336.369	358.81
336.597	382.81
336.825	363.81
337.053	374.81
337.281	365.81
337.51	368.81
337.738	379.81
337.966	371.81
338.194	385.81
338.422	368.81
338.65	372.81
338.878	384.81
339.106	367.81
339.334	353.81
339.562	358.81
339.79	357.81
340.018	381.81
340.246	378.81
340.474	373.81
340.702	366.81
340.93	372.81
341.158	366.81
341.386	362.81
341.614	361.81
341.842	352.81
342.07	364.81
342.298	348.81
342.526	350.81
342.754	349.81
342.981	351.81
343.209	330.81
343.437	334.81
343.665	356.81
343.893	371.81
344.12	371.81
344.348	345.81
344.576	371.81
344.804	366.81
345.031	371.81
345.259	365.81
345.487	378.81
345.714	370.81
345.942	333.81
346.17	343.81
346.397	359.81
346.625	360.81
346.853	345.81
347.08	344.81
347.308	357.81
347.535	372.81
347.763	359.81
347.99	380.81
348.218	370.81
348.445	389.81
348.673	372.81
348.9	356.81
349.128	348.81
349.355	361.81
349.583	349.81
349.81	334.81
350.037	337.81
350.265	348.81
350.492	339.81
350.72	329.81
350.947	374.81
351.174	351.81
351.402	364.81
351.629	355.81
351.856	367.81
352.083	369.81
352.311	372.81
352.538	357.81
352.765	371.81
352.992	378.81
353.22	358.81
353.447	360.81
353.674	347.81
353.901	337.81
354.128	346.81
354.355	327.81
354.583	342.81
354.81	340.81
355.037	331.81
355.264	341.81
355.491	322.81
355.718	336.81
355.945	322.81
356.172	308.81
356.399	327.81
356.626	330.81
356.853	319.81
357.08	330.81
357.307	334.81
357.534	317.81
357.761	303.81
357.988	319.81
358.215	332.81
358.441	349.81
358.668	306.81
358.895	340.81
359.122	350.81
359.349	355.81
359.576	354.81
359.802	382.81
360.029	414.81
360.256	407.81
360.483	396.81
360.709	384.81
360.936	351.81
361.163	362.81
361.39	368.81
361.616	352.81
361.843	355.81
362.07	367.81
362.296	358.81
362.523	335.81
362.749	359.81
362.976	337.81
363.203	340.81
363.429	336.81
363.656	336.81
363.882	346.81
364.109	333.81
364.335	343.81
364.562	337.81
364.788	339.81
365.015	331.81
365.241	342.81
365.468	357.81
365.694	356.81
365.92	347.81
366.147	328.81
366.373	339.81
366.599	340.81
366.826	330.81
367.052	344.81
367.278	319.81
367.505	326.81
367.731	346.81
367.957	310.81
368.184	346.81
368.41	343.81
368.636	349.81
368.862	337.81
369.089	346.81
369.315	321.81
369.541	312.81
369.767	318.81
369.993	347.81
370.219	331.81
370.445	318.81
370.672	328.81
370.898	330.81
371.124	328.81
371.35	324.81
371.576	324.81
371.802	311.81
372.028	322.81
372.254	325.81
372.48	315.81
372.706	343.81
372.932	347.81
373.158	327.81
373.384	336.81
373.61	334.81
373.835	347.81
374.061	335.81
374.287	332.81
374.513	331.81
374.739	341.81
374.965	350.81
375.191	330.81
375.416	328.81
375.642	330.81
375.868	343.81
376.094	334.81
376.319	336.81
376.545	308.81
376.771	348.81
376.997	330.81
377.222	315.81
377.448	315.81
377.674	328.81
377.899	334.81
378.125	303.81
378.35	314.81
378.576	346.81
378.802	332.81
379.027	322.81
379.253	318.81
379.478	333.81
379.704	342.81
379.929	332.81
380.155	347.81
380.38	331.81
380.606	339.81
380.831	315.81
381.057	322.81
381.282	341.81
381.507	342.81
381.733	331.81
381.958	322.81
382.184	325.81
382.409	335.81
382.634	331.81
382.86	345.81
383.085	336.81
383.31	337.81
383.535	335.81
383.761	346.81
383.986	329.81
384.211	328.81
384.436	346.81
384.662	325.81
384.887	348.81
385.112	345.81
385.337	339.81
385.562	339.81
385.787	360.81
386.013	356.81
386.238	334.81
386.463	357.81
386.688	350.81
386.913	336.81
387.138	335.81
387.363	335.81
387.588	348.81
387.813	349.81
388.038	348.81
388.263	346.81
388.488	364.81
388.713	361.81
388.938	346.81
389.163	355.81
389.387	348.81
389.612	364.81
389.837	324.81
390.062	353.81
390.287	363.81
390.512	348.81
390.736	327.81
390.961	342.81
391.186	347.81
391.411	356.81
391.636	331.81
391.86	359.81
392.085	343.81
392.31	351.81
392.534	357.81
392.759	360.81
392.984	332.81
393.208	349.81
393.433	343.81
393.658	347.81
393.882	357.81
394.107	344.81
394.331	344.81
394.556	344.81
394.78	343.81
395.005	348.81
395.229	368.81
395.454	359.81
395.678	344.81
395.903	374.81
396.127	380.81
396.352	389.81
396.576	381.81
396.801	372.81
397.025	350.81
397.249	354.81
397.474	361.81
397.698	381.81
397.922	370.81
398.147	386.81
398.371	403.81
398.595	399.81
398.82	393.81
399.044	411.81
399.268	375.81
399.492	423.81
399.717	452.81
399.941	449.81
400.165	473.81
400.389	490.81
400.613	431.81
400.837	412.81
401.062	396.81
401.286	408.81
401.51	380.81
401.734	393.81
401.958	391.81
402.182	411.81
402.406	410.81
402.63	394.81
402.854	412.81
403.078	399.81
403.302	390.81
403.526	420.81
403.75	406.81
403.974	393.81
404.198	414.81
404.422	429.81
404.645	421.81
404.869	421.81
405.093	406.81
405.317	454.81
405.541	473.81
405.765	449.81
405.988	407.81
406.212	447.81
406.436	462.81
406.66	458.81
406.883	451.81
407.107	474.81
407.331	480.81
407.555	536.81
407.778	520.81
408.002	490.81
408.226	464.81
408.449	442.81
408.673	443.81
408.896	460.81
409.12	471.81
409.344	466.81
409.567	428.81
409.791	424.81
410.014	408.81
410.238	403.81
410.461	392.81
410.685	410.81
410.908	412.81
411.132	433.81
411.355	450.81
411.578	457.81
411.802	418.81
412.025	409.81
412.249	420.81
412.472	422.81
412.695	431.81
412.919	421.81
413.142	411.81
413.365	399.81
413.589	399.81
413.812	405.81
414.035	385.81
414.258	367.81
414.482	391.81
414.705	385.81
414.928	373.81
415.151	386.81
415.374	390.81
415.597	395.81
415.821	379.81
416.044	376.81
416.267	395.81
416.49	386.81
416.713	395.81
416.936	365.81
417.159	386.81
417.382	394.81
417.605	396.81
417.828	385.81
418.051	412.81
418.274	397.81
418.497	394.81
418.72	400.81
418.943	383.81
419.166	412.81
419.389	408.81
419.611	424.81
419.834	411.81
420.057	408.81
420.28	404.81
420.503	392.81
420.726	396.81
420.948	421.81
421.171	451.81
421.394	461.81
421.617	430.81
421.839	412.81
422.062	409.81
422.285	429.81
422.507	463.81
422.73	502.81
422.953	493.81
423.175	444.81
423.398	424.81
423.621	409.81
423.843	404.81
424.066	447.81
424.288	445.81
424.511	436.81
424.733	485.81
424.956	541.81
425.178	542.81
425.401	493.81
425.623	524.81
425.846	458.81
426.068	445.81
426.291	446.81
426.513	458.81
426.735	452.81
426.958	458.81
427.18	527.81
427.402	622.81
427.625	653.81
427.847	619.81
428.069	516.81
428.292	460.81
428.514	417.81
428.736	442.81
428.958	432.81
429.181	425.81
429.403	394.81
429.625	418.81
429.847	447.81
430.069	505.81
430.292	481.81
430.514	398.81
430.736	411.81
430.958	406.81
431.18	387.81
431.402	385.81
431.624	380.81
431.846	390.81
432.068	378.81
432.29	374.81
432.512	382.81
432.734	397.81
432.956	390.81
433.178	412.81
433.4	407.81
433.622	403.81
433.844	389.81
434.066	385.81
434.287	398.81
434.509	386.81
434.731	377.81
434.953	391.81
435.175	424.81
435.397	412.81
435.618	435.81
435.84	477.81
436.062	535.81
436.284	565.81
436.505	487.81
436.727	430.81
436.949	419.81
437.17	410.81
437.392	410.81
437.614	420.81
437.835	449.81
438.057	522.81
438.278	593.81
438.5	575.81
438.721	631.81
438.943	611.81
439.165	482.81
439.386	469.81
439.608	445.81
439.829	444.81
440.05	477.81
440.272	482.81
440.493	485.81
440.715	453.81
440.936	415.81
441.158	412.81
441.379	407.81
441.6	425.81
441.822	450.81
442.043	480.81
442.264	517.81
442.486	550.81
442.707	470.81
442.928	456.81
443.149	469.81
443.371	449.81
443.592	519.81
443.813	573.81
444.034	587.81
444.255	526.81
444.476	444.81
444.698	441.81
444.919	422.81
445.14	524.81
445.361	494.81
445.582	466.81
445.803	515.81
446.024	585.81
446.245	613.81
446.466	557.81
446.687	475.81
446.908	428.81
447.129	425.81
447.35	409.81
447.571	406.81
447.792	400.81
448.013	414.81
448.234	443.81
448.455	458.81
448.675	555.81
448.896	621.81
449.117	526.81
449.338	512.81
449.559	589.81
449.779	660.81
450	532.81
450.221	452.81
450.442	404.81
450.662	412.81
450.883	419.81
451.104	424.81
451.324	453.81
451.545	390.81
451.766	404.81
451.986	380.81
452.207	351.81
452.428	360.81
452.648	371.81
452.869	390.81
453.089	380.81
453.31	399.81
453.53	388.81
453.751	369.81
453.971	370.81
454.192	395.81
454.412	388.81
454.633	370.81
454.853	378.81
455.073	370.81
455.294	380.81
455.514	443.81
455.734	425.81
455.955	372.81
456.175	349.81
456.395	338.81
456.616	347.81
456.836	359.81
457.056	340.81
457.276	344.81
457.497	377.81
457.717	338.81
457.937	342.81
458.157	339.81
458.377	371.81
458.598	363.81
458.818	414.81
459.038	472.81
459.258	510.81
459.478	434.81
459.698	378.81
459.918	389.81
460.138	374.81
460.358	375.81
460.578	388.81
460.798	391.81
461.018	399.81
461.238	390.81
461.458	382.81
461.678	392.81
461.898	392.81
462.118	406.81
462.338	383.81
462.558	380.81
462.777	405.81
462.997	400.81
463.217	410.81
463.437	401.81
463.657	404.81
463.876	426.81
464.096	398.81
464.316	413.81
464.536	399.81
464.755	415.81
464.975	428.81
465.195	457.81
465.414	540.81
465.634	450.81
465.854	418.81
466.073	410.81
466.293	381.81
466.512	379.81
466.732	379.81
466.951	388.81
467.171	364.81
467.391	376.81
467.61	377.81
467.829	388.81
468.049	384.81
468.268	376.81
468.488	374.81
468.707	371.81
468.927	348.81
469.146	371.81
469.365	372.81
469.585	353.81
469.804	399.81
470.023	390.81
470.243	378.81
470.462	380.81
470.681	415.81
470.901	389.81
471.12	372.81
471.339	374.81
471.558	390.81
471.777	373.81
471.997	353.81
472.216	382.81
472.435	382.81
472.654	386.81
472.873	378.81
473.092	360.81
473.311	388.81
473.53	399.81
473.749	395.81
473.968	414.81
474.187	504.81
474.406	498.81
474.625	420.81
474.844	394.81
475.063	384.81
475.282	383.81
475.501	385.81
475.72	409.81
475.939	366.81
476.158	386.81
476.377	366.81
476.596	380.81
476.814	386.81
477.033	420.81
477.252	425.81
477.471	402.81
477.69	407.81
477.908	410.81
478.127	418.81
478.346	420.81
478.564	418.81
478.783	414.81
479.002	406.81
479.22	423.81
479.439	437.81
479.658	447.81
479.876	454.81
480.095	467.81
480.313	476.81
480.532	468.81
480.751	454.81
480.969	459.81
481.188	500.81
481.406	528.81
481.624	455.81
481.843	442.81
482.061	438.81
482.28	449.81
482.498	423.81
482.717	438.81
482.935	449.81
483.153	445.81
483.372	447.81
483.59	444.81
483.808	409.81
484.027	428.81
484.245	443.81
484.463	442.81
484.681	440.81
484.9	444.81
485.118	457.81
485.336	445.81
485.554	443.81
485.772	459.81
485.99	421.81
486.209	439.81
486.427	467.81
486.645	474.81
486.863	482.81
487.081	488.81
487.299	479.81
487.517	464.81
487.735	466.81
487.953	453.81
488.171	501.81
488.389	481.81
488.607	479.81
488.825	484.81
489.043	495.81
489.261	493.81
489.479	468.81
489.696	501.81
489.914	475.81
490.132	496.81
490.35	491.81
490.568	488.81
490.786	493.81
491.003	507.81
491.221	514.81
491.439	514.81
491.657	531.81
491.874	538.81
492.092	559.81
492.31	535.81
492.527	559.81
492.745	556.81
492.963	551.81
493.18	551.81
493.398	547.81
493.615	554.81
493.833	574.81
494.05	569.81
494.268	570.81
494.485	554.81
494.703	569.81
494.92	549.81
495.138	541.81
495.355	563.81
495.573	560.81
495.79	557.81
496.008	558.81
496.225	567.81
496.442	560.81
496.66	557.81
496.877	541.81
497.094	564.81
497.312	584.81
497.529	555.81
497.746	584.81
497.963	582.81
498.181	611.81
498.398	604.81
498.615	597.81
498.832	624.81
499.049	604.81
499.267	605.81
499.484	621.81
499.701	655.81
499.918	657.81
500.135	700.81
500.352	717.81
500.569	733.81
500.786	737.81
501.003	719.81
501.22	690.81
501.437	700.81
501.654	703.81
501.871	690.81
502.088	664.81
