Data from 1983.PennyLincolnUp.Lamp.En5.5.200Scan.071819.P1_HRD10591_16-52-15-965.txt Node
Date: Thu Jul 18 16:52:15 EDT 2019
User: cochatt
Spectrometer: HR+D1059
Trigger mode: 1
Integration Time (sec): 1.000000E-1
Scans to average: 1
Electric dark correction enabled: true
Nonlinearity correction enabled: false
Boxcar width: 0
XAxis mode: Wavelengths
Number of Pixels in Spectrum: 2048
>>>>>Begin Spectral Data<<<<<
223.165	-16.81
223.4	-16.81
223.635	-16.81
223.869	-23.81
224.104	-18.81
224.338	-20.81
224.573	-3.81
224.808	-16.81
225.042	-19.81
225.277	-0.81
225.511	-1.81
225.746	1.19
225.98	3.19
226.215	16.19
226.449	19.19
226.683	31.19
226.918	25.19
227.152	27.19
227.387	37.19
227.621	34.19
227.856	31.19
228.09	39.19
228.324	49.19
228.559	58.19
228.793	65.19
229.027	96.19
229.262	82.19
229.496	88.19
229.73	115.19
229.964	113.19
230.199	97.19
230.433	81.19
230.667	115.19
230.901	88.19
231.136	95.19
231.37	94.19
231.604	83.19
231.838	106.19
232.072	88.19
232.306	109.19
232.541	100.19
232.775	97.19
233.009	103.19
233.243	112.19
233.477	90.19
233.711	109.19
233.945	109.19
234.179	100.19
234.413	112.19
234.647	102.19
234.881	100.19
235.115	112.19
235.349	130.19
235.583	98.19
235.817	101.19
236.051	102.19
236.285	111.19
236.519	115.19
236.753	104.19
236.987	110.19
237.221	145.19
237.455	181.19
237.689	136.19
237.922	108.19
238.156	121.19
238.39	114.19
238.624	99.19
238.858	107.19
239.091	98.19
239.325	99.19
239.559	118.19
239.793	118.19
240.027	123.19
240.26	116.19
240.494	122.19
240.728	120.19
240.961	106.19
241.195	119.19
241.429	119.19
241.662	123.19
241.896	121.19
242.13	115.19
242.363	127.19
242.597	118.19
242.83	117.19
243.064	113.19
243.298	124.19
243.531	120.19
243.765	108.19
243.998	116.19
244.232	117.19
244.465	114.19
244.699	124.19
244.932	119.19
245.166	134.19
245.399	129.19
245.633	119.19
245.866	139.19
246.099	110.19
246.333	133.19
246.566	127.19
246.8	123.19
247.033	137.19
247.266	134.19
247.5	133.19
247.733	144.19
247.966	149.19
248.2	156.19
248.433	144.19
248.666	144.19
248.899	138.19
249.133	161.19
249.366	185.19
249.599	152.19
249.832	159.19
250.066	155.19
250.299	148.19
250.532	164.19
250.765	157.19
250.998	172.19
251.231	167.19
251.465	160.19
251.698	152.19
251.931	165.19
252.164	159.19
252.397	153.19
252.63	168.19
252.863	159.19
253.096	185.19
253.329	192.19
253.562	164.19
253.795	169.19
254.028	176.19
254.261	157.19
254.494	171.19
254.727	204.19
254.96	207.19
255.193	215.19
255.426	190.19
255.659	181.19
255.892	176.19
256.124	175.19
256.357	177.19
256.59	167.19
256.823	170.19
257.056	165.19
257.289	177.19
257.521	172.19
257.754	165.19
257.987	152.19
258.22	173.19
258.452	178.19
258.685	171.19
258.918	149.19
259.151	172.19
259.383	179.19
259.616	184.19
259.849	171.19
260.081	182.19
260.314	184.19
260.547	188.19
260.779	193.19
261.012	198.19
261.244	172.19
261.477	181.19
261.71	165.19
261.942	183.19
262.175	187.19
262.407	175.19
262.64	173.19
262.872	172.19
263.105	156.19
263.337	181.19
263.57	172.19
263.802	175.19
264.035	186.19
264.267	179.19
264.499	170.19
264.732	176.19
264.964	172.19
265.197	183.19
265.429	174.19
265.661	169.19
265.894	159.19
266.126	169.19
266.358	171.19
266.591	171.19
266.823	169.19
267.055	185.19
267.287	164.19
267.52	179.19
267.752	196.19
267.984	191.19
268.216	180.19
268.448	182.19
268.681	173.19
268.913	184.19
269.145	197.19
269.377	203.19
269.609	205.19
269.841	203.19
270.073	211.19
270.306	225.19
270.538	220.19
270.77	232.19
271.002	228.19
271.234	239.19
271.466	213.19
271.698	231.19
271.93	228.19
272.162	243.19
272.394	232.19
272.626	233.19
272.858	246.19
273.09	224.19
273.322	215.19
273.553	205.19
273.785	209.19
274.017	219.19
274.249	213.19
274.481	220.19
274.713	204.19
274.945	199.19
275.176	199.19
275.408	216.19
275.64	207.19
275.872	195.19
276.104	215.19
276.335	204.19
276.567	212.19
276.799	211.19
277.031	239.19
277.262	234.19
277.494	243.19
277.726	246.19
277.957	216.19
278.189	213.19
278.421	217.19
278.652	209.19
278.884	206.19
279.115	230.19
279.347	198.19
279.579	213.19
279.81	204.19
280.042	213.19
280.273	218.19
280.505	215.19
280.736	198.19
280.968	193.19
281.199	207.19
281.431	214.19
281.662	202.19
281.894	208.19
282.125	219.19
282.356	237.19
282.588	227.19
282.819	226.19
283.051	219.19
283.282	223.19
283.513	211.19
283.745	214.19
283.976	215.19
284.207	225.19
284.439	224.19
284.67	210.19
284.901	216.19
285.132	221.19
285.364	225.19
285.595	217.19
285.826	197.19
286.057	213.19
286.288	227.19
286.52	219.19
286.751	216.19
286.982	217.19
287.213	214.19
287.444	214.19
287.675	231.19
287.906	228.19
288.138	236.19
288.369	224.19
288.6	252.19
288.831	223.19
289.062	243.19
289.293	234.19
289.524	218.19
289.755	218.19
289.986	232.19
290.217	218.19
290.448	227.19
290.679	232.19
290.91	228.19
291.141	241.19
291.371	225.19
291.602	227.19
291.833	224.19
292.064	232.19
292.295	229.19
292.526	241.19
292.757	229.19
292.987	230.19
293.218	219.19
293.449	232.19
293.68	218.19
293.91	228.19
294.141	236.19
294.372	226.19
294.603	212.19
294.833	228.19
295.064	221.19
295.295	236.19
295.525	239.19
295.756	239.19
295.987	245.19
296.217	247.19
296.448	252.19
296.679	256.19
296.909	254.19
297.14	232.19
297.37	247.19
297.601	224.19
297.831	226.19
298.062	235.19
298.292	226.19
298.523	228.19
298.753	247.19
298.984	241.19
299.214	247.19
299.445	230.19
299.675	255.19
299.905	247.19
300.136	231.19
300.366	246.19
300.597	229.19
300.827	253.19
301.057	265.19
301.288	252.19
301.518	274.19
301.748	249.19
301.979	251.19
302.209	272.19
302.439	249.19
302.669	275.19
302.9	255.19
303.13	270.19
303.36	245.19
303.59	263.19
303.82	250.19
304.051	269.19
304.281	256.19
304.511	258.19
304.741	269.19
304.971	253.19
305.201	258.19
305.431	255.19
305.661	267.19
305.891	248.19
306.121	257.19
306.352	251.19
306.582	239.19
306.812	275.19
307.042	263.19
307.272	257.19
307.502	283.19
307.731	254.19
307.961	257.19
308.191	258.19
308.421	270.19
308.651	268.19
308.881	265.19
309.111	284.19
309.341	277.19
309.571	266.19
309.8	273.19
310.03	267.19
310.26	269.19
310.49	275.19
310.72	295.19
310.949	313.19
311.179	300.19
311.409	306.19
311.639	291.19
311.868	298.19
312.098	287.19
312.328	300.19
312.557	294.19
312.787	296.19
313.017	321.19
313.246	273.19
313.476	279.19
313.706	264.19
313.935	292.19
314.165	292.19
314.394	288.19
314.624	293.19
314.853	298.19
315.083	291.19
315.312	309.19
315.542	283.19
315.771	287.19
316.001	279.19
316.23	279.19
316.46	288.19
316.689	303.19
316.919	282.19
317.148	284.19
317.377	297.19
317.607	326.19
317.836	291.19
318.065	307.19
318.295	303.19
318.524	296.19
318.753	296.19
318.983	322.19
319.212	298.19
319.441	293.19
319.67	307.19
319.9	295.19
320.129	264.19
320.358	301.19
320.587	277.19
320.816	289.19
321.046	296.19
321.275	304.19
321.504	313.19
321.733	298.19
321.962	305.19
322.191	306.19
322.42	314.19
322.649	352.19
322.878	336.19
323.108	341.19
323.337	331.19
323.566	362.19
323.795	365.19
324.024	384.19
324.253	471.19
324.482	668.19
324.71	945.19
324.939	1285.19
325.168	1064.19
325.397	562.19
325.626	435.19
325.855	359.19
326.084	369.19
326.313	349.19
326.542	360.19
326.77	391.19
326.999	449.19
327.228	605.19
327.457	845.19
327.686	908.19
327.914	633.19
328.143	474.19
328.372	393.19
328.6	393.19
328.829	379.19
329.058	391.19
329.287	392.19
329.515	376.19
329.744	341.19
329.972	355.19
330.201	337.19
330.43	363.19
330.658	371.19
330.887	402.19
331.115	408.19
331.344	351.19
331.572	361.19
331.801	349.19
332.03	339.19
332.258	335.19
332.486	332.19
332.715	323.19
332.943	329.19
333.172	334.19
333.4	337.19
333.629	343.19
333.857	351.19
334.085	357.19
334.314	373.19
334.542	354.19
334.771	370.19
334.999	353.19
335.227	339.19
335.455	328.19
335.684	324.19
335.912	332.19
336.14	343.19
336.369	346.19
336.597	348.19
336.825	354.19
337.053	337.19
337.281	342.19
337.51	335.19
337.738	334.19
337.966	335.19
338.194	332.19
338.422	348.19
338.65	340.19
338.878	322.19
339.106	333.19
339.334	328.19
339.562	321.19
339.79	316.19
340.018	316.19
340.246	340.19
340.474	327.19
340.702	323.19
340.93	321.19
341.158	324.19
341.386	341.19
341.614	338.19
341.842	325.19
342.07	313.19
342.298	327.19
342.526	312.19
342.754	319.19
342.981	320.19
343.209	316.19
343.437	334.19
343.665	335.19
343.893	324.19
344.12	324.19
344.348	336.19
344.576	356.19
344.804	334.19
345.031	310.19
345.259	341.19
345.487	341.19
345.714	327.19
345.942	311.19
346.17	323.19
346.397	310.19
346.625	320.19
346.853	321.19
347.08	328.19
347.308	330.19
347.535	324.19
347.763	329.19
347.99	327.19
348.218	332.19
348.445	321.19
348.673	322.19
348.9	314.19
349.128	319.19
349.355	316.19
349.583	312.19
349.81	300.19
350.037	312.19
350.265	326.19
350.492	307.19
350.72	325.19
350.947	313.19
351.174	324.19
351.402	336.19
351.629	321.19
351.856	326.19
352.083	319.19
352.311	337.19
352.538	326.19
352.765	333.19
352.992	315.19
353.22	314.19
353.447	322.19
353.674	307.19
353.901	297.19
354.128	314.19
354.355	303.19
354.583	299.19
354.81	291.19
355.037	309.19
355.264	295.19
355.491	309.19
355.718	294.19
355.945	303.19
356.172	295.19
356.399	290.19
356.626	295.19
356.853	287.19
357.08	291.19
357.307	312.19
357.534	296.19
357.761	282.19
357.988	294.19
358.215	315.19
358.441	303.19
358.668	291.19
358.895	303.19
359.122	311.19
359.349	317.19
359.576	315.19
359.802	323.19
360.029	338.19
360.256	334.19
360.483	297.19
360.709	308.19
360.936	305.19
361.163	295.19
361.39	308.19
361.616	298.19
361.843	323.19
362.07	312.19
362.296	312.19
362.523	322.19
362.749	328.19
362.976	307.19
363.203	314.19
363.429	295.19
363.656	312.19
363.882	294.19
364.109	312.19
364.335	296.19
364.562	306.19
364.788	279.19
365.015	305.19
365.241	298.19
365.468	325.19
365.694	307.19
365.92	332.19
366.147	313.19
366.373	308.19
366.599	289.19
366.826	305.19
367.052	305.19
367.278	301.19
367.505	300.19
367.731	305.19
367.957	297.19
368.184	303.19
368.41	315.19
368.636	289.19
368.862	311.19
369.089	291.19
369.315	296.19
369.541	302.19
369.767	289.19
369.993	314.19
370.219	314.19
370.445	307.19
370.672	311.19
370.898	293.19
371.124	318.19
371.35	316.19
371.576	319.19
371.802	330.19
372.028	304.19
372.254	318.19
372.48	312.19
372.706	303.19
372.932	306.19
373.158	306.19
373.384	313.19
373.61	316.19
373.835	308.19
374.061	297.19
374.287	309.19
374.513	308.19
374.739	335.19
374.965	319.19
375.191	312.19
375.416	319.19
375.642	331.19
375.868	320.19
376.094	309.19
376.319	319.19
376.545	287.19
376.771	317.19
376.997	296.19
377.222	298.19
377.448	288.19
377.674	328.19
377.899	321.19
378.125	310.19
378.35	310.19
378.576	301.19
378.802	292.19
379.027	291.19
379.253	300.19
379.478	307.19
379.704	311.19
379.929	310.19
380.155	315.19
380.38	308.19
380.606	323.19
380.831	310.19
381.057	323.19
381.282	312.19
381.507	316.19
381.733	311.19
381.958	290.19
382.184	306.19
382.409	327.19
382.634	325.19
382.86	324.19
383.085	320.19
383.31	326.19
383.535	314.19
383.761	308.19
383.986	322.19
384.211	316.19
384.436	336.19
384.662	320.19
384.887	344.19
385.112	344.19
385.337	335.19
385.562	340.19
385.787	332.19
386.013	348.19
386.238	325.19
386.463	352.19
386.688	359.19
386.913	346.19
387.138	331.19
387.363	343.19
387.588	341.19
387.813	339.19
388.038	355.19
388.263	343.19
388.488	348.19
388.713	347.19
388.938	345.19
389.163	321.19
389.387	346.19
389.612	327.19
389.837	343.19
390.062	333.19
390.287	313.19
390.512	326.19
390.736	343.19
390.961	338.19
391.186	336.19
391.411	340.19
391.636	346.19
391.86	341.19
392.085	340.19
392.31	353.19
392.534	341.19
392.759	333.19
392.984	333.19
393.208	330.19
393.433	352.19
393.658	347.19
393.882	337.19
394.107	343.19
394.331	349.19
394.556	327.19
394.78	333.19
395.005	337.19
395.229	341.19
395.454	347.19
395.678	347.19
395.903	333.19
396.127	364.19
396.352	363.19
396.576	359.19
396.801	366.19
397.025	355.19
397.249	347.19
397.474	352.19
397.698	335.19
397.922	345.19
398.147	356.19
398.371	390.19
398.595	381.19
398.82	374.19
399.044	379.19
399.268	391.19
399.492	417.19
399.717	434.19
399.941	431.19
400.165	456.19
400.389	431.19
400.613	423.19
400.837	388.19
401.062	386.19
401.286	388.19
401.51	385.19
401.734	356.19
401.958	381.19
402.182	397.19
402.406	395.19
402.63	392.19
402.854	369.19
403.078	388.19
403.302	398.19
403.526	386.19
403.75	382.19
403.974	389.19
404.198	398.19
404.422	387.19
404.645	361.19
404.869	395.19
405.093	405.19
405.317	415.19
405.541	433.19
405.765	392.19
405.988	393.19
406.212	410.19
406.436	438.19
406.66	438.19
406.883	420.19
407.107	435.19
407.331	457.19
407.555	479.19
407.778	492.19
408.002	457.19
408.226	432.19
408.449	423.19
408.673	418.19
408.896	432.19
409.12	452.19
409.344	447.19
409.567	391.19
409.791	386.19
410.014	383.19
410.238	386.19
410.461	390.19
410.685	383.19
410.908	403.19
411.132	416.19
411.355	434.19
411.578	431.19
411.802	390.19
412.025	377.19
412.249	397.19
412.472	387.19
412.695	377.19
412.919	387.19
413.142	371.19
413.365	379.19
413.589	382.19
413.812	351.19
414.035	373.19
414.258	366.19
414.482	359.19
414.705	362.19
414.928	362.19
415.151	353.19
415.374	376.19
415.597	366.19
415.821	359.19
416.044	354.19
416.267	368.19
416.49	349.19
416.713	361.19
416.936	370.19
417.159	362.19
417.382	383.19
417.605	368.19
417.828	379.19
418.051	384.19
418.274	383.19
418.497	343.19
418.72	379.19
418.943	364.19
419.166	387.19
419.389	371.19
419.611	387.19
419.834	379.19
420.057	388.19
420.28	379.19
420.503	374.19
420.726	361.19
420.948	389.19
421.171	414.19
421.394	449.19
421.617	408.19
421.839	389.19
422.062	395.19
422.285	389.19
422.507	423.19
422.73	471.19
422.953	455.19
423.175	423.19
423.398	396.19
423.621	381.19
423.843	409.19
424.066	407.19
424.288	411.19
424.511	408.19
424.733	455.19
424.956	490.19
425.178	477.19
425.401	483.19
425.623	522.19
425.846	443.19
426.068	404.19
426.291	391.19
426.513	387.19
426.735	398.19
426.958	434.19
427.18	474.19
427.402	569.19
427.625	611.19
427.847	540.19
428.069	462.19
428.292	405.19
428.514	391.19
428.736	379.19
428.958	365.19
429.181	349.19
429.403	386.19
429.625	371.19
429.847	397.19
430.069	433.19
430.292	443.19
430.514	383.19
430.736	370.19
430.958	378.19
431.18	371.19
431.402	389.19
431.624	353.19
431.846	355.19
432.068	358.19
432.29	348.19
432.512	364.19
432.734	372.19
432.956	356.19
433.178	375.19
433.4	365.19
433.622	347.19
433.844	361.19
434.066	360.19
434.287	357.19
434.509	370.19
434.731	383.19
434.953	372.19
435.175	396.19
435.397	410.19
435.618	381.19
435.84	443.19
436.062	476.19
436.284	533.19
436.505	456.19
436.727	407.19
436.949	394.19
437.17	372.19
437.392	378.19
437.614	387.19
437.835	410.19
438.057	442.19
438.278	533.19
438.5	534.19
438.721	570.19
438.943	554.19
439.165	432.19
439.386	403.19
439.608	391.19
439.829	407.19
440.05	403.19
440.272	444.19
440.493	419.19
440.715	399.19
440.936	379.19
441.158	364.19
441.379	371.19
441.6	409.19
441.822	392.19
442.043	418.19
442.264	485.19
442.486	495.19
442.707	438.19
442.928	437.19
443.149	422.19
443.371	421.19
443.592	457.19
443.813	530.19
444.034	566.19
444.255	483.19
444.476	417.19
444.698	404.19
444.919	415.19
445.14	536.19
445.361	457.19
445.582	435.19
445.803	461.19
446.024	544.19
446.245	530.19
446.466	498.19
446.687	417.19
446.908	388.19
447.129	370.19
447.35	374.19
447.571	393.19
447.792	375.19
448.013	374.19
448.234	384.19
448.455	406.19
448.675	490.19
448.896	549.19
449.117	495.19
449.338	460.19
449.559	535.19
449.779	575.19
450	486.19
450.221	403.19
450.442	362.19
450.662	370.19
450.883	351.19
451.104	369.19
451.324	356.19
451.545	369.19
451.766	342.19
451.986	359.19
452.207	325.19
452.428	334.19
452.648	348.19
452.869	346.19
453.089	329.19
453.31	360.19
453.53	334.19
453.751	334.19
453.971	339.19
454.192	359.19
454.412	356.19
454.633	339.19
454.853	315.19
455.073	321.19
455.294	333.19
455.514	406.19
455.734	383.19
455.955	346.19
456.175	345.19
456.395	326.19
456.616	312.19
456.836	317.19
457.056	316.19
457.276	312.19
457.497	312.19
457.717	294.19
457.937	323.19
458.157	327.19
458.377	330.19
458.598	332.19
458.818	374.19
459.038	421.19
459.258	439.19
459.478	375.19
459.698	342.19
459.918	379.19
460.138	361.19
460.358	352.19
460.578	353.19
460.798	392.19
461.018	361.19
461.238	355.19
461.458	365.19
461.678	358.19
461.898	346.19
462.118	359.19
462.338	386.19
462.558	369.19
462.777	380.19
462.997	389.19
463.217	404.19
463.437	397.19
463.657	367.19
463.876	389.19
464.096	375.19
464.316	377.19
464.536	395.19
464.755	390.19
464.975	382.19
465.195	403.19
465.414	452.19
465.634	390.19
465.854	362.19
466.073	371.19
466.293	354.19
466.512	340.19
466.732	357.19
466.951	363.19
467.171	343.19
467.391	351.19
467.61	361.19
467.829	333.19
468.049	352.19
468.268	345.19
468.488	356.19
468.707	349.19
468.927	327.19
469.146	342.19
469.365	335.19
469.585	348.19
469.804	364.19
470.023	353.19
470.243	359.19
470.462	376.19
470.681	371.19
470.901	340.19
471.12	347.19
471.339	342.19
471.558	351.19
471.777	359.19
471.997	327.19
472.216	349.19
472.435	352.19
472.654	335.19
472.873	337.19
473.092	342.19
473.311	340.19
473.53	344.19
473.749	372.19
473.968	380.19
474.187	439.19
474.406	460.19
474.625	374.19
474.844	363.19
475.063	373.19
475.282	341.19
475.501	359.19
475.72	375.19
475.939	352.19
476.158	370.19
476.377	359.19
476.596	368.19
476.814	359.19
477.033	379.19
477.252	374.19
477.471	369.19
477.69	380.19
477.908	404.19
478.127	389.19
478.346	371.19
478.564	396.19
478.783	404.19
479.002	396.19
479.22	407.19
479.439	400.19
479.658	411.19
479.876	420.19
480.095	446.19
480.313	437.19
480.532	435.19
480.751	425.19
480.969	423.19
481.188	436.19
481.406	415.19
481.624	408.19
481.843	426.19
482.061	408.19
482.28	420.19
482.498	397.19
482.717	391.19
482.935	407.19
483.153	403.19
483.372	408.19
483.59	411.19
483.808	411.19
484.027	415.19
484.245	415.19
484.463	403.19
484.681	428.19
484.9	398.19
485.118	408.19
485.336	382.19
485.554	415.19
485.772	428.19
485.99	425.19
486.209	444.19
486.427	425.19
486.645	417.19
486.863	440.19
487.081	448.19
487.299	460.19
487.517	404.19
487.735	431.19
487.953	431.19
488.171	455.19
488.389	429.19
488.607	416.19
488.825	450.19
489.043	445.19
489.261	436.19
489.479	457.19
489.696	433.19
489.914	436.19
490.132	445.19
490.35	463.19
490.568	447.19
490.786	467.19
491.003	481.19
491.221	483.19
491.439	477.19
491.657	486.19
491.874	480.19
492.092	489.19
492.31	511.19
492.527	506.19
492.745	488.19
492.963	476.19
493.18	511.19
493.398	519.19
493.615	525.19
493.833	506.19
494.05	491.19
494.268	493.19
494.485	503.19
494.703	509.19
494.92	531.19
495.138	512.19
495.355	491.19
495.573	493.19
495.79	524.19
496.008	503.19
496.225	509.19
496.442	505.19
496.66	524.19
496.877	513.19
497.094	513.19
497.312	525.19
497.529	527.19
497.746	533.19
497.963	548.19
498.181	564.19
498.398	552.19
498.615	557.19
498.832	565.19
499.049	578.19
499.267	604.19
499.484	625.19
499.701	615.19
499.918	653.19
500.135	697.19
500.352	713.19
500.569	723.19
500.786	703.19
501.003	705.19
501.22	715.19
501.437	664.19
501.654	659.19
501.871	650.19
502.088	615.19
