Data from 1983.PennyLincolnUp.Lamp.En5.5.200Scan.071819.P1_HRD10591_16-54-26-966.txt Node
Date: Thu Jul 18 16:54:26 EDT 2019
User: cochatt
Spectrometer: HR+D1059
Trigger mode: 1
Integration Time (sec): 1.000000E-1
Scans to average: 1
Electric dark correction enabled: true
Nonlinearity correction enabled: false
Boxcar width: 0
XAxis mode: Wavelengths
Number of Pixels in Spectrum: 2048
>>>>>Begin Spectral Data<<<<<
223.165	-8.19
223.4	-8.19
223.635	-8.19
223.869	-21.19
224.104	-20.19
224.338	-16.19
224.573	-23.19
224.808	-17.19
225.042	-10.19
225.277	0.81
225.511	0.81
225.746	16.81
225.98	7.81
226.215	10.81
226.449	17.81
226.683	22.81
226.918	17.81
227.152	20.81
227.387	37.81
227.621	28.81
227.856	41.81
228.09	39.81
228.324	43.81
228.559	51.81
228.793	74.81
229.027	84.81
229.262	108.81
229.496	106.81
229.73	140.81
229.964	130.81
230.199	126.81
230.433	111.81
230.667	102.81
230.901	102.81
231.136	99.81
231.37	96.81
231.604	100.81
231.838	115.81
232.072	104.81
232.306	105.81
232.541	105.81
232.775	108.81
233.009	108.81
233.243	109.81
233.477	99.81
233.711	109.81
233.945	95.81
234.179	124.81
234.413	122.81
234.647	116.81
234.881	121.81
235.115	118.81
235.349	100.81
235.583	97.81
235.817	114.81
236.051	121.81
236.285	118.81
236.519	124.81
236.753	118.81
236.987	135.81
237.221	170.81
237.455	198.81
237.689	160.81
237.922	132.81
238.156	126.81
238.39	122.81
238.624	114.81
238.858	114.81
239.091	128.81
239.325	119.81
239.559	115.81
239.793	117.81
240.027	125.81
240.26	130.81
240.494	128.81
240.728	148.81
240.961	145.81
241.195	133.81
241.429	128.81
241.662	116.81
241.896	111.81
242.13	124.81
242.363	112.81
242.597	121.81
242.83	121.81
243.064	124.81
243.298	125.81
243.531	122.81
243.765	125.81
243.998	128.81
244.232	119.81
244.465	133.81
244.699	132.81
244.932	130.81
245.166	145.81
245.399	141.81
245.633	132.81
245.866	147.81
246.099	140.81
246.333	124.81
246.566	135.81
246.8	134.81
247.033	149.81
247.266	137.81
247.5	139.81
247.733	154.81
247.966	156.81
248.2	153.81
248.433	139.81
248.666	159.81
248.899	155.81
249.133	183.81
249.366	202.81
249.599	191.81
249.832	172.81
250.066	172.81
250.299	168.81
250.532	179.81
250.765	186.81
250.998	192.81
251.231	209.81
251.465	185.81
251.698	181.81
251.931	169.81
252.164	184.81
252.397	188.81
252.63	177.81
252.863	180.81
253.096	203.81
253.329	217.81
253.562	212.81
253.795	204.81
254.028	201.81
254.261	206.81
254.494	209.81
254.727	217.81
254.96	241.81
255.193	241.81
255.426	233.81
255.659	211.81
255.892	225.81
256.124	206.81
256.357	215.81
256.59	224.81
256.823	203.81
257.056	193.81
257.289	194.81
257.521	188.81
257.754	178.81
257.987	201.81
258.22	191.81
258.452	180.81
258.685	162.81
258.918	203.81
259.151	169.81
259.383	203.81
259.616	208.81
259.849	199.81
260.081	217.81
260.314	241.81
260.547	237.81
260.779	224.81
261.012	194.81
261.244	210.81
261.477	211.81
261.71	202.81
261.942	214.81
262.175	216.81
262.407	213.81
262.64	190.81
262.872	197.81
263.105	202.81
263.337	199.81
263.57	184.81
263.802	196.81
264.035	203.81
264.267	188.81
264.499	161.81
264.732	196.81
264.964	188.81
265.197	210.81
265.429	202.81
265.661	196.81
265.894	187.81
266.126	203.81
266.358	206.81
266.591	197.81
266.823	204.81
267.055	197.81
267.287	205.81
267.52	196.81
267.752	219.81
267.984	213.81
268.216	212.81
268.448	220.81
268.681	204.81
268.913	214.81
269.145	227.81
269.377	241.81
269.609	239.81
269.841	235.81
270.073	254.81
270.306	266.81
270.538	276.81
270.77	264.81
271.002	284.81
271.234	269.81
271.466	277.81
271.698	261.81
271.93	283.81
272.162	294.81
272.394	288.81
272.626	275.81
272.858	275.81
273.09	267.81
273.322	249.81
273.553	237.81
273.785	228.81
274.017	232.81
274.249	233.81
274.481	242.81
274.713	240.81
274.945	249.81
275.176	245.81
275.408	242.81
275.64	235.81
275.872	235.81
276.104	235.81
276.335	240.81
276.567	250.81
276.799	265.81
277.031	293.81
277.262	286.81
277.494	301.81
277.726	271.81
277.957	272.81
278.189	264.81
278.421	244.81
278.652	260.81
278.884	235.81
279.115	244.81
279.347	230.81
279.579	250.81
279.81	224.81
280.042	239.81
280.273	231.81
280.505	233.81
280.736	241.81
280.968	235.81
281.199	237.81
281.431	247.81
281.662	226.81
281.894	228.81
282.125	248.81
282.356	260.81
282.588	278.81
282.819	264.81
283.051	248.81
283.282	238.81
283.513	242.81
283.745	248.81
283.976	242.81
284.207	245.81
284.439	254.81
284.67	248.81
284.901	223.81
285.132	224.81
285.364	225.81
285.595	251.81
285.826	230.81
286.057	231.81
286.288	243.81
286.52	262.81
286.751	242.81
286.982	241.81
287.213	259.81
287.444	252.81
287.675	266.81
287.906	267.81
288.138	266.81
288.369	268.81
288.6	271.81
288.831	262.81
289.062	258.81
289.293	263.81
289.524	268.81
289.755	250.81
289.986	248.81
290.217	249.81
290.448	237.81
290.679	252.81
290.91	250.81
291.141	241.81
291.371	250.81
291.602	261.81
291.833	251.81
292.064	277.81
292.295	254.81
292.526	245.81
292.757	256.81
292.987	263.81
293.218	257.81
293.449	262.81
293.68	267.81
293.91	265.81
294.141	246.81
294.372	252.81
294.603	263.81
294.833	231.81
295.064	253.81
295.295	250.81
295.525	262.81
295.756	254.81
295.987	278.81
296.217	299.81
296.448	307.81
296.679	271.81
296.909	261.81
297.14	265.81
297.37	269.81
297.601	266.81
297.831	254.81
298.062	264.81
298.292	270.81
298.523	268.81
298.753	261.81
298.984	270.81
299.214	267.81
299.445	264.81
299.675	278.81
299.905	279.81
300.136	279.81
300.366	274.81
300.597	269.81
300.827	266.81
301.057	268.81
301.288	298.81
301.518	288.81
301.748	282.81
301.979	294.81
302.209	306.81
302.439	286.81
302.669	280.81
302.9	286.81
303.13	290.81
303.36	296.81
303.59	281.81
303.82	299.81
304.051	305.81
304.281	282.81
304.511	295.81
304.741	286.81
304.971	298.81
305.201	288.81
305.431	288.81
305.661	303.81
305.891	269.81
306.121	276.81
306.352	299.81
306.582	303.81
306.812	297.81
307.042	292.81
307.272	286.81
307.502	285.81
307.731	297.81
307.961	306.81
308.191	293.81
308.421	293.81
308.651	295.81
308.881	322.81
309.111	308.81
309.341	326.81
309.571	321.81
309.8	322.81
310.03	328.81
310.26	333.81
310.49	336.81
310.72	351.81
310.949	371.81
311.179	361.81
311.409	338.81
311.639	360.81
311.868	357.81
312.098	324.81
312.328	348.81
312.557	348.81
312.787	361.81
313.017	362.81
313.246	348.81
313.476	337.81
313.706	342.81
313.935	354.81
314.165	349.81
314.394	376.81
314.624	369.81
314.853	354.81
315.083	343.81
315.312	331.81
315.542	336.81
315.771	320.81
316.001	339.81
316.23	344.81
316.46	323.81
316.689	342.81
316.919	354.81
317.148	355.81
317.377	349.81
317.607	347.81
317.836	355.81
318.065	334.81
318.295	348.81
318.524	344.81
318.753	333.81
318.983	329.81
319.212	325.81
319.441	334.81
319.67	355.81
319.9	348.81
320.129	346.81
320.358	358.81
320.587	345.81
320.816	360.81
321.046	347.81
321.275	379.81
321.504	380.81
321.733	370.81
321.962	351.81
322.191	379.81
322.42	390.81
322.649	394.81
322.878	424.81
323.108	422.81
323.337	457.81
323.566	464.81
323.795	505.81
324.024	552.81
324.253	686.81
324.482	1008.81
324.71	1495.81
324.939	2010.81
325.168	1687.81
325.397	910.81
325.626	614.81
325.855	527.81
326.084	486.81
326.313	483.81
326.542	478.81
326.77	533.81
326.999	632.81
327.228	883.81
327.457	1296.81
327.686	1481.81
327.914	976.81
328.143	670.81
328.372	614.81
328.6	546.81
328.829	524.81
329.058	541.81
329.287	543.81
329.515	501.81
329.744	473.81
329.972	468.81
330.201	489.81
330.43	510.81
330.658	564.81
330.887	582.81
331.115	570.81
331.344	488.81
331.572	462.81
331.801	453.81
332.03	449.81
332.258	435.81
332.486	396.81
332.715	404.81
332.943	398.81
333.172	408.81
333.4	417.81
333.629	416.81
333.857	430.81
334.085	430.81
334.314	458.81
334.542	473.81
334.771	478.81
334.999	434.81
335.227	438.81
335.455	407.81
335.684	397.81
335.912	396.81
336.14	398.81
336.369	397.81
336.597	406.81
336.825	382.81
337.053	407.81
337.281	389.81
337.51	378.81
337.738	380.81
337.966	386.81
338.194	398.81
338.422	379.81
338.65	365.81
338.878	380.81
339.106	378.81
339.334	375.81
339.562	374.81
339.79	370.81
340.018	370.81
340.246	381.81
340.474	365.81
340.702	396.81
340.93	365.81
341.158	371.81
341.386	388.81
341.614	370.81
341.842	380.81
342.07	381.81
342.298	354.81
342.526	362.81
342.754	369.81
342.981	362.81
343.209	365.81
343.437	388.81
343.665	384.81
343.893	366.81
344.12	374.81
344.348	382.81
344.576	353.81
344.804	398.81
345.031	383.81
345.259	409.81
345.487	396.81
345.714	373.81
345.942	384.81
346.17	371.81
346.397	373.81
346.625	380.81
346.853	347.81
347.08	364.81
347.308	359.81
347.535	390.81
347.763	376.81
347.99	374.81
348.218	385.81
348.445	395.81
348.673	388.81
348.9	360.81
349.128	347.81
349.355	349.81
349.583	371.81
349.81	376.81
350.037	345.81
350.265	359.81
350.492	341.81
350.72	364.81
350.947	368.81
351.174	387.81
351.402	370.81
351.629	377.81
351.856	374.81
352.083	381.81
352.311	408.81
352.538	376.81
352.765	385.81
352.992	361.81
353.22	356.81
353.447	360.81
353.674	366.81
353.901	358.81
354.128	335.81
354.355	359.81
354.583	349.81
354.81	346.81
355.037	344.81
355.264	340.81
355.491	334.81
355.718	336.81
355.945	331.81
356.172	327.81
356.399	339.81
356.626	339.81
356.853	339.81
357.08	339.81
357.307	340.81
357.534	316.81
357.761	332.81
357.988	341.81
358.215	336.81
358.441	341.81
358.668	348.81
358.895	344.81
359.122	353.81
359.349	346.81
359.576	373.81
359.802	410.81
360.029	414.81
360.256	439.81
360.483	428.81
360.709	381.81
360.936	378.81
361.163	376.81
361.39	389.81
361.616	385.81
361.843	361.81
362.07	378.81
362.296	384.81
362.523	368.81
362.749	365.81
362.976	360.81
363.203	347.81
363.429	343.81
363.656	335.81
363.882	336.81
364.109	342.81
364.335	351.81
364.562	349.81
364.788	352.81
365.015	334.81
365.241	357.81
365.468	357.81
365.694	363.81
365.92	364.81
366.147	356.81
366.373	330.81
366.599	357.81
366.826	332.81
367.052	325.81
367.278	345.81
367.505	337.81
367.731	345.81
367.957	357.81
368.184	343.81
368.41	361.81
368.636	363.81
368.862	382.81
369.089	352.81
369.315	351.81
369.541	333.81
369.767	309.81
369.993	336.81
370.219	346.81
370.445	343.81
370.672	330.81
370.898	348.81
371.124	342.81
371.35	346.81
371.576	340.81
371.802	345.81
372.028	346.81
372.254	345.81
372.48	349.81
372.706	359.81
372.932	334.81
373.158	343.81
373.384	352.81
373.61	337.81
373.835	322.81
374.061	329.81
374.287	362.81
374.513	335.81
374.739	345.81
374.965	348.81
375.191	346.81
375.416	354.81
375.642	320.81
375.868	326.81
376.094	314.81
376.319	341.81
376.545	353.81
376.771	324.81
376.997	343.81
377.222	344.81
377.448	331.81
377.674	330.81
377.899	335.81
378.125	356.81
378.35	347.81
378.576	321.81
378.802	330.81
379.027	333.81
379.253	328.81
379.478	333.81
379.704	343.81
379.929	338.81
380.155	335.81
380.38	325.81
380.606	344.81
380.831	334.81
381.057	344.81
381.282	346.81
381.507	349.81
381.733	333.81
381.958	317.81
382.184	350.81
382.409	348.81
382.634	334.81
382.86	341.81
383.085	339.81
383.31	343.81
383.535	357.81
383.761	353.81
383.986	332.81
384.211	351.81
384.436	341.81
384.662	335.81
384.887	360.81
385.112	357.81
385.337	365.81
385.562	371.81
385.787	363.81
386.013	362.81
386.238	384.81
386.463	374.81
386.688	377.81
386.913	369.81
387.138	358.81
387.363	344.81
387.588	366.81
387.813	365.81
388.038	356.81
388.263	362.81
388.488	377.81
388.713	384.81
388.938	378.81
389.163	362.81
389.387	380.81
389.612	354.81
389.837	347.81
390.062	354.81
390.287	366.81
390.512	363.81
390.736	343.81
390.961	359.81
391.186	345.81
391.411	363.81
391.636	356.81
391.86	354.81
392.085	369.81
392.31	372.81
392.534	360.81
392.759	378.81
392.984	366.81
393.208	371.81
393.433	374.81
393.658	360.81
393.882	368.81
394.107	377.81
394.331	372.81
394.556	373.81
394.78	354.81
395.005	358.81
395.229	346.81
395.454	361.81
395.678	354.81
395.903	389.81
396.127	390.81
396.352	401.81
396.576	373.81
396.801	383.81
397.025	368.81
397.249	382.81
397.474	383.81
397.698	376.81
397.922	381.81
398.147	396.81
398.371	404.81
398.595	417.81
398.82	374.81
399.044	409.81
399.268	411.81
399.492	428.81
399.717	445.81
399.941	481.81
400.165	486.81
400.389	492.81
400.613	438.81
400.837	419.81
401.062	396.81
401.286	416.81
401.51	409.81
401.734	405.81
401.958	393.81
402.182	419.81
402.406	443.81
402.63	435.81
402.854	425.81
403.078	418.81
403.302	420.81
403.526	408.81
403.75	420.81
403.974	425.81
404.198	413.81
404.422	426.81
404.645	432.81
404.869	420.81
405.093	451.81
405.317	496.81
405.541	490.81
405.765	481.81
405.988	451.81
406.212	456.81
406.436	480.81
406.66	507.81
406.883	458.81
407.107	467.81
407.331	503.81
407.555	533.81
407.778	544.81
408.002	505.81
408.226	464.81
408.449	451.81
408.673	459.81
408.896	481.81
409.12	520.81
409.344	472.81
409.567	450.81
409.791	445.81
410.014	422.81
410.238	434.81
410.461	440.81
410.685	426.81
410.908	444.81
411.132	454.81
411.355	457.81
411.578	463.81
411.802	436.81
412.025	436.81
412.249	423.81
412.472	454.81
412.695	475.81
412.919	462.81
413.142	426.81
413.365	437.81
413.589	404.81
413.812	384.81
414.035	416.81
414.258	395.81
414.482	376.81
414.705	403.81
414.928	411.81
415.151	403.81
415.374	413.81
415.597	385.81
415.821	397.81
416.044	391.81
416.267	390.81
416.49	406.81
416.713	387.81
416.936	396.81
417.159	391.81
417.382	408.81
417.605	399.81
417.828	421.81
418.051	424.81
418.274	400.81
418.497	401.81
418.72	398.81
418.943	386.81
419.166	412.81
419.389	425.81
419.611	420.81
419.834	432.81
420.057	436.81
420.28	416.81
420.503	423.81
420.726	420.81
420.948	421.81
421.171	455.81
421.394	486.81
421.617	453.81
421.839	433.81
422.062	407.81
422.285	424.81
422.507	471.81
422.73	510.81
422.953	504.81
423.175	438.81
423.398	428.81
423.621	448.81
423.843	462.81
424.066	453.81
424.288	453.81
424.511	457.81
424.733	499.81
424.956	558.81
425.178	572.81
425.401	529.81
425.623	542.81
425.846	511.81
426.068	474.81
426.291	466.81
426.513	441.81
426.735	456.81
426.958	499.81
427.18	554.81
427.402	660.81
427.625	717.81
427.847	645.81
428.069	557.81
428.292	531.81
428.514	449.81
428.736	441.81
428.958	422.81
429.181	422.81
429.403	417.81
429.625	421.81
429.847	453.81
430.069	499.81
430.292	494.81
430.514	448.81
430.736	415.81
430.958	398.81
431.18	413.81
431.402	384.81
431.624	392.81
431.846	385.81
432.068	394.81
432.29	413.81
432.512	396.81
432.734	381.81
432.956	382.81
433.178	409.81
433.4	432.81
433.622	390.81
433.844	408.81
434.066	420.81
434.287	388.81
434.509	408.81
434.731	419.81
434.953	418.81
435.175	419.81
435.397	432.81
435.618	453.81
435.84	497.81
436.062	564.81
436.284	585.81
436.505	514.81
436.727	481.81
436.949	423.81
437.17	406.81
437.392	420.81
437.614	442.81
437.835	454.81
438.057	522.81
438.278	605.81
438.5	614.81
438.721	640.81
438.943	609.81
439.165	522.81
439.386	468.81
439.608	442.81
439.829	461.81
440.05	490.81
440.272	516.81
440.493	481.81
440.715	467.81
440.936	443.81
441.158	414.81
441.379	432.81
441.6	422.81
441.822	456.81
442.043	498.81
442.264	564.81
442.486	577.81
442.707	498.81
442.928	469.81
443.149	483.81
443.371	485.81
443.592	514.81
443.813	594.81
444.034	603.81
444.255	522.81
444.476	483.81
444.698	454.81
444.919	463.81
445.14	581.81
445.361	533.81
445.582	470.81
445.803	546.81
446.024	636.81
446.245	627.81
446.466	585.81
446.687	512.81
446.908	458.81
447.129	421.81
447.35	427.81
447.571	437.81
447.792	414.81
448.013	418.81
448.234	441.81
448.455	484.81
448.675	592.81
448.896	635.81
449.117	560.81
449.338	511.81
449.559	614.81
449.779	659.81
450	549.81
450.221	474.81
450.442	440.81
450.662	413.81
450.883	428.81
451.104	447.81
451.324	408.81
451.545	410.81
451.766	404.81
451.986	406.81
452.207	392.81
452.428	392.81
452.648	369.81
452.869	406.81
453.089	404.81
453.31	421.81
453.53	402.81
453.751	408.81
453.971	395.81
454.192	405.81
454.412	401.81
454.633	386.81
454.853	373.81
455.073	369.81
455.294	405.81
455.514	465.81
455.734	459.81
455.955	390.81
456.175	374.81
456.395	373.81
456.616	377.81
456.836	372.81
457.056	362.81
457.276	354.81
457.497	371.81
457.717	356.81
457.937	358.81
458.157	364.81
458.377	355.81
458.598	385.81
458.818	456.81
459.038	506.81
459.258	517.81
459.478	423.81
459.698	411.81
459.918	411.81
460.138	417.81
460.358	399.81
460.578	389.81
460.798	417.81
461.018	411.81
461.238	413.81
461.458	369.81
461.678	408.81
461.898	381.81
462.118	377.81
462.338	397.81
462.558	413.81
462.777	407.81
462.997	422.81
463.217	436.81
463.437	440.81
463.657	418.81
463.876	397.81
464.096	402.81
464.316	416.81
464.536	441.81
464.755	425.81
464.975	426.81
465.195	463.81
465.414	571.81
465.634	496.81
465.854	453.81
466.073	422.81
466.293	386.81
466.512	382.81
466.732	378.81
466.951	394.81
467.171	403.81
467.391	372.81
467.61	407.81
467.829	392.81
468.049	394.81
468.268	406.81
468.488	390.81
468.707	371.81
468.927	366.81
469.146	374.81
469.365	375.81
469.585	384.81
469.804	385.81
470.023	422.81
470.243	388.81
470.462	406.81
470.681	401.81
470.901	412.81
471.12	397.81
471.339	393.81
471.558	379.81
471.777	407.81
471.997	373.81
472.216	386.81
472.435	419.81
472.654	412.81
472.873	409.81
473.092	397.81
473.311	397.81
473.53	414.81
473.749	406.81
473.968	411.81
474.187	529.81
474.406	526.81
474.625	442.81
474.844	404.81
475.063	386.81
475.282	396.81
475.501	392.81
475.72	394.81
475.939	396.81
476.158	387.81
476.377	411.81
476.596	396.81
476.814	410.81
477.033	402.81
477.252	439.81
477.471	416.81
477.69	418.81
477.908	426.81
478.127	422.81
478.346	428.81
478.564	446.81
478.783	439.81
479.002	439.81
479.22	437.81
479.439	449.81
479.658	481.81
479.876	462.81
480.095	480.81
480.313	495.81
480.532	469.81
480.751	471.81
480.969	477.81
481.188	545.81
481.406	592.81
481.624	498.81
481.843	457.81
482.061	462.81
482.28	468.81
482.498	460.81
482.717	455.81
482.935	460.81
483.153	462.81
483.372	434.81
483.59	460.81
483.808	441.81
484.027	464.81
484.245	461.81
484.463	473.81
484.681	480.81
484.9	472.81
485.118	473.81
485.336	445.81
485.554	466.81
485.772	479.81
485.99	463.81
486.209	473.81
486.427	483.81
486.645	481.81
486.863	501.81
487.081	502.81
487.299	497.81
487.517	507.81
487.735	483.81
487.953	498.81
488.171	488.81
488.389	497.81
488.607	481.81
488.825	502.81
489.043	509.81
489.261	509.81
489.479	457.81
489.696	498.81
489.914	489.81
490.132	508.81
490.35	533.81
490.568	521.81
490.786	523.81
491.003	529.81
491.221	546.81
491.439	546.81
491.657	538.81
491.874	562.81
492.092	584.81
492.31	597.81
492.527	564.81
492.745	586.81
492.963	592.81
493.18	571.81
493.398	592.81
493.615	592.81
493.833	572.81
494.05	574.81
494.268	593.81
494.485	563.81
494.703	596.81
494.92	568.81
495.138	587.81
495.355	579.81
495.573	612.81
495.79	580.81
496.008	592.81
496.225	587.81
496.442	590.81
496.66	590.81
496.877	586.81
497.094	592.81
497.312	580.81
497.529	593.81
497.746	602.81
497.963	617.81
498.181	616.81
498.398	632.81
498.615	642.81
498.832	624.81
499.049	645.81
499.267	667.81
499.484	669.81
499.701	697.81
499.918	691.81
500.135	732.81
500.352	743.81
500.569	754.81
500.786	732.81
501.003	760.81
501.22	726.81
501.437	704.81
501.654	720.81
501.871	724.81
502.088	688.81
