Data from 1983.PennyLincolnUp.Lamp.En5.5.200Scan.071819.P1_HRD10591_16-52-49-965.txt Node
Date: Thu Jul 18 16:52:49 EDT 2019
User: cochatt
Spectrometer: HR+D1059
Trigger mode: 1
Integration Time (sec): 1.000000E-1
Scans to average: 1
Electric dark correction enabled: true
Nonlinearity correction enabled: false
Boxcar width: 0
XAxis mode: Wavelengths
Number of Pixels in Spectrum: 2048
>>>>>Begin Spectral Data<<<<<
223.165	2.06
223.4	2.06
223.635	2.06
223.869	-11.94
224.104	-17.94
224.338	-27.94
224.573	-11.94
224.808	-11.94
225.042	-8.94
225.277	-5.94
225.511	-10.94
225.746	16.06
225.98	-3.94
226.215	20.06
226.449	8.06
226.683	18.06
226.918	25.06
227.152	22.06
227.387	26.06
227.621	36.06
227.856	59.06
228.09	39.06
228.324	67.06
228.559	67.06
228.793	76.06
229.027	76.06
229.262	86.06
229.496	117.06
229.73	115.06
229.964	145.06
230.199	126.06
230.433	126.06
230.667	95.06
230.901	110.06
231.136	107.06
231.37	119.06
231.604	118.06
231.838	127.06
232.072	109.06
232.306	105.06
232.541	115.06
232.775	102.06
233.009	103.06
233.243	115.06
233.477	108.06
233.711	117.06
233.945	109.06
234.179	118.06
234.413	111.06
234.647	117.06
234.881	103.06
235.115	114.06
235.349	110.06
235.583	118.06
235.817	125.06
236.051	129.06
236.285	114.06
236.519	127.06
236.753	136.06
236.987	152.06
237.221	145.06
237.455	175.06
237.689	158.06
237.922	125.06
238.156	131.06
238.39	110.06
238.624	113.06
238.858	119.06
239.091	105.06
239.325	125.06
239.559	113.06
239.793	118.06
240.027	121.06
240.26	138.06
240.494	149.06
240.728	133.06
240.961	138.06
241.195	134.06
241.429	131.06
241.662	116.06
241.896	113.06
242.13	120.06
242.363	123.06
242.597	128.06
242.83	110.06
243.064	124.06
243.298	133.06
243.531	132.06
243.765	124.06
243.998	131.06
244.232	137.06
244.465	141.06
244.699	144.06
244.932	121.06
245.166	135.06
245.399	123.06
245.633	127.06
245.866	133.06
246.099	139.06
246.333	149.06
246.566	144.06
246.8	121.06
247.033	153.06
247.266	132.06
247.5	146.06
247.733	165.06
247.966	169.06
248.2	156.06
248.433	151.06
248.666	169.06
248.899	167.06
249.133	182.06
249.366	189.06
249.599	185.06
249.832	177.06
250.066	165.06
250.299	166.06
250.532	167.06
250.765	175.06
250.998	190.06
251.231	203.06
251.465	199.06
251.698	195.06
251.931	204.06
252.164	166.06
252.397	187.06
252.63	171.06
252.863	177.06
253.096	182.06
253.329	188.06
253.562	196.06
253.795	207.06
254.028	190.06
254.261	205.06
254.494	201.06
254.727	213.06
254.96	236.06
255.193	239.06
255.426	215.06
255.659	217.06
255.892	187.06
256.124	196.06
256.357	174.06
256.59	197.06
256.823	195.06
257.056	188.06
257.289	173.06
257.521	195.06
257.754	175.06
257.987	190.06
258.22	198.06
258.452	191.06
258.685	201.06
258.918	195.06
259.151	202.06
259.383	194.06
259.616	197.06
259.849	214.06
260.081	212.06
260.314	213.06
260.547	208.06
260.779	214.06
261.012	215.06
261.244	221.06
261.477	201.06
261.71	212.06
261.942	207.06
262.175	230.06
262.407	207.06
262.64	185.06
262.872	188.06
263.105	191.06
263.337	197.06
263.57	203.06
263.802	191.06
264.035	205.06
264.267	190.06
264.499	216.06
264.732	191.06
264.964	187.06
265.197	207.06
265.429	199.06
265.661	207.06
265.894	188.06
266.126	187.06
266.358	214.06
266.591	219.06
266.823	206.06
267.055	205.06
267.287	211.06
267.52	215.06
267.752	207.06
267.984	207.06
268.216	193.06
268.448	222.06
268.681	203.06
268.913	220.06
269.145	239.06
269.377	259.06
269.609	223.06
269.841	228.06
270.073	247.06
270.306	244.06
270.538	272.06
270.77	269.06
271.002	272.06
271.234	237.06
271.466	277.06
271.698	280.06
271.93	263.06
272.162	271.06
272.394	260.06
272.626	280.06
272.858	251.06
273.09	248.06
273.322	244.06
273.553	249.06
273.785	223.06
274.017	254.06
274.249	245.06
274.481	230.06
274.713	229.06
274.945	237.06
275.176	249.06
275.408	239.06
275.64	209.06
275.872	238.06
276.104	245.06
276.335	247.06
276.567	223.06
276.799	227.06
277.031	275.06
277.262	263.06
277.494	285.06
277.726	265.06
277.957	274.06
278.189	247.06
278.421	246.06
278.652	232.06
278.884	240.06
279.115	241.06
279.347	233.06
279.579	225.06
279.81	245.06
280.042	243.06
280.273	244.06
280.505	228.06
280.736	241.06
280.968	236.06
281.199	235.06
281.431	243.06
281.662	259.06
281.894	247.06
282.125	227.06
282.356	253.06
282.588	286.06
282.819	269.06
283.051	268.06
283.282	247.06
283.513	234.06
283.745	255.06
283.976	246.06
284.207	246.06
284.439	262.06
284.67	259.06
284.901	240.06
285.132	257.06
285.364	243.06
285.595	240.06
285.826	257.06
286.057	250.06
286.288	263.06
286.52	261.06
286.751	256.06
286.982	248.06
287.213	256.06
287.444	251.06
287.675	271.06
287.906	263.06
288.138	270.06
288.369	263.06
288.6	278.06
288.831	250.06
289.062	265.06
289.293	257.06
289.524	250.06
289.755	246.06
289.986	269.06
290.217	265.06
290.448	268.06
290.679	260.06
290.91	262.06
291.141	247.06
291.371	264.06
291.602	256.06
291.833	254.06
292.064	277.06
292.295	271.06
292.526	274.06
292.757	271.06
292.987	267.06
293.218	255.06
293.449	251.06
293.68	263.06
293.91	263.06
294.141	257.06
294.372	247.06
294.603	263.06
294.833	287.06
295.064	264.06
295.295	277.06
295.525	270.06
295.756	251.06
295.987	262.06
296.217	290.06
296.448	289.06
296.679	274.06
296.909	256.06
297.14	269.06
297.37	270.06
297.601	261.06
297.831	272.06
298.062	273.06
298.292	271.06
298.523	270.06
298.753	293.06
298.984	282.06
299.214	272.06
299.445	281.06
299.675	270.06
299.905	272.06
300.136	277.06
300.366	273.06
300.597	265.06
300.827	300.06
301.057	300.06
301.288	284.06
301.518	301.06
301.748	273.06
301.979	305.06
302.209	288.06
302.439	281.06
302.669	275.06
302.9	312.06
303.13	293.06
303.36	309.06
303.59	293.06
303.82	303.06
304.051	307.06
304.281	296.06
304.511	297.06
304.741	279.06
304.971	296.06
305.201	285.06
305.431	288.06
305.661	288.06
305.891	304.06
306.121	304.06
306.352	290.06
306.582	294.06
306.812	299.06
307.042	311.06
307.272	280.06
307.502	291.06
307.731	303.06
307.961	297.06
308.191	300.06
308.421	302.06
308.651	285.06
308.881	313.06
309.111	296.06
309.341	311.06
309.571	305.06
309.8	309.06
310.03	319.06
310.26	331.06
310.49	336.06
310.72	324.06
310.949	361.06
311.179	343.06
311.409	341.06
311.639	337.06
311.868	333.06
312.098	334.06
312.328	342.06
312.557	334.06
312.787	355.06
313.017	371.06
313.246	355.06
313.476	330.06
313.706	317.06
313.935	337.06
314.165	352.06
314.394	353.06
314.624	348.06
314.853	353.06
315.083	329.06
315.312	336.06
315.542	347.06
315.771	326.06
316.001	338.06
316.23	340.06
316.46	332.06
316.689	341.06
316.919	342.06
317.148	354.06
317.377	345.06
317.607	346.06
317.836	339.06
318.065	327.06
318.295	328.06
318.524	341.06
318.753	332.06
318.983	324.06
319.212	334.06
319.441	331.06
319.67	328.06
319.9	331.06
320.129	334.06
320.358	329.06
320.587	362.06
320.816	366.06
321.046	355.06
321.275	334.06
321.504	343.06
321.733	349.06
321.962	364.06
322.191	366.06
322.42	356.06
322.649	399.06
322.878	391.06
323.108	416.06
323.337	414.06
323.566	433.06
323.795	462.06
324.024	524.06
324.253	627.06
324.482	885.06
324.71	1309.06
324.939	1754.06
325.168	1465.06
325.397	819.06
325.626	558.06
325.855	468.06
326.084	437.06
326.313	431.06
326.542	445.06
326.77	493.06
326.999	590.06
327.228	773.06
327.457	1141.06
327.686	1315.06
327.914	881.06
328.143	609.06
328.372	540.06
328.6	520.06
328.829	479.06
329.058	505.06
329.287	517.06
329.515	495.06
329.744	432.06
329.972	431.06
330.201	419.06
330.43	471.06
330.658	478.06
330.887	535.06
331.115	501.06
331.344	441.06
331.572	437.06
331.801	450.06
332.03	443.06
332.258	409.06
332.486	386.06
332.715	393.06
332.943	371.06
333.172	392.06
333.4	402.06
333.629	389.06
333.857	397.06
334.085	404.06
334.314	399.06
334.542	399.06
334.771	413.06
334.999	413.06
335.227	413.06
335.455	376.06
335.684	401.06
335.912	383.06
336.14	388.06
336.369	371.06
336.597	398.06
336.825	381.06
337.053	378.06
337.281	392.06
337.51	393.06
337.738	370.06
337.966	403.06
338.194	368.06
338.422	382.06
338.65	369.06
338.878	385.06
339.106	373.06
339.334	369.06
339.562	367.06
339.79	366.06
340.018	388.06
340.246	383.06
340.474	378.06
340.702	408.06
340.93	378.06
341.158	377.06
341.386	389.06
341.614	383.06
341.842	387.06
342.07	369.06
342.298	364.06
342.526	363.06
342.754	368.06
342.981	364.06
343.209	358.06
343.437	347.06
343.665	375.06
343.893	348.06
344.12	362.06
344.348	374.06
344.576	367.06
344.804	371.06
345.031	395.06
345.259	396.06
345.487	394.06
345.714	374.06
345.942	351.06
346.17	384.06
346.397	343.06
346.625	345.06
346.853	363.06
347.08	371.06
347.308	369.06
347.535	377.06
347.763	378.06
347.99	367.06
348.218	381.06
348.445	379.06
348.673	381.06
348.9	358.06
349.128	343.06
349.355	371.06
349.583	355.06
349.81	357.06
350.037	352.06
350.265	352.06
350.492	351.06
350.72	347.06
350.947	375.06
351.174	375.06
351.402	374.06
351.629	367.06
351.856	379.06
352.083	376.06
352.311	388.06
352.538	376.06
352.765	400.06
352.992	381.06
353.22	366.06
353.447	360.06
353.674	361.06
353.901	348.06
354.128	355.06
354.355	333.06
354.583	348.06
354.81	356.06
355.037	359.06
355.264	343.06
355.491	342.06
355.718	345.06
355.945	341.06
356.172	333.06
356.399	320.06
356.626	343.06
356.853	337.06
357.08	350.06
357.307	344.06
357.534	343.06
357.761	350.06
357.988	340.06
358.215	347.06
358.441	350.06
358.668	328.06
358.895	344.06
359.122	341.06
359.349	365.06
359.576	374.06
359.802	381.06
360.029	402.06
360.256	407.06
360.483	404.06
360.709	381.06
360.936	371.06
361.163	381.06
361.39	380.06
361.616	392.06
361.843	378.06
362.07	368.06
362.296	381.06
362.523	352.06
362.749	361.06
362.976	342.06
363.203	347.06
363.429	341.06
363.656	329.06
363.882	341.06
364.109	349.06
364.335	333.06
364.562	358.06
364.788	355.06
365.015	346.06
365.241	344.06
365.468	357.06
365.694	377.06
365.92	353.06
366.147	352.06
366.373	341.06
366.599	343.06
366.826	329.06
367.052	344.06
367.278	343.06
367.505	351.06
367.731	332.06
367.957	339.06
368.184	343.06
368.41	340.06
368.636	351.06
368.862	364.06
369.089	353.06
369.315	343.06
369.541	351.06
369.767	338.06
369.993	357.06
370.219	340.06
370.445	331.06
370.672	334.06
370.898	339.06
371.124	340.06
371.35	356.06
371.576	364.06
371.802	351.06
372.028	333.06
372.254	363.06
372.48	342.06
372.706	363.06
372.932	332.06
373.158	364.06
373.384	357.06
373.61	345.06
373.835	355.06
374.061	352.06
374.287	352.06
374.513	354.06
374.739	340.06
374.965	343.06
375.191	336.06
375.416	359.06
375.642	351.06
375.868	343.06
376.094	358.06
376.319	368.06
376.545	325.06
376.771	333.06
376.997	335.06
377.222	351.06
377.448	332.06
377.674	355.06
377.899	329.06
378.125	335.06
378.35	353.06
378.576	329.06
378.802	333.06
379.027	345.06
379.253	345.06
379.478	341.06
379.704	321.06
379.929	334.06
380.155	343.06
380.38	331.06
380.606	346.06
380.831	327.06
381.057	361.06
381.282	352.06
381.507	337.06
381.733	320.06
381.958	349.06
382.184	353.06
382.409	355.06
382.634	359.06
382.86	356.06
383.085	361.06
383.31	367.06
383.535	361.06
383.761	366.06
383.986	377.06
384.211	338.06
384.436	366.06
384.662	376.06
384.887	349.06
385.112	363.06
385.337	359.06
385.562	364.06
385.787	365.06
386.013	375.06
386.238	383.06
386.463	377.06
386.688	367.06
386.913	380.06
387.138	366.06
387.363	354.06
387.588	379.06
387.813	371.06
388.038	358.06
388.263	379.06
388.488	364.06
388.713	366.06
388.938	372.06
389.163	347.06
389.387	372.06
389.612	367.06
389.837	360.06
390.062	375.06
390.287	371.06
390.512	376.06
390.736	373.06
390.961	362.06
391.186	359.06
391.411	375.06
391.636	368.06
391.86	389.06
392.085	366.06
392.31	397.06
392.534	375.06
392.759	375.06
392.984	378.06
393.208	365.06
393.433	381.06
393.658	367.06
393.882	365.06
394.107	366.06
394.331	359.06
394.556	354.06
394.78	389.06
395.005	383.06
395.229	380.06
395.454	391.06
395.678	365.06
395.903	365.06
396.127	412.06
396.352	421.06
396.576	376.06
396.801	372.06
397.025	380.06
397.249	402.06
397.474	409.06
397.698	393.06
397.922	389.06
398.147	409.06
398.371	421.06
398.595	414.06
398.82	419.06
399.044	405.06
399.268	418.06
399.492	454.06
399.717	469.06
399.941	486.06
400.165	527.06
400.389	493.06
400.613	447.06
400.837	448.06
401.062	433.06
401.286	435.06
401.51	429.06
401.734	413.06
401.958	414.06
402.182	424.06
402.406	427.06
402.63	452.06
402.854	423.06
403.078	437.06
403.302	427.06
403.526	426.06
403.75	428.06
403.974	420.06
404.198	416.06
404.422	436.06
404.645	444.06
404.869	431.06
405.093	431.06
405.317	468.06
405.541	502.06
405.765	453.06
405.988	464.06
406.212	469.06
406.436	471.06
406.66	483.06
406.883	474.06
407.107	486.06
407.331	503.06
407.555	572.06
407.778	553.06
408.002	515.06
408.226	451.06
408.449	458.06
408.673	459.06
408.896	487.06
409.12	514.06
409.344	488.06
409.567	445.06
409.791	457.06
410.014	419.06
410.238	423.06
410.461	422.06
410.685	447.06
410.908	426.06
411.132	474.06
411.355	482.06
411.578	472.06
411.802	458.06
412.025	426.06
412.249	429.06
412.472	449.06
412.695	445.06
412.919	447.06
413.142	435.06
413.365	415.06
413.589	402.06
413.812	426.06
414.035	409.06
414.258	413.06
414.482	402.06
414.705	380.06
414.928	407.06
415.151	409.06
415.374	402.06
415.597	408.06
415.821	417.06
416.044	400.06
416.267	415.06
416.49	411.06
416.713	391.06
416.936	406.06
417.159	394.06
417.382	392.06
417.605	430.06
417.828	403.06
418.051	416.06
418.274	416.06
418.497	406.06
418.72	399.06
418.943	411.06
419.166	420.06
419.389	431.06
419.611	429.06
419.834	431.06
420.057	408.06
420.28	430.06
420.503	423.06
420.726	428.06
420.948	425.06
421.171	456.06
421.394	476.06
421.617	458.06
421.839	446.06
422.062	426.06
422.285	433.06
422.507	493.06
422.73	537.06
422.953	514.06
423.175	471.06
423.398	442.06
423.621	439.06
423.843	474.06
424.066	473.06
424.288	451.06
424.511	461.06
424.733	516.06
424.956	588.06
425.178	566.06
425.401	551.06
425.623	556.06
425.846	495.06
426.068	447.06
426.291	461.06
426.513	465.06
426.735	477.06
426.958	499.06
427.18	570.06
427.402	633.06
427.625	720.06
427.847	633.06
428.069	543.06
428.292	470.06
428.514	453.06
428.736	457.06
428.958	424.06
429.181	437.06
429.403	397.06
429.625	427.06
429.847	483.06
430.069	515.06
430.292	523.06
430.514	423.06
430.736	415.06
430.958	430.06
431.18	394.06
431.402	403.06
431.624	385.06
431.846	389.06
432.068	411.06
432.29	383.06
432.512	386.06
432.734	407.06
432.956	409.06
433.178	407.06
433.4	401.06
433.622	422.06
433.844	403.06
434.066	395.06
434.287	398.06
434.509	427.06
434.731	425.06
434.953	414.06
435.175	425.06
435.397	465.06
435.618	448.06
435.84	519.06
436.062	559.06
436.284	593.06
436.505	522.06
436.727	476.06
436.949	413.06
437.17	423.06
437.392	417.06
437.614	447.06
437.835	457.06
438.057	568.06
438.278	629.06
438.5	614.06
438.721	672.06
438.943	637.06
439.165	525.06
439.386	477.06
439.608	473.06
439.829	475.06
440.05	489.06
440.272	521.06
440.493	501.06
440.715	458.06
440.936	430.06
441.158	423.06
441.379	430.06
441.6	456.06
441.822	469.06
442.043	495.06
442.264	555.06
442.486	580.06
442.707	509.06
442.928	489.06
443.149	469.06
443.371	493.06
443.592	528.06
443.813	590.06
444.034	600.06
444.255	529.06
444.476	478.06
444.698	470.06
444.919	453.06
445.14	589.06
445.361	521.06
445.582	492.06
445.803	555.06
446.024	630.06
446.245	634.06
446.466	551.06
446.687	492.06
446.908	455.06
447.129	469.06
447.35	443.06
447.571	415.06
447.792	408.06
448.013	420.06
448.234	453.06
448.455	490.06
448.675	587.06
448.896	621.06
449.117	555.06
449.338	549.06
449.559	636.06
449.779	659.06
450	556.06
450.221	467.06
450.442	432.06
450.662	441.06
450.883	438.06
451.104	440.06
451.324	441.06
451.545	402.06
451.766	385.06
451.986	380.06
452.207	378.06
452.428	385.06
452.648	378.06
452.869	399.06
453.089	393.06
453.31	410.06
453.53	387.06
453.751	407.06
453.971	363.06
454.192	407.06
454.412	407.06
454.633	371.06
454.853	367.06
455.073	379.06
455.294	401.06
455.514	464.06
455.734	447.06
455.955	383.06
456.175	371.06
456.395	383.06
456.616	362.06
456.836	374.06
457.056	363.06
457.276	340.06
457.497	356.06
457.717	367.06
457.937	366.06
458.157	379.06
458.377	377.06
458.598	397.06
458.818	448.06
459.038	500.06
459.258	492.06
459.478	426.06
459.698	415.06
459.918	407.06
460.138	395.06
460.358	411.06
460.578	419.06
460.798	416.06
461.018	401.06
461.238	407.06
461.458	404.06
461.678	401.06
461.898	409.06
462.118	418.06
462.338	415.06
462.558	410.06
462.777	417.06
462.997	428.06
463.217	449.06
463.437	445.06
463.657	446.06
463.876	441.06
464.096	428.06
464.316	419.06
464.536	445.06
464.755	444.06
464.975	441.06
465.195	480.06
465.414	555.06
465.634	463.06
465.854	431.06
466.073	408.06
466.293	411.06
466.512	395.06
466.732	392.06
466.951	371.06
467.171	413.06
467.391	389.06
467.61	397.06
467.829	414.06
468.049	404.06
468.268	392.06
468.488	400.06
468.707	375.06
468.927	389.06
469.146	371.06
469.365	381.06
469.585	382.06
469.804	380.06
470.023	405.06
470.243	398.06
470.462	397.06
470.681	397.06
470.901	406.06
471.12	395.06
471.339	384.06
471.558	392.06
471.777	411.06
471.997	384.06
472.216	398.06
472.435	393.06
472.654	397.06
472.873	399.06
473.092	401.06
473.311	398.06
473.53	383.06
473.749	395.06
473.968	431.06
474.187	513.06
474.406	528.06
474.625	439.06
474.844	400.06
475.063	405.06
475.282	375.06
475.501	400.06
475.72	408.06
475.939	393.06
476.158	398.06
476.377	409.06
476.596	393.06
476.814	397.06
477.033	390.06
477.252	445.06
477.471	439.06
477.69	420.06
477.908	424.06
478.127	435.06
478.346	423.06
478.564	437.06
478.783	425.06
479.002	445.06
479.22	441.06
479.439	462.06
479.658	477.06
479.876	457.06
480.095	495.06
480.313	505.06
480.532	469.06
480.751	483.06
480.969	478.06
481.188	465.06
481.406	475.06
481.624	469.06
481.843	459.06
482.061	479.06
482.28	471.06
482.498	457.06
482.717	448.06
482.935	457.06
483.153	455.06
483.372	469.06
483.59	459.06
483.808	471.06
484.027	460.06
484.245	437.06
484.463	455.06
484.681	481.06
484.9	453.06
485.118	466.06
485.336	468.06
485.554	456.06
485.772	464.06
485.99	484.06
486.209	482.06
486.427	479.06
486.645	469.06
486.863	494.06
487.081	513.06
487.299	494.06
487.517	491.06
487.735	494.06
487.953	487.06
488.171	475.06
488.389	515.06
488.607	481.06
488.825	496.06
489.043	502.06
489.261	492.06
489.479	507.06
489.696	496.06
489.914	489.06
490.132	521.06
490.35	506.06
490.568	494.06
490.786	528.06
491.003	530.06
491.221	544.06
491.439	536.06
491.657	555.06
491.874	565.06
492.092	541.06
492.31	556.06
492.527	552.06
492.745	569.06
492.963	572.06
493.18	594.06
493.398	573.06
493.615	581.06
493.833	577.06
494.05	576.06
494.268	553.06
494.485	548.06
494.703	556.06
494.92	581.06
495.138	595.06
495.355	599.06
495.573	543.06
495.79	584.06
496.008	593.06
496.225	566.06
496.442	581.06
496.66	584.06
496.877	595.06
497.094	598.06
497.312	593.06
497.529	623.06
497.746	599.06
497.963	619.06
498.181	612.06
498.398	640.06
498.615	661.06
498.832	660.06
499.049	657.06
499.267	680.06
499.484	695.06
499.701	709.06
499.918	738.06
500.135	744.06
500.352	772.06
500.569	779.06
500.786	800.06
501.003	789.06
501.22	778.06
501.437	745.06
501.654	717.06
501.871	728.06
502.088	719.06
