Data from 1983.PennyLincolnUp.Lamp.En5.5.200Scan.071819.P1_HRD10591_16-53-53-966.txt Node
Date: Thu Jul 18 16:53:53 EDT 2019
User: cochatt
Spectrometer: HR+D1059
Trigger mode: 1
Integration Time (sec): 1.000000E-1
Scans to average: 1
Electric dark correction enabled: true
Nonlinearity correction enabled: false
Boxcar width: 0
XAxis mode: Wavelengths
Number of Pixels in Spectrum: 2048
>>>>>Begin Spectral Data<<<<<
223.165	-23.5
223.4	-23.5
223.635	-23.5
223.869	-11.5
224.104	-19.5
224.338	-9.5
224.573	-4.5
224.808	-3.5
225.042	-16.5
225.277	-2.5
225.511	-11.5
225.746	1.5
225.98	15.5
226.215	-9.5
226.449	9.5
226.683	21.5
226.918	29.5
227.152	34.5
227.387	37.5
227.621	40.5
227.856	38.5
228.09	42.5
228.324	44.5
228.559	57.5
228.793	64.5
229.027	88.5
229.262	99.5
229.496	119.5
229.73	122.5
229.964	150.5
230.199	126.5
230.433	107.5
230.667	100.5
230.901	99.5
231.136	111.5
231.37	90.5
231.604	101.5
231.838	119.5
232.072	105.5
232.306	117.5
232.541	109.5
232.775	110.5
233.009	107.5
233.243	111.5
233.477	104.5
233.711	91.5
233.945	108.5
234.179	98.5
234.413	127.5
234.647	108.5
234.881	105.5
235.115	123.5
235.349	113.5
235.583	115.5
235.817	115.5
236.051	127.5
236.285	119.5
236.519	119.5
236.753	120.5
236.987	154.5
237.221	179.5
237.455	203.5
237.689	149.5
237.922	123.5
238.156	139.5
238.39	131.5
238.624	118.5
238.858	132.5
239.091	104.5
239.325	118.5
239.559	119.5
239.793	116.5
240.027	139.5
240.26	125.5
240.494	143.5
240.728	140.5
240.961	131.5
241.195	127.5
241.429	125.5
241.662	140.5
241.896	123.5
242.13	120.5
242.363	118.5
242.597	125.5
242.83	139.5
243.064	119.5
243.298	142.5
243.531	135.5
243.765	135.5
243.998	138.5
244.232	130.5
244.465	130.5
244.699	134.5
244.932	128.5
245.166	138.5
245.399	140.5
245.633	132.5
245.866	129.5
246.099	140.5
246.333	139.5
246.566	146.5
246.8	125.5
247.033	126.5
247.266	141.5
247.5	150.5
247.733	157.5
247.966	161.5
248.2	156.5
248.433	171.5
248.666	163.5
248.899	186.5
249.133	177.5
249.366	196.5
249.599	196.5
249.832	167.5
250.066	168.5
250.299	161.5
250.532	179.5
250.765	183.5
250.998	190.5
251.231	214.5
251.465	218.5
251.698	177.5
251.931	184.5
252.164	185.5
252.397	184.5
252.63	185.5
252.863	198.5
253.096	198.5
253.329	213.5
253.562	211.5
253.795	195.5
254.028	204.5
254.261	197.5
254.494	198.5
254.727	235.5
254.96	259.5
255.193	234.5
255.426	219.5
255.659	243.5
255.892	205.5
256.124	217.5
256.357	213.5
256.59	206.5
256.823	199.5
257.056	214.5
257.289	205.5
257.521	210.5
257.754	195.5
257.987	197.5
258.22	193.5
258.452	175.5
258.685	189.5
258.918	194.5
259.151	187.5
259.383	199.5
259.616	210.5
259.849	202.5
260.081	218.5
260.314	234.5
260.547	226.5
260.779	221.5
261.012	212.5
261.244	211.5
261.477	208.5
261.71	200.5
261.942	207.5
262.175	223.5
262.407	222.5
262.64	205.5
262.872	203.5
263.105	221.5
263.337	197.5
263.57	185.5
263.802	199.5
264.035	183.5
264.267	198.5
264.499	188.5
264.732	195.5
264.964	204.5
265.197	179.5
265.429	195.5
265.661	189.5
265.894	193.5
266.126	202.5
266.358	198.5
266.591	196.5
266.823	213.5
267.055	225.5
267.287	201.5
267.52	202.5
267.752	201.5
267.984	199.5
268.216	226.5
268.448	224.5
268.681	214.5
268.913	210.5
269.145	235.5
269.377	258.5
269.609	242.5
269.841	242.5
270.073	253.5
270.306	274.5
270.538	280.5
270.77	297.5
271.002	270.5
271.234	268.5
271.466	269.5
271.698	282.5
271.93	289.5
272.162	286.5
272.394	270.5
272.626	287.5
272.858	257.5
273.09	257.5
273.322	267.5
273.553	263.5
273.785	243.5
274.017	248.5
274.249	228.5
274.481	225.5
274.713	263.5
274.945	243.5
275.176	254.5
275.408	245.5
275.64	238.5
275.872	232.5
276.104	260.5
276.335	243.5
276.567	235.5
276.799	271.5
277.031	282.5
277.262	311.5
277.494	293.5
277.726	292.5
277.957	271.5
278.189	267.5
278.421	257.5
278.652	245.5
278.884	231.5
279.115	238.5
279.347	236.5
279.579	235.5
279.81	246.5
280.042	238.5
280.273	236.5
280.505	222.5
280.736	239.5
280.968	242.5
281.199	237.5
281.431	248.5
281.662	236.5
281.894	241.5
282.125	241.5
282.356	262.5
282.588	298.5
282.819	286.5
283.051	257.5
283.282	254.5
283.513	241.5
283.745	245.5
283.976	263.5
284.207	248.5
284.439	241.5
284.67	245.5
284.901	266.5
285.132	240.5
285.364	252.5
285.595	249.5
285.826	243.5
286.057	261.5
286.288	264.5
286.52	238.5
286.751	247.5
286.982	245.5
287.213	263.5
287.444	258.5
287.675	268.5
287.906	258.5
288.138	269.5
288.369	282.5
288.6	273.5
288.831	263.5
289.062	273.5
289.293	277.5
289.524	262.5
289.755	272.5
289.986	265.5
290.217	264.5
290.448	252.5
290.679	261.5
290.91	279.5
291.141	265.5
291.371	249.5
291.602	261.5
291.833	257.5
292.064	252.5
292.295	272.5
292.526	271.5
292.757	266.5
292.987	275.5
293.218	264.5
293.449	289.5
293.68	265.5
293.91	279.5
294.141	287.5
294.372	257.5
294.603	271.5
294.833	266.5
295.064	255.5
295.295	270.5
295.525	283.5
295.756	279.5
295.987	291.5
296.217	298.5
296.448	298.5
296.679	281.5
296.909	281.5
297.14	271.5
297.37	267.5
297.601	293.5
297.831	261.5
298.062	268.5
298.292	293.5
298.523	284.5
298.753	279.5
298.984	287.5
299.214	282.5
299.445	279.5
299.675	285.5
299.905	305.5
300.136	280.5
300.366	290.5
300.597	299.5
300.827	298.5
301.057	291.5
301.288	291.5
301.518	306.5
301.748	301.5
301.979	303.5
302.209	289.5
302.439	298.5
302.669	289.5
302.9	283.5
303.13	300.5
303.36	309.5
303.59	293.5
303.82	287.5
304.051	310.5
304.281	291.5
304.511	289.5
304.741	289.5
304.971	302.5
305.201	286.5
305.431	298.5
305.661	304.5
305.891	293.5
306.121	299.5
306.352	322.5
306.582	321.5
306.812	313.5
307.042	306.5
307.272	296.5
307.502	323.5
307.731	294.5
307.961	318.5
308.191	307.5
308.421	296.5
308.651	298.5
308.881	307.5
309.111	327.5
309.341	304.5
309.571	313.5
309.8	343.5
310.03	358.5
310.26	340.5
310.49	349.5
310.72	359.5
310.949	365.5
311.179	364.5
311.409	361.5
311.639	347.5
311.868	353.5
312.098	346.5
312.328	349.5
312.557	365.5
312.787	383.5
313.017	381.5
313.246	354.5
313.476	345.5
313.706	342.5
313.935	350.5
314.165	374.5
314.394	365.5
314.624	351.5
314.853	353.5
315.083	346.5
315.312	344.5
315.542	336.5
315.771	336.5
316.001	345.5
316.23	344.5
316.46	357.5
316.689	364.5
316.919	344.5
317.148	371.5
317.377	350.5
317.607	346.5
317.836	349.5
318.065	336.5
318.295	335.5
318.524	332.5
318.753	352.5
318.983	334.5
319.212	332.5
319.441	353.5
319.67	377.5
319.9	347.5
320.129	350.5
320.358	347.5
320.587	342.5
320.816	366.5
321.046	386.5
321.275	382.5
321.504	367.5
321.733	378.5
321.962	391.5
322.191	396.5
322.42	397.5
322.649	401.5
322.878	435.5
323.108	451.5
323.337	450.5
323.566	476.5
323.795	537.5
324.024	585.5
324.253	701.5
324.482	992.5
324.71	1529.5
324.939	2037.5
325.168	1681.5
325.397	903.5
325.626	618.5
325.855	529.5
326.084	474.5
326.313	495.5
326.542	476.5
326.77	557.5
326.999	615.5
327.228	891.5
327.457	1320.5
327.686	1500.5
327.914	1007.5
328.143	693.5
328.372	620.5
328.6	569.5
328.829	536.5
329.058	556.5
329.287	547.5
329.515	531.5
329.744	466.5
329.972	465.5
330.201	468.5
330.43	522.5
330.658	533.5
330.887	578.5
331.115	578.5
331.344	474.5
331.572	461.5
331.801	453.5
332.03	442.5
332.258	413.5
332.486	405.5
332.715	415.5
332.943	418.5
333.172	420.5
333.4	409.5
333.629	411.5
333.857	427.5
334.085	427.5
334.314	434.5
334.542	452.5
334.771	461.5
334.999	454.5
335.227	441.5
335.455	411.5
335.684	405.5
335.912	425.5
336.14	403.5
336.369	398.5
336.597	403.5
336.825	417.5
337.053	400.5
337.281	391.5
337.51	399.5
337.738	398.5
337.966	400.5
338.194	409.5
338.422	398.5
338.65	408.5
338.878	403.5
339.106	389.5
339.334	388.5
339.562	385.5
339.79	363.5
340.018	376.5
340.246	386.5
340.474	399.5
340.702	412.5
340.93	398.5
341.158	405.5
341.386	387.5
341.614	391.5
341.842	393.5
342.07	372.5
342.298	387.5
342.526	375.5
342.754	366.5
342.981	369.5
343.209	350.5
343.437	363.5
343.665	370.5
343.893	387.5
344.12	418.5
344.348	384.5
344.576	389.5
344.804	397.5
345.031	388.5
345.259	421.5
345.487	413.5
345.714	392.5
345.942	375.5
346.17	381.5
346.397	385.5
346.625	388.5
346.853	382.5
347.08	373.5
347.308	378.5
347.535	385.5
347.763	385.5
347.99	390.5
348.218	408.5
348.445	419.5
348.673	415.5
348.9	394.5
349.128	362.5
349.355	344.5
349.583	361.5
349.81	375.5
350.037	357.5
350.265	350.5
350.492	385.5
350.72	372.5
350.947	398.5
351.174	388.5
351.402	380.5
351.629	385.5
351.856	363.5
352.083	380.5
352.311	391.5
352.538	391.5
352.765	423.5
352.992	396.5
353.22	380.5
353.447	373.5
353.674	366.5
353.901	362.5
354.128	333.5
354.355	355.5
354.583	339.5
354.81	355.5
355.037	361.5
355.264	327.5
355.491	344.5
355.718	355.5
355.945	354.5
356.172	348.5
356.399	323.5
356.626	344.5
356.853	339.5
357.08	338.5
357.307	346.5
357.534	350.5
357.761	353.5
357.988	348.5
358.215	358.5
358.441	347.5
358.668	343.5
358.895	362.5
359.122	356.5
359.349	355.5
359.576	400.5
359.802	389.5
360.029	425.5
360.256	451.5
360.483	409.5
360.709	374.5
360.936	379.5
361.163	380.5
361.39	382.5
361.616	380.5
361.843	372.5
362.07	352.5
362.296	378.5
362.523	389.5
362.749	368.5
362.976	377.5
363.203	361.5
363.429	345.5
363.656	372.5
363.882	375.5
364.109	369.5
364.335	358.5
364.562	344.5
364.788	349.5
365.015	336.5
365.241	357.5
365.468	356.5
365.694	371.5
365.92	377.5
366.147	373.5
366.373	362.5
366.599	358.5
366.826	359.5
367.052	353.5
367.278	364.5
367.505	361.5
367.731	356.5
367.957	351.5
368.184	363.5
368.41	373.5
368.636	378.5
368.862	393.5
369.089	363.5
369.315	353.5
369.541	348.5
369.767	350.5
369.993	358.5
370.219	363.5
370.445	354.5
370.672	349.5
370.898	363.5
371.124	342.5
371.35	357.5
371.576	366.5
371.802	362.5
372.028	344.5
372.254	337.5
372.48	355.5
372.706	358.5
372.932	339.5
373.158	361.5
373.384	330.5
373.61	353.5
373.835	359.5
374.061	362.5
374.287	340.5
374.513	356.5
374.739	366.5
374.965	340.5
375.191	345.5
375.416	343.5
375.642	346.5
375.868	361.5
376.094	365.5
376.319	352.5
376.545	327.5
376.771	345.5
376.997	349.5
377.222	351.5
377.448	331.5
377.674	349.5
377.899	358.5
378.125	353.5
378.35	344.5
378.576	338.5
378.802	343.5
379.027	340.5
379.253	341.5
379.478	346.5
379.704	350.5
379.929	355.5
380.155	338.5
380.38	335.5
380.606	346.5
380.831	342.5
381.057	347.5
381.282	354.5
381.507	335.5
381.733	346.5
381.958	348.5
382.184	356.5
382.409	356.5
382.634	365.5
382.86	360.5
383.085	337.5
383.31	354.5
383.535	364.5
383.761	369.5
383.986	356.5
384.211	359.5
384.436	351.5
384.662	366.5
384.887	366.5
385.112	381.5
385.337	371.5
385.562	381.5
385.787	374.5
386.013	392.5
386.238	385.5
386.463	383.5
386.688	370.5
386.913	376.5
387.138	378.5
387.363	357.5
387.588	379.5
387.813	349.5
388.038	369.5
388.263	381.5
388.488	370.5
388.713	379.5
388.938	391.5
389.163	367.5
389.387	369.5
389.612	369.5
389.837	386.5
390.062	382.5
390.287	353.5
390.512	374.5
390.736	373.5
390.961	402.5
391.186	392.5
391.411	382.5
391.636	376.5
391.86	377.5
392.085	383.5
392.31	406.5
392.534	401.5
392.759	376.5
392.984	371.5
393.208	357.5
393.433	361.5
393.658	375.5
393.882	361.5
394.107	363.5
394.331	385.5
394.556	370.5
394.78	373.5
395.005	361.5
395.229	375.5
395.454	383.5
395.678	378.5
395.903	401.5
396.127	429.5
396.352	423.5
396.576	374.5
396.801	379.5
397.025	364.5
397.249	362.5
397.474	414.5
397.698	404.5
397.922	384.5
398.147	431.5
398.371	422.5
398.595	407.5
398.82	427.5
399.044	445.5
399.268	427.5
399.492	463.5
399.717	479.5
399.941	487.5
400.165	507.5
400.389	525.5
400.613	478.5
400.837	448.5
401.062	439.5
401.286	445.5
401.51	420.5
401.734	433.5
401.958	429.5
402.182	434.5
402.406	458.5
402.63	452.5
402.854	444.5
403.078	467.5
403.302	439.5
403.526	435.5
403.75	435.5
403.974	443.5
404.198	445.5
404.422	449.5
404.645	438.5
404.869	456.5
405.093	479.5
405.317	462.5
405.541	489.5
405.765	472.5
405.988	440.5
406.212	465.5
406.436	509.5
406.66	521.5
406.883	485.5
407.107	497.5
407.331	533.5
407.555	559.5
407.778	574.5
408.002	516.5
408.226	491.5
408.449	494.5
408.673	487.5
408.896	514.5
409.12	540.5
409.344	493.5
409.567	468.5
409.791	460.5
410.014	437.5
410.238	437.5
410.461	454.5
410.685	462.5
410.908	466.5
411.132	469.5
411.355	490.5
411.578	501.5
411.802	437.5
412.025	437.5
412.249	434.5
412.472	444.5
412.695	464.5
412.919	446.5
413.142	457.5
413.365	415.5
413.589	433.5
413.812	435.5
414.035	420.5
414.258	411.5
414.482	418.5
414.705	422.5
414.928	423.5
415.151	410.5
415.374	411.5
415.597	405.5
415.821	413.5
416.044	399.5
416.267	412.5
416.49	426.5
416.713	387.5
416.936	424.5
417.159	412.5
417.382	398.5
417.605	424.5
417.828	439.5
418.051	426.5
418.274	439.5
418.497	418.5
418.72	406.5
418.943	400.5
419.166	420.5
419.389	433.5
419.611	429.5
419.834	440.5
420.057	433.5
420.28	431.5
420.503	408.5
420.726	437.5
420.948	447.5
421.171	476.5
421.394	500.5
421.617	441.5
421.839	430.5
422.062	425.5
422.285	450.5
422.507	490.5
422.73	550.5
422.953	524.5
423.175	456.5
423.398	443.5
423.621	453.5
423.843	473.5
424.066	461.5
424.288	466.5
424.511	478.5
424.733	514.5
424.956	563.5
425.178	548.5
425.401	567.5
425.623	570.5
425.846	501.5
426.068	481.5
426.291	492.5
426.513	471.5
426.735	469.5
426.958	512.5
427.18	588.5
427.402	682.5
427.625	738.5
427.847	694.5
428.069	559.5
428.292	494.5
428.514	477.5
428.736	438.5
428.958	453.5
429.181	439.5
429.403	434.5
429.625	455.5
429.847	465.5
430.069	537.5
430.292	522.5
430.514	470.5
430.736	438.5
430.958	430.5
431.18	413.5
431.402	412.5
431.624	412.5
431.846	391.5
432.068	409.5
432.29	419.5
432.512	411.5
432.734	392.5
432.956	432.5
433.178	430.5
433.4	418.5
433.622	405.5
433.844	406.5
434.066	441.5
434.287	404.5
434.509	403.5
434.731	425.5
434.953	427.5
435.175	445.5
435.397	461.5
435.618	454.5
435.84	493.5
436.062	559.5
436.284	622.5
436.505	518.5
436.727	480.5
436.949	450.5
437.17	443.5
437.392	435.5
437.614	454.5
437.835	495.5
438.057	581.5
438.278	637.5
438.5	622.5
438.721	695.5
438.943	647.5
439.165	528.5
439.386	469.5
439.608	495.5
439.829	482.5
440.05	515.5
440.272	529.5
440.493	498.5
440.715	455.5
440.936	449.5
441.158	434.5
441.379	426.5
441.6	454.5
441.822	462.5
442.043	504.5
442.264	567.5
442.486	601.5
442.707	492.5
442.928	483.5
443.149	522.5
443.371	523.5
443.592	541.5
443.813	640.5
444.034	637.5
444.255	526.5
444.476	499.5
444.698	458.5
444.919	489.5
445.14	568.5
445.361	524.5
445.582	523.5
445.803	577.5
446.024	634.5
446.245	631.5
446.466	590.5
446.687	499.5
446.908	463.5
447.129	439.5
447.35	438.5
447.571	438.5
447.792	425.5
448.013	422.5
448.234	481.5
448.455	487.5
448.675	567.5
448.896	645.5
449.117	561.5
449.338	535.5
449.559	631.5
449.779	709.5
450	595.5
450.221	485.5
450.442	436.5
450.662	427.5
450.883	430.5
451.104	480.5
451.324	458.5
451.545	439.5
451.766	422.5
451.986	385.5
452.207	404.5
452.428	377.5
452.648	388.5
452.869	416.5
453.089	410.5
453.31	408.5
453.53	403.5
453.751	401.5
453.971	413.5
454.192	413.5
454.412	405.5
454.633	394.5
454.853	403.5
455.073	383.5
455.294	419.5
455.514	474.5
455.734	452.5
455.955	389.5
456.175	376.5
456.395	358.5
456.616	369.5
456.836	365.5
457.056	381.5
457.276	355.5
457.497	364.5
457.717	376.5
457.937	373.5
458.157	376.5
458.377	402.5
458.598	416.5
458.818	461.5
459.038	552.5
459.258	520.5
459.478	467.5
459.698	413.5
459.918	423.5
460.138	405.5
460.358	406.5
460.578	399.5
460.798	426.5
461.018	399.5
461.238	409.5
461.458	417.5
461.678	414.5
461.898	403.5
462.118	434.5
462.338	421.5
462.558	419.5
462.777	450.5
462.997	417.5
463.217	430.5
463.437	439.5
463.657	445.5
463.876	440.5
464.096	439.5
464.316	443.5
464.536	459.5
464.755	431.5
464.975	440.5
465.195	519.5
465.414	587.5
465.634	503.5
465.854	458.5
466.073	434.5
466.293	424.5
466.512	413.5
466.732	410.5
466.951	403.5
467.171	399.5
467.391	389.5
467.61	397.5
467.829	422.5
468.049	425.5
468.268	398.5
468.488	393.5
468.707	378.5
468.927	393.5
469.146	382.5
469.365	371.5
469.585	390.5
469.804	397.5
470.023	410.5
470.243	425.5
470.462	423.5
470.681	426.5
470.901	403.5
471.12	433.5
471.339	399.5
471.558	411.5
471.777	425.5
471.997	395.5
472.216	411.5
472.435	420.5
472.654	423.5
472.873	397.5
473.092	398.5
473.311	396.5
473.53	393.5
473.749	418.5
473.968	437.5
474.187	539.5
474.406	552.5
474.625	455.5
474.844	425.5
475.063	405.5
475.282	398.5
475.501	425.5
475.72	411.5
475.939	414.5
476.158	429.5
476.377	425.5
476.596	413.5
476.814	421.5
477.033	424.5
477.252	443.5
477.471	437.5
477.69	433.5
477.908	450.5
478.127	429.5
478.346	425.5
478.564	442.5
478.783	438.5
479.002	459.5
479.22	485.5
479.439	463.5
479.658	493.5
479.876	523.5
480.095	483.5
480.313	493.5
480.532	491.5
480.751	512.5
480.969	477.5
481.188	537.5
481.406	531.5
481.624	489.5
481.843	483.5
482.061	462.5
482.28	453.5
482.498	465.5
482.717	461.5
482.935	471.5
483.153	453.5
483.372	455.5
483.59	471.5
483.808	466.5
484.027	478.5
484.245	452.5
484.463	478.5
484.681	475.5
484.9	505.5
485.118	490.5
485.336	477.5
485.554	483.5
485.772	481.5
485.99	493.5
486.209	490.5
486.427	480.5
486.645	514.5
486.863	538.5
487.081	519.5
487.299	491.5
487.517	516.5
487.735	503.5
487.953	478.5
488.171	519.5
488.389	517.5
488.607	515.5
488.825	508.5
489.043	495.5
489.261	509.5
489.479	516.5
489.696	508.5
489.914	535.5
490.132	506.5
490.35	541.5
490.568	529.5
490.786	531.5
491.003	546.5
491.221	556.5
491.439	545.5
491.657	566.5
491.874	568.5
492.092	581.5
492.31	590.5
492.527	586.5
492.745	590.5
492.963	573.5
493.18	589.5
493.398	598.5
493.615	593.5
493.833	604.5
494.05	597.5
494.268	610.5
494.485	606.5
494.703	599.5
494.92	588.5
495.138	580.5
495.355	582.5
495.573	613.5
495.79	603.5
496.008	589.5
496.225	594.5
496.442	589.5
496.66	581.5
496.877	609.5
497.094	606.5
497.312	602.5
497.529	603.5
497.746	625.5
497.963	625.5
498.181	659.5
498.398	663.5
498.615	637.5
498.832	650.5
499.049	691.5
499.267	675.5
499.484	683.5
499.701	733.5
499.918	705.5
500.135	793.5
500.352	791.5
500.569	801.5
500.786	792.5
501.003	780.5
501.22	779.5
501.437	761.5
501.654	741.5
501.871	707.5
502.088	721.5
502.305	680.5
502.522	649.5
502.739	652.5
502.956	609.5
503.172	609.5
503.389	634.5
503.606	616.5
503.823	602.5
504.04	603.5
504.256	631.5
504.473	622.5
504.69	613.5
504.907	608.5
505.123	604.5
505.34	567.5
505.557	586.5
505.773	574.5
505.99	569.5
506.207	588.5
506.423	581.5
506.64	561.5
506.856	567.5
507.073	571.5
507.289	563.5
507.506	540.5
507.722	591.5
507.939	601.5
508.155	566.5
508.372	558.5
508.588	576.5
508.805	543.5
509.021	565.5
509.238	541.5
509.454	554.5
509.67	580.5
509.887	563.5
510.103	538.5
510.319	571.5
510.536	670.5
510.752	1261.5
510.968	953.5
511.184	589.5
511.401	540.5
511.617	519.5
511.833	506.5
512.049	518.5
512.265	519.5
512.481	515.5
512.698	509.5
512.914	509.5
513.13	507.5
513.346	522.5
513.562	516.5
513.778	542.5
513.994	539.5
514.21	563.5
514.426	563.5
514.642	620.5
514.858	645.5
515.074	703.5
515.29	844.5
515.506	1388.5
515.721	1135.5
515.937	680.5
516.153	597.5
516.369	595.5
516.585	550.5
516.801	539.5
517.016	538.5
517.232	535.5
517.448	551.5
517.664	542.5
517.879	554.5
518.095	522.5
518.311	532.5
518.527	529.5
518.742	549.5
518.958	523.5
519.173	525.5
519.389	517.5
519.605	528.5
519.82	508.5
