Data from 1983.PennyLincolnUp.Lamp.En5.5.200Scan.071819.P1_HRD10591_16-52-25-965.txt Node
Date: Thu Jul 18 16:52:25 EDT 2019
User: cochatt
Spectrometer: HR+D1059
Trigger mode: 1
Integration Time (sec): 1.000000E-1
Scans to average: 1
Electric dark correction enabled: true
Nonlinearity correction enabled: false
Boxcar width: 0
XAxis mode: Wavelengths
Number of Pixels in Spectrum: 2048
>>>>>Begin Spectral Data<<<<<
223.165	-10.5
223.4	-10.5
223.635	-10.5
223.869	-26.5
224.104	-25.5
224.338	-12.5
224.573	-3.5
224.808	-7.5
225.042	-8.5
225.277	-15.5
225.511	-0.5
225.746	9.5
225.98	4.5
226.215	11.5
226.449	8.5
226.683	28.5
226.918	28.5
227.152	19.5
227.387	31.5
227.621	23.5
227.856	32.5
228.09	38.5
228.324	59.5
228.559	54.5
228.793	58.5
229.027	83.5
229.262	102.5
229.496	95.5
229.73	94.5
229.964	128.5
230.199	106.5
230.433	105.5
230.667	97.5
230.901	116.5
231.136	97.5
231.37	109.5
231.604	96.5
231.838	96.5
232.072	103.5
232.306	99.5
232.541	98.5
232.775	108.5
233.009	114.5
233.243	90.5
233.477	108.5
233.711	113.5
233.945	107.5
234.179	107.5
234.413	100.5
234.647	95.5
234.881	97.5
235.115	112.5
235.349	112.5
235.583	104.5
235.817	110.5
236.051	122.5
236.285	106.5
236.519	108.5
236.753	121.5
236.987	124.5
237.221	150.5
237.455	182.5
237.689	140.5
237.922	128.5
238.156	127.5
238.39	126.5
238.624	120.5
238.858	108.5
239.091	114.5
239.325	110.5
239.559	103.5
239.793	100.5
240.027	116.5
240.26	130.5
240.494	132.5
240.728	139.5
240.961	134.5
241.195	129.5
241.429	128.5
241.662	117.5
241.896	114.5
242.13	125.5
242.363	111.5
242.597	111.5
242.83	118.5
243.064	130.5
243.298	108.5
243.531	119.5
243.765	112.5
243.998	129.5
244.232	131.5
244.465	130.5
244.699	122.5
244.932	146.5
245.166	107.5
245.399	135.5
245.633	132.5
245.866	128.5
246.099	128.5
246.333	127.5
246.566	135.5
246.8	135.5
247.033	130.5
247.266	105.5
247.5	139.5
247.733	144.5
247.966	143.5
248.2	154.5
248.433	167.5
248.666	159.5
248.899	158.5
249.133	180.5
249.366	168.5
249.599	166.5
249.832	185.5
250.066	170.5
250.299	150.5
250.532	168.5
250.765	172.5
250.998	176.5
251.231	182.5
251.465	187.5
251.698	179.5
251.931	175.5
252.164	159.5
252.397	172.5
252.63	166.5
252.863	162.5
253.096	172.5
253.329	172.5
253.562	181.5
253.795	203.5
254.028	176.5
254.261	194.5
254.494	202.5
254.727	203.5
254.96	233.5
255.193	217.5
255.426	215.5
255.659	190.5
255.892	196.5
256.124	174.5
256.357	179.5
256.59	195.5
256.823	165.5
257.056	164.5
257.289	171.5
257.521	175.5
257.754	152.5
257.987	186.5
258.22	189.5
258.452	166.5
258.685	170.5
258.918	187.5
259.151	182.5
259.383	187.5
259.616	183.5
259.849	194.5
260.081	202.5
260.314	207.5
260.547	208.5
260.779	203.5
261.012	196.5
261.244	185.5
261.477	186.5
261.71	181.5
261.942	175.5
262.175	179.5
262.407	185.5
262.64	190.5
262.872	155.5
263.105	166.5
263.337	188.5
263.57	180.5
263.802	182.5
264.035	171.5
264.267	176.5
264.499	176.5
264.732	185.5
264.964	175.5
265.197	168.5
265.429	188.5
265.661	192.5
265.894	196.5
266.126	181.5
266.358	176.5
266.591	180.5
266.823	187.5
267.055	187.5
267.287	198.5
267.52	193.5
267.752	200.5
267.984	195.5
268.216	190.5
268.448	206.5
268.681	191.5
268.913	210.5
269.145	212.5
269.377	235.5
269.609	215.5
269.841	220.5
270.073	219.5
270.306	247.5
270.538	270.5
270.77	262.5
271.002	255.5
271.234	225.5
271.466	241.5
271.698	260.5
271.93	259.5
272.162	249.5
272.394	263.5
272.626	241.5
272.858	248.5
273.09	206.5
273.322	223.5
273.553	225.5
273.785	225.5
274.017	218.5
274.249	230.5
274.481	218.5
274.713	217.5
274.945	244.5
275.176	222.5
275.408	242.5
275.64	230.5
275.872	216.5
276.104	217.5
276.335	220.5
276.567	238.5
276.799	234.5
277.031	246.5
277.262	252.5
277.494	265.5
277.726	252.5
277.957	247.5
278.189	225.5
278.421	226.5
278.652	213.5
278.884	228.5
279.115	218.5
279.347	204.5
279.579	217.5
279.81	219.5
280.042	223.5
280.273	225.5
280.505	219.5
280.736	208.5
280.968	231.5
281.199	207.5
281.431	235.5
281.662	223.5
281.894	211.5
282.125	219.5
282.356	215.5
282.588	243.5
282.819	250.5
283.051	242.5
283.282	249.5
283.513	225.5
283.745	219.5
283.976	219.5
284.207	234.5
284.439	232.5
284.67	232.5
284.901	237.5
285.132	245.5
285.364	231.5
285.595	228.5
285.826	234.5
286.057	236.5
286.288	247.5
286.52	238.5
286.751	230.5
286.982	235.5
287.213	232.5
287.444	232.5
287.675	250.5
287.906	246.5
288.138	245.5
288.369	252.5
288.6	245.5
288.831	254.5
289.062	251.5
289.293	244.5
289.524	243.5
289.755	245.5
289.986	262.5
290.217	228.5
290.448	226.5
290.679	250.5
290.91	220.5
291.141	240.5
291.371	229.5
291.602	238.5
291.833	256.5
292.064	245.5
292.295	262.5
292.526	241.5
292.757	239.5
292.987	225.5
293.218	254.5
293.449	233.5
293.68	242.5
293.91	241.5
294.141	209.5
294.372	246.5
294.603	263.5
294.833	250.5
295.064	258.5
295.295	259.5
295.525	248.5
295.756	264.5
295.987	269.5
296.217	282.5
296.448	252.5
296.679	263.5
296.909	253.5
297.14	246.5
297.37	273.5
297.601	259.5
297.831	257.5
298.062	260.5
298.292	256.5
298.523	262.5
298.753	268.5
298.984	253.5
299.214	265.5
299.445	234.5
299.675	258.5
299.905	266.5
300.136	250.5
300.366	276.5
300.597	263.5
300.827	254.5
301.057	255.5
301.288	278.5
301.518	265.5
301.748	267.5
301.979	283.5
302.209	269.5
302.439	258.5
302.669	286.5
302.9	255.5
303.13	266.5
303.36	272.5
303.59	266.5
303.82	307.5
304.051	294.5
304.281	282.5
304.511	277.5
304.741	282.5
304.971	269.5
305.201	274.5
305.431	247.5
305.661	262.5
305.891	274.5
306.121	280.5
306.352	299.5
306.582	295.5
306.812	282.5
307.042	262.5
307.272	282.5
307.502	263.5
307.731	274.5
307.961	272.5
308.191	272.5
308.421	274.5
308.651	276.5
308.881	295.5
309.111	292.5
309.341	282.5
309.571	286.5
309.8	290.5
310.03	315.5
310.26	297.5
310.49	312.5
310.72	309.5
310.949	323.5
311.179	320.5
311.409	311.5
311.639	294.5
311.868	298.5
312.098	317.5
312.328	318.5
312.557	333.5
312.787	341.5
313.017	335.5
313.246	315.5
313.476	305.5
313.706	309.5
313.935	287.5
314.165	330.5
314.394	314.5
314.624	324.5
314.853	339.5
315.083	332.5
315.312	304.5
315.542	312.5
315.771	317.5
316.001	298.5
316.23	310.5
316.46	312.5
316.689	297.5
316.919	317.5
317.148	331.5
317.377	323.5
317.607	327.5
317.836	332.5
318.065	304.5
318.295	306.5
318.524	289.5
318.753	315.5
318.983	311.5
319.212	297.5
319.441	319.5
319.67	320.5
319.9	310.5
320.129	318.5
320.358	306.5
320.587	316.5
320.816	331.5
321.046	335.5
321.275	305.5
321.504	319.5
321.733	336.5
321.962	359.5
322.191	339.5
322.42	361.5
322.649	360.5
322.878	372.5
323.108	376.5
323.337	377.5
323.566	387.5
323.795	414.5
324.024	465.5
324.253	558.5
324.482	805.5
324.71	1160.5
324.939	1559.5
325.168	1279.5
325.397	683.5
325.626	487.5
325.855	419.5
326.084	400.5
326.313	406.5
326.542	402.5
326.77	441.5
326.999	510.5
327.228	690.5
327.457	1009.5
327.686	1100.5
327.914	794.5
328.143	550.5
328.372	474.5
328.6	444.5
328.829	440.5
329.058	450.5
329.287	426.5
329.515	427.5
329.744	400.5
329.972	405.5
330.201	391.5
330.43	410.5
330.658	440.5
330.887	450.5
331.115	453.5
331.344	417.5
331.572	403.5
331.801	375.5
332.03	395.5
332.258	380.5
332.486	371.5
332.715	360.5
332.943	374.5
333.172	370.5
333.4	367.5
333.629	370.5
333.857	371.5
334.085	379.5
334.314	367.5
334.542	373.5
334.771	376.5
334.999	378.5
335.227	360.5
335.455	378.5
335.684	371.5
335.912	372.5
336.14	368.5
336.369	383.5
336.597	383.5
336.825	362.5
337.053	361.5
337.281	342.5
337.51	338.5
337.738	360.5
337.966	351.5
338.194	368.5
338.422	350.5
338.65	354.5
338.878	356.5
339.106	342.5
339.334	340.5
339.562	360.5
339.79	350.5
340.018	372.5
340.246	370.5
340.474	358.5
340.702	358.5
340.93	366.5
341.158	357.5
341.386	349.5
341.614	357.5
341.842	353.5
342.07	350.5
342.298	346.5
342.526	356.5
342.754	338.5
342.981	338.5
343.209	356.5
343.437	331.5
343.665	353.5
343.893	364.5
344.12	357.5
344.348	374.5
344.576	360.5
344.804	342.5
345.031	360.5
345.259	371.5
345.487	376.5
345.714	361.5
345.942	338.5
346.17	344.5
346.397	338.5
346.625	335.5
346.853	322.5
347.08	345.5
347.308	351.5
347.535	334.5
347.763	362.5
347.99	358.5
348.218	349.5
348.445	366.5
348.673	352.5
348.9	350.5
349.128	349.5
349.355	350.5
349.583	346.5
349.81	328.5
350.037	325.5
350.265	342.5
350.492	328.5
350.72	340.5
350.947	340.5
351.174	331.5
351.402	343.5
351.629	340.5
351.856	360.5
352.083	359.5
352.311	338.5
352.538	361.5
352.765	353.5
352.992	326.5
353.22	338.5
353.447	335.5
353.674	334.5
353.901	336.5
354.128	330.5
354.355	320.5
354.583	327.5
354.81	310.5
355.037	322.5
355.264	320.5
355.491	327.5
355.718	328.5
355.945	325.5
356.172	318.5
356.399	350.5
356.626	310.5
356.853	311.5
357.08	315.5
357.307	310.5
357.534	307.5
357.761	315.5
357.988	323.5
358.215	304.5
358.441	336.5
358.668	303.5
358.895	342.5
359.122	328.5
359.349	343.5
359.576	329.5
359.802	362.5
360.029	372.5
360.256	383.5
360.483	346.5
360.709	341.5
360.936	333.5
361.163	335.5
361.39	357.5
361.616	348.5
361.843	340.5
362.07	342.5
362.296	353.5
362.523	351.5
362.749	330.5
362.976	340.5
363.203	356.5
363.429	330.5
363.656	335.5
363.882	326.5
364.109	312.5
364.335	315.5
364.562	314.5
364.788	350.5
365.015	326.5
365.241	340.5
365.468	340.5
365.694	325.5
365.92	335.5
366.147	320.5
366.373	337.5
366.599	326.5
366.826	316.5
367.052	339.5
367.278	329.5
367.505	335.5
367.731	320.5
367.957	308.5
368.184	321.5
368.41	336.5
368.636	334.5
368.862	342.5
369.089	343.5
369.315	349.5
369.541	332.5
369.767	319.5
369.993	328.5
370.219	310.5
370.445	327.5
370.672	330.5
370.898	320.5
371.124	298.5
371.35	349.5
371.576	336.5
371.802	318.5
372.028	319.5
372.254	330.5
372.48	323.5
372.706	325.5
372.932	330.5
373.158	325.5
373.384	320.5
373.61	334.5
373.835	351.5
374.061	347.5
374.287	324.5
374.513	323.5
374.739	328.5
374.965	342.5
375.191	336.5
375.416	330.5
375.642	326.5
375.868	354.5
376.094	339.5
376.319	331.5
376.545	335.5
376.771	315.5
376.997	313.5
377.222	314.5
377.448	326.5
377.674	344.5
377.899	312.5
378.125	311.5
378.35	313.5
378.576	338.5
378.802	315.5
379.027	326.5
379.253	326.5
379.478	326.5
379.704	327.5
379.929	313.5
380.155	319.5
380.38	319.5
380.606	327.5
380.831	315.5
381.057	340.5
381.282	323.5
381.507	322.5
381.733	323.5
381.958	328.5
382.184	335.5
382.409	349.5
382.634	341.5
382.86	323.5
383.085	339.5
383.31	340.5
383.535	338.5
383.761	328.5
383.986	360.5
384.211	339.5
384.436	338.5
384.662	360.5
384.887	352.5
385.112	365.5
385.337	356.5
385.562	343.5
385.787	363.5
386.013	367.5
386.238	361.5
386.463	347.5
386.688	361.5
386.913	359.5
387.138	357.5
387.363	360.5
387.588	366.5
387.813	354.5
388.038	338.5
388.263	355.5
388.488	351.5
388.713	339.5
388.938	357.5
389.163	366.5
389.387	352.5
389.612	349.5
389.837	359.5
390.062	342.5
390.287	344.5
390.512	339.5
390.736	348.5
390.961	353.5
391.186	353.5
391.411	355.5
391.636	349.5
391.86	352.5
392.085	362.5
392.31	356.5
392.534	361.5
392.759	373.5
392.984	373.5
393.208	365.5
393.433	356.5
393.658	374.5
393.882	348.5
394.107	355.5
394.331	349.5
394.556	351.5
394.78	360.5
395.005	337.5
395.229	334.5
395.454	354.5
395.678	370.5
395.903	374.5
396.127	378.5
396.352	378.5
396.576	367.5
396.801	363.5
397.025	353.5
397.249	361.5
397.474	364.5
397.698	392.5
397.922	374.5
398.147	388.5
398.371	400.5
398.595	383.5
398.82	390.5
399.044	392.5
399.268	427.5
399.492	434.5
399.717	448.5
399.941	454.5
400.165	464.5
400.389	489.5
400.613	438.5
400.837	419.5
401.062	417.5
401.286	410.5
401.51	403.5
401.734	408.5
401.958	393.5
402.182	405.5
402.406	393.5
402.63	406.5
402.854	410.5
403.078	402.5
403.302	392.5
403.526	402.5
403.75	387.5
403.974	380.5
404.198	401.5
404.422	404.5
404.645	419.5
404.869	416.5
405.093	409.5
405.317	462.5
405.541	457.5
405.765	447.5
405.988	436.5
406.212	433.5
406.436	448.5
406.66	442.5
406.883	438.5
407.107	449.5
407.331	501.5
407.555	528.5
407.778	526.5
408.002	482.5
408.226	469.5
408.449	453.5
408.673	432.5
408.896	465.5
409.12	485.5
409.344	460.5
409.567	424.5
409.791	417.5
410.014	411.5
410.238	414.5
410.461	377.5
410.685	411.5
410.908	411.5
411.132	447.5
411.355	456.5
411.578	433.5
411.802	396.5
412.025	410.5
412.249	404.5
412.472	402.5
412.695	415.5
412.919	388.5
413.142	406.5
413.365	404.5
413.589	407.5
413.812	389.5
414.035	383.5
414.258	407.5
414.482	389.5
414.705	379.5
414.928	363.5
415.151	397.5
415.374	393.5
415.597	391.5
415.821	396.5
416.044	380.5
416.267	375.5
416.49	400.5
416.713	387.5
416.936	384.5
417.159	395.5
417.382	410.5
417.605	403.5
417.828	400.5
418.051	400.5
418.274	395.5
418.497	379.5
418.72	393.5
418.943	410.5
419.166	397.5
419.389	414.5
419.611	401.5
419.834	379.5
420.057	383.5
420.28	390.5
420.503	388.5
420.726	407.5
420.948	409.5
421.171	440.5
421.394	466.5
421.617	419.5
421.839	416.5
422.062	418.5
422.285	419.5
422.507	447.5
422.73	510.5
422.953	470.5
423.175	441.5
423.398	424.5
423.621	421.5
423.843	437.5
424.066	438.5
424.288	428.5
424.511	442.5
424.733	466.5
424.956	537.5
425.178	518.5
425.401	530.5
425.623	524.5
425.846	466.5
426.068	444.5
426.291	430.5
426.513	449.5
426.735	454.5
426.958	461.5
427.18	501.5
427.402	594.5
427.625	676.5
427.847	584.5
428.069	500.5
428.292	408.5
428.514	424.5
428.736	416.5
428.958	408.5
429.181	395.5
429.403	383.5
429.625	404.5
429.847	434.5
430.069	477.5
430.292	470.5
430.514	415.5
430.736	388.5
430.958	388.5
431.18	385.5
431.402	391.5
431.624	371.5
431.846	373.5
432.068	370.5
432.29	386.5
432.512	404.5
432.734	396.5
432.956	393.5
433.178	392.5
433.4	394.5
433.622	381.5
433.844	376.5
434.066	372.5
434.287	388.5
434.509	399.5
434.731	388.5
434.953	407.5
435.175	409.5
435.397	437.5
435.618	434.5
435.84	457.5
436.062	534.5
436.284	570.5
436.505	474.5
436.727	447.5
436.949	406.5
437.17	408.5
437.392	400.5
437.614	423.5
437.835	446.5
438.057	494.5
438.278	595.5
438.5	570.5
438.721	623.5
438.943	592.5
439.165	482.5
439.386	447.5
439.608	414.5
439.829	435.5
440.05	484.5
440.272	484.5
440.493	452.5
440.715	401.5
440.936	394.5
441.158	412.5
441.379	414.5
441.6	424.5
441.822	441.5
442.043	438.5
442.264	533.5
442.486	550.5
442.707	455.5
442.928	455.5
443.149	449.5
443.371	462.5
443.592	484.5
443.813	556.5
444.034	572.5
444.255	500.5
444.476	465.5
444.698	456.5
444.919	470.5
445.14	581.5
445.361	496.5
445.582	477.5
445.803	498.5
446.024	594.5
446.245	580.5
446.466	510.5
446.687	455.5
446.908	441.5
447.129	427.5
447.35	413.5
447.571	417.5
447.792	388.5
448.013	424.5
448.234	419.5
448.455	480.5
448.675	546.5
448.896	598.5
449.117	531.5
449.338	498.5
449.559	571.5
449.779	649.5
450	511.5
450.221	441.5
450.442	408.5
450.662	402.5
450.883	396.5
451.104	398.5
451.324	399.5
451.545	371.5
451.766	364.5
451.986	355.5
452.207	363.5
452.428	362.5
452.648	344.5
452.869	371.5
453.089	378.5
453.31	370.5
453.53	361.5
453.751	367.5
453.971	339.5
454.192	392.5
454.412	378.5
454.633	364.5
454.853	344.5
455.073	355.5
455.294	367.5
455.514	411.5
455.734	410.5
455.955	360.5
456.175	343.5
456.395	354.5
456.616	348.5
456.836	332.5
457.056	330.5
457.276	335.5
457.497	344.5
457.717	373.5
457.937	346.5
458.157	342.5
458.377	355.5
458.598	370.5
458.818	395.5
459.038	444.5
459.258	466.5
459.478	396.5
459.698	383.5
459.918	363.5
460.138	376.5
460.358	372.5
460.578	391.5
460.798	377.5
461.018	388.5
461.238	373.5
461.458	382.5
461.678	342.5
461.898	373.5
462.118	381.5
462.338	396.5
462.558	404.5
462.777	402.5
462.997	407.5
463.217	414.5
463.437	426.5
463.657	402.5
463.876	427.5
464.096	426.5
464.316	404.5
464.536	414.5
464.755	417.5
464.975	403.5
465.195	455.5
465.414	489.5
465.634	410.5
465.854	389.5
466.073	378.5
466.293	375.5
466.512	370.5
466.732	386.5
466.951	361.5
467.171	359.5
467.391	350.5
467.61	362.5
467.829	389.5
468.049	370.5
468.268	371.5
468.488	351.5
468.707	365.5
468.927	337.5
469.146	357.5
469.365	369.5
469.585	368.5
469.804	374.5
470.023	357.5
470.243	374.5
470.462	382.5
470.681	396.5
470.901	382.5
471.12	378.5
471.339	367.5
471.558	372.5
471.777	372.5
471.997	367.5
472.216	375.5
472.435	358.5
472.654	366.5
472.873	391.5
473.092	375.5
473.311	349.5
473.53	368.5
473.749	385.5
473.968	428.5
474.187	488.5
474.406	522.5
474.625	417.5
474.844	386.5
475.063	368.5
475.282	379.5
475.501	374.5
475.72	400.5
475.939	376.5
476.158	373.5
476.377	377.5
476.596	372.5
476.814	394.5
477.033	397.5
477.252	394.5
477.471	374.5
477.69	406.5
477.908	399.5
478.127	398.5
478.346	411.5
478.564	405.5
478.783	400.5
479.002	405.5
479.22	412.5
479.439	426.5
479.658	448.5
479.876	450.5
480.095	444.5
480.313	454.5
480.532	448.5
480.751	435.5
480.969	456.5
481.188	471.5
481.406	437.5
481.624	449.5
481.843	457.5
482.061	431.5
482.28	419.5
482.498	457.5
482.717	438.5
482.935	427.5
483.153	439.5
483.372	448.5
483.59	433.5
483.808	433.5
484.027	427.5
484.245	425.5
484.463	438.5
484.681	425.5
484.9	447.5
485.118	447.5
485.336	434.5
485.554	437.5
485.772	448.5
485.99	440.5
486.209	451.5
486.427	465.5
486.645	463.5
486.863	453.5
487.081	476.5
487.299	458.5
487.517	472.5
487.735	434.5
487.953	444.5
488.171	468.5
488.389	461.5
488.607	485.5
488.825	472.5
489.043	454.5
489.261	475.5
489.479	468.5
489.696	458.5
489.914	466.5
490.132	471.5
490.35	464.5
490.568	490.5
490.786	496.5
491.003	493.5
491.221	491.5
491.439	494.5
491.657	488.5
491.874	519.5
492.092	519.5
492.31	510.5
492.527	526.5
492.745	524.5
492.963	529.5
493.18	517.5
493.398	532.5
493.615	541.5
493.833	540.5
494.05	532.5
494.268	545.5
494.485	523.5
494.703	537.5
494.92	531.5
495.138	543.5
495.355	521.5
495.573	552.5
495.79	523.5
496.008	541.5
496.225	561.5
496.442	525.5
496.66	562.5
496.877	524.5
497.094	569.5
497.312	552.5
497.529	553.5
497.746	579.5
497.963	566.5
498.181	580.5
498.398	595.5
498.615	605.5
498.832	623.5
499.049	628.5
499.267	631.5
499.484	643.5
499.701	673.5
499.918	669.5
500.135	706.5
500.352	745.5
500.569	728.5
500.786	738.5
501.003	722.5
501.22	692.5
501.437	689.5
501.654	692.5
501.871	670.5
502.088	644.5
502.305	619.5
502.522	619.5
502.739	577.5
502.956	576.5
503.172	564.5
503.389	563.5
503.606	556.5
503.823	567.5
504.04	567.5
504.256	530.5
504.473	570.5
504.69	544.5
504.907	537.5
505.123	554.5
505.34	547.5
505.557	538.5
505.773	556.5
505.99	540.5
506.207	511.5
506.423	512.5
506.64	499.5
506.856	528.5
507.073	522.5
507.289	527.5
507.506	531.5
507.722	523.5
507.939	513.5
508.155	502.5
508.372	478.5
508.588	469.5
508.805	479.5
509.021	504.5
509.238	499.5
509.454	510.5
509.67	483.5
509.887	486.5
510.103	490.5
510.319	507.5
510.536	586.5
510.752	925.5
510.968	722.5
511.184	483.5
511.401	477.5
511.617	494.5
511.833	477.5
512.049	463.5
512.265	467.5
512.481	470.5
512.698	468.5
512.914	451.5
513.13	463.5
513.346	443.5
513.562	463.5
513.778	477.5
513.994	472.5
514.21	489.5
514.426	509.5
514.642	526.5
514.858	551.5
515.074	564.5
515.29	675.5
515.506	966.5
515.721	788.5
515.937	574.5
516.153	535.5
516.369	497.5
516.585	490.5
516.801	475.5
517.016	483.5
517.232	488.5
517.448	477.5
517.664	470.5
517.879	473.5
518.095	496.5
518.311	483.5
518.527	473.5
518.742	472.5
518.958	475.5
519.173	473.5
519.389	468.5
519.605	459.5
519.82	480.5
520.036	482.5
