Data from 1983.PennyLincolnUp.Lamp.En5.5.200Scan.071819.P1_HRD10591_16-53-33-965.txt Node
Date: Thu Jul 18 16:53:33 EDT 2019
User: cochatt
Spectrometer: HR+D1059
Trigger mode: 1
Integration Time (sec): 1.000000E-1
Scans to average: 1
Electric dark correction enabled: true
Nonlinearity correction enabled: false
Boxcar width: 0
XAxis mode: Wavelengths
Number of Pixels in Spectrum: 2048
>>>>>Begin Spectral Data<<<<<
223.165	-9.88
223.4	-9.88
223.635	-9.88
223.869	-7.88
224.104	-18.88
224.338	-11.88
224.573	-10.88
224.808	-8.88
225.042	-10.88
225.277	-19.88
225.511	-5.88
225.746	-10.88
225.98	17.12
226.215	8.12
226.449	11.12
226.683	19.12
226.918	29.12
227.152	31.12
227.387	26.12
227.621	33.12
227.856	40.12
228.09	39.12
228.324	51.12
228.559	59.12
228.793	67.12
229.027	78.12
229.262	100.12
229.496	106.12
229.73	126.12
229.964	156.12
230.199	110.12
230.433	105.12
230.667	113.12
230.901	105.12
231.136	110.12
231.37	92.12
231.604	118.12
231.838	105.12
232.072	113.12
232.306	113.12
232.541	111.12
232.775	109.12
233.009	109.12
233.243	105.12
233.477	116.12
233.711	97.12
233.945	106.12
234.179	109.12
234.413	113.12
234.647	114.12
234.881	121.12
235.115	110.12
235.349	99.12
235.583	113.12
235.817	106.12
236.051	115.12
236.285	123.12
236.519	120.12
236.753	117.12
236.987	128.12
237.221	162.12
237.455	197.12
237.689	182.12
237.922	129.12
238.156	124.12
238.39	116.12
238.624	125.12
238.858	125.12
239.091	117.12
239.325	122.12
239.559	117.12
239.793	131.12
240.027	126.12
240.26	129.12
240.494	125.12
240.728	133.12
240.961	135.12
241.195	143.12
241.429	128.12
241.662	119.12
241.896	134.12
242.13	128.12
242.363	131.12
242.597	123.12
242.83	114.12
243.064	133.12
243.298	126.12
243.531	141.12
243.765	136.12
243.998	135.12
244.232	131.12
244.465	136.12
244.699	132.12
244.932	131.12
245.166	138.12
245.399	142.12
245.633	122.12
245.866	130.12
246.099	138.12
246.333	134.12
246.566	133.12
246.8	149.12
247.033	123.12
247.266	123.12
247.5	132.12
247.733	151.12
247.966	172.12
248.2	158.12
248.433	153.12
248.666	145.12
248.899	165.12
249.133	181.12
249.366	200.12
249.599	173.12
249.832	183.12
250.066	173.12
250.299	164.12
250.532	170.12
250.765	173.12
250.998	197.12
251.231	214.12
251.465	212.12
251.698	182.12
251.931	185.12
252.164	183.12
252.397	171.12
252.63	179.12
252.863	183.12
253.096	216.12
253.329	212.12
253.562	202.12
253.795	193.12
254.028	198.12
254.261	201.12
254.494	200.12
254.727	241.12
254.96	251.12
255.193	246.12
255.426	231.12
255.659	210.12
255.892	203.12
256.124	202.12
256.357	199.12
256.59	190.12
256.823	185.12
257.056	196.12
257.289	188.12
257.521	196.12
257.754	191.12
257.987	194.12
258.22	200.12
258.452	198.12
258.685	206.12
258.918	176.12
259.151	185.12
259.383	193.12
259.616	214.12
259.849	197.12
260.081	210.12
260.314	233.12
260.547	247.12
260.779	204.12
261.012	203.12
261.244	213.12
261.477	203.12
261.71	197.12
261.942	207.12
262.175	203.12
262.407	217.12
262.64	203.12
262.872	187.12
263.105	178.12
263.337	191.12
263.57	186.12
263.802	190.12
264.035	185.12
264.267	192.12
264.499	193.12
264.732	192.12
264.964	190.12
265.197	212.12
265.429	195.12
265.661	205.12
265.894	192.12
266.126	186.12
266.358	217.12
266.591	202.12
266.823	210.12
267.055	225.12
267.287	239.12
267.52	201.12
267.752	207.12
267.984	202.12
268.216	221.12
268.448	222.12
268.681	211.12
268.913	214.12
269.145	227.12
269.377	249.12
269.609	236.12
269.841	249.12
270.073	252.12
270.306	265.12
270.538	279.12
270.77	271.12
271.002	259.12
271.234	243.12
271.466	264.12
271.698	279.12
271.93	295.12
272.162	280.12
272.394	275.12
272.626	265.12
272.858	279.12
273.09	259.12
273.322	249.12
273.553	245.12
273.785	218.12
274.017	230.12
274.249	238.12
274.481	239.12
274.713	237.12
274.945	238.12
275.176	242.12
275.408	245.12
275.64	232.12
275.872	216.12
276.104	242.12
276.335	233.12
276.567	235.12
276.799	253.12
277.031	294.12
277.262	289.12
277.494	273.12
277.726	270.12
277.957	250.12
278.189	263.12
278.421	259.12
278.652	254.12
278.884	249.12
279.115	253.12
279.347	248.12
279.579	232.12
279.81	233.12
280.042	238.12
280.273	235.12
280.505	242.12
280.736	249.12
280.968	229.12
281.199	225.12
281.431	219.12
281.662	222.12
281.894	233.12
282.125	236.12
282.356	241.12
282.588	270.12
282.819	277.12
283.051	248.12
283.282	237.12
283.513	251.12
283.745	259.12
283.976	255.12
284.207	250.12
284.439	249.12
284.67	233.12
284.901	232.12
285.132	243.12
285.364	236.12
285.595	252.12
285.826	259.12
286.057	266.12
286.288	230.12
286.52	237.12
286.751	253.12
286.982	245.12
287.213	245.12
287.444	242.12
287.675	270.12
287.906	269.12
288.138	252.12
288.369	280.12
288.6	282.12
288.831	265.12
289.062	271.12
289.293	265.12
289.524	260.12
289.755	252.12
289.986	259.12
290.217	269.12
290.448	260.12
290.679	252.12
290.91	261.12
291.141	257.12
291.371	259.12
291.602	261.12
291.833	242.12
292.064	258.12
292.295	283.12
292.526	254.12
292.757	257.12
292.987	251.12
293.218	262.12
293.449	239.12
293.68	268.12
293.91	270.12
294.141	263.12
294.372	270.12
294.603	265.12
294.833	253.12
295.064	261.12
295.295	263.12
295.525	259.12
295.756	254.12
295.987	251.12
296.217	285.12
296.448	293.12
296.679	286.12
296.909	280.12
297.14	265.12
297.37	270.12
297.601	276.12
297.831	257.12
298.062	274.12
298.292	256.12
298.523	259.12
298.753	282.12
298.984	282.12
299.214	270.12
299.445	261.12
299.675	275.12
299.905	277.12
300.136	281.12
300.366	265.12
300.597	278.12
300.827	284.12
301.057	303.12
301.288	285.12
301.518	305.12
301.748	282.12
301.979	273.12
302.209	290.12
302.439	294.12
302.669	296.12
302.9	280.12
303.13	274.12
303.36	294.12
303.59	314.12
303.82	303.12
304.051	307.12
304.281	299.12
304.511	292.12
304.741	306.12
304.971	279.12
305.201	290.12
305.431	306.12
305.661	296.12
305.891	295.12
306.121	286.12
306.352	309.12
306.582	297.12
306.812	289.12
307.042	278.12
307.272	293.12
307.502	288.12
307.731	299.12
307.961	278.12
308.191	305.12
308.421	308.12
308.651	289.12
308.881	311.12
309.111	296.12
309.341	315.12
309.571	325.12
309.8	335.12
310.03	335.12
310.26	352.12
310.49	337.12
310.72	348.12
310.949	339.12
311.179	345.12
311.409	353.12
311.639	355.12
311.868	338.12
312.098	322.12
312.328	340.12
312.557	353.12
312.787	376.12
313.017	372.12
313.246	335.12
313.476	340.12
313.706	322.12
313.935	326.12
314.165	362.12
314.394	376.12
314.624	354.12
314.853	348.12
315.083	361.12
315.312	342.12
315.542	342.12
315.771	324.12
316.001	329.12
316.23	321.12
316.46	347.12
316.689	339.12
316.919	350.12
317.148	341.12
317.377	360.12
317.607	336.12
317.836	343.12
318.065	340.12
318.295	349.12
318.524	354.12
318.753	330.12
318.983	331.12
319.212	327.12
319.441	353.12
319.67	359.12
319.9	344.12
320.129	339.12
320.358	351.12
320.587	356.12
320.816	352.12
321.046	357.12
321.275	352.12
321.504	374.12
321.733	365.12
321.962	375.12
322.191	375.12
322.42	386.12
322.649	397.12
322.878	403.12
323.108	397.12
323.337	426.12
323.566	478.12
323.795	483.12
324.024	524.12
324.253	632.12
324.482	932.12
324.71	1435.12
324.939	1946.12
325.168	1585.12
325.397	864.12
325.626	596.12
325.855	494.12
326.084	466.12
326.313	429.12
326.542	471.12
326.77	531.12
326.999	605.12
327.228	818.12
327.457	1230.12
327.686	1412.12
327.914	940.12
328.143	667.12
328.372	556.12
328.6	541.12
328.829	510.12
329.058	495.12
329.287	531.12
329.515	475.12
329.744	435.12
329.972	434.12
330.201	438.12
330.43	468.12
330.658	505.12
330.887	561.12
331.115	526.12
331.344	452.12
331.572	432.12
331.801	427.12
332.03	428.12
332.258	419.12
332.486	399.12
332.715	402.12
332.943	409.12
333.172	408.12
333.4	391.12
333.629	387.12
333.857	410.12
334.085	415.12
334.314	408.12
334.542	417.12
334.771	434.12
334.999	426.12
335.227	413.12
335.455	403.12
335.684	381.12
335.912	371.12
336.14	382.12
336.369	395.12
336.597	395.12
336.825	386.12
337.053	380.12
337.281	383.12
337.51	379.12
337.738	388.12
337.966	397.12
338.194	392.12
338.422	378.12
338.65	380.12
338.878	372.12
339.106	387.12
339.334	359.12
339.562	358.12
339.79	388.12
340.018	369.12
340.246	362.12
340.474	391.12
340.702	393.12
340.93	396.12
341.158	379.12
341.386	390.12
341.614	383.12
341.842	383.12
342.07	364.12
342.298	375.12
342.526	382.12
342.754	374.12
342.981	373.12
343.209	347.12
343.437	366.12
343.665	381.12
343.893	379.12
344.12	352.12
344.348	387.12
344.576	363.12
344.804	379.12
345.031	391.12
345.259	395.12
345.487	374.12
345.714	379.12
345.942	388.12
346.17	371.12
346.397	365.12
346.625	353.12
346.853	361.12
347.08	351.12
347.308	374.12
347.535	377.12
347.763	400.12
347.99	381.12
348.218	382.12
348.445	370.12
348.673	363.12
348.9	379.12
349.128	377.12
349.355	350.12
349.583	359.12
349.81	357.12
350.037	345.12
350.265	361.12
350.492	359.12
350.72	344.12
350.947	369.12
351.174	354.12
351.402	382.12
351.629	362.12
351.856	363.12
352.083	381.12
352.311	366.12
352.538	379.12
352.765	395.12
352.992	369.12
353.22	378.12
353.447	366.12
353.674	350.12
353.901	345.12
354.128	345.12
354.355	330.12
354.583	330.12
354.81	339.12
355.037	333.12
355.264	337.12
355.491	346.12
355.718	349.12
355.945	334.12
356.172	343.12
356.399	341.12
356.626	329.12
356.853	345.12
357.08	333.12
357.307	359.12
357.534	346.12
357.761	357.12
357.988	345.12
358.215	353.12
358.441	325.12
358.668	342.12
358.895	356.12
359.122	362.12
359.349	356.12
359.576	373.12
359.802	405.12
360.029	407.12
360.256	402.12
360.483	403.12
360.709	398.12
360.936	364.12
361.163	361.12
361.39	377.12
361.616	364.12
361.843	383.12
362.07	374.12
362.296	371.12
362.523	372.12
362.749	389.12
362.976	359.12
363.203	367.12
363.429	349.12
363.656	366.12
363.882	365.12
364.109	372.12
364.335	353.12
364.562	355.12
364.788	351.12
365.015	369.12
365.241	353.12
365.468	355.12
365.694	353.12
365.92	350.12
366.147	348.12
366.373	353.12
366.599	340.12
366.826	319.12
367.052	344.12
367.278	340.12
367.505	352.12
367.731	338.12
367.957	353.12
368.184	351.12
368.41	342.12
368.636	365.12
368.862	373.12
369.089	360.12
369.315	373.12
369.541	341.12
369.767	375.12
369.993	369.12
370.219	334.12
370.445	349.12
370.672	342.12
370.898	347.12
371.124	362.12
371.35	356.12
371.576	331.12
371.802	348.12
372.028	334.12
372.254	338.12
372.48	343.12
372.706	346.12
372.932	343.12
373.158	332.12
373.384	353.12
373.61	329.12
373.835	356.12
374.061	345.12
374.287	355.12
374.513	357.12
374.739	352.12
374.965	356.12
375.191	368.12
375.416	362.12
375.642	343.12
375.868	334.12
376.094	343.12
376.319	341.12
376.545	336.12
376.771	348.12
376.997	334.12
377.222	345.12
377.448	350.12
377.674	347.12
377.899	338.12
378.125	340.12
378.35	314.12
378.576	323.12
378.802	329.12
379.027	348.12
379.253	341.12
379.478	327.12
379.704	335.12
379.929	334.12
380.155	349.12
380.38	341.12
380.606	340.12
380.831	343.12
381.057	355.12
381.282	353.12
381.507	339.12
381.733	338.12
381.958	344.12
382.184	343.12
382.409	356.12
382.634	343.12
382.86	332.12
383.085	343.12
383.31	357.12
383.535	353.12
383.761	351.12
383.986	365.12
384.211	369.12
384.436	353.12
384.662	363.12
384.887	362.12
385.112	348.12
385.337	370.12
385.562	353.12
385.787	377.12
386.013	383.12
386.238	393.12
386.463	390.12
386.688	375.12
386.913	359.12
387.138	369.12
387.363	364.12
387.588	357.12
387.813	358.12
388.038	363.12
388.263	370.12
388.488	381.12
388.713	366.12
388.938	363.12
389.163	376.12
389.387	348.12
389.612	365.12
389.837	379.12
390.062	359.12
390.287	375.12
390.512	357.12
390.736	346.12
390.961	357.12
391.186	364.12
391.411	371.12
391.636	366.12
391.86	381.12
392.085	357.12
392.31	376.12
392.534	363.12
392.759	379.12
392.984	375.12
393.208	362.12
393.433	367.12
393.658	363.12
393.882	375.12
394.107	367.12
394.331	364.12
394.556	373.12
394.78	379.12
395.005	370.12
395.229	361.12
395.454	354.12
395.678	377.12
395.903	403.12
396.127	372.12
396.352	410.12
396.576	391.12
396.801	387.12
397.025	375.12
397.249	358.12
397.474	388.12
397.698	387.12
397.922	405.12
398.147	406.12
398.371	402.12
398.595	389.12
398.82	420.12
399.044	397.12
399.268	431.12
399.492	443.12
399.717	468.12
399.941	481.12
400.165	468.12
400.389	509.12
400.613	473.12
400.837	438.12
401.062	434.12
401.286	426.12
401.51	384.12
401.734	389.12
401.958	409.12
402.182	438.12
402.406	437.12
402.63	447.12
402.854	430.12
403.078	436.12
403.302	418.12
403.526	443.12
403.75	436.12
403.974	436.12
404.198	425.12
404.422	433.12
404.645	430.12
404.869	421.12
405.093	461.12
405.317	462.12
405.541	471.12
405.765	474.12
405.988	461.12
406.212	435.12
406.436	476.12
406.66	478.12
406.883	457.12
407.107	483.12
407.331	511.12
407.555	552.12
407.778	553.12
408.002	521.12
408.226	467.12
408.449	459.12
408.673	452.12
408.896	488.12
409.12	517.12
409.344	482.12
409.567	449.12
409.791	423.12
410.014	405.12
410.238	422.12
410.461	433.12
410.685	428.12
410.908	430.12
411.132	460.12
411.355	488.12
411.578	465.12
411.802	435.12
412.025	427.12
412.249	426.12
412.472	422.12
412.695	446.12
412.919	438.12
413.142	409.12
413.365	403.12
413.589	403.12
413.812	411.12
414.035	403.12
414.258	409.12
414.482	394.12
414.705	395.12
414.928	408.12
415.151	391.12
415.374	401.12
415.597	407.12
415.821	410.12
416.044	398.12
416.267	408.12
416.49	421.12
416.713	422.12
416.936	395.12
417.159	392.12
417.382	412.12
417.605	400.12
417.828	416.12
418.051	429.12
418.274	417.12
418.497	409.12
418.72	396.12
418.943	395.12
419.166	407.12
419.389	449.12
419.611	429.12
419.834	431.12
420.057	433.12
420.28	426.12
420.503	414.12
420.726	427.12
420.948	437.12
421.171	459.12
421.394	486.12
421.617	450.12
421.839	431.12
422.062	437.12
422.285	443.12
422.507	470.12
422.73	527.12
422.953	519.12
423.175	479.12
423.398	461.12
423.621	449.12
423.843	449.12
424.066	471.12
424.288	439.12
424.511	482.12
424.733	509.12
424.956	573.12
425.178	549.12
425.401	539.12
425.623	557.12
425.846	494.12
426.068	458.12
426.291	435.12
426.513	458.12
426.735	463.12
426.958	488.12
427.18	563.12
427.402	643.12
427.625	696.12
427.847	633.12
428.069	520.12
428.292	491.12
428.514	460.12
428.736	428.12
428.958	422.12
429.181	435.12
429.403	433.12
429.625	425.12
429.847	465.12
430.069	500.12
430.292	514.12
430.514	441.12
430.736	415.12
430.958	436.12
431.18	397.12
431.402	413.12
431.624	393.12
431.846	409.12
432.068	389.12
432.29	389.12
432.512	379.12
432.734	411.12
432.956	410.12
433.178	439.12
433.4	439.12
433.622	425.12
433.844	421.12
434.066	386.12
434.287	394.12
434.509	414.12
434.731	400.12
434.953	424.12
435.175	412.12
435.397	439.12
435.618	443.12
435.84	461.12
436.062	567.12
436.284	588.12
436.505	507.12
436.727	451.12
436.949	445.12
437.17	423.12
437.392	439.12
437.614	442.12
437.835	479.12
438.057	554.12
438.278	610.12
438.5	629.12
438.721	672.12
438.943	636.12
439.165	509.12
439.386	451.12
439.608	473.12
439.829	430.12
440.05	501.12
440.272	512.12
440.493	511.12
440.715	453.12
440.936	444.12
441.158	438.12
441.379	430.12
441.6	444.12
441.822	470.12
442.043	497.12
442.264	571.12
442.486	582.12
442.707	498.12
442.928	475.12
443.149	467.12
443.371	484.12
443.592	525.12
443.813	601.12
444.034	629.12
444.255	532.12
444.476	462.12
444.698	447.12
444.919	466.12
445.14	571.12
445.361	537.12
445.582	497.12
445.803	545.12
446.024	625.12
446.245	647.12
446.466	567.12
446.687	505.12
446.908	459.12
447.129	429.12
447.35	437.12
447.571	435.12
447.792	423.12
448.013	439.12
448.234	450.12
448.455	481.12
448.675	552.12
448.896	669.12
449.117	581.12
449.338	527.12
449.559	614.12
449.779	668.12
450	564.12
450.221	469.12
450.442	449.12
450.662	429.12
450.883	422.12
451.104	424.12
451.324	427.12
451.545	404.12
451.766	393.12
451.986	366.12
452.207	380.12
452.428	354.12
452.648	399.12
452.869	391.12
453.089	392.12
453.31	375.12
453.53	393.12
453.751	394.12
453.971	396.12
454.192	417.12
454.412	411.12
454.633	382.12
454.853	377.12
455.073	393.12
455.294	389.12
455.514	461.12
455.734	437.12
455.955	374.12
456.175	367.12
456.395	355.12
456.616	364.12
456.836	359.12
457.056	375.12
457.276	353.12
457.497	359.12
457.717	363.12
457.937	370.12
458.157	379.12
458.377	378.12
458.598	405.12
458.818	421.12
459.038	506.12
459.258	524.12
459.478	446.12
459.698	398.12
459.918	412.12
460.138	383.12
460.358	380.12
460.578	397.12
460.798	423.12
461.018	407.12
461.238	397.12
461.458	403.12
461.678	389.12
461.898	420.12
462.118	390.12
462.338	403.12
462.558	402.12
462.777	407.12
462.997	425.12
463.217	431.12
463.437	435.12
463.657	433.12
463.876	418.12
464.096	419.12
464.316	426.12
464.536	442.12
464.755	443.12
464.975	435.12
465.195	472.12
465.414	553.12
465.634	501.12
465.854	457.12
466.073	400.12
466.293	408.12
466.512	394.12
466.732	392.12
466.951	380.12
467.171	387.12
467.391	399.12
467.61	395.12
467.829	405.12
468.049	384.12
468.268	403.12
468.488	393.12
468.707	383.12
468.927	365.12
469.146	373.12
469.365	379.12
469.585	373.12
469.804	409.12
470.023	398.12
470.243	418.12
470.462	374.12
470.681	433.12
470.901	417.12
471.12	404.12
471.339	411.12
471.558	384.12
471.777	389.12
471.997	381.12
472.216	403.12
472.435	377.12
472.654	396.12
472.873	383.12
473.092	403.12
473.311	377.12
473.53	402.12
473.749	406.12
473.968	438.12
474.187	517.12
474.406	514.12
474.625	458.12
474.844	422.12
475.063	390.12
475.282	380.12
475.501	393.12
475.72	397.12
475.939	395.12
476.158	397.12
476.377	398.12
476.596	386.12
476.814	417.12
477.033	397.12
477.252	437.12
477.471	429.12
477.69	408.12
477.908	421.12
478.127	419.12
478.346	405.12
478.564	410.12
478.783	441.12
479.002	435.12
479.22	435.12
479.439	452.12
479.658	476.12
479.876	473.12
480.095	471.12
480.313	490.12
480.532	484.12
480.751	486.12
480.969	489.12
481.188	477.12
481.406	501.12
481.624	481.12
481.843	460.12
482.061	468.12
482.28	468.12
482.498	458.12
482.717	446.12
482.935	447.12
483.153	457.12
483.372	456.12
483.59	452.12
483.808	475.12
484.027	470.12
484.245	460.12
484.463	452.12
484.681	458.12
484.9	462.12
485.118	463.12
485.336	460.12
485.554	468.12
485.772	468.12
485.99	478.12
486.209	487.12
486.427	450.12
486.645	486.12
486.863	509.12
487.081	497.12
487.299	514.12
487.517	488.12
487.735	497.12
487.953	508.12
488.171	497.12
488.389	482.12
488.607	477.12
488.825	488.12
489.043	497.12
489.261	481.12
489.479	512.12
489.696	505.12
489.914	483.12
490.132	500.12
490.35	503.12
490.568	524.12
490.786	526.12
491.003	513.12
491.221	546.12
491.439	559.12
491.657	572.12
491.874	585.12
492.092	575.12
492.31	578.12
492.527	550.12
492.745	573.12
492.963	563.12
493.18	590.12
493.398	573.12
493.615	563.12
493.833	588.12
494.05	585.12
494.268	583.12
494.485	577.12
494.703	562.12
494.92	573.12
495.138	561.12
495.355	594.12
495.573	571.12
495.79	590.12
496.008	581.12
496.225	573.12
496.442	582.12
496.66	583.12
496.877	582.12
497.094	570.12
497.312	579.12
497.529	594.12
497.746	598.12
497.963	595.12
498.181	609.12
498.398	656.12
498.615	620.12
498.832	634.12
499.049	643.12
499.267	643.12
499.484	669.12
499.701	713.12
499.918	707.12
500.135	725.12
500.352	764.12
500.569	746.12
500.786	757.12
501.003	773.12
501.22	758.12
501.437	739.12
501.654	741.12
501.871	718.12
502.088	718.12
