Data from 1983.PennyLincolnUp.Lamp.En5.5.200Scan.071819.P1_HRD10591_16-52-21-965.txt Node
Date: Thu Jul 18 16:52:21 EDT 2019
User: cochatt
Spectrometer: HR+D1059
Trigger mode: 1
Integration Time (sec): 1.000000E-1
Scans to average: 1
Electric dark correction enabled: true
Nonlinearity correction enabled: false
Boxcar width: 0
XAxis mode: Wavelengths
Number of Pixels in Spectrum: 2048
>>>>>Begin Spectral Data<<<<<
223.165	-11.06
223.4	-11.06
223.635	-11.06
223.869	-27.06
224.104	-10.06
224.338	-3.06
224.573	-12.06
224.808	-21.06
225.042	-7.06
225.277	-8.06
225.511	1.94
225.746	7.94
225.98	-0.06
226.215	11.94
226.449	17.94
226.683	17.94
226.918	16.94
227.152	24.94
227.387	47.94
227.621	37.94
227.856	67.94
228.09	42.94
228.324	69.94
228.559	54.94
228.793	67.94
229.027	75.94
229.262	89.94
229.496	95.94
229.73	113.94
229.964	127.94
230.199	108.94
230.433	95.94
230.667	103.94
230.901	97.94
231.136	107.94
231.37	95.94
231.604	104.94
231.838	104.94
232.072	103.94
232.306	116.94
232.541	103.94
232.775	97.94
233.009	110.94
233.243	105.94
233.477	109.94
233.711	122.94
233.945	110.94
234.179	99.94
234.413	106.94
234.647	117.94
234.881	99.94
235.115	108.94
235.349	95.94
235.583	123.94
235.817	108.94
236.051	112.94
236.285	129.94
236.519	116.94
236.753	104.94
236.987	124.94
237.221	143.94
237.455	192.94
237.689	145.94
237.922	126.94
238.156	122.94
238.39	113.94
238.624	107.94
238.858	107.94
239.091	122.94
239.325	120.94
239.559	97.94
239.793	98.94
240.027	128.94
240.26	133.94
240.494	141.94
240.728	135.94
240.961	129.94
241.195	140.94
241.429	119.94
241.662	124.94
241.896	111.94
242.13	113.94
242.363	132.94
242.597	122.94
242.83	129.94
243.064	131.94
243.298	124.94
243.531	122.94
243.765	123.94
243.998	132.94
244.232	117.94
244.465	123.94
244.699	117.94
244.932	117.94
245.166	138.94
245.399	125.94
245.633	128.94
245.866	129.94
246.099	131.94
246.333	126.94
246.566	126.94
246.8	128.94
247.033	132.94
247.266	130.94
247.5	156.94
247.733	141.94
247.966	153.94
248.2	159.94
248.433	153.94
248.666	162.94
248.899	170.94
249.133	185.94
249.366	183.94
249.599	171.94
249.832	168.94
250.066	145.94
250.299	149.94
250.532	160.94
250.765	164.94
250.998	181.94
251.231	193.94
251.465	175.94
251.698	170.94
251.931	183.94
252.164	170.94
252.397	187.94
252.63	156.94
252.863	166.94
253.096	189.94
253.329	184.94
253.562	190.94
253.795	197.94
254.028	179.94
254.261	195.94
254.494	182.94
254.727	197.94
254.96	205.94
255.193	208.94
255.426	200.94
255.659	181.94
255.892	180.94
256.124	176.94
256.357	174.94
256.59	183.94
256.823	185.94
257.056	190.94
257.289	188.94
257.521	181.94
257.754	172.94
257.987	181.94
258.22	184.94
258.452	171.94
258.685	174.94
258.918	189.94
259.151	182.94
259.383	172.94
259.616	199.94
259.849	183.94
260.081	198.94
260.314	207.94
260.547	219.94
260.779	213.94
261.012	199.94
261.244	195.94
261.477	204.94
261.71	196.94
261.942	180.94
262.175	199.94
262.407	189.94
262.64	176.94
262.872	200.94
263.105	188.94
263.337	184.94
263.57	193.94
263.802	182.94
264.035	183.94
264.267	194.94
264.499	172.94
264.732	184.94
264.964	176.94
265.197	187.94
265.429	167.94
265.661	182.94
265.894	182.94
266.126	158.94
266.358	189.94
266.591	179.94
266.823	192.94
267.055	195.94
267.287	196.94
267.52	191.94
267.752	181.94
267.984	198.94
268.216	192.94
268.448	198.94
268.681	200.94
268.913	207.94
269.145	221.94
269.377	220.94
269.609	238.94
269.841	234.94
270.073	223.94
270.306	228.94
270.538	251.94
270.77	234.94
271.002	235.94
271.234	239.94
271.466	234.94
271.698	250.94
271.93	247.94
272.162	266.94
272.394	257.94
272.626	271.94
272.858	231.94
273.09	231.94
273.322	221.94
273.553	240.94
273.785	227.94
274.017	212.94
274.249	242.94
274.481	220.94
274.713	222.94
274.945	218.94
275.176	231.94
275.408	240.94
275.64	230.94
275.872	217.94
276.104	230.94
276.335	215.94
276.567	210.94
276.799	238.94
277.031	274.94
277.262	272.94
277.494	239.94
277.726	211.94
277.957	251.94
278.189	241.94
278.421	221.94
278.652	223.94
278.884	239.94
279.115	236.94
279.347	215.94
279.579	233.94
279.81	218.94
280.042	189.94
280.273	221.94
280.505	232.94
280.736	227.94
280.968	234.94
281.199	230.94
281.431	240.94
281.662	220.94
281.894	218.94
282.125	230.94
282.356	241.94
282.588	243.94
282.819	236.94
283.051	251.94
283.282	246.94
283.513	217.94
283.745	206.94
283.976	241.94
284.207	245.94
284.439	240.94
284.67	231.94
284.901	245.94
285.132	249.94
285.364	241.94
285.595	227.94
285.826	240.94
286.057	236.94
286.288	245.94
286.52	229.94
286.751	237.94
286.982	227.94
287.213	252.94
287.444	253.94
287.675	235.94
287.906	252.94
288.138	243.94
288.369	261.94
288.6	262.94
288.831	266.94
289.062	268.94
289.293	230.94
289.524	235.94
289.755	246.94
289.986	244.94
290.217	243.94
290.448	239.94
290.679	245.94
290.91	238.94
291.141	231.94
291.371	244.94
291.602	246.94
291.833	239.94
292.064	222.94
292.295	261.94
292.526	249.94
292.757	251.94
292.987	256.94
293.218	241.94
293.449	264.94
293.68	240.94
293.91	253.94
294.141	247.94
294.372	246.94
294.603	257.94
294.833	241.94
295.064	256.94
295.295	253.94
295.525	238.94
295.756	245.94
295.987	228.94
296.217	274.94
296.448	265.94
296.679	272.94
296.909	250.94
297.14	239.94
297.37	255.94
297.601	244.94
297.831	242.94
298.062	242.94
298.292	235.94
298.523	260.94
298.753	254.94
298.984	245.94
299.214	259.94
299.445	247.94
299.675	264.94
299.905	263.94
300.136	261.94
300.366	268.94
300.597	269.94
300.827	267.94
301.057	262.94
301.288	266.94
301.518	275.94
301.748	257.94
301.979	274.94
302.209	267.94
302.439	270.94
302.669	270.94
302.9	255.94
303.13	280.94
303.36	273.94
303.59	272.94
303.82	266.94
304.051	287.94
304.281	289.94
304.511	288.94
304.741	273.94
304.971	273.94
305.201	279.94
305.431	281.94
305.661	278.94
305.891	270.94
306.121	272.94
306.352	288.94
306.582	292.94
306.812	285.94
307.042	277.94
307.272	272.94
307.502	283.94
307.731	279.94
307.961	261.94
308.191	292.94
308.421	288.94
308.651	285.94
308.881	298.94
309.111	285.94
309.341	285.94
309.571	284.94
309.8	312.94
310.03	293.94
310.26	317.94
310.49	299.94
310.72	311.94
310.949	318.94
311.179	326.94
311.409	323.94
311.639	332.94
311.868	299.94
312.098	310.94
312.328	325.94
312.557	310.94
312.787	317.94
313.017	339.94
313.246	312.94
313.476	307.94
313.706	290.94
313.935	305.94
314.165	320.94
314.394	314.94
314.624	326.94
314.853	323.94
315.083	319.94
315.312	303.94
315.542	317.94
315.771	327.94
316.001	299.94
316.23	303.94
316.46	314.94
316.689	301.94
316.919	324.94
317.148	335.94
317.377	306.94
317.607	319.94
317.836	322.94
318.065	311.94
318.295	314.94
318.524	325.94
318.753	318.94
318.983	319.94
319.212	338.94
319.441	325.94
319.67	301.94
319.9	325.94
320.129	303.94
320.358	309.94
320.587	328.94
320.816	320.94
321.046	315.94
321.275	318.94
321.504	333.94
321.733	333.94
321.962	340.94
322.191	354.94
322.42	364.94
322.649	348.94
322.878	377.94
323.108	375.94
323.337	364.94
323.566	413.94
323.795	430.94
324.024	449.94
324.253	519.94
324.482	723.94
324.71	1063.94
324.939	1389.94
325.168	1203.94
325.397	639.94
325.626	480.94
325.855	400.94
326.084	403.94
326.313	381.94
326.542	391.94
326.77	440.94
326.999	495.94
327.228	657.94
327.457	918.94
327.686	1049.94
327.914	717.94
328.143	523.94
328.372	459.94
328.6	423.94
328.829	432.94
329.058	467.94
329.287	432.94
329.515	414.94
329.744	382.94
329.972	376.94
330.201	386.94
330.43	399.94
330.658	429.94
330.887	435.94
331.115	440.94
331.344	387.94
331.572	389.94
331.801	392.94
332.03	387.94
332.258	356.94
332.486	353.94
332.715	356.94
332.943	350.94
333.172	364.94
333.4	354.94
333.629	358.94
333.857	382.94
334.085	363.94
334.314	367.94
334.542	387.94
334.771	379.94
334.999	380.94
335.227	368.94
335.455	380.94
335.684	376.94
335.912	371.94
336.14	348.94
336.369	353.94
336.597	343.94
336.825	355.94
337.053	369.94
337.281	368.94
337.51	372.94
337.738	371.94
337.966	368.94
338.194	385.94
338.422	374.94
338.65	359.94
338.878	341.94
339.106	360.94
339.334	360.94
339.562	353.94
339.79	356.94
340.018	347.94
340.246	346.94
340.474	352.94
340.702	362.94
340.93	357.94
341.158	359.94
341.386	373.94
341.614	353.94
341.842	362.94
342.07	352.94
342.298	352.94
342.526	348.94
342.754	352.94
342.981	331.94
343.209	334.94
343.437	355.94
343.665	343.94
343.893	366.94
344.12	355.94
344.348	337.94
344.576	362.94
344.804	381.94
345.031	361.94
345.259	361.94
345.487	358.94
345.714	335.94
345.942	330.94
346.17	350.94
346.397	344.94
346.625	337.94
346.853	333.94
347.08	351.94
347.308	320.94
347.535	336.94
347.763	330.94
347.99	347.94
348.218	341.94
348.445	346.94
348.673	349.94
348.9	334.94
349.128	341.94
349.355	330.94
349.583	321.94
349.81	327.94
350.037	337.94
350.265	333.94
350.492	334.94
350.72	322.94
350.947	345.94
351.174	351.94
351.402	340.94
351.629	355.94
351.856	344.94
352.083	323.94
352.311	361.94
352.538	363.94
352.765	350.94
352.992	352.94
353.22	333.94
353.447	334.94
353.674	328.94
353.901	313.94
354.128	321.94
354.355	319.94
354.583	344.94
354.81	315.94
355.037	327.94
355.264	316.94
355.491	308.94
355.718	329.94
355.945	327.94
356.172	312.94
356.399	305.94
356.626	304.94
356.853	323.94
357.08	319.94
357.307	319.94
357.534	325.94
357.761	321.94
357.988	328.94
358.215	314.94
358.441	305.94
358.668	325.94
358.895	343.94
359.122	319.94
359.349	319.94
359.576	337.94
359.802	361.94
360.029	368.94
360.256	380.94
360.483	373.94
360.709	333.94
360.936	350.94
361.163	345.94
361.39	337.94
361.616	351.94
361.843	324.94
362.07	315.94
362.296	338.94
362.523	342.94
362.749	350.94
362.976	338.94
363.203	351.94
363.429	319.94
363.656	340.94
363.882	338.94
364.109	324.94
364.335	318.94
364.562	327.94
364.788	335.94
365.015	312.94
365.241	312.94
365.468	361.94
365.694	348.94
365.92	328.94
366.147	334.94
366.373	310.94
366.599	311.94
366.826	327.94
367.052	315.94
367.278	336.94
367.505	321.94
367.731	322.94
367.957	335.94
368.184	330.94
368.41	342.94
368.636	336.94
368.862	348.94
369.089	324.94
369.315	341.94
369.541	329.94
369.767	329.94
369.993	329.94
370.219	346.94
370.445	328.94
370.672	323.94
370.898	328.94
371.124	323.94
371.35	327.94
371.576	340.94
371.802	320.94
372.028	327.94
372.254	331.94
372.48	338.94
372.706	319.94
372.932	297.94
373.158	340.94
373.384	336.94
373.61	347.94
373.835	323.94
374.061	327.94
374.287	328.94
374.513	327.94
374.739	333.94
374.965	332.94
375.191	333.94
375.416	347.94
375.642	333.94
375.868	357.94
376.094	332.94
376.319	320.94
376.545	337.94
376.771	332.94
376.997	330.94
377.222	313.94
377.448	339.94
377.674	318.94
377.899	326.94
378.125	335.94
378.35	339.94
378.576	324.94
378.802	334.94
379.027	332.94
379.253	320.94
379.478	311.94
379.704	328.94
379.929	324.94
380.155	343.94
380.38	336.94
380.606	326.94
380.831	329.94
381.057	334.94
381.282	333.94
381.507	344.94
381.733	324.94
381.958	334.94
382.184	321.94
382.409	328.94
382.634	367.94
382.86	331.94
383.085	339.94
383.31	339.94
383.535	356.94
383.761	353.94
383.986	343.94
384.211	346.94
384.436	353.94
384.662	350.94
384.887	359.94
385.112	345.94
385.337	339.94
385.562	356.94
385.787	362.94
386.013	386.94
386.238	365.94
386.463	348.94
386.688	370.94
386.913	347.94
387.138	343.94
387.363	345.94
387.588	349.94
387.813	372.94
388.038	342.94
388.263	350.94
388.488	353.94
388.713	357.94
388.938	352.94
389.163	349.94
389.387	364.94
389.612	356.94
389.837	347.94
390.062	357.94
390.287	359.94
390.512	337.94
390.736	349.94
390.961	367.94
391.186	343.94
391.411	356.94
391.636	345.94
391.86	373.94
392.085	358.94
392.31	374.94
392.534	368.94
392.759	380.94
392.984	344.94
393.208	351.94
393.433	361.94
393.658	364.94
393.882	351.94
394.107	357.94
394.331	364.94
394.556	359.94
394.78	343.94
395.005	358.94
395.229	351.94
395.454	355.94
395.678	368.94
395.903	373.94
396.127	377.94
396.352	392.94
396.576	366.94
396.801	377.94
397.025	367.94
397.249	373.94
397.474	371.94
397.698	368.94
397.922	371.94
398.147	387.94
398.371	417.94
398.595	407.94
398.82	401.94
399.044	389.94
399.268	389.94
399.492	420.94
399.717	461.94
399.941	479.94
400.165	483.94
400.389	468.94
400.613	454.94
400.837	398.94
401.062	417.94
401.286	391.94
401.51	409.94
401.734	403.94
401.958	408.94
402.182	400.94
402.406	412.94
402.63	399.94
402.854	374.94
403.078	400.94
403.302	402.94
403.526	421.94
403.75	419.94
403.974	385.94
404.198	386.94
404.422	420.94
404.645	428.94
404.869	420.94
405.093	435.94
405.317	460.94
405.541	464.94
405.765	436.94
405.988	422.94
406.212	440.94
406.436	432.94
406.66	447.94
406.883	421.94
407.107	453.94
407.331	447.94
407.555	539.94
407.778	525.94
408.002	492.94
408.226	458.94
408.449	447.94
408.673	445.94
408.896	453.94
409.12	474.94
409.344	470.94
409.567	419.94
409.791	443.94
410.014	421.94
410.238	414.94
410.461	410.94
410.685	405.94
410.908	420.94
411.132	461.94
411.355	484.94
411.578	439.94
411.802	415.94
412.025	413.94
412.249	398.94
412.472	416.94
412.695	421.94
412.919	393.94
413.142	398.94
413.365	392.94
413.589	396.94
413.812	390.94
414.035	391.94
414.258	396.94
414.482	393.94
414.705	394.94
414.928	371.94
415.151	397.94
415.374	382.94
415.597	377.94
415.821	390.94
416.044	399.94
416.267	400.94
416.49	397.94
416.713	383.94
416.936	396.94
417.159	390.94
417.382	389.94
417.605	384.94
417.828	374.94
418.051	415.94
418.274	421.94
418.497	385.94
418.72	391.94
418.943	378.94
419.166	391.94
419.389	420.94
419.611	407.94
419.834	395.94
420.057	404.94
420.28	393.94
420.503	407.94
420.726	406.94
420.948	413.94
421.171	455.94
421.394	471.94
421.617	430.94
421.839	393.94
422.062	421.94
422.285	430.94
422.507	465.94
422.73	500.94
422.953	489.94
423.175	441.94
423.398	442.94
423.621	421.94
423.843	435.94
424.066	438.94
424.288	441.94
424.511	428.94
424.733	479.94
424.956	551.94
425.178	530.94
425.401	517.94
425.623	536.94
425.846	446.94
426.068	420.94
426.291	420.94
426.513	423.94
426.735	438.94
426.958	468.94
427.18	536.94
427.402	629.94
427.625	671.94
427.847	555.94
428.069	478.94
428.292	443.94
428.514	446.94
428.736	424.94
428.958	424.94
429.181	397.94
429.403	400.94
429.625	388.94
429.847	440.94
430.069	476.94
430.292	456.94
430.514	414.94
430.736	386.94
430.958	412.94
431.18	387.94
431.402	396.94
431.624	374.94
431.846	377.94
432.068	382.94
432.29	393.94
432.512	400.94
432.734	396.94
432.956	370.94
433.178	381.94
433.4	374.94
433.622	381.94
433.844	382.94
434.066	375.94
434.287	388.94
434.509	375.94
434.731	383.94
434.953	405.94
435.175	407.94
435.397	437.94
435.618	444.94
435.84	459.94
436.062	530.94
436.284	556.94
436.505	475.94
436.727	447.94
436.949	421.94
437.17	401.94
437.392	393.94
437.614	424.94
437.835	463.94
438.057	506.94
438.278	576.94
438.5	579.94
438.721	616.94
438.943	556.94
439.165	472.94
439.386	441.94
439.608	431.94
439.829	437.94
440.05	462.94
440.272	472.94
440.493	445.94
440.715	420.94
440.936	411.94
441.158	427.94
441.379	411.94
441.6	400.94
441.822	439.94
442.043	456.94
442.264	524.94
442.486	539.94
442.707	453.94
442.928	444.94
443.149	452.94
443.371	449.94
443.592	487.94
443.813	535.94
444.034	597.94
444.255	513.94
444.476	457.94
444.698	444.94
444.919	441.94
445.14	560.94
445.361	489.94
445.582	475.94
445.803	512.94
446.024	571.94
446.245	561.94
446.466	509.94
446.687	464.94
446.908	427.94
447.129	440.94
447.35	419.94
447.571	403.94
447.792	405.94
448.013	411.94
448.234	445.94
448.455	452.94
448.675	529.94
448.896	584.94
449.117	521.94
449.338	493.94
449.559	575.94
449.779	639.94
450	530.94
450.221	437.94
450.442	415.94
450.662	380.94
450.883	397.94
451.104	398.94
451.324	400.94
451.545	379.94
451.766	368.94
451.986	343.94
452.207	358.94
452.428	345.94
452.648	335.94
452.869	364.94
453.089	389.94
453.31	375.94
453.53	363.94
453.751	375.94
453.971	376.94
454.192	381.94
454.412	364.94
454.633	379.94
454.853	356.94
455.073	363.94
455.294	398.94
455.514	453.94
455.734	412.94
455.955	355.94
456.175	336.94
456.395	348.94
456.616	337.94
456.836	360.94
457.056	347.94
457.276	311.94
457.497	346.94
457.717	344.94
457.937	348.94
458.157	364.94
458.377	368.94
458.598	379.94
458.818	409.94
459.038	476.94
459.258	454.94
459.478	398.94
459.698	372.94
459.918	390.94
460.138	373.94
460.358	376.94
460.578	365.94
460.798	387.94
461.018	404.94
461.238	376.94
461.458	384.94
461.678	387.94
461.898	395.94
462.118	396.94
462.338	388.94
462.558	420.94
462.777	430.94
462.997	407.94
463.217	427.94
463.437	428.94
463.657	401.94
463.876	412.94
464.096	391.94
464.316	403.94
464.536	410.94
464.755	412.94
464.975	425.94
465.195	446.94
465.414	486.94
465.634	425.94
465.854	398.94
466.073	389.94
466.293	380.94
466.512	362.94
466.732	394.94
466.951	367.94
467.171	372.94
467.391	385.94
467.61	382.94
467.829	387.94
468.049	378.94
468.268	384.94
468.488	373.94
468.707	355.94
468.927	373.94
469.146	358.94
469.365	365.94
469.585	375.94
469.804	371.94
470.023	380.94
470.243	384.94
470.462	391.94
470.681	397.94
470.901	387.94
471.12	373.94
471.339	378.94
471.558	368.94
471.777	359.94
471.997	368.94
472.216	356.94
472.435	351.94
472.654	351.94
472.873	369.94
473.092	372.94
473.311	349.94
473.53	367.94
473.749	362.94
473.968	425.94
474.187	476.94
474.406	495.94
474.625	425.94
474.844	400.94
475.063	393.94
475.282	373.94
475.501	371.94
475.72	376.94
475.939	393.94
476.158	381.94
476.377	377.94
476.596	384.94
476.814	388.94
477.033	411.94
477.252	394.94
477.471	389.94
477.69	413.94
477.908	396.94
478.127	404.94
478.346	419.94
478.564	420.94
478.783	410.94
479.002	437.94
479.22	422.94
479.439	428.94
479.658	453.94
479.876	438.94
480.095	442.94
480.313	462.94
480.532	441.94
480.751	463.94
480.969	455.94
481.188	447.94
481.406	448.94
481.624	429.94
481.843	437.94
482.061	445.94
482.28	442.94
482.498	435.94
482.717	440.94
482.935	444.94
483.153	431.94
483.372	441.94
483.59	438.94
483.808	425.94
484.027	440.94
484.245	445.94
484.463	429.94
484.681	449.94
484.9	448.94
485.118	438.94
485.336	416.94
485.554	444.94
485.772	450.94
485.99	446.94
486.209	467.94
486.427	440.94
486.645	465.94
486.863	454.94
487.081	482.94
487.299	482.94
487.517	456.94
487.735	468.94
487.953	473.94
488.171	458.94
488.389	468.94
488.607	489.94
488.825	459.94
489.043	465.94
489.261	466.94
489.479	459.94
489.696	466.94
489.914	451.94
490.132	437.94
490.35	482.94
490.568	487.94
490.786	508.94
491.003	492.94
491.221	519.94
491.439	488.94
491.657	517.94
491.874	517.94
492.092	522.94
492.31	519.94
492.527	523.94
492.745	514.94
492.963	493.94
493.18	535.94
493.398	547.94
493.615	565.94
493.833	518.94
494.05	559.94
494.268	542.94
494.485	567.94
494.703	559.94
494.92	534.94
495.138	539.94
495.355	563.94
495.573	548.94
495.79	555.94
496.008	551.94
496.225	535.94
496.442	547.94
496.66	558.94
496.877	556.94
497.094	542.94
497.312	546.94
497.529	562.94
497.746	583.94
497.963	538.94
498.181	599.94
498.398	597.94
498.615	612.94
498.832	591.94
499.049	617.94
499.267	643.94
499.484	645.94
499.701	667.94
499.918	684.94
500.135	713.94
500.352	758.94
500.569	729.94
500.786	736.94
501.003	730.94
501.22	725.94
501.437	699.94
501.654	703.94
501.871	693.94
502.088	668.94
