Data from 1983.PennyLincolnUp.Lamp.En5.5.200Scan.071819.P1_HRD10591_16-55-09-966.txt Node
Date: Thu Jul 18 16:55:09 EDT 2019
User: cochatt
Spectrometer: HR+D1059
Trigger mode: 1
Integration Time (sec): 1.000000E-1
Scans to average: 1
Electric dark correction enabled: true
Nonlinearity correction enabled: false
Boxcar width: 0
XAxis mode: Wavelengths
Number of Pixels in Spectrum: 2048
>>>>>Begin Spectral Data<<<<<
223.165	-8.56
223.4	-8.56
223.635	-8.56
223.869	-9.56
224.104	-19.56
224.338	-13.56
224.573	-15.56
224.808	-9.56
225.042	-4.56
225.277	-0.56
225.511	0.44
225.746	3.44
225.98	-14.56
226.215	4.44
226.449	13.44
226.683	23.44
226.918	31.44
227.152	19.44
227.387	19.44
227.621	35.44
227.856	34.44
228.09	45.44
228.324	49.44
228.559	56.44
228.793	43.44
229.027	97.44
229.262	102.44
229.496	112.44
229.73	115.44
229.964	142.44
230.199	122.44
230.433	116.44
230.667	93.44
230.901	98.44
231.136	107.44
231.37	112.44
231.604	112.44
231.838	113.44
232.072	107.44
232.306	105.44
232.541	113.44
232.775	105.44
233.009	104.44
233.243	112.44
233.477	103.44
233.711	116.44
233.945	101.44
234.179	113.44
234.413	113.44
234.647	114.44
234.881	117.44
235.115	101.44
235.349	116.44
235.583	121.44
235.817	121.44
236.051	113.44
236.285	131.44
236.519	117.44
236.753	136.44
236.987	137.44
237.221	168.44
237.455	209.44
237.689	164.44
237.922	140.44
238.156	125.44
238.39	123.44
238.624	116.44
238.858	115.44
239.091	120.44
239.325	109.44
239.559	123.44
239.793	113.44
240.027	117.44
240.26	135.44
240.494	137.44
240.728	137.44
240.961	138.44
241.195	143.44
241.429	124.44
241.662	122.44
241.896	129.44
242.13	135.44
242.363	129.44
242.597	145.44
242.83	144.44
243.064	131.44
243.298	127.44
243.531	122.44
243.765	131.44
243.998	128.44
244.232	119.44
244.465	123.44
244.699	130.44
244.932	129.44
245.166	127.44
245.399	137.44
245.633	139.44
245.866	152.44
246.099	147.44
246.333	138.44
246.566	138.44
246.8	128.44
247.033	136.44
247.266	139.44
247.5	159.44
247.733	151.44
247.966	154.44
248.2	169.44
248.433	171.44
248.666	158.44
248.899	171.44
249.133	179.44
249.366	191.44
249.599	185.44
249.832	187.44
250.066	169.44
250.299	175.44
250.532	212.44
250.765	196.44
250.998	216.44
251.231	218.44
251.465	197.44
251.698	201.44
251.931	193.44
252.164	182.44
252.397	187.44
252.63	188.44
252.863	190.44
253.096	185.44
253.329	204.44
253.562	214.44
253.795	203.44
254.028	203.44
254.261	205.44
254.494	218.44
254.727	239.44
254.96	242.44
255.193	259.44
255.426	225.44
255.659	214.44
255.892	240.44
256.124	237.44
256.357	217.44
256.59	231.44
256.823	219.44
257.056	196.44
257.289	210.44
257.521	216.44
257.754	206.44
257.987	194.44
258.22	183.44
258.452	188.44
258.685	200.44
258.918	179.44
259.151	199.44
259.383	192.44
259.616	184.44
259.849	208.44
260.081	203.44
260.314	248.44
260.547	229.44
260.779	222.44
261.012	224.44
261.244	208.44
261.477	213.44
261.71	202.44
261.942	201.44
262.175	213.44
262.407	209.44
262.64	211.44
262.872	193.44
263.105	214.44
263.337	206.44
263.57	194.44
263.802	192.44
264.035	175.44
264.267	182.44
264.499	194.44
264.732	207.44
264.964	201.44
265.197	208.44
265.429	199.44
265.661	196.44
265.894	208.44
266.126	198.44
266.358	210.44
266.591	192.44
266.823	193.44
267.055	213.44
267.287	211.44
267.52	205.44
267.752	212.44
267.984	218.44
268.216	205.44
268.448	216.44
268.681	199.44
268.913	228.44
269.145	235.44
269.377	259.44
269.609	243.44
269.841	253.44
270.073	253.44
270.306	278.44
270.538	303.44
270.77	286.44
271.002	288.44
271.234	267.44
271.466	285.44
271.698	268.44
271.93	298.44
272.162	305.44
272.394	293.44
272.626	286.44
272.858	272.44
273.09	244.44
273.322	259.44
273.553	243.44
273.785	247.44
274.017	250.44
274.249	241.44
274.481	240.44
274.713	248.44
274.945	249.44
275.176	233.44
275.408	258.44
275.64	218.44
275.872	230.44
276.104	241.44
276.335	255.44
276.567	255.44
276.799	266.44
277.031	303.44
277.262	300.44
277.494	278.44
277.726	278.44
277.957	275.44
278.189	291.44
278.421	265.44
278.652	263.44
278.884	264.44
279.115	245.44
279.347	251.44
279.579	231.44
279.81	250.44
280.042	249.44
280.273	247.44
280.505	244.44
280.736	245.44
280.968	246.44
281.199	234.44
281.431	252.44
281.662	251.44
281.894	262.44
282.125	265.44
282.356	267.44
282.588	271.44
282.819	273.44
283.051	265.44
283.282	253.44
283.513	257.44
283.745	258.44
283.976	256.44
284.207	232.44
284.439	260.44
284.67	267.44
284.901	267.44
285.132	263.44
285.364	260.44
285.595	252.44
285.826	254.44
286.057	263.44
286.288	243.44
286.52	269.44
286.751	259.44
286.982	263.44
287.213	258.44
287.444	256.44
287.675	273.44
287.906	269.44
288.138	285.44
288.369	284.44
288.6	273.44
288.831	283.44
289.062	295.44
289.293	267.44
289.524	259.44
289.755	251.44
289.986	274.44
290.217	244.44
290.448	241.44
290.679	267.44
290.91	256.44
291.141	286.44
291.371	267.44
291.602	273.44
291.833	255.44
292.064	260.44
292.295	277.44
292.526	248.44
292.757	258.44
292.987	268.44
293.218	249.44
293.449	253.44
293.68	240.44
293.91	272.44
294.141	277.44
294.372	265.44
294.603	260.44
294.833	265.44
295.064	273.44
295.295	263.44
295.525	249.44
295.756	269.44
295.987	270.44
296.217	313.44
296.448	333.44
296.679	284.44
296.909	285.44
297.14	289.44
297.37	289.44
297.601	262.44
297.831	273.44
298.062	264.44
298.292	285.44
298.523	282.44
298.753	267.44
298.984	265.44
299.214	266.44
299.445	299.44
299.675	276.44
299.905	288.44
300.136	276.44
300.366	285.44
300.597	278.44
300.827	287.44
301.057	299.44
301.288	304.44
301.518	291.44
301.748	287.44
301.979	294.44
302.209	297.44
302.439	313.44
302.669	311.44
302.9	296.44
303.13	293.44
303.36	304.44
303.59	315.44
303.82	303.44
304.051	330.44
304.281	298.44
304.511	297.44
304.741	309.44
304.971	292.44
305.201	305.44
305.431	298.44
305.661	309.44
305.891	284.44
306.121	280.44
306.352	300.44
306.582	327.44
306.812	296.44
307.042	306.44
307.272	301.44
307.502	292.44
307.731	312.44
307.961	293.44
308.191	293.44
308.421	321.44
308.651	306.44
308.881	288.44
309.111	311.44
309.341	313.44
309.571	335.44
309.8	327.44
310.03	343.44
310.26	342.44
310.49	354.44
310.72	372.44
310.949	363.44
311.179	358.44
311.409	354.44
311.639	338.44
311.868	367.44
312.098	357.44
312.328	369.44
312.557	393.44
312.787	373.44
313.017	388.44
313.246	375.44
313.476	342.44
313.706	352.44
313.935	352.44
314.165	355.44
314.394	371.44
314.624	377.44
314.853	356.44
315.083	374.44
315.312	370.44
315.542	347.44
315.771	341.44
316.001	340.44
316.23	357.44
316.46	349.44
316.689	360.44
316.919	346.44
317.148	367.44
317.377	360.44
317.607	373.44
317.836	358.44
318.065	341.44
318.295	353.44
318.524	352.44
318.753	354.44
318.983	343.44
319.212	356.44
319.441	375.44
319.67	367.44
319.9	362.44
320.129	347.44
320.358	339.44
320.587	345.44
320.816	369.44
321.046	363.44
321.275	387.44
321.504	389.44
321.733	384.44
321.962	372.44
322.191	392.44
322.42	395.44
322.649	396.44
322.878	422.44
323.108	421.44
323.337	452.44
323.566	468.44
323.795	490.44
324.024	582.44
324.253	699.44
324.482	1017.44
324.71	1521.44
324.939	2076.44
325.168	1679.44
325.397	921.44
325.626	631.44
325.855	522.44
326.084	502.44
326.313	481.44
326.542	474.44
326.77	540.44
326.999	649.44
327.228	902.44
327.457	1329.44
327.686	1523.44
327.914	1024.44
328.143	707.44
328.372	623.44
328.6	572.44
328.829	569.44
329.058	574.44
329.287	585.44
329.515	554.44
329.744	501.44
329.972	514.44
330.201	566.44
330.43	581.44
330.658	607.44
330.887	609.44
331.115	599.44
331.344	483.44
331.572	476.44
331.801	482.44
332.03	495.44
332.258	460.44
332.486	409.44
332.715	424.44
332.943	443.44
333.172	431.44
333.4	401.44
333.629	443.44
333.857	441.44
334.085	492.44
334.314	513.44
334.542	579.44
334.771	609.44
334.999	498.44
335.227	466.44
335.455	426.44
335.684	439.44
335.912	411.44
336.14	408.44
336.369	404.44
336.597	417.44
336.825	406.44
337.053	407.44
337.281	398.44
337.51	397.44
337.738	416.44
337.966	396.44
338.194	393.44
338.422	416.44
338.65	412.44
338.878	405.44
339.106	388.44
339.334	376.44
339.562	383.44
339.79	390.44
340.018	392.44
340.246	389.44
340.474	386.44
340.702	386.44
340.93	398.44
341.158	380.44
341.386	383.44
341.614	412.44
341.842	417.44
342.07	375.44
342.298	362.44
342.526	377.44
342.754	375.44
342.981	371.44
343.209	387.44
343.437	382.44
343.665	375.44
343.893	396.44
344.12	397.44
344.348	389.44
344.576	391.44
344.804	415.44
345.031	400.44
345.259	413.44
345.487	402.44
345.714	398.44
345.942	376.44
346.17	376.44
346.397	381.44
346.625	378.44
346.853	386.44
347.08	395.44
347.308	355.44
347.535	396.44
347.763	394.44
347.99	381.44
348.218	391.44
348.445	395.44
348.673	397.44
348.9	396.44
349.128	370.44
349.355	370.44
349.583	370.44
349.81	351.44
350.037	367.44
350.265	379.44
350.492	362.44
350.72	354.44
350.947	387.44
351.174	382.44
351.402	391.44
351.629	394.44
351.856	392.44
352.083	385.44
352.311	396.44
352.538	392.44
352.765	405.44
352.992	407.44
353.22	377.44
353.447	365.44
353.674	380.44
353.901	375.44
354.128	362.44
354.355	363.44
354.583	361.44
354.81	353.44
355.037	346.44
355.264	340.44
355.491	353.44
355.718	345.44
355.945	342.44
356.172	354.44
356.399	364.44
356.626	345.44
356.853	361.44
357.08	362.44
357.307	339.44
357.534	335.44
357.761	337.44
357.988	361.44
358.215	372.44
358.441	352.44
358.668	344.44
358.895	354.44
359.122	370.44
359.349	360.44
359.576	391.44
359.802	411.44
360.029	418.44
360.256	443.44
360.483	414.44
360.709	387.44
360.936	384.44
361.163	363.44
361.39	401.44
361.616	387.44
361.843	364.44
362.07	387.44
362.296	379.44
362.523	371.44
362.749	403.44
362.976	360.44
363.203	363.44
363.429	344.44
363.656	360.44
363.882	362.44
364.109	362.44
364.335	359.44
364.562	361.44
364.788	348.44
365.015	368.44
365.241	365.44
365.468	367.44
365.694	370.44
365.92	366.44
366.147	377.44
366.373	360.44
366.599	369.44
366.826	355.44
367.052	351.44
367.278	355.44
367.505	343.44
367.731	348.44
367.957	355.44
368.184	360.44
368.41	368.44
368.636	341.44
368.862	377.44
369.089	352.44
369.315	349.44
369.541	341.44
369.767	355.44
369.993	353.44
370.219	377.44
370.445	370.44
370.672	345.44
370.898	352.44
371.124	354.44
371.35	354.44
371.576	353.44
371.802	337.44
372.028	345.44
372.254	348.44
372.48	339.44
372.706	365.44
372.932	354.44
373.158	346.44
373.384	353.44
373.61	355.44
373.835	350.44
374.061	346.44
374.287	348.44
374.513	346.44
374.739	369.44
374.965	345.44
375.191	360.44
375.416	347.44
375.642	359.44
375.868	358.44
376.094	348.44
376.319	360.44
376.545	356.44
376.771	339.44
376.997	340.44
377.222	355.44
377.448	334.44
377.674	349.44
377.899	366.44
378.125	339.44
378.35	326.44
378.576	339.44
378.802	340.44
379.027	330.44
379.253	336.44
379.478	352.44
379.704	347.44
379.929	358.44
380.155	357.44
380.38	344.44
380.606	355.44
380.831	335.44
381.057	354.44
381.282	352.44
381.507	353.44
381.733	331.44
381.958	341.44
382.184	341.44
382.409	369.44
382.634	351.44
382.86	345.44
383.085	347.44
383.31	352.44
383.535	358.44
383.761	371.44
383.986	373.44
384.211	374.44
384.436	353.44
384.662	372.44
384.887	396.44
385.112	368.44
385.337	352.44
385.562	364.44
385.787	378.44
386.013	376.44
386.238	406.44
386.463	379.44
386.688	387.44
386.913	370.44
387.138	370.44
387.363	367.44
387.588	367.44
387.813	351.44
388.038	377.44
388.263	382.44
388.488	371.44
388.713	376.44
388.938	364.44
389.163	375.44
389.387	372.44
389.612	365.44
389.837	378.44
390.062	376.44
390.287	372.44
390.512	364.44
390.736	361.44
390.961	397.44
391.186	374.44
391.411	387.44
391.636	371.44
391.86	370.44
392.085	356.44
392.31	366.44
392.534	379.44
392.759	371.44
392.984	392.44
393.208	402.44
393.433	383.44
393.658	382.44
393.882	375.44
394.107	373.44
394.331	370.44
394.556	363.44
394.78	391.44
395.005	358.44
395.229	369.44
395.454	392.44
395.678	390.44
395.903	391.44
396.127	408.44
396.352	411.44
396.576	374.44
396.801	392.44
397.025	363.44
397.249	375.44
397.474	376.44
397.698	394.44
397.922	406.44
398.147	402.44
398.371	415.44
398.595	403.44
398.82	398.44
399.044	423.44
399.268	417.44
399.492	452.44
399.717	465.44
399.941	468.44
400.165	496.44
400.389	491.44
400.613	483.44
400.837	460.44
401.062	423.44
401.286	417.44
401.51	411.44
401.734	420.44
401.958	416.44
402.182	426.44
402.406	438.44
402.63	435.44
402.854	434.44
403.078	435.44
403.302	416.44
403.526	456.44
403.75	452.44
403.974	414.44
404.198	444.44
404.422	451.44
404.645	446.44
404.869	472.44
405.093	478.44
405.317	499.44
405.541	535.44
405.765	509.44
405.988	490.44
406.212	483.44
406.436	487.44
406.66	505.44
406.883	489.44
407.107	490.44
407.331	533.44
407.555	565.44
407.778	571.44
408.002	523.44
408.226	468.44
408.449	463.44
408.673	474.44
408.896	497.44
409.12	524.44
409.344	491.44
409.567	458.44
409.791	453.44
410.014	456.44
410.238	420.44
410.461	444.44
410.685	443.44
410.908	447.44
411.132	466.44
411.355	503.44
411.578	500.44
411.802	467.44
412.025	442.44
412.249	424.44
412.472	471.44
412.695	520.44
412.919	511.44
413.142	468.44
413.365	442.44
413.589	448.44
413.812	410.44
414.035	419.44
414.258	419.44
414.482	403.44
414.705	420.44
414.928	408.44
415.151	398.44
415.374	404.44
415.597	393.44
415.821	411.44
416.044	409.44
416.267	429.44
416.49	425.44
416.713	402.44
416.936	404.44
417.159	402.44
417.382	415.44
417.605	449.44
417.828	440.44
418.051	425.44
418.274	416.44
418.497	417.44
418.72	416.44
418.943	412.44
419.166	431.44
419.389	447.44
419.611	432.44
419.834	472.44
420.057	460.44
420.28	449.44
420.503	448.44
420.726	441.44
420.948	476.44
421.171	471.44
421.394	477.44
421.617	441.44
421.839	439.44
422.062	449.44
422.285	445.44
422.507	488.44
422.73	539.44
422.953	531.44
423.175	471.44
423.398	442.44
423.621	450.44
423.843	479.44
424.066	468.44
424.288	458.44
424.511	472.44
424.733	520.44
424.956	589.44
425.178	559.44
425.401	551.44
425.623	543.44
425.846	484.44
426.068	450.44
426.291	476.44
426.513	471.44
426.735	476.44
426.958	489.44
427.18	577.44
427.402	679.44
427.625	726.44
427.847	707.44
428.069	593.44
428.292	511.44
428.514	475.44
428.736	462.44
428.958	427.44
429.181	444.44
429.403	448.44
429.625	432.44
429.847	476.44
430.069	536.44
430.292	491.44
430.514	456.44
430.736	436.44
430.958	428.44
431.18	409.44
431.402	399.44
431.624	397.44
431.846	391.44
432.068	411.44
432.29	407.44
432.512	394.44
432.734	403.44
432.956	414.44
433.178	420.44
433.4	435.44
433.622	397.44
433.844	414.44
434.066	410.44
434.287	409.44
434.509	415.44
434.731	423.44
434.953	423.44
435.175	424.44
435.397	448.44
435.618	473.44
435.84	506.44
436.062	580.44
436.284	592.44
436.505	526.44
436.727	479.44
436.949	471.44
437.17	429.44
437.392	434.44
437.614	452.44
437.835	484.44
438.057	555.44
438.278	606.44
438.5	629.44
438.721	658.44
438.943	628.44
439.165	524.44
439.386	491.44
439.608	479.44
439.829	473.44
440.05	489.44
440.272	532.44
440.493	513.44
440.715	477.44
440.936	453.44
441.158	418.44
441.379	445.44
441.6	441.44
441.822	486.44
442.043	511.44
442.264	589.44
442.486	584.44
442.707	527.44
442.928	488.44
443.149	503.44
443.371	511.44
443.592	533.44
443.813	574.44
444.034	647.44
444.255	537.44
444.476	465.44
444.698	469.44
444.919	460.44
445.14	552.44
445.361	534.44
445.582	513.44
445.803	561.44
446.024	647.44
446.245	628.44
446.466	600.44
446.687	507.44
446.908	469.44
447.129	472.44
447.35	449.44
447.571	428.44
447.792	411.44
448.013	422.44
448.234	446.44
448.455	523.44
448.675	575.44
448.896	655.44
449.117	584.44
449.338	546.44
449.559	635.44
449.779	700.44
450	575.44
450.221	481.44
450.442	438.44
450.662	441.44
450.883	455.44
451.104	454.44
451.324	444.44
451.545	402.44
451.766	407.44
451.986	400.44
452.207	394.44
452.428	403.44
452.648	411.44
452.869	392.44
453.089	397.44
453.31	408.44
453.53	393.44
453.751	385.44
453.971	394.44
454.192	401.44
454.412	407.44
454.633	386.44
454.853	391.44
455.073	403.44
455.294	418.44
455.514	477.44
455.734	476.44
455.955	388.44
456.175	384.44
456.395	368.44
456.616	368.44
456.836	373.44
457.056	364.44
457.276	366.44
457.497	358.44
457.717	374.44
457.937	375.44
458.157	378.44
458.377	377.44
458.598	404.44
458.818	449.44
459.038	534.44
459.258	521.44
459.478	458.44
459.698	405.44
459.918	396.44
460.138	397.44
460.358	401.44
460.578	401.44
460.798	398.44
461.018	407.44
461.238	388.44
461.458	412.44
461.678	404.44
461.898	451.44
462.118	407.44
462.338	404.44
462.558	444.44
462.777	423.44
462.997	429.44
463.217	433.44
463.437	443.44
463.657	413.44
463.876	431.44
464.096	435.44
464.316	443.44
464.536	436.44
464.755	452.44
464.975	449.44
465.195	511.44
465.414	576.44
465.634	506.44
465.854	463.44
466.073	413.44
466.293	389.44
466.512	405.44
466.732	407.44
466.951	399.44
467.171	405.44
467.391	422.44
467.61	396.44
467.829	413.44
468.049	427.44
468.268	428.44
468.488	403.44
468.707	377.44
468.927	388.44
469.146	401.44
469.365	389.44
469.585	384.44
469.804	406.44
470.023	416.44
470.243	406.44
470.462	449.44
470.681	475.44
470.901	432.44
471.12	404.44
471.339	388.44
471.558	405.44
471.777	416.44
471.997	383.44
472.216	423.44
472.435	497.44
472.654	451.44
472.873	431.44
473.092	419.44
473.311	398.44
473.53	427.44
473.749	433.44
473.968	449.44
474.187	532.44
474.406	535.44
474.625	463.44
474.844	417.44
475.063	424.44
475.282	401.44
475.501	415.44
475.72	406.44
475.939	421.44
476.158	401.44
476.377	411.44
476.596	433.44
476.814	439.44
477.033	467.44
477.252	447.44
477.471	413.44
477.69	425.44
477.908	430.44
478.127	441.44
478.346	435.44
478.564	457.44
478.783	460.44
479.002	480.44
479.22	436.44
479.439	470.44
479.658	461.44
479.876	473.44
480.095	479.44
480.313	505.44
480.532	513.44
480.751	501.44
480.969	542.44
481.188	613.44
481.406	692.44
481.624	548.44
481.843	523.44
482.061	522.44
482.28	489.44
482.498	484.44
482.717	490.44
482.935	496.44
483.153	485.44
483.372	491.44
483.59	474.44
483.808	467.44
484.027	476.44
484.245	489.44
484.463	489.44
484.681	512.44
484.9	466.44
485.118	465.44
485.336	478.44
485.554	479.44
485.772	492.44
485.99	478.44
486.209	521.44
486.427	493.44
486.645	505.44
486.863	542.44
487.081	503.44
487.299	509.44
487.517	505.44
487.735	500.44
487.953	500.44
488.171	497.44
488.389	501.44
488.607	530.44
488.825	528.44
489.043	512.44
489.261	520.44
489.479	516.44
489.696	517.44
489.914	531.44
490.132	533.44
490.35	544.44
490.568	528.44
490.786	545.44
491.003	562.44
491.221	590.44
491.439	579.44
491.657	572.44
491.874	626.44
492.092	616.44
492.31	605.44
492.527	628.44
492.745	616.44
492.963	619.44
493.18	598.44
493.398	633.44
493.615	610.44
493.833	617.44
494.05	619.44
494.268	603.44
494.485	598.44
494.703	610.44
494.92	620.44
495.138	609.44
495.355	597.44
495.573	624.44
495.79	625.44
496.008	632.44
496.225	619.44
496.442	623.44
496.66	603.44
496.877	614.44
497.094	620.44
497.312	617.44
497.529	624.44
497.746	601.44
497.963	621.44
498.181	652.44
498.398	657.44
498.615	649.44
498.832	678.44
499.049	655.44
499.267	678.44
499.484	691.44
499.701	715.44
499.918	744.44
500.135	730.44
500.352	781.44
500.569	799.44
500.786	800.44
501.003	778.44
501.22	755.44
501.437	739.44
501.654	739.44
501.871	751.44
502.088	713.44
