Data from 1983.PennyLincolnUp.Lamp.En5.5.200Scan.071819.P1_HRD10591_16-54-56-966.txt Node
Date: Thu Jul 18 16:54:56 EDT 2019
User: cochatt
Spectrometer: HR+D1059
Trigger mode: 1
Integration Time (sec): 1.000000E-1
Scans to average: 1
Electric dark correction enabled: true
Nonlinearity correction enabled: false
Boxcar width: 0
XAxis mode: Wavelengths
Number of Pixels in Spectrum: 2048
>>>>>Begin Spectral Data<<<<<
223.165	-13.06
223.4	-13.06
223.635	-13.06
223.869	-11.06
224.104	-13.06
224.338	-22.06
224.573	-29.06
224.808	-13.06
225.042	-16.06
225.277	-3.06
225.511	-10.06
225.746	2.94
225.98	22.94
226.215	14.94
226.449	8.94
226.683	21.94
226.918	44.94
227.152	13.94
227.387	22.94
227.621	37.94
227.856	42.94
228.09	43.94
228.324	67.94
228.559	60.94
228.793	60.94
229.027	97.94
229.262	118.94
229.496	106.94
229.73	118.94
229.964	147.94
230.199	126.94
230.433	101.94
230.667	102.94
230.901	102.94
231.136	98.94
231.37	104.94
231.604	121.94
231.838	106.94
232.072	109.94
232.306	109.94
232.541	107.94
232.775	111.94
233.009	107.94
233.243	109.94
233.477	110.94
233.711	109.94
233.945	116.94
234.179	127.94
234.413	114.94
234.647	113.94
234.881	108.94
235.115	120.94
235.349	111.94
235.583	113.94
235.817	110.94
236.051	120.94
236.285	110.94
236.519	107.94
236.753	123.94
236.987	131.94
237.221	169.94
237.455	210.94
237.689	166.94
237.922	135.94
238.156	116.94
238.39	125.94
238.624	124.94
238.858	129.94
239.091	144.94
239.325	112.94
239.559	126.94
239.793	129.94
240.027	148.94
240.26	142.94
240.494	153.94
240.728	139.94
240.961	137.94
241.195	144.94
241.429	156.94
241.662	124.94
241.896	139.94
242.13	134.94
242.363	117.94
242.597	135.94
242.83	137.94
243.064	130.94
243.298	122.94
243.531	131.94
243.765	137.94
243.998	128.94
244.232	124.94
244.465	136.94
244.699	144.94
244.932	140.94
245.166	138.94
245.399	137.94
245.633	141.94
245.866	131.94
246.099	139.94
246.333	133.94
246.566	148.94
246.8	142.94
247.033	141.94
247.266	161.94
247.5	150.94
247.733	146.94
247.966	159.94
248.2	149.94
248.433	174.94
248.666	167.94
248.899	191.94
249.133	199.94
249.366	189.94
249.599	197.94
249.832	177.94
250.066	177.94
250.299	172.94
250.532	175.94
250.765	199.94
250.998	197.94
251.231	217.94
251.465	194.94
251.698	188.94
251.931	181.94
252.164	173.94
252.397	186.94
252.63	176.94
252.863	194.94
253.096	200.94
253.329	200.94
253.562	207.94
253.795	210.94
254.028	209.94
254.261	196.94
254.494	199.94
254.727	238.94
254.96	264.94
255.193	262.94
255.426	244.94
255.659	218.94
255.892	218.94
256.124	233.94
256.357	240.94
256.59	240.94
256.823	217.94
257.056	203.94
257.289	191.94
257.521	194.94
257.754	206.94
257.987	190.94
258.22	206.94
258.452	199.94
258.685	186.94
258.918	197.94
259.151	208.94
259.383	216.94
259.616	201.94
259.849	213.94
260.081	215.94
260.314	234.94
260.547	249.94
260.779	226.94
261.012	225.94
261.244	201.94
261.477	222.94
261.71	201.94
261.942	220.94
262.175	219.94
262.407	221.94
262.64	206.94
262.872	186.94
263.105	203.94
263.337	220.94
263.57	199.94
263.802	198.94
264.035	204.94
264.267	208.94
264.499	192.94
264.732	194.94
264.964	203.94
265.197	201.94
265.429	208.94
265.661	203.94
265.894	193.94
266.126	193.94
266.358	204.94
266.591	192.94
266.823	221.94
267.055	209.94
267.287	218.94
267.52	224.94
267.752	215.94
267.984	200.94
268.216	224.94
268.448	236.94
268.681	243.94
268.913	230.94
269.145	267.94
269.377	266.94
269.609	260.94
269.841	245.94
270.073	276.94
270.306	296.94
270.538	300.94
270.77	300.94
271.002	277.94
271.234	300.94
271.466	279.94
271.698	294.94
271.93	288.94
272.162	282.94
272.394	298.94
272.626	277.94
272.858	256.94
273.09	266.94
273.322	260.94
273.553	259.94
273.785	254.94
274.017	245.94
274.249	245.94
274.481	252.94
274.713	246.94
274.945	258.94
275.176	255.94
275.408	245.94
275.64	248.94
275.872	238.94
276.104	260.94
276.335	261.94
276.567	246.94
276.799	274.94
277.031	279.94
277.262	315.94
277.494	298.94
277.726	278.94
277.957	260.94
278.189	275.94
278.421	257.94
278.652	258.94
278.884	259.94
279.115	242.94
279.347	246.94
279.579	226.94
279.81	242.94
280.042	259.94
280.273	243.94
280.505	260.94
280.736	244.94
280.968	243.94
281.199	247.94
281.431	245.94
281.662	247.94
281.894	260.94
282.125	261.94
282.356	264.94
282.588	294.94
282.819	299.94
283.051	259.94
283.282	262.94
283.513	255.94
283.745	259.94
283.976	252.94
284.207	268.94
284.439	261.94
284.67	253.94
284.901	258.94
285.132	258.94
285.364	253.94
285.595	251.94
285.826	270.94
286.057	260.94
286.288	248.94
286.52	243.94
286.751	258.94
286.982	274.94
287.213	260.94
287.444	261.94
287.675	257.94
287.906	248.94
288.138	277.94
288.369	304.94
288.6	299.94
288.831	276.94
289.062	294.94
289.293	264.94
289.524	259.94
289.755	282.94
289.986	271.94
290.217	265.94
290.448	264.94
290.679	273.94
290.91	241.94
291.141	267.94
291.371	272.94
291.602	276.94
291.833	265.94
292.064	276.94
292.295	256.94
292.526	263.94
292.757	283.94
292.987	246.94
293.218	255.94
293.449	269.94
293.68	266.94
293.91	269.94
294.141	255.94
294.372	247.94
294.603	273.94
294.833	269.94
295.064	269.94
295.295	272.94
295.525	269.94
295.756	293.94
295.987	289.94
296.217	310.94
296.448	303.94
296.679	284.94
296.909	274.94
297.14	259.94
297.37	276.94
297.601	289.94
297.831	277.94
298.062	287.94
298.292	284.94
298.523	288.94
298.753	276.94
298.984	290.94
299.214	303.94
299.445	288.94
299.675	286.94
299.905	289.94
300.136	289.94
300.366	276.94
300.597	300.94
300.827	315.94
301.057	304.94
301.288	309.94
301.518	305.94
301.748	289.94
301.979	295.94
302.209	305.94
302.439	315.94
302.669	314.94
302.9	327.94
303.13	304.94
303.36	304.94
303.59	307.94
303.82	332.94
304.051	318.94
304.281	326.94
304.511	301.94
304.741	298.94
304.971	293.94
305.201	308.94
305.431	301.94
305.661	311.94
305.891	306.94
306.121	315.94
306.352	316.94
306.582	317.94
306.812	329.94
307.042	302.94
307.272	316.94
307.502	305.94
307.731	312.94
307.961	315.94
308.191	319.94
308.421	317.94
308.651	323.94
308.881	292.94
309.111	309.94
309.341	327.94
309.571	327.94
309.8	333.94
310.03	332.94
310.26	337.94
310.49	351.94
310.72	361.94
310.949	382.94
311.179	383.94
311.409	354.94
311.639	342.94
311.868	363.94
312.098	362.94
312.328	370.94
312.557	376.94
312.787	385.94
313.017	394.94
313.246	385.94
313.476	362.94
313.706	356.94
313.935	356.94
314.165	381.94
314.394	356.94
314.624	366.94
314.853	373.94
315.083	374.94
315.312	342.94
315.542	337.94
315.771	331.94
316.001	339.94
316.23	348.94
316.46	355.94
316.689	334.94
316.919	353.94
317.148	375.94
317.377	366.94
317.607	378.94
317.836	371.94
318.065	361.94
318.295	355.94
318.524	330.94
318.753	347.94
318.983	345.94
319.212	318.94
319.441	370.94
319.67	375.94
319.9	369.94
320.129	353.94
320.358	377.94
320.587	374.94
320.816	361.94
321.046	366.94
321.275	373.94
321.504	368.94
321.733	397.94
321.962	379.94
322.191	418.94
322.42	440.94
322.649	428.94
322.878	435.94
323.108	468.94
323.337	483.94
323.566	493.94
323.795	541.94
324.024	597.94
324.253	712.94
324.482	1030.94
324.71	1546.94
324.939	2125.94
325.168	1789.94
325.397	956.94
325.626	632.94
325.855	524.94
326.084	492.94
326.313	495.94
326.542	509.94
326.77	547.94
326.999	680.94
327.228	926.94
327.457	1394.94
327.686	1548.94
327.914	1053.94
328.143	728.94
328.372	642.94
328.6	583.94
328.829	556.94
329.058	577.94
329.287	586.94
329.515	551.94
329.744	506.94
329.972	517.94
330.201	549.94
330.43	605.94
330.658	625.94
330.887	647.94
331.115	567.94
331.344	504.94
331.572	480.94
331.801	473.94
332.03	473.94
332.258	448.94
332.486	426.94
332.715	420.94
332.943	437.94
333.172	444.94
333.4	438.94
333.629	443.94
333.857	441.94
334.085	471.94
334.314	524.94
334.542	568.94
334.771	544.94
334.999	489.94
335.227	456.94
335.455	436.94
335.684	420.94
335.912	407.94
336.14	405.94
336.369	399.94
336.597	434.94
336.825	419.94
337.053	421.94
337.281	415.94
337.51	412.94
337.738	388.94
337.966	400.94
338.194	399.94
338.422	404.94
338.65	391.94
338.878	389.94
339.106	390.94
339.334	402.94
339.562	397.94
339.79	403.94
340.018	400.94
340.246	407.94
340.474	408.94
340.702	414.94
340.93	402.94
341.158	386.94
341.386	405.94
341.614	412.94
341.842	400.94
342.07	380.94
342.298	393.94
342.526	406.94
342.754	387.94
342.981	378.94
343.209	380.94
343.437	375.94
343.665	390.94
343.893	413.94
344.12	414.94
344.348	383.94
344.576	400.94
344.804	401.94
345.031	404.94
345.259	411.94
345.487	416.94
345.714	388.94
345.942	392.94
346.17	409.94
346.397	380.94
346.625	378.94
346.853	386.94
347.08	371.94
347.308	392.94
347.535	418.94
347.763	412.94
347.99	396.94
348.218	405.94
348.445	426.94
348.673	384.94
348.9	386.94
349.128	366.94
349.355	364.94
349.583	370.94
349.81	385.94
350.037	373.94
350.265	376.94
350.492	378.94
350.72	389.94
350.947	378.94
351.174	360.94
351.402	384.94
351.629	380.94
351.856	394.94
352.083	390.94
352.311	411.94
352.538	420.94
352.765	399.94
352.992	408.94
353.22	390.94
353.447	374.94
353.674	371.94
353.901	373.94
354.128	368.94
354.355	346.94
354.583	373.94
354.81	363.94
355.037	357.94
355.264	360.94
355.491	356.94
355.718	328.94
355.945	360.94
356.172	372.94
356.399	344.94
356.626	341.94
356.853	335.94
357.08	361.94
357.307	358.94
357.534	368.94
357.761	356.94
357.988	368.94
358.215	358.94
358.441	351.94
358.668	352.94
358.895	353.94
359.122	370.94
359.349	362.94
359.576	380.94
359.802	419.94
360.029	434.94
360.256	452.94
360.483	441.94
360.709	410.94
360.936	385.94
361.163	374.94
361.39	366.94
361.616	376.94
361.843	388.94
362.07	375.94
362.296	401.94
362.523	384.94
362.749	394.94
362.976	371.94
363.203	388.94
363.429	357.94
363.656	374.94
363.882	363.94
364.109	378.94
364.335	376.94
364.562	360.94
364.788	373.94
365.015	372.94
365.241	340.94
365.468	365.94
365.694	384.94
365.92	378.94
366.147	381.94
366.373	357.94
366.599	361.94
366.826	356.94
367.052	368.94
367.278	374.94
367.505	374.94
367.731	373.94
367.957	362.94
368.184	365.94
368.41	379.94
368.636	392.94
368.862	382.94
369.089	371.94
369.315	375.94
369.541	371.94
369.767	370.94
369.993	345.94
370.219	370.94
370.445	356.94
370.672	372.94
370.898	358.94
371.124	358.94
371.35	344.94
371.576	349.94
371.802	359.94
372.028	346.94
372.254	349.94
372.48	357.94
372.706	356.94
372.932	376.94
373.158	356.94
373.384	368.94
373.61	368.94
373.835	341.94
374.061	349.94
374.287	352.94
374.513	353.94
374.739	361.94
374.965	360.94
375.191	360.94
375.416	364.94
375.642	345.94
375.868	354.94
376.094	368.94
376.319	352.94
376.545	347.94
376.771	356.94
376.997	340.94
377.222	348.94
377.448	330.94
377.674	352.94
377.899	347.94
378.125	333.94
378.35	332.94
378.576	356.94
378.802	363.94
379.027	351.94
379.253	349.94
379.478	345.94
379.704	354.94
379.929	349.94
380.155	364.94
380.38	357.94
380.606	370.94
380.831	358.94
381.057	372.94
381.282	357.94
381.507	356.94
381.733	348.94
381.958	356.94
382.184	346.94
382.409	370.94
382.634	352.94
382.86	348.94
383.085	361.94
383.31	370.94
383.535	361.94
383.761	348.94
383.986	368.94
384.211	364.94
384.436	384.94
384.662	361.94
384.887	370.94
385.112	368.94
385.337	362.94
385.562	370.94
385.787	368.94
386.013	394.94
386.238	387.94
386.463	399.94
386.688	383.94
386.913	392.94
387.138	381.94
387.363	382.94
387.588	372.94
387.813	374.94
388.038	391.94
388.263	388.94
388.488	372.94
388.713	373.94
388.938	373.94
389.163	379.94
389.387	380.94
389.612	376.94
389.837	369.94
390.062	377.94
390.287	393.94
390.512	389.94
390.736	370.94
390.961	386.94
391.186	372.94
391.411	386.94
391.636	388.94
391.86	398.94
392.085	390.94
392.31	392.94
392.534	379.94
392.759	389.94
392.984	395.94
393.208	397.94
393.433	376.94
393.658	382.94
393.882	377.94
394.107	373.94
394.331	393.94
394.556	382.94
394.78	379.94
395.005	397.94
395.229	392.94
395.454	390.94
395.678	370.94
395.903	384.94
396.127	400.94
396.352	410.94
396.576	373.94
396.801	392.94
397.025	398.94
397.249	381.94
397.474	410.94
397.698	408.94
397.922	403.94
398.147	429.94
398.371	434.94
398.595	408.94
398.82	418.94
399.044	417.94
399.268	445.94
399.492	467.94
399.717	480.94
399.941	496.94
400.165	508.94
400.389	533.94
400.613	492.94
400.837	444.94
401.062	450.94
401.286	427.94
401.51	432.94
401.734	434.94
401.958	423.94
402.182	440.94
402.406	436.94
402.63	448.94
402.854	445.94
403.078	452.94
403.302	448.94
403.526	457.94
403.75	451.94
403.974	452.94
404.198	449.94
404.422	467.94
404.645	444.94
404.869	481.94
405.093	510.94
405.317	514.94
405.541	558.94
405.765	486.94
405.988	461.94
406.212	508.94
406.436	496.94
406.66	493.94
406.883	486.94
407.107	508.94
407.331	526.94
407.555	579.94
407.778	571.94
408.002	527.94
408.226	490.94
408.449	486.94
408.673	493.94
408.896	501.94
409.12	527.94
409.344	501.94
409.567	458.94
409.791	470.94
410.014	438.94
410.238	443.94
410.461	449.94
410.685	451.94
410.908	465.94
411.132	481.94
411.355	524.94
411.578	468.94
411.802	461.94
412.025	449.94
412.249	443.94
412.472	473.94
412.695	516.94
412.919	510.94
413.142	453.94
413.365	446.94
413.589	444.94
413.812	437.94
414.035	433.94
414.258	442.94
414.482	421.94
414.705	424.94
414.928	421.94
415.151	397.94
415.374	412.94
415.597	414.94
415.821	408.94
416.044	400.94
416.267	429.94
416.49	426.94
416.713	416.94
416.936	407.94
417.159	436.94
417.382	442.94
417.605	408.94
417.828	440.94
418.051	438.94
418.274	435.94
418.497	429.94
418.72	436.94
418.943	431.94
419.166	434.94
419.389	463.94
419.611	447.94
419.834	459.94
420.057	430.94
420.28	440.94
420.503	441.94
420.726	460.94
420.948	467.94
421.171	470.94
421.394	497.94
421.617	449.94
421.839	468.94
422.062	415.94
422.285	442.94
422.507	498.94
422.73	555.94
422.953	537.94
423.175	480.94
423.398	462.94
423.621	477.94
423.843	465.94
424.066	481.94
424.288	487.94
424.511	482.94
424.733	525.94
424.956	581.94
425.178	596.94
425.401	561.94
425.623	572.94
425.846	496.94
426.068	469.94
426.291	468.94
426.513	472.94
426.735	499.94
426.958	536.94
427.18	597.94
427.402	664.94
427.625	754.94
427.847	674.94
428.069	590.94
428.292	523.94
428.514	490.94
428.736	459.94
428.958	452.94
429.181	424.94
429.403	451.94
429.625	450.94
429.847	485.94
430.069	545.94
430.292	501.94
430.514	448.94
430.736	468.94
430.958	428.94
431.18	437.94
431.402	409.94
431.624	406.94
431.846	417.94
432.068	405.94
432.29	410.94
432.512	402.94
432.734	415.94
432.956	426.94
433.178	437.94
433.4	413.94
433.622	425.94
433.844	411.94
434.066	403.94
434.287	412.94
434.509	424.94
434.731	422.94
434.953	440.94
435.175	447.94
435.397	473.94
435.618	472.94
435.84	503.94
436.062	590.94
436.284	636.94
436.505	508.94
436.727	493.94
436.949	437.94
437.17	449.94
437.392	444.94
437.614	469.94
437.835	494.94
438.057	568.94
438.278	653.94
438.5	642.94
438.721	692.94
438.943	628.94
439.165	524.94
439.386	472.94
439.608	514.94
439.829	492.94
440.05	504.94
440.272	553.94
440.493	514.94
440.715	481.94
440.936	442.94
441.158	441.94
441.379	461.94
441.6	470.94
441.822	474.94
442.043	483.94
442.264	571.94
442.486	594.94
442.707	526.94
442.928	493.94
443.149	501.94
443.371	528.94
443.592	544.94
443.813	629.94
444.034	628.94
444.255	553.94
444.476	505.94
444.698	476.94
444.919	470.94
445.14	611.94
445.361	539.94
445.582	537.94
445.803	577.94
446.024	646.94
446.245	676.94
446.466	601.94
446.687	540.94
446.908	474.94
447.129	465.94
447.35	446.94
447.571	443.94
447.792	448.94
448.013	448.94
448.234	468.94
448.455	527.94
448.675	601.94
448.896	657.94
449.117	585.94
449.338	561.94
449.559	655.94
449.779	713.94
450	557.94
450.221	489.94
450.442	455.94
450.662	442.94
450.883	442.94
451.104	466.94
451.324	449.94
451.545	425.94
451.766	415.94
451.986	388.94
452.207	397.94
452.428	393.94
452.648	387.94
452.869	404.94
453.089	410.94
453.31	441.94
453.53	418.94
453.751	393.94
453.971	399.94
454.192	412.94
454.412	412.94
454.633	390.94
454.853	407.94
455.073	390.94
455.294	419.94
455.514	503.94
455.734	455.94
455.955	412.94
456.175	372.94
456.395	372.94
456.616	383.94
456.836	365.94
457.056	359.94
457.276	359.94
457.497	374.94
457.717	362.94
457.937	372.94
458.157	368.94
458.377	395.94
458.598	404.94
458.818	476.94
459.038	540.94
459.258	544.94
459.478	460.94
459.698	437.94
459.918	418.94
460.138	416.94
460.358	426.94
460.578	435.94
460.798	435.94
461.018	427.94
461.238	404.94
461.458	411.94
461.678	407.94
461.898	428.94
462.118	421.94
462.338	414.94
462.558	422.94
462.777	418.94
462.997	432.94
463.217	440.94
463.437	462.94
463.657	448.94
463.876	438.94
464.096	432.94
464.316	452.94
464.536	448.94
464.755	444.94
464.975	456.94
465.195	518.94
465.414	603.94
465.634	504.94
465.854	453.94
466.073	423.94
466.293	406.94
466.512	404.94
466.732	426.94
466.951	411.94
467.171	397.94
467.391	404.94
467.61	423.94
467.829	428.94
468.049	419.94
468.268	426.94
468.488	418.94
468.707	391.94
468.927	405.94
469.146	409.94
469.365	396.94
469.585	384.94
469.804	412.94
470.023	425.94
470.243	388.94
470.462	420.94
470.681	453.94
470.901	424.94
471.12	411.94
471.339	395.94
471.558	423.94
471.777	424.94
471.997	396.94
472.216	437.94
472.435	512.94
472.654	454.94
472.873	429.94
473.092	431.94
473.311	394.94
473.53	430.94
473.749	421.94
473.968	484.94
474.187	571.94
474.406	540.94
474.625	474.94
474.844	413.94
475.063	412.94
475.282	422.94
475.501	412.94
475.72	423.94
475.939	405.94
476.158	391.94
476.377	442.94
476.596	411.94
476.814	435.94
477.033	453.94
477.252	439.94
477.471	445.94
477.69	446.94
477.908	454.94
478.127	448.94
478.346	446.94
478.564	460.94
478.783	457.94
479.002	481.94
479.22	482.94
479.439	477.94
479.658	514.94
479.876	486.94
480.095	492.94
480.313	526.94
480.532	521.94
480.751	512.94
480.969	533.94
481.188	607.94
481.406	659.94
481.624	581.94
481.843	510.94
482.061	517.94
482.28	496.94
482.498	468.94
482.717	483.94
482.935	501.94
483.153	498.94
483.372	483.94
483.59	465.94
483.808	461.94
484.027	469.94
484.245	480.94
484.463	502.94
484.681	508.94
484.9	500.94
485.118	511.94
485.336	498.94
485.554	488.94
485.772	512.94
485.99	466.94
486.209	501.94
486.427	517.94
486.645	536.94
486.863	532.94
487.081	516.94
487.299	517.94
487.517	513.94
487.735	550.94
487.953	534.94
488.171	517.94
488.389	507.94
488.607	540.94
488.825	512.94
489.043	518.94
489.261	553.94
489.479	541.94
489.696	530.94
489.914	517.94
490.132	560.94
490.35	536.94
490.568	548.94
490.786	580.94
491.003	596.94
491.221	595.94
491.439	595.94
491.657	598.94
491.874	601.94
492.092	614.94
492.31	653.94
492.527	612.94
492.745	626.94
492.963	618.94
493.18	613.94
493.398	633.94
493.615	640.94
493.833	627.94
494.05	627.94
494.268	644.94
494.485	613.94
494.703	642.94
494.92	628.94
495.138	636.94
495.355	646.94
495.573	615.94
495.79	622.94
496.008	625.94
496.225	605.94
496.442	628.94
496.66	621.94
496.877	608.94
497.094	614.94
497.312	605.94
497.529	617.94
497.746	623.94
497.963	645.94
498.181	663.94
498.398	652.94
498.615	688.94
498.832	680.94
499.049	683.94
499.267	692.94
499.484	729.94
499.701	728.94
499.918	741.94
500.135	776.94
500.352	797.94
500.569	822.94
500.786	829.94
501.003	817.94
501.22	794.94
501.437	772.94
501.654	752.94
501.871	753.94
