Data from 1983.PennyLincolnUp.Lamp.En5.5.200Scan.071819.P1_HRD10591_16-55-11-966.txt Node
Date: Thu Jul 18 16:55:11 EDT 2019
User: cochatt
Spectrometer: HR+D1059
Trigger mode: 1
Integration Time (sec): 1.000000E-1
Scans to average: 1
Electric dark correction enabled: true
Nonlinearity correction enabled: false
Boxcar width: 0
XAxis mode: Wavelengths
Number of Pixels in Spectrum: 2048
>>>>>Begin Spectral Data<<<<<
223.165	-20.75
223.4	-20.75
223.635	-20.75
223.869	-15.75
224.104	-13.75
224.338	-12.75
224.573	-22.75
224.808	-7.75
225.042	-1.75
225.277	-8.75
225.511	-8.75
225.746	-8.75
225.98	10.25
226.215	15.25
226.449	16.25
226.683	27.25
226.918	21.25
227.152	31.25
227.387	31.25
227.621	38.25
227.856	46.25
228.09	41.25
228.324	54.25
228.559	41.25
228.793	69.25
229.027	92.25
229.262	105.25
229.496	106.25
229.73	126.25
229.964	143.25
230.199	135.25
230.433	106.25
230.667	108.25
230.901	97.25
231.136	93.25
231.37	111.25
231.604	93.25
231.838	125.25
232.072	113.25
232.306	110.25
232.541	100.25
232.775	101.25
233.009	96.25
233.243	113.25
233.477	115.25
233.711	113.25
233.945	101.25
234.179	110.25
234.413	113.25
234.647	99.25
234.881	107.25
235.115	113.25
235.349	114.25
235.583	123.25
235.817	115.25
236.051	115.25
236.285	119.25
236.519	126.25
236.753	125.25
236.987	137.25
237.221	164.25
237.455	225.25
237.689	190.25
237.922	137.25
238.156	130.25
238.39	108.25
238.624	124.25
238.858	118.25
239.091	124.25
239.325	109.25
239.559	131.25
239.793	119.25
240.027	115.25
240.26	131.25
240.494	162.25
240.728	127.25
240.961	144.25
241.195	141.25
241.429	121.25
241.662	112.25
241.896	121.25
242.13	133.25
242.363	138.25
242.597	139.25
242.83	126.25
243.064	141.25
243.298	129.25
243.531	119.25
243.765	133.25
243.998	149.25
244.232	132.25
244.465	135.25
244.699	133.25
244.932	142.25
245.166	135.25
245.399	139.25
245.633	143.25
245.866	143.25
246.099	139.25
246.333	150.25
246.566	125.25
246.8	142.25
247.033	150.25
247.266	135.25
247.5	173.25
247.733	153.25
247.966	181.25
248.2	164.25
248.433	168.25
248.666	175.25
248.899	189.25
249.133	178.25
249.366	201.25
249.599	175.25
249.832	189.25
250.066	161.25
250.299	190.25
250.532	198.25
250.765	209.25
250.998	224.25
251.231	225.25
251.465	221.25
251.698	185.25
251.931	223.25
252.164	204.25
252.397	179.25
252.63	186.25
252.863	174.25
253.096	209.25
253.329	213.25
253.562	215.25
253.795	210.25
254.028	213.25
254.261	190.25
254.494	213.25
254.727	233.25
254.96	270.25
255.193	251.25
255.426	236.25
255.659	237.25
255.892	216.25
256.124	227.25
256.357	233.25
256.59	232.25
256.823	209.25
257.056	222.25
257.289	206.25
257.521	197.25
257.754	194.25
257.987	210.25
258.22	191.25
258.452	204.25
258.685	195.25
258.918	202.25
259.151	199.25
259.383	200.25
259.616	193.25
259.849	219.25
260.081	230.25
260.314	238.25
260.547	228.25
260.779	214.25
261.012	209.25
261.244	209.25
261.477	206.25
261.71	209.25
261.942	204.25
262.175	230.25
262.407	225.25
262.64	215.25
262.872	202.25
263.105	200.25
263.337	201.25
263.57	198.25
263.802	200.25
264.035	196.25
264.267	201.25
264.499	204.25
264.732	199.25
264.964	199.25
265.197	199.25
265.429	213.25
265.661	204.25
265.894	189.25
266.126	206.25
266.358	217.25
266.591	206.25
266.823	214.25
267.055	210.25
267.287	219.25
267.52	216.25
267.752	213.25
267.984	212.25
268.216	206.25
268.448	211.25
268.681	215.25
268.913	236.25
269.145	243.25
269.377	269.25
269.609	257.25
269.841	257.25
270.073	255.25
270.306	299.25
270.538	301.25
270.77	289.25
271.002	255.25
271.234	282.25
271.466	263.25
271.698	283.25
271.93	302.25
272.162	303.25
272.394	302.25
272.626	282.25
272.858	257.25
273.09	257.25
273.322	269.25
273.553	239.25
273.785	213.25
274.017	237.25
274.249	229.25
274.481	252.25
274.713	267.25
274.945	246.25
275.176	240.25
275.408	237.25
275.64	243.25
275.872	232.25
276.104	243.25
276.335	261.25
276.567	266.25
276.799	270.25
277.031	281.25
277.262	314.25
277.494	265.25
277.726	268.25
277.957	275.25
278.189	269.25
278.421	244.25
278.652	250.25
278.884	255.25
279.115	264.25
279.347	244.25
279.579	271.25
279.81	263.25
280.042	244.25
280.273	241.25
280.505	249.25
280.736	262.25
280.968	238.25
281.199	261.25
281.431	246.25
281.662	236.25
281.894	257.25
282.125	267.25
282.356	263.25
282.588	301.25
282.819	299.25
283.051	263.25
283.282	255.25
283.513	267.25
283.745	245.25
283.976	270.25
284.207	274.25
284.439	260.25
284.67	245.25
284.901	266.25
285.132	257.25
285.364	246.25
285.595	253.25
285.826	246.25
286.057	267.25
286.288	247.25
286.52	260.25
286.751	262.25
286.982	254.25
287.213	259.25
287.444	270.25
287.675	270.25
287.906	272.25
288.138	282.25
288.369	275.25
288.6	277.25
288.831	271.25
289.062	285.25
289.293	283.25
289.524	257.25
289.755	267.25
289.986	260.25
290.217	266.25
290.448	266.25
290.679	265.25
290.91	265.25
291.141	262.25
291.371	264.25
291.602	266.25
291.833	242.25
292.064	268.25
292.295	274.25
292.526	277.25
292.757	250.25
292.987	267.25
293.218	282.25
293.449	261.25
293.68	259.25
293.91	267.25
294.141	268.25
294.372	271.25
294.603	272.25
294.833	270.25
295.064	283.25
295.295	265.25
295.525	260.25
295.756	264.25
295.987	274.25
296.217	314.25
296.448	321.25
296.679	283.25
296.909	277.25
297.14	267.25
297.37	295.25
297.601	282.25
297.831	268.25
298.062	279.25
298.292	275.25
298.523	285.25
298.753	286.25
298.984	281.25
299.214	307.25
299.445	290.25
299.675	275.25
299.905	274.25
300.136	271.25
300.366	279.25
300.597	290.25
300.827	297.25
301.057	322.25
301.288	309.25
301.518	287.25
301.748	294.25
301.979	315.25
302.209	309.25
302.439	299.25
302.669	306.25
302.9	295.25
303.13	312.25
303.36	288.25
303.59	293.25
303.82	321.25
304.051	334.25
304.281	313.25
304.511	293.25
304.741	297.25
304.971	297.25
305.201	315.25
305.431	301.25
305.661	303.25
305.891	309.25
306.121	302.25
306.352	298.25
306.582	312.25
306.812	289.25
307.042	315.25
307.272	321.25
307.502	315.25
307.731	313.25
307.961	298.25
308.191	307.25
308.421	302.25
308.651	309.25
308.881	322.25
309.111	325.25
309.341	340.25
309.571	348.25
309.8	334.25
310.03	346.25
310.26	367.25
310.49	358.25
310.72	332.25
310.949	355.25
311.179	369.25
311.409	354.25
311.639	350.25
311.868	350.25
312.098	362.25
312.328	370.25
312.557	383.25
312.787	380.25
313.017	377.25
313.246	378.25
313.476	364.25
313.706	347.25
313.935	365.25
314.165	369.25
314.394	371.25
314.624	375.25
314.853	349.25
315.083	346.25
315.312	346.25
315.542	345.25
315.771	326.25
316.001	341.25
316.23	337.25
316.46	354.25
316.689	375.25
316.919	362.25
317.148	358.25
317.377	378.25
317.607	358.25
317.836	372.25
318.065	351.25
318.295	343.25
318.524	340.25
318.753	351.25
318.983	346.25
319.212	342.25
319.441	362.25
319.67	365.25
319.9	356.25
320.129	344.25
320.358	352.25
320.587	376.25
320.816	371.25
321.046	374.25
321.275	354.25
321.504	373.25
321.733	381.25
321.962	390.25
322.191	423.25
322.42	426.25
322.649	426.25
322.878	436.25
323.108	457.25
323.337	477.25
323.566	489.25
323.795	535.25
324.024	561.25
324.253	707.25
324.482	1030.25
324.71	1565.25
324.939	2049.25
325.168	1682.25
325.397	908.25
325.626	631.25
325.855	515.25
326.084	498.25
326.313	473.25
326.542	499.25
326.77	534.25
326.999	629.25
327.228	924.25
327.457	1347.25
327.686	1507.25
327.914	1029.25
328.143	725.25
328.372	623.25
328.6	586.25
328.829	550.25
329.058	565.25
329.287	559.25
329.515	543.25
329.744	513.25
329.972	526.25
330.201	542.25
330.43	611.25
330.658	619.25
330.887	620.25
331.115	600.25
331.344	493.25
331.572	477.25
331.801	483.25
332.03	462.25
332.258	435.25
332.486	444.25
332.715	439.25
332.943	428.25
333.172	433.25
333.4	430.25
333.629	441.25
333.857	467.25
334.085	502.25
334.314	543.25
334.542	577.25
334.771	606.25
334.999	507.25
335.227	454.25
335.455	437.25
335.684	423.25
335.912	399.25
336.14	410.25
336.369	422.25
336.597	412.25
336.825	407.25
337.053	391.25
337.281	419.25
337.51	407.25
337.738	398.25
337.966	409.25
338.194	425.25
338.422	404.25
338.65	426.25
338.878	388.25
339.106	389.25
339.334	417.25
339.562	378.25
339.79	394.25
340.018	389.25
340.246	398.25
340.474	412.25
340.702	415.25
340.93	414.25
341.158	391.25
341.386	396.25
341.614	376.25
341.842	394.25
342.07	380.25
342.298	384.25
342.526	375.25
342.754	388.25
342.981	393.25
343.209	391.25
343.437	391.25
343.665	364.25
343.893	372.25
344.12	417.25
344.348	414.25
344.576	407.25
344.804	395.25
345.031	416.25
345.259	422.25
345.487	420.25
345.714	405.25
345.942	387.25
346.17	381.25
346.397	381.25
346.625	366.25
346.853	389.25
347.08	381.25
347.308	377.25
347.535	398.25
347.763	394.25
347.99	393.25
348.218	406.25
348.445	403.25
348.673	385.25
348.9	395.25
349.128	374.25
349.355	367.25
349.583	376.25
349.81	379.25
350.037	368.25
350.265	375.25
350.492	377.25
350.72	369.25
350.947	380.25
351.174	410.25
351.402	404.25
351.629	375.25
351.856	385.25
352.083	403.25
352.311	410.25
352.538	386.25
352.765	387.25
352.992	389.25
353.22	365.25
353.447	381.25
353.674	387.25
353.901	372.25
354.128	371.25
354.355	366.25
354.583	381.25
354.81	369.25
355.037	361.25
355.264	376.25
355.491	360.25
355.718	371.25
355.945	355.25
356.172	342.25
356.399	346.25
356.626	360.25
356.853	349.25
357.08	344.25
357.307	334.25
357.534	344.25
357.761	341.25
357.988	344.25
358.215	345.25
358.441	342.25
358.668	361.25
358.895	374.25
359.122	345.25
359.349	369.25
359.576	375.25
359.802	400.25
360.029	437.25
360.256	418.25
360.483	421.25
360.709	389.25
360.936	392.25
361.163	389.25
361.39	385.25
361.616	393.25
361.843	386.25
362.07	377.25
362.296	392.25
362.523	384.25
362.749	364.25
362.976	383.25
363.203	367.25
363.429	362.25
363.656	375.25
363.882	362.25
364.109	364.25
364.335	358.25
364.562	347.25
364.788	361.25
365.015	364.25
365.241	371.25
365.468	381.25
365.694	375.25
365.92	383.25
366.147	370.25
366.373	353.25
366.599	351.25
366.826	344.25
367.052	334.25
367.278	342.25
367.505	353.25
367.731	346.25
367.957	347.25
368.184	348.25
368.41	359.25
368.636	366.25
368.862	379.25
369.089	364.25
369.315	363.25
369.541	358.25
369.767	374.25
369.993	355.25
370.219	358.25
370.445	360.25
370.672	374.25
370.898	354.25
371.124	337.25
371.35	346.25
371.576	354.25
371.802	347.25
372.028	343.25
372.254	361.25
372.48	360.25
372.706	350.25
372.932	335.25
373.158	346.25
373.384	361.25
373.61	366.25
373.835	343.25
374.061	344.25
374.287	359.25
374.513	350.25
374.739	342.25
374.965	339.25
375.191	346.25
375.416	342.25
375.642	344.25
375.868	353.25
376.094	353.25
376.319	345.25
376.545	346.25
376.771	339.25
376.997	354.25
377.222	333.25
377.448	355.25
377.674	346.25
377.899	344.25
378.125	341.25
378.35	322.25
378.576	341.25
378.802	331.25
379.027	339.25
379.253	357.25
379.478	368.25
379.704	343.25
379.929	346.25
380.155	359.25
380.38	352.25
380.606	368.25
380.831	357.25
381.057	341.25
381.282	349.25
381.507	346.25
381.733	333.25
381.958	364.25
382.184	354.25
382.409	381.25
382.634	359.25
382.86	356.25
383.085	364.25
383.31	359.25
383.535	358.25
383.761	348.25
383.986	377.25
384.211	365.25
384.436	358.25
384.662	359.25
384.887	355.25
385.112	370.25
385.337	357.25
385.562	376.25
385.787	371.25
386.013	378.25
386.238	389.25
386.463	395.25
386.688	371.25
386.913	372.25
387.138	357.25
387.363	379.25
387.588	361.25
387.813	388.25
388.038	373.25
388.263	381.25
388.488	372.25
388.713	379.25
388.938	381.25
389.163	376.25
389.387	384.25
389.612	377.25
389.837	361.25
390.062	373.25
390.287	360.25
390.512	349.25
390.736	362.25
390.961	377.25
391.186	371.25
391.411	372.25
391.636	367.25
391.86	398.25
392.085	381.25
392.31	364.25
392.534	395.25
392.759	379.25
392.984	394.25
393.208	355.25
393.433	378.25
393.658	364.25
393.882	377.25
394.107	390.25
394.331	364.25
394.556	362.25
394.78	394.25
395.005	384.25
395.229	385.25
395.454	390.25
395.678	383.25
395.903	400.25
396.127	393.25
396.352	419.25
396.576	397.25
396.801	370.25
397.025	388.25
397.249	391.25
397.474	413.25
397.698	406.25
397.922	412.25
398.147	404.25
398.371	416.25
398.595	418.25
398.82	405.25
399.044	401.25
399.268	454.25
399.492	437.25
399.717	462.25
399.941	482.25
400.165	504.25
400.389	505.25
400.613	472.25
400.837	451.25
401.062	453.25
401.286	416.25
401.51	415.25
401.734	411.25
401.958	438.25
402.182	423.25
402.406	423.25
402.63	442.25
402.854	446.25
403.078	439.25
403.302	437.25
403.526	462.25
403.75	462.25
403.974	441.25
404.198	453.25
404.422	474.25
404.645	456.25
404.869	472.25
405.093	467.25
405.317	512.25
405.541	553.25
405.765	501.25
405.988	467.25
406.212	478.25
406.436	482.25
406.66	533.25
406.883	472.25
407.107	500.25
407.331	513.25
407.555	580.25
407.778	561.25
408.002	515.25
408.226	498.25
408.449	461.25
408.673	476.25
408.896	516.25
409.12	541.25
409.344	507.25
409.567	435.25
409.791	429.25
410.014	435.25
410.238	463.25
410.461	465.25
410.685	427.25
410.908	451.25
411.132	484.25
411.355	510.25
411.578	484.25
411.802	460.25
412.025	447.25
412.249	464.25
412.472	483.25
412.695	507.25
412.919	505.25
413.142	460.25
413.365	453.25
413.589	431.25
413.812	431.25
414.035	428.25
414.258	413.25
414.482	423.25
414.705	405.25
414.928	415.25
415.151	410.25
415.374	402.25
415.597	410.25
415.821	424.25
416.044	453.25
416.267	444.25
416.49	414.25
416.713	434.25
416.936	414.25
417.159	405.25
417.382	408.25
417.605	437.25
417.828	419.25
418.051	463.25
418.274	450.25
418.497	428.25
418.72	436.25
418.943	419.25
419.166	426.25
419.389	427.25
419.611	442.25
419.834	443.25
420.057	425.25
420.28	456.25
420.503	437.25
420.726	460.25
420.948	457.25
421.171	495.25
421.394	503.25
421.617	465.25
421.839	448.25
422.062	458.25
422.285	453.25
422.507	487.25
422.73	539.25
422.953	534.25
423.175	460.25
423.398	459.25
423.621	437.25
423.843	455.25
424.066	484.25
424.288	463.25
424.511	488.25
424.733	533.25
424.956	587.25
425.178	558.25
425.401	554.25
425.623	576.25
425.846	497.25
426.068	478.25
426.291	471.25
426.513	447.25
426.735	496.25
426.958	519.25
427.18	581.25
427.402	670.25
427.625	714.25
427.847	675.25
428.069	582.25
428.292	533.25
428.514	492.25
428.736	445.25
428.958	460.25
429.181	426.25
429.403	427.25
429.625	450.25
429.847	483.25
430.069	513.25
430.292	506.25
430.514	478.25
430.736	448.25
430.958	447.25
431.18	409.25
431.402	404.25
431.624	411.25
431.846	411.25
432.068	396.25
432.29	407.25
432.512	405.25
432.734	413.25
432.956	404.25
433.178	439.25
433.4	435.25
433.622	425.25
433.844	418.25
434.066	406.25
434.287	398.25
434.509	413.25
434.731	420.25
434.953	440.25
435.175	424.25
435.397	473.25
435.618	468.25
435.84	511.25
436.062	586.25
436.284	609.25
436.505	537.25
436.727	487.25
436.949	457.25
437.17	470.25
437.392	446.25
437.614	458.25
437.835	501.25
438.057	557.25
438.278	614.25
438.5	646.25
438.721	683.25
438.943	637.25
439.165	538.25
439.386	474.25
439.608	498.25
439.829	493.25
440.05	512.25
440.272	543.25
440.493	498.25
440.715	471.25
440.936	459.25
441.158	438.25
441.379	441.25
441.6	462.25
441.822	460.25
442.043	520.25
442.264	574.25
442.486	614.25
442.707	530.25
442.928	489.25
443.149	491.25
443.371	509.25
443.592	541.25
443.813	597.25
444.034	646.25
444.255	535.25
444.476	486.25
444.698	476.25
444.919	450.25
445.14	547.25
445.361	521.25
445.582	531.25
445.803	598.25
446.024	646.25
446.245	659.25
446.466	580.25
446.687	508.25
446.908	469.25
447.129	471.25
447.35	424.25
447.571	434.25
447.792	438.25
448.013	429.25
448.234	462.25
448.455	490.25
448.675	600.25
448.896	648.25
449.117	594.25
449.338	558.25
449.559	639.25
449.779	682.25
450	578.25
450.221	486.25
450.442	451.25
450.662	439.25
450.883	460.25
451.104	474.25
451.324	445.25
451.545	430.25
451.766	403.25
451.986	403.25
452.207	400.25
452.428	397.25
452.648	382.25
452.869	388.25
453.089	393.25
453.31	437.25
453.53	413.25
453.751	372.25
453.971	415.25
454.192	430.25
454.412	407.25
454.633	397.25
454.853	383.25
455.073	414.25
455.294	410.25
455.514	481.25
455.734	445.25
455.955	399.25
456.175	380.25
456.395	361.25
456.616	371.25
456.836	375.25
457.056	356.25
457.276	366.25
457.497	375.25
457.717	369.25
457.937	366.25
458.157	396.25
458.377	393.25
458.598	399.25
458.818	456.25
459.038	541.25
459.258	534.25
459.478	447.25
459.698	405.25
459.918	420.25
460.138	421.25
460.358	403.25
460.578	409.25
460.798	433.25
461.018	431.25
461.238	397.25
461.458	405.25
461.678	402.25
461.898	427.25
462.118	404.25
462.338	424.25
462.558	404.25
462.777	430.25
462.997	437.25
463.217	439.25
463.437	444.25
463.657	437.25
463.876	427.25
464.096	435.25
464.316	439.25
464.536	451.25
464.755	454.25
464.975	444.25
465.195	481.25
465.414	568.25
465.634	504.25
465.854	468.25
466.073	441.25
466.293	423.25
466.512	412.25
466.732	407.25
466.951	405.25
467.171	399.25
467.391	405.25
467.61	413.25
467.829	427.25
468.049	406.25
468.268	403.25
468.488	427.25
468.707	406.25
468.927	372.25
469.146	387.25
469.365	391.25
469.585	394.25
469.804	403.25
470.023	414.25
470.243	418.25
470.462	413.25
470.681	435.25
470.901	423.25
471.12	421.25
471.339	401.25
471.558	422.25
471.777	412.25
471.997	413.25
472.216	426.25
472.435	497.25
472.654	467.25
472.873	434.25
473.092	415.25
473.311	425.25
473.53	417.25
473.749	429.25
473.968	461.25
474.187	553.25
474.406	558.25
474.625	455.25
474.844	423.25
475.063	412.25
475.282	435.25
475.501	426.25
475.72	429.25
475.939	420.25
476.158	439.25
476.377	399.25
476.596	416.25
476.814	420.25
477.033	443.25
477.252	421.25
477.471	444.25
477.69	457.25
477.908	441.25
478.127	446.25
478.346	458.25
478.564	452.25
478.783	469.25
479.002	439.25
479.22	476.25
479.439	472.25
479.658	493.25
479.876	509.25
480.095	495.25
480.313	539.25
480.532	516.25
480.751	518.25
480.969	524.25
481.188	627.25
481.406	695.25
481.624	588.25
481.843	541.25
482.061	523.25
482.28	501.25
482.498	495.25
482.717	483.25
482.935	501.25
483.153	473.25
483.372	468.25
483.59	498.25
483.808	479.25
484.027	478.25
484.245	485.25
484.463	469.25
484.681	448.25
484.9	490.25
485.118	504.25
485.336	493.25
485.554	509.25
485.772	498.25
485.99	494.25
486.209	527.25
486.427	502.25
486.645	524.25
486.863	529.25
487.081	527.25
487.299	507.25
487.517	517.25
487.735	517.25
487.953	512.25
488.171	515.25
488.389	549.25
488.607	531.25
488.825	528.25
489.043	517.25
489.261	544.25
489.479	529.25
489.696	538.25
489.914	521.25
490.132	535.25
490.35	559.25
490.568	558.25
490.786	538.25
491.003	579.25
491.221	588.25
491.439	602.25
491.657	627.25
491.874	601.25
492.092	610.25
492.31	597.25
492.527	627.25
492.745	620.25
492.963	623.25
493.18	617.25
493.398	616.25
493.615	639.25
493.833	657.25
494.05	631.25
494.268	645.25
494.485	635.25
494.703	634.25
494.92	627.25
495.138	639.25
495.355	626.25
495.573	627.25
495.79	610.25
496.008	612.25
496.225	605.25
496.442	629.25
496.66	615.25
496.877	630.25
497.094	617.25
497.312	629.25
497.529	623.25
497.746	647.25
497.963	647.25
498.181	662.25
498.398	645.25
498.615	682.25
498.832	669.25
499.049	653.25
499.267	695.25
499.484	718.25
499.701	709.25
499.918	733.25
500.135	767.25
500.352	820.25
500.569	817.25
500.786	824.25
501.003	821.25
501.22	790.25
501.437	764.25
501.654	748.25
501.871	744.25
