Data from 1983.PennyLincolnUp.Lamp.En5.5.200Scan.071819.P1_HRD10591_16-52-17-965.txt Node
Date: Thu Jul 18 16:52:17 EDT 2019
User: cochatt
Spectrometer: HR+D1059
Trigger mode: 1
Integration Time (sec): 1.000000E-1
Scans to average: 1
Electric dark correction enabled: true
Nonlinearity correction enabled: false
Boxcar width: 0
XAxis mode: Wavelengths
Number of Pixels in Spectrum: 2048
>>>>>Begin Spectral Data<<<<<
223.165	-14.44
223.4	-14.44
223.635	-14.44
223.869	-23.44
224.104	-10.44
224.338	-15.44
224.573	-14.44
224.808	-17.44
225.042	-7.44
225.277	-9.44
225.511	0.56
225.746	-9.44
225.98	9.56
226.215	11.56
226.449	22.56
226.683	18.56
226.918	24.56
227.152	34.56
227.387	36.56
227.621	45.56
227.856	42.56
228.09	38.56
228.324	38.56
228.559	54.56
228.793	53.56
229.027	86.56
229.262	90.56
229.496	99.56
229.73	110.56
229.964	107.56
230.199	122.56
230.433	100.56
230.667	96.56
230.901	98.56
231.136	99.56
231.37	94.56
231.604	108.56
231.838	98.56
232.072	104.56
232.306	92.56
232.541	90.56
232.775	97.56
233.009	114.56
233.243	111.56
233.477	94.56
233.711	100.56
233.945	116.56
234.179	112.56
234.413	113.56
234.647	108.56
234.881	100.56
235.115	97.56
235.349	122.56
235.583	117.56
235.817	128.56
236.051	119.56
236.285	111.56
236.519	112.56
236.753	105.56
236.987	136.56
237.221	137.56
237.455	169.56
237.689	147.56
237.922	132.56
238.156	128.56
238.39	113.56
238.624	114.56
238.858	123.56
239.091	117.56
239.325	110.56
239.559	90.56
239.793	123.56
240.027	117.56
240.26	119.56
240.494	129.56
240.728	136.56
240.961	140.56
241.195	124.56
241.429	125.56
241.662	122.56
241.896	96.56
242.13	112.56
242.363	109.56
242.597	116.56
242.83	117.56
243.064	132.56
243.298	125.56
243.531	122.56
243.765	124.56
243.998	128.56
244.232	123.56
244.465	115.56
244.699	131.56
244.932	145.56
245.166	123.56
245.399	126.56
245.633	130.56
245.866	131.56
246.099	130.56
246.333	128.56
246.566	142.56
246.8	132.56
247.033	129.56
247.266	141.56
247.5	146.56
247.733	148.56
247.966	147.56
248.2	141.56
248.433	134.56
248.666	155.56
248.899	145.56
249.133	157.56
249.366	156.56
249.599	175.56
249.832	170.56
250.066	136.56
250.299	144.56
250.532	170.56
250.765	153.56
250.998	165.56
251.231	180.56
251.465	166.56
251.698	154.56
251.931	146.56
252.164	156.56
252.397	158.56
252.63	168.56
252.863	162.56
253.096	181.56
253.329	185.56
253.562	187.56
253.795	161.56
254.028	178.56
254.261	187.56
254.494	194.56
254.727	202.56
254.96	217.56
255.193	214.56
255.426	182.56
255.659	179.56
255.892	194.56
256.124	166.56
256.357	181.56
256.59	167.56
256.823	184.56
257.056	170.56
257.289	174.56
257.521	177.56
257.754	175.56
257.987	185.56
258.22	170.56
258.452	176.56
258.685	153.56
258.918	172.56
259.151	154.56
259.383	195.56
259.616	188.56
259.849	189.56
260.081	194.56
260.314	189.56
260.547	226.56
260.779	194.56
261.012	204.56
261.244	182.56
261.477	184.56
261.71	176.56
261.942	190.56
262.175	214.56
262.407	180.56
262.64	176.56
262.872	173.56
263.105	174.56
263.337	165.56
263.57	176.56
263.802	176.56
264.035	167.56
264.267	167.56
264.499	177.56
264.732	192.56
264.964	182.56
265.197	171.56
265.429	177.56
265.661	203.56
265.894	180.56
266.126	178.56
266.358	172.56
266.591	188.56
266.823	194.56
267.055	198.56
267.287	199.56
267.52	184.56
267.752	195.56
267.984	198.56
268.216	179.56
268.448	189.56
268.681	181.56
268.913	196.56
269.145	206.56
269.377	214.56
269.609	218.56
269.841	206.56
270.073	219.56
270.306	205.56
270.538	234.56
270.77	247.56
271.002	226.56
271.234	224.56
271.466	235.56
271.698	214.56
271.93	250.56
272.162	236.56
272.394	232.56
272.626	238.56
272.858	222.56
273.09	219.56
273.322	244.56
273.553	216.56
273.785	210.56
274.017	209.56
274.249	190.56
274.481	216.56
274.713	209.56
274.945	212.56
275.176	214.56
275.408	211.56
275.64	218.56
275.872	220.56
276.104	222.56
276.335	219.56
276.567	215.56
276.799	227.56
277.031	230.56
277.262	236.56
277.494	248.56
277.726	234.56
277.957	229.56
278.189	224.56
278.421	222.56
278.652	212.56
278.884	212.56
279.115	229.56
279.347	215.56
279.579	212.56
279.81	200.56
280.042	220.56
280.273	210.56
280.505	208.56
280.736	208.56
280.968	210.56
281.199	216.56
281.431	195.56
281.662	201.56
281.894	205.56
282.125	220.56
282.356	226.56
282.588	219.56
282.819	241.56
283.051	233.56
283.282	212.56
283.513	206.56
283.745	230.56
283.976	229.56
284.207	231.56
284.439	244.56
284.67	245.56
284.901	217.56
285.132	222.56
285.364	231.56
285.595	211.56
285.826	222.56
286.057	237.56
286.288	224.56
286.52	218.56
286.751	228.56
286.982	246.56
287.213	229.56
287.444	233.56
287.675	235.56
287.906	233.56
288.138	236.56
288.369	225.56
288.6	229.56
288.831	237.56
289.062	241.56
289.293	238.56
289.524	246.56
289.755	249.56
289.986	234.56
290.217	230.56
290.448	227.56
290.679	238.56
290.91	230.56
291.141	232.56
291.371	222.56
291.602	234.56
291.833	228.56
292.064	231.56
292.295	227.56
292.526	244.56
292.757	232.56
292.987	246.56
293.218	233.56
293.449	236.56
293.68	248.56
293.91	237.56
294.141	232.56
294.372	237.56
294.603	215.56
294.833	215.56
295.064	242.56
295.295	231.56
295.525	234.56
295.756	245.56
295.987	250.56
296.217	264.56
296.448	253.56
296.679	251.56
296.909	248.56
297.14	245.56
297.37	225.56
297.601	252.56
297.831	251.56
298.062	248.56
298.292	239.56
298.523	240.56
298.753	249.56
298.984	248.56
299.214	227.56
299.445	253.56
299.675	256.56
299.905	261.56
300.136	270.56
300.366	245.56
300.597	234.56
300.827	249.56
301.057	245.56
301.288	241.56
301.518	257.56
301.748	261.56
301.979	260.56
302.209	261.56
302.439	248.56
302.669	267.56
302.9	269.56
303.13	246.56
303.36	260.56
303.59	263.56
303.82	262.56
304.051	247.56
304.281	270.56
304.511	263.56
304.741	262.56
304.971	260.56
305.201	249.56
305.431	276.56
305.661	270.56
305.891	269.56
306.121	262.56
306.352	282.56
306.582	276.56
306.812	247.56
307.042	262.56
307.272	250.56
307.502	241.56
307.731	278.56
307.961	275.56
308.191	259.56
308.421	268.56
308.651	266.56
308.881	267.56
309.111	266.56
309.341	256.56
309.571	285.56
309.8	273.56
310.03	297.56
310.26	304.56
310.49	280.56
310.72	299.56
310.949	304.56
311.179	320.56
311.409	280.56
311.639	301.56
311.868	305.56
312.098	288.56
312.328	288.56
312.557	293.56
312.787	327.56
313.017	320.56
313.246	308.56
313.476	310.56
313.706	285.56
313.935	316.56
314.165	301.56
314.394	306.56
314.624	298.56
314.853	315.56
315.083	286.56
315.312	286.56
315.542	316.56
315.771	289.56
316.001	289.56
316.23	301.56
316.46	291.56
316.689	292.56
316.919	285.56
317.148	307.56
317.377	311.56
317.607	290.56
317.836	278.56
318.065	308.56
318.295	296.56
318.524	308.56
318.753	288.56
318.983	269.56
319.212	304.56
319.441	294.56
319.67	308.56
319.9	303.56
320.129	297.56
320.358	285.56
320.587	305.56
320.816	296.56
321.046	313.56
321.275	315.56
321.504	315.56
321.733	316.56
321.962	305.56
322.191	334.56
322.42	315.56
322.649	323.56
322.878	335.56
323.108	350.56
323.337	348.56
323.566	374.56
323.795	389.56
324.024	410.56
324.253	488.56
324.482	672.56
324.71	1011.56
324.939	1385.56
325.168	1104.56
325.397	604.56
325.626	439.56
325.855	383.56
326.084	385.56
326.313	369.56
326.542	352.56
326.77	390.56
326.999	458.56
327.228	590.56
327.457	887.56
327.686	1026.56
327.914	672.56
328.143	456.56
328.372	410.56
328.6	396.56
328.829	402.56
329.058	417.56
329.287	415.56
329.515	389.56
329.744	388.56
329.972	373.56
330.201	374.56
330.43	381.56
330.658	398.56
330.887	407.56
331.115	432.56
331.344	391.56
331.572	368.56
331.801	368.56
332.03	368.56
332.258	349.56
332.486	354.56
332.715	340.56
332.943	326.56
333.172	353.56
333.4	346.56
333.629	340.56
333.857	365.56
334.085	334.56
334.314	329.56
334.542	352.56
334.771	369.56
334.999	355.56
335.227	360.56
335.455	331.56
335.684	346.56
335.912	339.56
336.14	330.56
336.369	349.56
336.597	348.56
336.825	334.56
337.053	337.56
337.281	348.56
337.51	342.56
337.738	353.56
337.966	332.56
338.194	348.56
338.422	340.56
338.65	342.56
338.878	343.56
339.106	322.56
339.334	333.56
339.562	320.56
339.79	326.56
340.018	331.56
340.246	333.56
340.474	342.56
340.702	351.56
340.93	331.56
341.158	328.56
341.386	324.56
341.614	340.56
341.842	329.56
342.07	311.56
342.298	342.56
342.526	328.56
342.754	315.56
342.981	309.56
343.209	321.56
343.437	342.56
343.665	331.56
343.893	321.56
344.12	364.56
344.348	346.56
344.576	350.56
344.804	353.56
345.031	335.56
345.259	338.56
345.487	306.56
345.714	339.56
345.942	338.56
346.17	328.56
346.397	330.56
346.625	316.56
346.853	319.56
347.08	337.56
347.308	325.56
347.535	325.56
347.763	333.56
347.99	330.56
348.218	338.56
348.445	326.56
348.673	330.56
348.9	322.56
349.128	315.56
349.355	322.56
349.583	294.56
349.81	313.56
350.037	306.56
350.265	317.56
350.492	300.56
350.72	325.56
350.947	322.56
351.174	328.56
351.402	333.56
351.629	319.56
351.856	321.56
352.083	323.56
352.311	331.56
352.538	333.56
352.765	330.56
352.992	308.56
353.22	333.56
353.447	308.56
353.674	326.56
353.901	304.56
354.128	334.56
354.355	315.56
354.583	317.56
354.81	304.56
355.037	316.56
355.264	314.56
355.491	288.56
355.718	302.56
355.945	307.56
356.172	316.56
356.399	306.56
356.626	318.56
356.853	325.56
357.08	304.56
357.307	289.56
357.534	308.56
357.761	307.56
357.988	299.56
358.215	326.56
358.441	290.56
358.668	311.56
358.895	306.56
359.122	319.56
359.349	319.56
359.576	317.56
359.802	337.56
360.029	344.56
360.256	367.56
360.483	334.56
360.709	324.56
360.936	324.56
361.163	314.56
361.39	314.56
361.616	323.56
361.843	326.56
362.07	317.56
362.296	322.56
362.523	320.56
362.749	313.56
362.976	335.56
363.203	310.56
363.429	318.56
363.656	318.56
363.882	308.56
364.109	316.56
364.335	336.56
364.562	308.56
364.788	319.56
365.015	325.56
365.241	316.56
365.468	306.56
365.694	307.56
365.92	320.56
366.147	304.56
366.373	312.56
366.599	306.56
366.826	318.56
367.052	307.56
367.278	317.56
367.505	312.56
367.731	314.56
367.957	308.56
368.184	318.56
368.41	313.56
368.636	318.56
368.862	322.56
369.089	333.56
369.315	311.56
369.541	318.56
369.767	310.56
369.993	313.56
370.219	299.56
370.445	306.56
370.672	316.56
370.898	306.56
371.124	315.56
371.35	321.56
371.576	318.56
371.802	332.56
372.028	326.56
372.254	308.56
372.48	320.56
372.706	311.56
372.932	327.56
373.158	322.56
373.384	310.56
373.61	327.56
373.835	300.56
374.061	317.56
374.287	322.56
374.513	334.56
374.739	333.56
374.965	325.56
375.191	298.56
375.416	327.56
375.642	307.56
375.868	320.56
376.094	306.56
376.319	308.56
376.545	298.56
376.771	326.56
376.997	305.56
377.222	314.56
377.448	316.56
377.674	305.56
377.899	321.56
378.125	328.56
378.35	324.56
378.576	325.56
378.802	317.56
379.027	305.56
379.253	331.56
379.478	318.56
379.704	315.56
379.929	321.56
380.155	318.56
380.38	308.56
380.606	318.56
380.831	328.56
381.057	317.56
381.282	304.56
381.507	324.56
381.733	290.56
381.958	319.56
382.184	312.56
382.409	350.56
382.634	328.56
382.86	319.56
383.085	331.56
383.31	327.56
383.535	316.56
383.761	329.56
383.986	335.56
384.211	333.56
384.436	344.56
384.662	351.56
384.887	333.56
385.112	344.56
385.337	326.56
385.562	342.56
385.787	328.56
386.013	351.56
386.238	333.56
386.463	339.56
386.688	338.56
386.913	336.56
387.138	348.56
387.363	333.56
387.588	342.56
387.813	322.56
388.038	333.56
388.263	333.56
388.488	342.56
388.713	342.56
388.938	329.56
389.163	330.56
389.387	328.56
389.612	323.56
389.837	332.56
390.062	337.56
390.287	332.56
390.512	338.56
390.736	332.56
390.961	342.56
391.186	332.56
391.411	337.56
391.636	336.56
391.86	327.56
392.085	365.56
392.31	361.56
392.534	332.56
392.759	353.56
392.984	347.56
393.208	343.56
393.433	339.56
393.658	353.56
393.882	340.56
394.107	340.56
394.331	347.56
394.556	326.56
394.78	341.56
395.005	327.56
395.229	338.56
395.454	345.56
395.678	354.56
395.903	341.56
396.127	365.56
396.352	382.56
396.576	347.56
396.801	359.56
397.025	356.56
397.249	346.56
397.474	369.56
397.698	358.56
397.922	360.56
398.147	364.56
398.371	381.56
398.595	378.56
398.82	355.56
399.044	364.56
399.268	392.56
399.492	404.56
399.717	436.56
399.941	435.56
400.165	442.56
400.389	458.56
400.613	421.56
400.837	402.56
401.062	366.56
401.286	397.56
401.51	388.56
401.734	385.56
401.958	398.56
402.182	384.56
402.406	372.56
402.63	382.56
402.854	405.56
403.078	389.56
403.302	383.56
403.526	390.56
403.75	388.56
403.974	393.56
404.198	393.56
404.422	388.56
404.645	387.56
404.869	394.56
405.093	407.56
405.317	405.56
405.541	413.56
405.765	436.56
405.988	395.56
406.212	418.56
406.436	427.56
406.66	432.56
406.883	421.56
407.107	439.56
407.331	452.56
407.555	496.56
407.778	496.56
408.002	461.56
408.226	442.56
408.449	396.56
408.673	426.56
408.896	445.56
409.12	459.56
409.344	433.56
409.567	422.56
409.791	388.56
410.014	376.56
410.238	375.56
410.461	395.56
410.685	387.56
410.908	405.56
411.132	423.56
411.355	459.56
411.578	423.56
411.802	420.56
412.025	396.56
412.249	368.56
412.472	379.56
412.695	408.56
412.919	382.56
413.142	357.56
413.365	382.56
413.589	384.56
413.812	366.56
414.035	369.56
414.258	352.56
414.482	378.56
414.705	372.56
414.928	376.56
415.151	373.56
415.374	364.56
415.597	352.56
415.821	364.56
416.044	366.56
416.267	388.56
416.49	372.56
416.713	360.56
416.936	372.56
417.159	376.56
417.382	369.56
417.605	382.56
417.828	388.56
418.051	396.56
418.274	380.56
418.497	370.56
418.72	394.56
418.943	370.56
419.166	391.56
419.389	389.56
419.611	398.56
419.834	398.56
420.057	375.56
420.28	368.56
420.503	370.56
420.726	387.56
420.948	393.56
421.171	401.56
421.394	436.56
421.617	402.56
421.839	376.56
422.062	398.56
422.285	396.56
422.507	419.56
422.73	475.56
422.953	452.56
423.175	402.56
423.398	400.56
423.621	399.56
423.843	396.56
424.066	398.56
424.288	412.56
424.511	432.56
424.733	445.56
424.956	520.56
425.178	481.56
425.401	468.56
425.623	517.56
425.846	436.56
426.068	416.56
426.291	413.56
426.513	414.56
426.735	426.56
426.958	442.56
427.18	502.56
427.402	566.56
427.625	641.56
427.847	548.56
428.069	460.56
428.292	431.56
428.514	402.56
428.736	392.56
428.958	382.56
429.181	374.56
429.403	396.56
429.625	392.56
429.847	421.56
430.069	474.56
430.292	454.56
430.514	395.56
430.736	356.56
430.958	376.56
431.18	352.56
431.402	371.56
431.624	371.56
431.846	374.56
432.068	357.56
432.29	359.56
432.512	364.56
432.734	366.56
432.956	371.56
433.178	362.56
433.4	357.56
433.622	358.56
433.844	378.56
434.066	361.56
434.287	364.56
434.509	380.56
434.731	361.56
434.953	356.56
435.175	393.56
435.397	395.56
435.618	404.56
435.84	441.56
436.062	504.56
436.284	533.56
436.505	439.56
436.727	419.56
436.949	406.56
437.17	382.56
437.392	377.56
437.614	398.56
437.835	428.56
438.057	458.56
438.278	509.56
438.5	554.56
438.721	592.56
438.943	574.56
439.165	461.56
439.386	422.56
439.608	400.56
439.829	415.56
440.05	420.56
440.272	450.56
440.493	414.56
440.715	428.56
440.936	391.56
441.158	405.56
441.379	382.56
441.6	412.56
441.822	397.56
442.043	449.56
442.264	485.56
442.486	517.56
442.707	463.56
442.928	406.56
443.149	406.56
443.371	422.56
443.592	449.56
443.813	532.56
444.034	553.56
444.255	465.56
444.476	393.56
444.698	421.56
444.919	426.56
445.14	525.56
445.361	486.56
445.582	443.56
445.803	498.56
446.024	565.56
446.245	547.56
446.466	512.56
446.687	451.56
446.908	390.56
447.129	398.56
447.35	380.56
447.571	381.56
447.792	388.56
448.013	376.56
448.234	385.56
448.455	420.56
448.675	505.56
448.896	584.56
449.117	489.56
449.338	471.56
449.559	546.56
449.779	594.56
450	490.56
450.221	410.56
450.442	379.56
450.662	376.56
450.883	372.56
451.104	379.56
451.324	365.56
451.545	372.56
451.766	346.56
451.986	346.56
452.207	352.56
452.428	344.56
452.648	341.56
452.869	349.56
453.089	355.56
453.31	358.56
453.53	335.56
453.751	346.56
453.971	336.56
454.192	354.56
454.412	372.56
454.633	358.56
454.853	320.56
455.073	352.56
455.294	362.56
455.514	406.56
455.734	392.56
455.955	342.56
456.175	328.56
456.395	326.56
456.616	327.56
456.836	328.56
457.056	325.56
457.276	317.56
457.497	322.56
457.717	320.56
457.937	322.56
458.157	352.56
458.377	334.56
458.598	346.56
458.818	389.56
459.038	448.56
459.258	454.56
459.478	413.56
459.698	360.56
459.918	356.56
460.138	363.56
460.358	366.56
460.578	370.56
460.798	372.56
461.018	375.56
461.238	394.56
461.458	370.56
461.678	363.56
461.898	384.56
462.118	365.56
462.338	373.56
462.558	378.56
462.777	378.56
462.997	403.56
463.217	411.56
463.437	390.56
463.657	376.56
463.876	390.56
464.096	398.56
464.316	374.56
464.536	374.56
464.755	385.56
464.975	385.56
465.195	403.56
465.414	440.56
465.634	404.56
465.854	377.56
466.073	349.56
466.293	365.56
466.512	361.56
466.732	355.56
466.951	358.56
467.171	362.56
467.391	360.56
467.61	345.56
467.829	353.56
468.049	339.56
468.268	352.56
468.488	356.56
468.707	350.56
468.927	344.56
469.146	348.56
469.365	346.56
469.585	364.56
469.804	347.56
470.023	386.56
470.243	356.56
470.462	379.56
470.681	381.56
470.901	370.56
471.12	363.56
471.339	357.56
471.558	359.56
471.777	342.56
471.997	351.56
472.216	355.56
472.435	357.56
472.654	363.56
472.873	353.56
473.092	350.56
473.311	357.56
473.53	346.56
473.749	343.56
473.968	385.56
474.187	471.56
474.406	467.56
474.625	404.56
474.844	382.56
475.063	371.56
475.282	372.56
475.501	338.56
475.72	368.56
475.939	361.56
476.158	357.56
476.377	356.56
476.596	370.56
476.814	388.56
477.033	380.56
477.252	373.56
477.471	373.56
477.69	376.56
477.908	389.56
478.127	390.56
478.346	380.56
478.564	378.56
478.783	405.56
479.002	390.56
479.22	403.56
479.439	400.56
479.658	411.56
479.876	418.56
480.095	432.56
480.313	437.56
480.532	446.56
480.751	423.56
480.969	416.56
481.188	444.56
481.406	424.56
481.624	437.56
481.843	422.56
482.061	412.56
482.28	417.56
482.498	412.56
482.717	414.56
482.935	400.56
483.153	413.56
483.372	406.56
483.59	408.56
483.808	413.56
484.027	409.56
484.245	424.56
484.463	424.56
484.681	422.56
484.9	430.56
485.118	411.56
485.336	418.56
485.554	427.56
485.772	445.56
485.99	410.56
486.209	438.56
486.427	446.56
486.645	437.56
486.863	454.56
487.081	454.56
487.299	429.56
487.517	432.56
487.735	438.56
487.953	443.56
488.171	434.56
488.389	432.56
488.607	437.56
488.825	420.56
489.043	449.56
489.261	433.56
489.479	470.56
489.696	454.56
489.914	447.56
490.132	455.56
490.35	460.56
490.568	455.56
490.786	482.56
491.003	481.56
491.221	461.56
491.439	476.56
491.657	476.56
491.874	500.56
492.092	486.56
492.31	489.56
492.527	471.56
492.745	499.56
492.963	500.56
493.18	507.56
493.398	527.56
493.615	490.56
493.833	496.56
494.05	518.56
494.268	508.56
494.485	516.56
494.703	512.56
494.92	514.56
495.138	519.56
495.355	518.56
495.573	525.56
495.79	523.56
496.008	516.56
496.225	512.56
496.442	530.56
496.66	532.56
496.877	520.56
497.094	535.56
497.312	542.56
497.529	574.56
497.746	545.56
497.963	553.56
498.181	545.56
498.398	568.56
498.615	555.56
498.832	574.56
499.049	613.56
499.267	609.56
499.484	631.56
499.701	648.56
499.918	670.56
500.135	685.56
500.352	705.56
500.569	707.56
500.786	716.56
501.003	704.56
501.22	691.56
501.437	658.56
501.654	676.56
501.871	633.56
502.088	625.56
