Data from 1983.PennyLincolnUp.Lamp.En5.5.200Scan.071819.P1_HRD10591_16-53-35-967.txt Node
Date: Thu Jul 18 16:53:35 EDT 2019
User: cochatt
Spectrometer: HR+D1059
Trigger mode: 1
Integration Time (sec): 1.000000E-1
Scans to average: 1
Electric dark correction enabled: true
Nonlinearity correction enabled: false
Boxcar width: 0
XAxis mode: Wavelengths
Number of Pixels in Spectrum: 2048
>>>>>Begin Spectral Data<<<<<
223.165	-14.38
223.4	-14.38
223.635	-14.38
223.869	-30.38
224.104	-11.38
224.338	-9.38
224.573	-6.38
224.808	-13.38
225.042	-3.38
225.277	-10.38
225.511	-8.38
225.746	14.62
225.98	5.62
226.215	17.62
226.449	7.62
226.683	18.62
226.918	19.62
227.152	23.62
227.387	26.62
227.621	31.62
227.856	38.62
228.09	42.62
228.324	44.62
228.559	62.62
228.793	69.62
229.027	82.62
229.262	100.62
229.496	112.62
229.73	112.62
229.964	126.62
230.199	114.62
230.433	114.62
230.667	95.62
230.901	97.62
231.136	104.62
231.37	102.62
231.604	105.62
231.838	102.62
232.072	91.62
232.306	101.62
232.541	108.62
232.775	96.62
233.009	117.62
233.243	114.62
233.477	114.62
233.711	115.62
233.945	99.62
234.179	112.62
234.413	96.62
234.647	99.62
234.881	109.62
235.115	105.62
235.349	124.62
235.583	120.62
235.817	110.62
236.051	113.62
236.285	121.62
236.519	100.62
236.753	116.62
236.987	143.62
237.221	170.62
237.455	186.62
237.689	154.62
237.922	134.62
238.156	113.62
238.39	113.62
238.624	109.62
238.858	97.62
239.091	116.62
239.325	113.62
239.559	111.62
239.793	120.62
240.027	117.62
240.26	137.62
240.494	139.62
240.728	128.62
240.961	128.62
241.195	136.62
241.429	122.62
241.662	115.62
241.896	118.62
242.13	117.62
242.363	118.62
242.597	115.62
242.83	127.62
243.064	116.62
243.298	130.62
243.531	120.62
243.765	137.62
243.998	116.62
244.232	136.62
244.465	112.62
244.699	138.62
244.932	146.62
245.166	125.62
245.399	145.62
245.633	123.62
245.866	130.62
246.099	144.62
246.333	121.62
246.566	122.62
246.8	132.62
247.033	151.62
247.266	152.62
247.5	159.62
247.733	160.62
247.966	159.62
248.2	154.62
248.433	154.62
248.666	154.62
248.899	185.62
249.133	179.62
249.366	173.62
249.599	173.62
249.832	170.62
250.066	169.62
250.299	162.62
250.532	151.62
250.765	194.62
250.998	195.62
251.231	189.62
251.465	181.62
251.698	188.62
251.931	172.62
252.164	174.62
252.397	188.62
252.63	168.62
252.863	180.62
253.096	202.62
253.329	200.62
253.562	204.62
253.795	189.62
254.028	193.62
254.261	198.62
254.494	197.62
254.727	223.62
254.96	232.62
255.193	234.62
255.426	239.62
255.659	206.62
255.892	192.62
256.124	194.62
256.357	212.62
256.59	201.62
256.823	193.62
257.056	200.62
257.289	172.62
257.521	185.62
257.754	176.62
257.987	188.62
258.22	178.62
258.452	201.62
258.685	201.62
258.918	203.62
259.151	185.62
259.383	190.62
259.616	197.62
259.849	200.62
260.081	191.62
260.314	228.62
260.547	218.62
260.779	207.62
261.012	204.62
261.244	199.62
261.477	201.62
261.71	182.62
261.942	206.62
262.175	202.62
262.407	208.62
262.64	203.62
262.872	199.62
263.105	175.62
263.337	187.62
263.57	183.62
263.802	179.62
264.035	193.62
264.267	189.62
264.499	180.62
264.732	189.62
264.964	192.62
265.197	179.62
265.429	190.62
265.661	195.62
265.894	181.62
266.126	186.62
266.358	188.62
266.591	201.62
266.823	195.62
267.055	195.62
267.287	219.62
267.52	208.62
267.752	197.62
267.984	188.62
268.216	188.62
268.448	206.62
268.681	208.62
268.913	226.62
269.145	241.62
269.377	236.62
269.609	236.62
269.841	225.62
270.073	250.62
270.306	256.62
270.538	254.62
270.77	283.62
271.002	268.62
271.234	254.62
271.466	272.62
271.698	274.62
271.93	298.62
272.162	282.62
272.394	285.62
272.626	276.62
272.858	263.62
273.09	239.62
273.322	253.62
273.553	230.62
273.785	235.62
274.017	246.62
274.249	220.62
274.481	222.62
274.713	234.62
274.945	250.62
275.176	241.62
275.408	243.62
275.64	227.62
275.872	231.62
276.104	229.62
276.335	234.62
276.567	256.62
276.799	277.62
277.031	265.62
277.262	274.62
277.494	284.62
277.726	265.62
277.957	240.62
278.189	240.62
278.421	234.62
278.652	242.62
278.884	261.62
279.115	216.62
279.347	228.62
279.579	240.62
279.81	236.62
280.042	228.62
280.273	234.62
280.505	222.62
280.736	236.62
280.968	244.62
281.199	243.62
281.431	241.62
281.662	230.62
281.894	262.62
282.125	256.62
282.356	255.62
282.588	278.62
282.819	262.62
283.051	249.62
283.282	248.62
283.513	265.62
283.745	258.62
283.976	253.62
284.207	240.62
284.439	241.62
284.67	241.62
284.901	241.62
285.132	244.62
285.364	245.62
285.595	242.62
285.826	255.62
286.057	261.62
286.288	239.62
286.52	261.62
286.751	241.62
286.982	239.62
287.213	243.62
287.444	246.62
287.675	255.62
287.906	272.62
288.138	256.62
288.369	261.62
288.6	258.62
288.831	265.62
289.062	256.62
289.293	256.62
289.524	241.62
289.755	246.62
289.986	252.62
290.217	253.62
290.448	238.62
290.679	260.62
290.91	260.62
291.141	272.62
291.371	246.62
291.602	249.62
291.833	240.62
292.064	274.62
292.295	267.62
292.526	265.62
292.757	263.62
292.987	261.62
293.218	246.62
293.449	257.62
293.68	261.62
293.91	244.62
294.141	262.62
294.372	262.62
294.603	268.62
294.833	257.62
295.064	236.62
295.295	269.62
295.525	262.62
295.756	266.62
295.987	273.62
296.217	287.62
296.448	282.62
296.679	286.62
296.909	261.62
297.14	266.62
297.37	254.62
297.601	269.62
297.831	262.62
298.062	273.62
298.292	267.62
298.523	264.62
298.753	260.62
298.984	254.62
299.214	271.62
299.445	266.62
299.675	289.62
299.905	270.62
300.136	286.62
300.366	280.62
300.597	264.62
300.827	279.62
301.057	286.62
301.288	297.62
301.518	295.62
301.748	291.62
301.979	295.62
302.209	276.62
302.439	287.62
302.669	292.62
302.9	292.62
303.13	274.62
303.36	290.62
303.59	297.62
303.82	288.62
304.051	318.62
304.281	300.62
304.511	296.62
304.741	287.62
304.971	298.62
305.201	290.62
305.431	289.62
305.661	276.62
305.891	292.62
306.121	276.62
306.352	303.62
306.582	296.62
306.812	290.62
307.042	295.62
307.272	297.62
307.502	286.62
307.731	290.62
307.961	294.62
308.191	282.62
308.421	302.62
308.651	297.62
308.881	297.62
309.111	302.62
309.341	305.62
309.571	317.62
309.8	312.62
310.03	328.62
310.26	329.62
310.49	333.62
310.72	358.62
310.949	359.62
311.179	375.62
311.409	349.62
311.639	334.62
311.868	342.62
312.098	340.62
312.328	345.62
312.557	367.62
312.787	372.62
313.017	362.62
313.246	336.62
313.476	343.62
313.706	332.62
313.935	338.62
314.165	359.62
314.394	362.62
314.624	343.62
314.853	344.62
315.083	336.62
315.312	353.62
315.542	340.62
315.771	331.62
316.001	311.62
316.23	330.62
316.46	348.62
316.689	347.62
316.919	329.62
317.148	343.62
317.377	354.62
317.607	345.62
317.836	348.62
318.065	335.62
318.295	333.62
318.524	324.62
318.753	342.62
318.983	339.62
319.212	327.62
319.441	362.62
319.67	344.62
319.9	356.62
320.129	350.62
320.358	327.62
320.587	350.62
320.816	345.62
321.046	337.62
321.275	348.62
321.504	344.62
321.733	351.62
321.962	354.62
322.191	377.62
322.42	394.62
322.649	405.62
322.878	402.62
323.108	412.62
323.337	461.62
323.566	453.62
323.795	498.62
324.024	538.62
324.253	634.62
324.482	957.62
324.71	1400.62
324.939	1906.62
325.168	1587.62
325.397	849.62
325.626	574.62
325.855	483.62
326.084	432.62
326.313	457.62
326.542	458.62
326.77	502.62
326.999	611.62
327.228	828.62
327.457	1253.62
327.686	1404.62
327.914	949.62
328.143	628.62
328.372	550.62
328.6	530.62
328.829	499.62
329.058	522.62
329.287	539.62
329.515	495.62
329.744	456.62
329.972	430.62
330.201	451.62
330.43	476.62
330.658	509.62
330.887	545.62
331.115	542.62
331.344	478.62
331.572	447.62
331.801	448.62
332.03	453.62
332.258	412.62
332.486	397.62
332.715	359.62
332.943	369.62
333.172	386.62
333.4	399.62
333.629	408.62
333.857	419.62
334.085	404.62
334.314	402.62
334.542	426.62
334.771	407.62
334.999	407.62
335.227	407.62
335.455	406.62
335.684	398.62
335.912	389.62
336.14	375.62
336.369	379.62
336.597	388.62
336.825	398.62
337.053	384.62
337.281	392.62
337.51	378.62
337.738	380.62
337.966	373.62
338.194	374.62
338.422	383.62
338.65	382.62
338.878	378.62
339.106	359.62
339.334	396.62
339.562	369.62
339.79	378.62
340.018	377.62
340.246	353.62
340.474	383.62
340.702	380.62
340.93	366.62
341.158	369.62
341.386	364.62
341.614	375.62
341.842	351.62
342.07	349.62
342.298	364.62
342.526	370.62
342.754	353.62
342.981	344.62
343.209	368.62
343.437	369.62
343.665	362.62
343.893	362.62
344.12	366.62
344.348	368.62
344.576	383.62
344.804	408.62
345.031	390.62
345.259	397.62
345.487	384.62
345.714	374.62
345.942	373.62
346.17	378.62
346.397	364.62
346.625	353.62
346.853	390.62
347.08	372.62
347.308	361.62
347.535	380.62
347.763	357.62
347.99	374.62
348.218	382.62
348.445	353.62
348.673	390.62
348.9	357.62
349.128	368.62
349.355	352.62
349.583	366.62
349.81	364.62
350.037	351.62
350.265	344.62
350.492	350.62
350.72	361.62
350.947	352.62
351.174	368.62
351.402	386.62
351.629	383.62
351.856	368.62
352.083	383.62
352.311	386.62
352.538	388.62
352.765	381.62
352.992	352.62
353.22	350.62
353.447	378.62
353.674	368.62
353.901	349.62
354.128	337.62
354.355	344.62
354.583	340.62
354.81	353.62
355.037	339.62
355.264	343.62
355.491	305.62
355.718	335.62
355.945	334.62
356.172	328.62
356.399	332.62
356.626	346.62
356.853	330.62
357.08	339.62
357.307	341.62
357.534	346.62
357.761	338.62
357.988	342.62
358.215	329.62
358.441	326.62
358.668	331.62
358.895	352.62
359.122	342.62
359.349	357.62
359.576	369.62
359.802	371.62
360.029	405.62
360.256	426.62
360.483	407.62
360.709	375.62
360.936	377.62
361.163	381.62
361.39	374.62
361.616	371.62
361.843	366.62
362.07	371.62
362.296	368.62
362.523	372.62
362.749	342.62
362.976	358.62
363.203	337.62
363.429	342.62
363.656	352.62
363.882	338.62
364.109	337.62
364.335	344.62
364.562	339.62
364.788	346.62
365.015	353.62
365.241	348.62
365.468	354.62
365.694	345.62
365.92	357.62
366.147	344.62
366.373	362.62
366.599	317.62
366.826	340.62
367.052	337.62
367.278	350.62
367.505	340.62
367.731	346.62
367.957	345.62
368.184	340.62
368.41	346.62
368.636	373.62
368.862	367.62
369.089	352.62
369.315	358.62
369.541	341.62
369.767	336.62
369.993	333.62
370.219	326.62
370.445	338.62
370.672	348.62
370.898	324.62
371.124	352.62
371.35	336.62
371.576	342.62
371.802	316.62
372.028	346.62
372.254	335.62
372.48	340.62
372.706	349.62
372.932	357.62
373.158	343.62
373.384	357.62
373.61	340.62
373.835	335.62
374.061	341.62
374.287	337.62
374.513	356.62
374.739	347.62
374.965	367.62
375.191	344.62
375.416	342.62
375.642	337.62
375.868	362.62
376.094	335.62
376.319	337.62
376.545	325.62
376.771	333.62
376.997	361.62
377.222	363.62
377.448	342.62
377.674	339.62
377.899	326.62
378.125	336.62
378.35	339.62
378.576	350.62
378.802	331.62
379.027	340.62
379.253	367.62
379.478	321.62
379.704	325.62
379.929	334.62
380.155	323.62
380.38	343.62
380.606	337.62
380.831	342.62
381.057	343.62
381.282	336.62
381.507	360.62
381.733	330.62
381.958	325.62
382.184	349.62
382.409	337.62
382.634	345.62
382.86	345.62
383.085	335.62
383.31	351.62
383.535	356.62
383.761	348.62
383.986	348.62
384.211	378.62
384.436	373.62
384.662	378.62
384.887	349.62
385.112	345.62
385.337	363.62
385.562	347.62
385.787	360.62
386.013	362.62
386.238	369.62
386.463	368.62
386.688	383.62
386.913	379.62
387.138	357.62
387.363	348.62
387.588	365.62
387.813	369.62
388.038	365.62
388.263	355.62
388.488	376.62
388.713	382.62
388.938	358.62
389.163	353.62
389.387	364.62
389.612	359.62
389.837	345.62
390.062	370.62
390.287	370.62
390.512	370.62
390.736	350.62
390.961	367.62
391.186	342.62
391.411	362.62
391.636	383.62
391.86	382.62
392.085	384.62
392.31	376.62
392.534	381.62
392.759	371.62
392.984	382.62
393.208	367.62
393.433	392.62
393.658	362.62
393.882	353.62
394.107	367.62
394.331	359.62
394.556	374.62
394.78	374.62
395.005	385.62
395.229	378.62
395.454	374.62
395.678	351.62
395.903	382.62
396.127	416.62
396.352	390.62
396.576	373.62
396.801	384.62
397.025	396.62
397.249	370.62
397.474	364.62
397.698	393.62
397.922	404.62
398.147	413.62
398.371	407.62
398.595	428.62
398.82	406.62
399.044	393.62
399.268	420.62
399.492	455.62
399.717	461.62
399.941	492.62
400.165	491.62
400.389	523.62
400.613	437.62
400.837	438.62
401.062	432.62
401.286	398.62
401.51	402.62
401.734	413.62
401.958	424.62
402.182	428.62
402.406	440.62
402.63	430.62
402.854	441.62
403.078	412.62
403.302	438.62
403.526	424.62
403.75	441.62
403.974	417.62
404.198	419.62
404.422	432.62
404.645	436.62
404.869	433.62
405.093	452.62
405.317	477.62
405.541	492.62
405.765	460.62
405.988	437.62
406.212	459.62
406.436	489.62
406.66	505.62
406.883	486.62
407.107	485.62
407.331	517.62
407.555	559.62
407.778	539.62
408.002	490.62
408.226	470.62
408.449	473.62
408.673	481.62
408.896	479.62
409.12	503.62
409.344	498.62
409.567	447.62
409.791	432.62
410.014	417.62
410.238	410.62
410.461	430.62
410.685	436.62
410.908	436.62
411.132	475.62
411.355	478.62
411.578	477.62
411.802	445.62
412.025	410.62
412.249	417.62
412.472	446.62
412.695	466.62
412.919	426.62
413.142	410.62
413.365	401.62
413.589	433.62
413.812	428.62
414.035	404.62
414.258	390.62
414.482	376.62
414.705	403.62
414.928	406.62
415.151	387.62
415.374	386.62
415.597	393.62
415.821	389.62
416.044	408.62
416.267	394.62
416.49	393.62
416.713	389.62
416.936	405.62
417.159	392.62
417.382	398.62
417.605	412.62
417.828	405.62
418.051	437.62
418.274	423.62
418.497	403.62
418.72	405.62
418.943	409.62
419.166	406.62
419.389	424.62
419.611	424.62
419.834	413.62
420.057	401.62
420.28	433.62
420.503	427.62
420.726	424.62
420.948	458.62
421.171	458.62
421.394	487.62
421.617	460.62
421.839	432.62
422.062	422.62
422.285	440.62
422.507	466.62
422.73	517.62
422.953	508.62
423.175	448.62
423.398	434.62
423.621	442.62
423.843	466.62
424.066	452.62
424.288	459.62
424.511	455.62
424.733	513.62
424.956	562.62
425.178	546.62
425.401	542.62
425.623	548.62
425.846	486.62
426.068	464.62
426.291	459.62
426.513	454.62
426.735	444.62
426.958	486.62
427.18	571.62
427.402	647.62
427.625	709.62
427.847	625.62
428.069	564.62
428.292	474.62
428.514	442.62
428.736	425.62
428.958	430.62
429.181	417.62
429.403	414.62
429.625	440.62
429.847	478.62
430.069	506.62
430.292	516.62
430.514	434.62
430.736	425.62
430.958	424.62
431.18	395.62
431.402	396.62
431.624	398.62
431.846	394.62
432.068	393.62
432.29	410.62
432.512	399.62
432.734	414.62
432.956	405.62
433.178	400.62
433.4	409.62
433.622	389.62
433.844	387.62
434.066	409.62
434.287	394.62
434.509	428.62
434.731	420.62
434.953	405.62
435.175	437.62
435.397	438.62
435.618	437.62
435.84	486.62
436.062	548.62
436.284	606.62
436.505	497.62
436.727	460.62
436.949	456.62
437.17	414.62
437.392	432.62
437.614	420.62
437.835	471.62
438.057	528.62
438.278	617.62
438.5	617.62
438.721	659.62
438.943	628.62
439.165	512.62
439.386	464.62
439.608	466.62
439.829	470.62
440.05	471.62
440.272	519.62
440.493	502.62
440.715	458.62
440.936	460.62
441.158	424.62
441.379	443.62
441.6	448.62
441.822	476.62
442.043	492.62
442.264	546.62
442.486	573.62
442.707	495.62
442.928	477.62
443.149	473.62
443.371	495.62
443.592	516.62
443.813	615.62
444.034	624.62
444.255	522.62
444.476	466.62
444.698	464.62
444.919	457.62
445.14	550.62
445.361	513.62
445.582	500.62
445.803	535.62
446.024	613.62
446.245	594.62
446.466	548.62
446.687	491.62
446.908	466.62
447.129	453.62
447.35	419.62
447.571	422.62
447.792	435.62
448.013	442.62
448.234	447.62
448.455	484.62
448.675	551.62
448.896	650.62
449.117	565.62
449.338	528.62
449.559	618.62
449.779	668.62
450	548.62
450.221	469.62
450.442	437.62
450.662	412.62
450.883	406.62
451.104	449.62
451.324	434.62
451.545	431.62
451.766	386.62
451.986	405.62
452.207	386.62
452.428	372.62
452.648	371.62
452.869	396.62
453.089	400.62
453.31	402.62
453.53	394.62
453.751	380.62
453.971	404.62
454.192	411.62
454.412	403.62
454.633	393.62
454.853	375.62
455.073	399.62
455.294	391.62
455.514	449.62
455.734	465.62
455.955	394.62
456.175	352.62
456.395	357.62
456.616	365.62
456.836	352.62
457.056	348.62
457.276	352.62
457.497	372.62
457.717	357.62
457.937	353.62
458.157	376.62
458.377	374.62
458.598	382.62
458.818	458.62
459.038	529.62
459.258	533.62
459.478	463.62
459.698	423.62
459.918	392.62
460.138	390.62
460.358	406.62
460.578	411.62
460.798	389.62
461.018	412.62
461.238	392.62
461.458	415.62
461.678	393.62
461.898	401.62
462.118	417.62
462.338	412.62
462.558	416.62
462.777	423.62
462.997	430.62
463.217	439.62
463.437	440.62
463.657	424.62
463.876	400.62
464.096	431.62
464.316	433.62
464.536	431.62
464.755	445.62
464.975	450.62
465.195	495.62
465.414	551.62
465.634	480.62
465.854	429.62
466.073	408.62
466.293	408.62
466.512	389.62
466.732	386.62
466.951	395.62
467.171	390.62
467.391	408.62
467.61	413.62
467.829	404.62
468.049	401.62
468.268	401.62
468.488	383.62
468.707	388.62
468.927	380.62
469.146	356.62
469.365	374.62
469.585	388.62
469.804	393.62
470.023	400.62
470.243	420.62
470.462	387.62
470.681	428.62
470.901	409.62
471.12	394.62
471.339	414.62
471.558	398.62
471.777	407.62
471.997	373.62
472.216	388.62
472.435	401.62
472.654	400.62
472.873	410.62
473.092	394.62
473.311	368.62
473.53	395.62
473.749	407.62
473.968	434.62
474.187	507.62
474.406	539.62
474.625	436.62
474.844	415.62
475.063	388.62
475.282	405.62
475.501	405.62
475.72	409.62
475.939	399.62
476.158	417.62
476.377	408.62
476.596	403.62
476.814	426.62
477.033	436.62
477.252	409.62
477.471	417.62
477.69	410.62
477.908	419.62
478.127	417.62
478.346	417.62
478.564	416.62
478.783	441.62
479.002	434.62
479.22	448.62
479.439	451.62
479.658	480.62
479.876	467.62
480.095	488.62
480.313	507.62
480.532	468.62
480.751	489.62
480.969	464.62
481.188	494.62
481.406	498.62
481.624	474.62
481.843	469.62
482.061	479.62
482.28	469.62
482.498	460.62
482.717	458.62
482.935	442.62
483.153	461.62
483.372	470.62
483.59	479.62
483.808	464.62
484.027	466.62
484.245	468.62
484.463	471.62
484.681	469.62
484.9	477.62
485.118	484.62
485.336	487.62
485.554	484.62
485.772	479.62
485.99	462.62
486.209	472.62
486.427	489.62
486.645	497.62
486.863	534.62
487.081	526.62
487.299	488.62
487.517	510.62
487.735	476.62
487.953	487.62
488.171	476.62
488.389	504.62
488.607	519.62
488.825	483.62
489.043	508.62
489.261	489.62
489.479	508.62
489.696	510.62
489.914	526.62
490.132	503.62
490.35	516.62
490.568	511.62
490.786	530.62
491.003	518.62
491.221	540.62
491.439	578.62
491.657	557.62
491.874	574.62
492.092	551.62
492.31	567.62
492.527	580.62
492.745	576.62
492.963	593.62
493.18	574.62
493.398	596.62
493.615	592.62
493.833	600.62
494.05	566.62
494.268	593.62
494.485	596.62
494.703	575.62
494.92	575.62
495.138	577.62
495.355	567.62
495.573	595.62
495.79	586.62
496.008	592.62
496.225	577.62
496.442	584.62
496.66	591.62
496.877	590.62
497.094	582.62
497.312	591.62
497.529	614.62
497.746	586.62
497.963	605.62
498.181	616.62
498.398	627.62
498.615	643.62
498.832	651.62
499.049	653.62
499.267	663.62
499.484	695.62
499.701	694.62
499.918	736.62
500.135	748.62
500.352	754.62
500.569	776.62
500.786	793.62
501.003	766.62
501.22	772.62
501.437	754.62
501.654	728.62
501.871	756.62
502.088	696.62
