Data from 1983.PennyLincolnUp.Lamp.En5.5.200Scan.071819.P1_HRD10591_16-54-40-965.txt Node
Date: Thu Jul 18 16:54:40 EDT 2019
User: cochatt
Spectrometer: HR+D1059
Trigger mode: 1
Integration Time (sec): 1.000000E-1
Scans to average: 1
Electric dark correction enabled: true
Nonlinearity correction enabled: false
Boxcar width: 0
XAxis mode: Wavelengths
Number of Pixels in Spectrum: 2048
>>>>>Begin Spectral Data<<<<<
223.165	-17.75
223.4	-17.75
223.635	-17.75
223.869	-26.75
224.104	-15.75
224.338	-26.75
224.573	-9.75
224.808	-20.75
225.042	0.25
225.277	6.25
225.511	4.25
225.746	-1.75
225.98	12.25
226.215	25.25
226.449	15.25
226.683	22.25
226.918	12.25
227.152	21.25
227.387	29.25
227.621	32.25
227.856	40.25
228.09	40.25
228.324	34.25
228.559	46.25
228.793	61.25
229.027	64.25
229.262	95.25
229.496	101.25
229.73	122.25
229.964	146.25
230.199	133.25
230.433	99.25
230.667	96.25
230.901	93.25
231.136	100.25
231.37	109.25
231.604	102.25
231.838	102.25
232.072	97.25
232.306	117.25
232.541	110.25
232.775	113.25
233.009	100.25
233.243	108.25
233.477	122.25
233.711	104.25
233.945	105.25
234.179	106.25
234.413	90.25
234.647	108.25
234.881	115.25
235.115	128.25
235.349	91.25
235.583	104.25
235.817	110.25
236.051	129.25
236.285	122.25
236.519	129.25
236.753	140.25
236.987	129.25
237.221	168.25
237.455	203.25
237.689	176.25
237.922	132.25
238.156	132.25
238.39	114.25
238.624	113.25
238.858	132.25
239.091	120.25
239.325	122.25
239.559	133.25
239.793	128.25
240.027	124.25
240.26	130.25
240.494	145.25
240.728	138.25
240.961	156.25
241.195	141.25
241.429	128.25
241.662	121.25
241.896	134.25
242.13	126.25
242.363	117.25
242.597	122.25
242.83	142.25
243.064	128.25
243.298	110.25
243.531	118.25
243.765	126.25
243.998	134.25
244.232	142.25
244.465	134.25
244.699	137.25
244.932	135.25
245.166	124.25
245.399	142.25
245.633	131.25
245.866	142.25
246.099	125.25
246.333	126.25
246.566	146.25
246.8	139.25
247.033	138.25
247.266	156.25
247.5	158.25
247.733	172.25
247.966	164.25
248.2	165.25
248.433	173.25
248.666	165.25
248.899	157.25
249.133	178.25
249.366	188.25
249.599	182.25
249.832	167.25
250.066	160.25
250.299	180.25
250.532	173.25
250.765	200.25
250.998	203.25
251.231	213.25
251.465	211.25
251.698	196.25
251.931	181.25
252.164	195.25
252.397	172.25
252.63	170.25
252.863	203.25
253.096	215.25
253.329	209.25
253.562	213.25
253.795	204.25
254.028	190.25
254.261	211.25
254.494	213.25
254.727	249.25
254.96	258.25
255.193	242.25
255.426	236.25
255.659	200.25
255.892	219.25
256.124	209.25
256.357	222.25
256.59	229.25
256.823	203.25
257.056	198.25
257.289	211.25
257.521	213.25
257.754	198.25
257.987	186.25
258.22	197.25
258.452	194.25
258.685	203.25
258.918	182.25
259.151	187.25
259.383	210.25
259.616	218.25
259.849	228.25
260.081	212.25
260.314	233.25
260.547	237.25
260.779	222.25
261.012	213.25
261.244	213.25
261.477	220.25
261.71	211.25
261.942	210.25
262.175	224.25
262.407	214.25
262.64	203.25
262.872	189.25
263.105	182.25
263.337	202.25
263.57	188.25
263.802	195.25
264.035	188.25
264.267	179.25
264.499	196.25
264.732	197.25
264.964	199.25
265.197	194.25
265.429	215.25
265.661	191.25
265.894	192.25
266.126	184.25
266.358	197.25
266.591	208.25
266.823	203.25
267.055	214.25
267.287	209.25
267.52	219.25
267.752	209.25
267.984	202.25
268.216	202.25
268.448	202.25
268.681	224.25
268.913	226.25
269.145	237.25
269.377	249.25
269.609	259.25
269.841	260.25
270.073	244.25
270.306	273.25
270.538	263.25
270.77	296.25
271.002	266.25
271.234	266.25
271.466	279.25
271.698	290.25
271.93	294.25
272.162	270.25
272.394	285.25
272.626	280.25
272.858	256.25
273.09	248.25
273.322	242.25
273.553	233.25
273.785	237.25
274.017	247.25
274.249	250.25
274.481	260.25
274.713	233.25
274.945	245.25
275.176	244.25
275.408	246.25
275.64	242.25
275.872	251.25
276.104	253.25
276.335	240.25
276.567	236.25
276.799	250.25
277.031	279.25
277.262	280.25
277.494	284.25
277.726	288.25
277.957	258.25
278.189	246.25
278.421	254.25
278.652	235.25
278.884	248.25
279.115	253.25
279.347	245.25
279.579	240.25
279.81	246.25
280.042	232.25
280.273	239.25
280.505	244.25
280.736	244.25
280.968	237.25
281.199	233.25
281.431	244.25
281.662	260.25
281.894	245.25
282.125	263.25
282.356	263.25
282.588	281.25
282.819	277.25
283.051	246.25
283.282	244.25
283.513	260.25
283.745	261.25
283.976	254.25
284.207	253.25
284.439	254.25
284.67	247.25
284.901	262.25
285.132	259.25
285.364	230.25
285.595	248.25
285.826	263.25
286.057	243.25
286.288	240.25
286.52	248.25
286.751	237.25
286.982	250.25
287.213	254.25
287.444	256.25
287.675	272.25
287.906	268.25
288.138	265.25
288.369	264.25
288.6	270.25
288.831	291.25
289.062	277.25
289.293	272.25
289.524	261.25
289.755	257.25
289.986	262.25
290.217	259.25
290.448	250.25
290.679	258.25
290.91	257.25
291.141	259.25
291.371	250.25
291.602	260.25
291.833	253.25
292.064	270.25
292.295	245.25
292.526	276.25
292.757	278.25
292.987	240.25
293.218	241.25
293.449	249.25
293.68	263.25
293.91	267.25
294.141	265.25
294.372	260.25
294.603	268.25
294.833	258.25
295.064	270.25
295.295	264.25
295.525	274.25
295.756	272.25
295.987	281.25
296.217	295.25
296.448	287.25
296.679	278.25
296.909	262.25
297.14	269.25
297.37	279.25
297.601	265.25
297.831	281.25
298.062	274.25
298.292	264.25
298.523	279.25
298.753	273.25
298.984	290.25
299.214	294.25
299.445	308.25
299.675	278.25
299.905	258.25
300.136	283.25
300.366	288.25
300.597	285.25
300.827	320.25
301.057	288.25
301.288	297.25
301.518	299.25
301.748	295.25
301.979	298.25
302.209	290.25
302.439	282.25
302.669	302.25
302.9	293.25
303.13	299.25
303.36	301.25
303.59	308.25
303.82	287.25
304.051	301.25
304.281	309.25
304.511	286.25
304.741	300.25
304.971	277.25
305.201	291.25
305.431	261.25
305.661	300.25
305.891	299.25
306.121	305.25
306.352	303.25
306.582	281.25
306.812	286.25
307.042	290.25
307.272	303.25
307.502	311.25
307.731	296.25
307.961	307.25
308.191	294.25
308.421	297.25
308.651	291.25
308.881	297.25
309.111	303.25
309.341	312.25
309.571	317.25
309.8	309.25
310.03	352.25
310.26	351.25
310.49	356.25
310.72	347.25
310.949	358.25
311.179	363.25
311.409	363.25
311.639	334.25
311.868	334.25
312.098	336.25
312.328	332.25
312.557	365.25
312.787	386.25
313.017	376.25
313.246	363.25
313.476	340.25
313.706	342.25
313.935	349.25
314.165	367.25
314.394	348.25
314.624	376.25
314.853	372.25
315.083	344.25
315.312	357.25
315.542	347.25
315.771	334.25
316.001	332.25
316.23	334.25
316.46	358.25
316.689	327.25
316.919	348.25
317.148	363.25
317.377	347.25
317.607	358.25
317.836	350.25
318.065	347.25
318.295	340.25
318.524	348.25
318.753	328.25
318.983	340.25
319.212	341.25
319.441	353.25
319.67	351.25
319.9	340.25
320.129	343.25
320.358	351.25
320.587	360.25
320.816	363.25
321.046	365.25
321.275	360.25
321.504	368.25
321.733	376.25
321.962	377.25
322.191	381.25
322.42	401.25
322.649	404.25
322.878	412.25
323.108	414.25
323.337	450.25
323.566	466.25
323.795	510.25
324.024	551.25
324.253	692.25
324.482	999.25
324.71	1480.25
324.939	2025.25
325.168	1638.25
325.397	920.25
325.626	621.25
325.855	527.25
326.084	503.25
326.313	482.25
326.542	482.25
326.77	535.25
326.999	660.25
327.228	898.25
327.457	1288.25
327.686	1505.25
327.914	1009.25
328.143	695.25
328.372	621.25
328.6	560.25
328.829	539.25
329.058	545.25
329.287	561.25
329.515	512.25
329.744	481.25
329.972	484.25
330.201	527.25
330.43	548.25
330.658	565.25
330.887	574.25
331.115	570.25
331.344	478.25
331.572	461.25
331.801	457.25
332.03	458.25
332.258	440.25
332.486	416.25
332.715	416.25
332.943	425.25
333.172	420.25
333.4	425.25
333.629	429.25
333.857	444.25
334.085	444.25
334.314	462.25
334.542	508.25
334.771	518.25
334.999	461.25
335.227	420.25
335.455	425.25
335.684	418.25
335.912	397.25
336.14	406.25
336.369	394.25
336.597	417.25
336.825	399.25
337.053	393.25
337.281	402.25
337.51	395.25
337.738	408.25
337.966	398.25
338.194	417.25
338.422	420.25
338.65	388.25
338.878	396.25
339.106	380.25
339.334	375.25
339.562	370.25
339.79	386.25
340.018	389.25
340.246	399.25
340.474	407.25
340.702	364.25
340.93	378.25
341.158	400.25
341.386	375.25
341.614	406.25
341.842	370.25
342.07	379.25
342.298	387.25
342.526	372.25
342.754	375.25
342.981	377.25
343.209	356.25
343.437	372.25
343.665	377.25
343.893	389.25
344.12	385.25
344.348	394.25
344.576	408.25
344.804	393.25
345.031	402.25
345.259	418.25
345.487	401.25
345.714	397.25
345.942	378.25
346.17	390.25
346.397	374.25
346.625	379.25
346.853	374.25
347.08	388.25
347.308	391.25
347.535	372.25
347.763	392.25
347.99	379.25
348.218	392.25
348.445	414.25
348.673	386.25
348.9	380.25
349.128	364.25
349.355	384.25
349.583	359.25
349.81	354.25
350.037	356.25
350.265	373.25
350.492	354.25
350.72	368.25
350.947	363.25
351.174	386.25
351.402	378.25
351.629	385.25
351.856	373.25
352.083	383.25
352.311	394.25
352.538	387.25
352.765	398.25
352.992	392.25
353.22	388.25
353.447	383.25
353.674	365.25
353.901	369.25
354.128	357.25
354.355	352.25
354.583	354.25
354.81	357.25
355.037	340.25
355.264	343.25
355.491	324.25
355.718	339.25
355.945	345.25
356.172	325.25
356.399	351.25
356.626	349.25
356.853	348.25
357.08	333.25
357.307	347.25
357.534	335.25
357.761	339.25
357.988	344.25
358.215	343.25
358.441	349.25
358.668	348.25
358.895	348.25
359.122	342.25
359.349	365.25
359.576	372.25
359.802	421.25
360.029	426.25
360.256	424.25
360.483	420.25
360.709	385.25
360.936	374.25
361.163	362.25
361.39	361.25
361.616	374.25
361.843	366.25
362.07	392.25
362.296	371.25
362.523	388.25
362.749	382.25
362.976	368.25
363.203	374.25
363.429	362.25
363.656	368.25
363.882	340.25
364.109	368.25
364.335	360.25
364.562	340.25
364.788	326.25
365.015	354.25
365.241	368.25
365.468	370.25
365.694	380.25
365.92	359.25
366.147	355.25
366.373	357.25
366.599	342.25
366.826	366.25
367.052	342.25
367.278	345.25
367.505	350.25
367.731	355.25
367.957	325.25
368.184	332.25
368.41	348.25
368.636	354.25
368.862	391.25
369.089	379.25
369.315	361.25
369.541	365.25
369.767	358.25
369.993	345.25
370.219	362.25
370.445	353.25
370.672	352.25
370.898	350.25
371.124	342.25
371.35	333.25
371.576	344.25
371.802	356.25
372.028	353.25
372.254	348.25
372.48	335.25
372.706	357.25
372.932	336.25
373.158	348.25
373.384	345.25
373.61	349.25
373.835	341.25
374.061	338.25
374.287	346.25
374.513	332.25
374.739	349.25
374.965	337.25
375.191	340.25
375.416	352.25
375.642	352.25
375.868	353.25
376.094	347.25
376.319	345.25
376.545	355.25
376.771	347.25
376.997	330.25
377.222	335.25
377.448	348.25
377.674	339.25
377.899	348.25
378.125	361.25
378.35	332.25
378.576	348.25
378.802	344.25
379.027	338.25
379.253	342.25
379.478	335.25
379.704	338.25
379.929	328.25
380.155	355.25
380.38	347.25
380.606	368.25
380.831	361.25
381.057	360.25
381.282	349.25
381.507	333.25
381.733	358.25
381.958	355.25
382.184	345.25
382.409	362.25
382.634	360.25
382.86	361.25
383.085	350.25
383.31	342.25
383.535	354.25
383.761	345.25
383.986	343.25
384.211	361.25
384.436	363.25
384.662	356.25
384.887	342.25
385.112	362.25
385.337	362.25
385.562	355.25
385.787	345.25
386.013	384.25
386.238	374.25
386.463	367.25
386.688	376.25
386.913	387.25
387.138	378.25
387.363	372.25
387.588	366.25
387.813	366.25
388.038	376.25
388.263	370.25
388.488	357.25
388.713	369.25
388.938	366.25
389.163	376.25
389.387	376.25
389.612	368.25
389.837	379.25
390.062	354.25
390.287	386.25
390.512	374.25
390.736	376.25
390.961	363.25
391.186	378.25
391.411	371.25
391.636	378.25
391.86	380.25
392.085	370.25
392.31	396.25
392.534	379.25
392.759	399.25
392.984	363.25
393.208	368.25
393.433	370.25
393.658	370.25
393.882	375.25
394.107	382.25
394.331	383.25
394.556	374.25
394.78	357.25
395.005	373.25
395.229	372.25
395.454	389.25
395.678	376.25
395.903	382.25
396.127	409.25
396.352	398.25
396.576	377.25
396.801	381.25
397.025	384.25
397.249	386.25
397.474	395.25
397.698	385.25
397.922	397.25
398.147	408.25
398.371	412.25
398.595	424.25
398.82	417.25
399.044	397.25
399.268	404.25
399.492	468.25
399.717	485.25
399.941	477.25
400.165	512.25
400.389	487.25
400.613	469.25
400.837	432.25
401.062	436.25
401.286	430.25
401.51	432.25
401.734	428.25
401.958	430.25
402.182	417.25
402.406	425.25
402.63	412.25
402.854	418.25
403.078	448.25
403.302	436.25
403.526	442.25
403.75	456.25
403.974	426.25
404.198	445.25
404.422	434.25
404.645	461.25
404.869	444.25
405.093	486.25
405.317	508.25
405.541	526.25
405.765	493.25
405.988	469.25
406.212	478.25
406.436	482.25
406.66	492.25
406.883	493.25
407.107	488.25
407.331	541.25
407.555	558.25
407.778	549.25
408.002	496.25
408.226	486.25
408.449	475.25
408.673	464.25
408.896	477.25
409.12	534.25
409.344	504.25
409.567	447.25
409.791	438.25
410.014	425.25
410.238	429.25
410.461	444.25
410.685	430.25
410.908	465.25
411.132	472.25
411.355	518.25
411.578	475.25
411.802	456.25
412.025	434.25
412.249	435.25
412.472	473.25
412.695	490.25
412.919	484.25
413.142	437.25
413.365	429.25
413.589	442.25
413.812	408.25
414.035	395.25
414.258	413.25
414.482	396.25
414.705	430.25
414.928	402.25
415.151	405.25
415.374	412.25
415.597	411.25
415.821	409.25
416.044	386.25
416.267	414.25
416.49	405.25
416.713	408.25
416.936	407.25
417.159	405.25
417.382	420.25
417.605	428.25
417.828	407.25
418.051	440.25
418.274	438.25
418.497	398.25
418.72	424.25
418.943	392.25
419.166	405.25
419.389	471.25
419.611	435.25
419.834	428.25
420.057	430.25
420.28	450.25
420.503	434.25
420.726	420.25
420.948	429.25
421.171	458.25
421.394	481.25
421.617	451.25
421.839	449.25
422.062	421.25
422.285	456.25
422.507	482.25
422.73	544.25
422.953	512.25
423.175	448.25
423.398	459.25
423.621	446.25
423.843	457.25
424.066	468.25
424.288	468.25
424.511	471.25
424.733	536.25
424.956	562.25
425.178	549.25
425.401	555.25
425.623	547.25
425.846	495.25
426.068	456.25
426.291	464.25
426.513	456.25
426.735	473.25
426.958	520.25
427.18	582.25
427.402	677.25
427.625	718.25
427.847	652.25
428.069	562.25
428.292	498.25
428.514	457.25
428.736	476.25
428.958	461.25
429.181	436.25
429.403	428.25
429.625	448.25
429.847	472.25
430.069	513.25
430.292	507.25
430.514	443.25
430.736	437.25
430.958	429.25
431.18	424.25
431.402	400.25
431.624	410.25
431.846	414.25
432.068	407.25
432.29	402.25
432.512	412.25
432.734	406.25
432.956	413.25
433.178	414.25
433.4	416.25
433.622	416.25
433.844	408.25
434.066	404.25
434.287	398.25
434.509	418.25
434.731	412.25
434.953	417.25
435.175	439.25
435.397	466.25
435.618	452.25
435.84	502.25
436.062	566.25
436.284	601.25
436.505	507.25
436.727	475.25
436.949	457.25
437.17	438.25
437.392	425.25
437.614	443.25
437.835	486.25
438.057	561.25
438.278	624.25
438.5	621.25
438.721	641.25
438.943	628.25
439.165	539.25
439.386	478.25
439.608	474.25
439.829	472.25
440.05	498.25
440.272	530.25
440.493	505.25
440.715	462.25
440.936	427.25
441.158	464.25
441.379	416.25
441.6	457.25
441.822	468.25
442.043	530.25
442.264	543.25
442.486	562.25
442.707	512.25
442.928	487.25
443.149	466.25
443.371	496.25
443.592	513.25
443.813	597.25
444.034	600.25
444.255	516.25
444.476	474.25
444.698	473.25
444.919	455.25
445.14	585.25
445.361	540.25
445.582	508.25
445.803	555.25
446.024	632.25
446.245	632.25
446.466	577.25
446.687	512.25
446.908	472.25
447.129	456.25
447.35	435.25
447.571	441.25
447.792	424.25
448.013	448.25
448.234	460.25
448.455	506.25
448.675	581.25
448.896	640.25
449.117	555.25
449.338	536.25
449.559	626.25
449.779	681.25
450	598.25
450.221	482.25
450.442	428.25
450.662	438.25
450.883	457.25
451.104	480.25
451.324	440.25
451.545	434.25
451.766	406.25
451.986	412.25
452.207	393.25
452.428	398.25
452.648	402.25
452.869	398.25
453.089	392.25
453.31	389.25
453.53	378.25
453.751	404.25
453.971	399.25
454.192	400.25
454.412	408.25
454.633	399.25
454.853	398.25
455.073	394.25
455.294	405.25
455.514	491.25
455.734	470.25
455.955	399.25
456.175	369.25
456.395	373.25
456.616	371.25
456.836	363.25
457.056	365.25
457.276	368.25
457.497	363.25
457.717	361.25
457.937	364.25
458.157	376.25
458.377	368.25
458.598	398.25
458.818	462.25
459.038	540.25
459.258	530.25
459.478	478.25
459.698	406.25
459.918	406.25
460.138	396.25
460.358	389.25
460.578	404.25
460.798	396.25
461.018	397.25
461.238	403.25
461.458	403.25
461.678	410.25
461.898	407.25
462.118	398.25
462.338	416.25
462.558	397.25
462.777	412.25
462.997	416.25
463.217	448.25
463.437	437.25
463.657	435.25
463.876	425.25
464.096	407.25
464.316	435.25
464.536	458.25
464.755	435.25
464.975	442.25
465.195	494.25
465.414	567.25
465.634	484.25
465.854	446.25
466.073	430.25
466.293	429.25
466.512	390.25
466.732	394.25
466.951	390.25
467.171	396.25
467.391	407.25
467.61	446.25
467.829	420.25
468.049	402.25
468.268	406.25
468.488	406.25
468.707	395.25
468.927	402.25
469.146	370.25
469.365	401.25
469.585	396.25
469.804	397.25
470.023	413.25
470.243	428.25
470.462	409.25
470.681	437.25
470.901	429.25
471.12	398.25
471.339	402.25
471.558	426.25
471.777	420.25
471.997	384.25
472.216	419.25
472.435	462.25
472.654	448.25
472.873	413.25
473.092	410.25
473.311	426.25
473.53	407.25
473.749	406.25
473.968	451.25
474.187	521.25
474.406	553.25
474.625	427.25
474.844	430.25
475.063	420.25
475.282	386.25
475.501	411.25
475.72	406.25
475.939	401.25
476.158	418.25
476.377	407.25
476.596	428.25
476.814	412.25
477.033	426.25
477.252	420.25
477.471	418.25
477.69	432.25
477.908	437.25
478.127	425.25
478.346	450.25
478.564	459.25
478.783	444.25
479.002	466.25
479.22	450.25
479.439	462.25
479.658	506.25
479.876	481.25
480.095	482.25
480.313	509.25
480.532	503.25
480.751	485.25
480.969	514.25
481.188	580.25
481.406	629.25
481.624	547.25
481.843	500.25
482.061	489.25
482.28	482.25
482.498	467.25
482.717	459.25
482.935	463.25
483.153	468.25
483.372	465.25
483.59	470.25
483.808	470.25
484.027	459.25
484.245	473.25
484.463	472.25
484.681	477.25
484.9	480.25
485.118	483.25
485.336	490.25
485.554	489.25
485.772	493.25
485.99	482.25
486.209	480.25
486.427	488.25
486.645	501.25
486.863	528.25
487.081	527.25
487.299	513.25
487.517	509.25
487.735	514.25
487.953	517.25
488.171	494.25
488.389	512.25
488.607	508.25
488.825	506.25
489.043	513.25
489.261	527.25
489.479	513.25
489.696	524.25
489.914	508.25
490.132	530.25
490.35	536.25
490.568	544.25
490.786	538.25
491.003	563.25
491.221	556.25
491.439	570.25
491.657	548.25
491.874	571.25
492.092	597.25
492.31	606.25
492.527	599.25
492.745	606.25
492.963	577.25
493.18	584.25
493.398	593.25
493.615	599.25
493.833	592.25
494.05	596.25
494.268	602.25
494.485	620.25
494.703	617.25
494.92	604.25
495.138	599.25
495.355	602.25
495.573	600.25
495.79	607.25
496.008	587.25
496.225	624.25
496.442	613.25
496.66	604.25
496.877	594.25
497.094	589.25
497.312	605.25
497.529	617.25
497.746	613.25
497.963	608.25
498.181	634.25
498.398	658.25
498.615	643.25
498.832	650.25
499.049	650.25
499.267	657.25
499.484	692.25
499.701	698.25
499.918	734.25
500.135	736.25
500.352	757.25
500.569	769.25
500.786	771.25
501.003	779.25
501.22	744.25
501.437	728.25
501.654	729.25
501.871	754.25
502.088	717.25
