Data from 1983.PennyLincolnUp.Lamp.En5.5.200Scan.071819.P1_HRD10591_16-53-45-966.txt Node
Date: Thu Jul 18 16:53:45 EDT 2019
User: cochatt
Spectrometer: HR+D1059
Trigger mode: 1
Integration Time (sec): 1.000000E-1
Scans to average: 1
Electric dark correction enabled: true
Nonlinearity correction enabled: false
Boxcar width: 0
XAxis mode: Wavelengths
Number of Pixels in Spectrum: 2048
>>>>>Begin Spectral Data<<<<<
223.165	-23.25
223.4	-23.25
223.635	-23.25
223.869	-21.25
224.104	-19.25
224.338	-23.25
224.573	-3.25
224.808	-20.25
225.042	-3.25
225.277	-3.25
225.511	16.75
225.746	16.75
225.98	7.75
226.215	-6.25
226.449	13.75
226.683	19.75
226.918	19.75
227.152	28.75
227.387	33.75
227.621	24.75
227.856	39.75
228.09	49.75
228.324	54.75
228.559	67.75
228.793	70.75
229.027	91.75
229.262	106.75
229.496	102.75
229.73	129.75
229.964	146.75
230.199	130.75
230.433	115.75
230.667	115.75
230.901	86.75
231.136	108.75
231.37	110.75
231.604	103.75
231.838	105.75
232.072	101.75
232.306	107.75
232.541	93.75
232.775	113.75
233.009	103.75
233.243	104.75
233.477	115.75
233.711	112.75
233.945	101.75
234.179	112.75
234.413	112.75
234.647	118.75
234.881	105.75
235.115	110.75
235.349	123.75
235.583	118.75
235.817	97.75
236.051	108.75
236.285	110.75
236.519	119.75
236.753	132.75
236.987	126.75
237.221	169.75
237.455	203.75
237.689	154.75
237.922	144.75
238.156	127.75
238.39	122.75
238.624	128.75
238.858	114.75
239.091	120.75
239.325	105.75
239.559	121.75
239.793	125.75
240.027	130.75
240.26	137.75
240.494	131.75
240.728	133.75
240.961	141.75
241.195	135.75
241.429	139.75
241.662	137.75
241.896	103.75
242.13	116.75
242.363	125.75
242.597	121.75
242.83	126.75
243.064	120.75
243.298	122.75
243.531	105.75
243.765	120.75
243.998	118.75
244.232	120.75
244.465	137.75
244.699	130.75
244.932	127.75
245.166	132.75
245.399	142.75
245.633	137.75
245.866	141.75
246.099	122.75
246.333	136.75
246.566	151.75
246.8	140.75
247.033	150.75
247.266	160.75
247.5	141.75
247.733	151.75
247.966	149.75
248.2	143.75
248.433	149.75
248.666	160.75
248.899	172.75
249.133	181.75
249.366	187.75
249.599	153.75
249.832	166.75
250.066	150.75
250.299	167.75
250.532	170.75
250.765	196.75
250.998	203.75
251.231	203.75
251.465	182.75
251.698	182.75
251.931	187.75
252.164	177.75
252.397	187.75
252.63	175.75
252.863	182.75
253.096	208.75
253.329	212.75
253.562	198.75
253.795	199.75
254.028	202.75
254.261	207.75
254.494	226.75
254.727	230.75
254.96	240.75
255.193	242.75
255.426	226.75
255.659	203.75
255.892	214.75
256.124	194.75
256.357	192.75
256.59	188.75
256.823	192.75
257.056	193.75
257.289	186.75
257.521	208.75
257.754	183.75
257.987	170.75
258.22	191.75
258.452	192.75
258.685	198.75
258.918	198.75
259.151	194.75
259.383	203.75
259.616	208.75
259.849	204.75
260.081	204.75
260.314	220.75
260.547	225.75
260.779	223.75
261.012	196.75
261.244	203.75
261.477	235.75
261.71	196.75
261.942	195.75
262.175	216.75
262.407	198.75
262.64	197.75
262.872	197.75
263.105	190.75
263.337	205.75
263.57	188.75
263.802	190.75
264.035	186.75
264.267	193.75
264.499	185.75
264.732	181.75
264.964	200.75
265.197	193.75
265.429	203.75
265.661	210.75
265.894	183.75
266.126	192.75
266.358	191.75
266.591	197.75
266.823	213.75
267.055	196.75
267.287	201.75
267.52	230.75
267.752	201.75
267.984	196.75
268.216	209.75
268.448	215.75
268.681	202.75
268.913	234.75
269.145	231.75
269.377	258.75
269.609	231.75
269.841	235.75
270.073	233.75
270.306	274.75
270.538	282.75
270.77	279.75
271.002	272.75
271.234	251.75
271.466	277.75
271.698	279.75
271.93	278.75
272.162	305.75
272.394	299.75
272.626	259.75
272.858	262.75
273.09	254.75
273.322	248.75
273.553	243.75
273.785	233.75
274.017	238.75
274.249	240.75
274.481	248.75
274.713	243.75
274.945	238.75
275.176	232.75
275.408	243.75
275.64	242.75
275.872	235.75
276.104	228.75
276.335	250.75
276.567	260.75
276.799	256.75
277.031	274.75
277.262	284.75
277.494	275.75
277.726	273.75
277.957	241.75
278.189	261.75
278.421	234.75
278.652	238.75
278.884	230.75
279.115	216.75
279.347	241.75
279.579	240.75
279.81	250.75
280.042	250.75
280.273	259.75
280.505	244.75
280.736	228.75
280.968	218.75
281.199	242.75
281.431	240.75
281.662	226.75
281.894	256.75
282.125	241.75
282.356	258.75
282.588	254.75
282.819	279.75
283.051	247.75
283.282	240.75
283.513	244.75
283.745	243.75
283.976	258.75
284.207	220.75
284.439	229.75
284.67	248.75
284.901	252.75
285.132	242.75
285.364	229.75
285.595	236.75
285.826	242.75
286.057	248.75
286.288	243.75
286.52	237.75
286.751	255.75
286.982	260.75
287.213	248.75
287.444	260.75
287.675	254.75
287.906	265.75
288.138	276.75
288.369	276.75
288.6	266.75
288.831	247.75
289.062	250.75
289.293	242.75
289.524	268.75
289.755	258.75
289.986	242.75
290.217	262.75
290.448	253.75
290.679	254.75
290.91	263.75
291.141	276.75
291.371	239.75
291.602	272.75
291.833	261.75
292.064	255.75
292.295	252.75
292.526	253.75
292.757	253.75
292.987	259.75
293.218	249.75
293.449	262.75
293.68	260.75
293.91	247.75
294.141	245.75
294.372	260.75
294.603	274.75
294.833	266.75
295.064	271.75
295.295	266.75
295.525	270.75
295.756	267.75
295.987	283.75
296.217	307.75
296.448	315.75
296.679	264.75
296.909	267.75
297.14	257.75
297.37	268.75
297.601	268.75
297.831	278.75
298.062	270.75
298.292	265.75
298.523	282.75
298.753	270.75
298.984	251.75
299.214	268.75
299.445	279.75
299.675	281.75
299.905	279.75
300.136	266.75
300.366	282.75
300.597	266.75
300.827	276.75
301.057	280.75
301.288	283.75
301.518	268.75
301.748	275.75
301.979	313.75
302.209	285.75
302.439	295.75
302.669	296.75
302.9	283.75
303.13	278.75
303.36	315.75
303.59	298.75
303.82	308.75
304.051	301.75
304.281	286.75
304.511	287.75
304.741	293.75
304.971	276.75
305.201	283.75
305.431	288.75
305.661	293.75
305.891	268.75
306.121	285.75
306.352	286.75
306.582	302.75
306.812	297.75
307.042	304.75
307.272	295.75
307.502	291.75
307.731	295.75
307.961	289.75
308.191	294.75
308.421	300.75
308.651	298.75
308.881	306.75
309.111	304.75
309.341	322.75
309.571	323.75
309.8	331.75
310.03	311.75
310.26	333.75
310.49	318.75
310.72	340.75
310.949	351.75
311.179	361.75
311.409	336.75
311.639	328.75
311.868	337.75
312.098	352.75
312.328	334.75
312.557	367.75
312.787	372.75
313.017	371.75
313.246	349.75
313.476	336.75
313.706	324.75
313.935	329.75
314.165	352.75
314.394	351.75
314.624	356.75
314.853	362.75
315.083	351.75
315.312	346.75
315.542	322.75
315.771	342.75
316.001	335.75
316.23	340.75
316.46	322.75
316.689	358.75
316.919	346.75
317.148	338.75
317.377	348.75
317.607	322.75
317.836	346.75
318.065	339.75
318.295	340.75
318.524	323.75
318.753	328.75
318.983	322.75
319.212	313.75
319.441	341.75
319.67	348.75
319.9	334.75
320.129	362.75
320.358	335.75
320.587	340.75
320.816	344.75
321.046	364.75
321.275	354.75
321.504	350.75
321.733	358.75
321.962	380.75
322.191	384.75
322.42	373.75
322.649	388.75
322.878	407.75
323.108	427.75
323.337	442.75
323.566	445.75
323.795	474.75
324.024	539.75
324.253	695.75
324.482	983.75
324.71	1453.75
324.939	1928.75
325.168	1599.75
325.397	859.75
325.626	601.75
325.855	471.75
326.084	463.75
326.313	450.75
326.542	469.75
326.77	480.75
326.999	616.75
327.228	840.75
327.457	1214.75
327.686	1430.75
327.914	952.75
328.143	667.75
328.372	572.75
328.6	531.75
328.829	506.75
329.058	517.75
329.287	541.75
329.515	489.75
329.744	455.75
329.972	464.75
330.201	454.75
330.43	485.75
330.658	516.75
330.887	556.75
331.115	536.75
331.344	451.75
331.572	438.75
331.801	439.75
332.03	436.75
332.258	401.75
332.486	396.75
332.715	396.75
332.943	395.75
333.172	406.75
333.4	398.75
333.629	402.75
333.857	408.75
334.085	419.75
334.314	415.75
334.542	399.75
334.771	432.75
334.999	412.75
335.227	402.75
335.455	382.75
335.684	383.75
335.912	392.75
336.14	386.75
336.369	404.75
336.597	397.75
336.825	402.75
337.053	386.75
337.281	387.75
337.51	387.75
337.738	372.75
337.966	374.75
338.194	392.75
338.422	397.75
338.65	382.75
338.878	390.75
339.106	374.75
339.334	354.75
339.562	390.75
339.79	372.75
340.018	394.75
340.246	380.75
340.474	390.75
340.702	364.75
340.93	369.75
341.158	360.75
341.386	374.75
341.614	372.75
341.842	383.75
342.07	359.75
342.298	369.75
342.526	354.75
342.754	361.75
342.981	373.75
343.209	372.75
343.437	379.75
343.665	374.75
343.893	371.75
344.12	376.75
344.348	380.75
344.576	368.75
344.804	385.75
345.031	384.75
345.259	394.75
345.487	397.75
345.714	391.75
345.942	383.75
346.17	368.75
346.397	368.75
346.625	379.75
346.853	371.75
347.08	358.75
347.308	369.75
347.535	379.75
347.763	386.75
347.99	386.75
348.218	400.75
348.445	383.75
348.673	386.75
348.9	368.75
349.128	360.75
349.355	380.75
349.583	348.75
349.81	357.75
350.037	370.75
350.265	331.75
350.492	356.75
350.72	361.75
350.947	383.75
351.174	366.75
351.402	387.75
351.629	376.75
351.856	375.75
352.083	378.75
352.311	381.75
352.538	380.75
352.765	404.75
352.992	372.75
353.22	387.75
353.447	367.75
353.674	341.75
353.901	358.75
354.128	355.75
354.355	336.75
354.583	348.75
354.81	348.75
355.037	358.75
355.264	349.75
355.491	325.75
355.718	341.75
355.945	341.75
356.172	328.75
356.399	339.75
356.626	335.75
356.853	341.75
357.08	315.75
357.307	337.75
357.534	331.75
357.761	331.75
357.988	339.75
358.215	346.75
358.441	336.75
358.668	345.75
358.895	347.75
359.122	371.75
359.349	347.75
359.576	345.75
359.802	384.75
360.029	416.75
360.256	413.75
360.483	400.75
360.709	374.75
360.936	363.75
361.163	350.75
361.39	386.75
361.616	372.75
361.843	360.75
362.07	363.75
362.296	377.75
362.523	362.75
362.749	366.75
362.976	339.75
363.203	360.75
363.429	372.75
363.656	362.75
363.882	340.75
364.109	350.75
364.335	364.75
364.562	331.75
364.788	354.75
365.015	351.75
365.241	355.75
365.468	347.75
365.694	375.75
365.92	361.75
366.147	363.75
366.373	343.75
366.599	349.75
366.826	361.75
367.052	331.75
367.278	339.75
367.505	327.75
367.731	346.75
367.957	329.75
368.184	341.75
368.41	344.75
368.636	356.75
368.862	366.75
369.089	338.75
369.315	336.75
369.541	338.75
369.767	327.75
369.993	337.75
370.219	341.75
370.445	354.75
370.672	334.75
370.898	322.75
371.124	341.75
371.35	322.75
371.576	355.75
371.802	318.75
372.028	321.75
372.254	329.75
372.48	328.75
372.706	345.75
372.932	334.75
373.158	326.75
373.384	343.75
373.61	346.75
373.835	335.75
374.061	336.75
374.287	359.75
374.513	343.75
374.739	360.75
374.965	351.75
375.191	332.75
375.416	342.75
375.642	344.75
375.868	352.75
376.094	340.75
376.319	335.75
376.545	339.75
376.771	330.75
376.997	337.75
377.222	346.75
377.448	339.75
377.674	356.75
377.899	337.75
378.125	347.75
378.35	334.75
378.576	320.75
378.802	332.75
379.027	332.75
379.253	345.75
379.478	330.75
379.704	349.75
379.929	357.75
380.155	330.75
380.38	345.75
380.606	331.75
380.831	328.75
381.057	341.75
381.282	345.75
381.507	354.75
381.733	351.75
381.958	327.75
382.184	335.75
382.409	336.75
382.634	342.75
382.86	350.75
383.085	339.75
383.31	342.75
383.535	357.75
383.761	351.75
383.986	350.75
384.211	362.75
384.436	376.75
384.662	369.75
384.887	352.75
385.112	357.75
385.337	344.75
385.562	352.75
385.787	366.75
386.013	384.75
386.238	368.75
386.463	362.75
386.688	366.75
386.913	375.75
387.138	375.75
387.363	370.75
387.588	366.75
387.813	349.75
388.038	349.75
388.263	348.75
388.488	366.75
388.713	358.75
388.938	375.75
389.163	390.75
389.387	339.75
389.612	352.75
389.837	360.75
390.062	361.75
390.287	380.75
390.512	346.75
390.736	364.75
390.961	360.75
391.186	348.75
391.411	340.75
391.636	362.75
391.86	375.75
392.085	376.75
392.31	371.75
392.534	382.75
392.759	368.75
392.984	349.75
393.208	363.75
393.433	366.75
393.658	356.75
393.882	360.75
394.107	380.75
394.331	380.75
394.556	361.75
394.78	350.75
395.005	373.75
395.229	384.75
395.454	371.75
395.678	371.75
395.903	378.75
396.127	396.75
396.352	399.75
396.576	400.75
396.801	395.75
397.025	388.75
397.249	371.75
397.474	386.75
397.698	398.75
397.922	419.75
398.147	430.75
398.371	396.75
398.595	404.75
398.82	403.75
399.044	433.75
399.268	412.75
399.492	450.75
399.717	466.75
399.941	485.75
400.165	489.75
400.389	497.75
400.613	460.75
400.837	439.75
401.062	413.75
401.286	415.75
401.51	398.75
401.734	404.75
401.958	399.75
402.182	426.75
402.406	421.75
402.63	437.75
402.854	421.75
403.078	419.75
403.302	420.75
403.526	432.75
403.75	432.75
403.974	428.75
404.198	425.75
404.422	444.75
404.645	429.75
404.869	442.75
405.093	455.75
405.317	470.75
405.541	460.75
405.765	466.75
405.988	448.75
406.212	466.75
406.436	469.75
406.66	498.75
406.883	475.75
407.107	492.75
407.331	489.75
407.555	548.75
407.778	544.75
408.002	514.75
408.226	479.75
408.449	481.75
408.673	466.75
408.896	471.75
409.12	495.75
409.344	491.75
409.567	471.75
409.791	442.75
410.014	431.75
410.238	425.75
410.461	440.75
410.685	434.75
410.908	464.75
411.132	481.75
411.355	480.75
411.578	456.75
411.802	427.75
412.025	415.75
412.249	404.75
412.472	415.75
412.695	437.75
412.919	449.75
413.142	438.75
413.365	404.75
413.589	406.75
413.812	403.75
414.035	415.75
414.258	395.75
414.482	396.75
414.705	400.75
414.928	389.75
415.151	399.75
415.374	402.75
415.597	414.75
415.821	408.75
416.044	400.75
416.267	403.75
416.49	402.75
416.713	404.75
416.936	395.75
417.159	409.75
417.382	402.75
417.605	402.75
417.828	412.75
418.051	439.75
418.274	416.75
418.497	388.75
418.72	412.75
418.943	416.75
419.166	422.75
419.389	410.75
419.611	409.75
419.834	423.75
420.057	416.75
420.28	404.75
420.503	417.75
420.726	419.75
420.948	442.75
421.171	467.75
421.394	469.75
421.617	415.75
421.839	432.75
422.062	433.75
422.285	432.75
422.507	476.75
422.73	532.75
422.953	518.75
423.175	451.75
423.398	442.75
423.621	454.75
423.843	458.75
424.066	433.75
424.288	453.75
424.511	461.75
424.733	525.75
424.956	553.75
425.178	565.75
425.401	560.75
425.623	570.75
425.846	491.75
426.068	451.75
426.291	450.75
426.513	439.75
426.735	453.75
426.958	482.75
427.18	542.75
427.402	652.75
427.625	717.75
427.847	640.75
428.069	542.75
428.292	497.75
428.514	459.75
428.736	435.75
428.958	451.75
429.181	418.75
429.403	420.75
429.625	423.75
429.847	451.75
430.069	514.75
430.292	517.75
430.514	444.75
430.736	416.75
430.958	421.75
431.18	405.75
431.402	405.75
431.624	394.75
431.846	379.75
432.068	381.75
432.29	384.75
432.512	403.75
432.734	395.75
432.956	396.75
433.178	405.75
433.4	410.75
433.622	393.75
433.844	393.75
434.066	403.75
434.287	387.75
434.509	406.75
434.731	409.75
434.953	398.75
435.175	416.75
435.397	456.75
435.618	458.75
435.84	490.75
436.062	550.75
436.284	607.75
436.505	515.75
436.727	452.75
436.949	426.75
437.17	428.75
437.392	425.75
437.614	426.75
437.835	480.75
438.057	537.75
438.278	628.75
438.5	605.75
438.721	668.75
438.943	624.75
439.165	535.75
439.386	464.75
439.608	482.75
439.829	477.75
440.05	517.75
440.272	530.75
440.493	451.75
440.715	458.75
440.936	448.75
441.158	450.75
441.379	436.75
441.6	443.75
441.822	448.75
442.043	488.75
442.264	542.75
442.486	599.75
442.707	500.75
442.928	468.75
443.149	469.75
443.371	506.75
443.592	504.75
443.813	582.75
444.034	633.75
444.255	540.75
444.476	506.75
444.698	459.75
444.919	464.75
445.14	558.75
445.361	519.75
445.582	482.75
445.803	525.75
446.024	616.75
446.245	638.75
446.466	591.75
446.687	492.75
446.908	454.75
447.129	435.75
447.35	416.75
447.571	426.75
447.792	423.75
448.013	421.75
448.234	436.75
448.455	498.75
448.675	571.75
448.896	666.75
449.117	558.75
449.338	541.75
449.559	611.75
449.779	669.75
450	570.75
450.221	480.75
450.442	434.75
450.662	412.75
450.883	440.75
451.104	451.75
451.324	424.75
451.545	396.75
451.766	395.75
451.986	380.75
452.207	368.75
452.428	395.75
452.648	397.75
452.869	405.75
453.089	388.75
453.31	411.75
453.53	395.75
453.751	376.75
453.971	389.75
454.192	419.75
454.412	396.75
454.633	382.75
454.853	373.75
455.073	381.75
455.294	398.75
455.514	441.75
455.734	443.75
455.955	376.75
456.175	362.75
456.395	348.75
456.616	352.75
456.836	371.75
457.056	363.75
457.276	348.75
457.497	358.75
457.717	371.75
457.937	370.75
458.157	375.75
458.377	379.75
458.598	389.75
458.818	443.75
459.038	512.75
459.258	510.75
459.478	425.75
459.698	389.75
459.918	396.75
460.138	413.75
460.358	396.75
460.578	398.75
460.798	390.75
461.018	403.75
461.238	404.75
461.458	400.75
461.678	388.75
461.898	385.75
462.118	396.75
462.338	410.75
462.558	406.75
462.777	420.75
462.997	431.75
463.217	426.75
463.437	434.75
463.657	419.75
463.876	404.75
464.096	443.75
464.316	433.75
464.536	444.75
464.755	445.75
464.975	418.75
465.195	494.75
465.414	557.75
465.634	473.75
465.854	434.75
466.073	431.75
466.293	411.75
466.512	382.75
466.732	376.75
466.951	390.75
467.171	387.75
467.391	380.75
467.61	400.75
467.829	408.75
468.049	406.75
468.268	384.75
468.488	400.75
468.707	378.75
468.927	369.75
469.146	378.75
469.365	377.75
469.585	364.75
469.804	372.75
470.023	402.75
470.243	398.75
470.462	408.75
470.681	415.75
470.901	420.75
471.12	410.75
471.339	390.75
471.558	393.75
471.777	394.75
471.997	378.75
472.216	390.75
472.435	396.75
472.654	385.75
472.873	387.75
473.092	378.75
473.311	390.75
473.53	387.75
473.749	410.75
473.968	417.75
474.187	508.75
474.406	506.75
474.625	437.75
474.844	413.75
475.063	384.75
475.282	401.75
475.501	407.75
475.72	419.75
475.939	416.75
476.158	407.75
476.377	411.75
476.596	393.75
476.814	408.75
477.033	425.75
477.252	424.75
477.471	414.75
477.69	418.75
477.908	416.75
478.127	416.75
478.346	421.75
478.564	429.75
478.783	431.75
479.002	444.75
479.22	451.75
479.439	445.75
479.658	476.75
479.876	454.75
480.095	481.75
480.313	497.75
480.532	501.75
480.751	460.75
480.969	487.75
481.188	496.75
481.406	518.75
481.624	463.75
481.843	483.75
482.061	446.75
482.28	460.75
482.498	435.75
482.717	447.75
482.935	466.75
483.153	456.75
483.372	453.75
483.59	444.75
483.808	455.75
484.027	455.75
484.245	446.75
484.463	461.75
484.681	477.75
484.9	471.75
485.118	474.75
485.336	479.75
485.554	472.75
485.772	487.75
485.99	460.75
486.209	474.75
486.427	464.75
486.645	474.75
486.863	481.75
487.081	510.75
487.299	467.75
487.517	497.75
487.735	487.75
487.953	491.75
488.171	474.75
488.389	492.75
488.607	482.75
488.825	494.75
489.043	506.75
489.261	524.75
489.479	495.75
489.696	468.75
489.914	502.75
490.132	497.75
490.35	524.75
490.568	532.75
490.786	517.75
491.003	549.75
491.221	546.75
491.439	568.75
491.657	562.75
491.874	563.75
492.092	563.75
492.31	544.75
492.527	558.75
492.745	568.75
492.963	580.75
493.18	578.75
493.398	568.75
493.615	560.75
493.833	569.75
494.05	585.75
494.268	609.75
494.485	580.75
494.703	562.75
494.92	579.75
495.138	583.75
495.355	582.75
495.573	572.75
495.79	590.75
496.008	586.75
496.225	600.75
496.442	587.75
496.66	558.75
496.877	578.75
497.094	594.75
497.312	604.75
497.529	612.75
497.746	606.75
497.963	623.75
498.181	634.75
498.398	622.75
498.615	624.75
498.832	664.75
499.049	647.75
499.267	664.75
499.484	680.75
499.701	687.75
499.918	715.75
500.135	726.75
500.352	771.75
500.569	782.75
500.786	782.75
501.003	779.75
501.22	751.75
501.437	761.75
501.654	726.75
501.871	723.75
502.088	713.75
