Data from 1983.PennyLincolnUp.Lamp.En5.5.200Scan.071819.P1_HRD10591_16-52-23-964.txt Node
Date: Thu Jul 18 16:52:23 EDT 2019
User: cochatt
Spectrometer: HR+D1059
Trigger mode: 1
Integration Time (sec): 1.000000E-1
Scans to average: 1
Electric dark correction enabled: true
Nonlinearity correction enabled: false
Boxcar width: 0
XAxis mode: Wavelengths
Number of Pixels in Spectrum: 2048
>>>>>Begin Spectral Data<<<<<
223.165	-13.06
223.4	-13.06
223.635	-13.06
223.869	-18.06
224.104	-14.06
224.338	-11.06
224.573	-7.06
224.808	-5.06
225.042	-4.06
225.277	-1.06
225.511	-7.06
225.746	-4.06
225.98	1.94
226.215	3.94
226.449	16.94
226.683	12.94
226.918	17.94
227.152	30.94
227.387	30.94
227.621	39.94
227.856	46.94
228.09	43.94
228.324	39.94
228.559	42.94
228.793	52.94
229.027	68.94
229.262	97.94
229.496	91.94
229.73	110.94
229.964	121.94
230.199	113.94
230.433	105.94
230.667	104.94
230.901	95.94
231.136	114.94
231.37	89.94
231.604	102.94
231.838	93.94
232.072	119.94
232.306	96.94
232.541	98.94
232.775	101.94
233.009	106.94
233.243	105.94
233.477	100.94
233.711	115.94
233.945	91.94
234.179	105.94
234.413	116.94
234.647	117.94
234.881	113.94
235.115	111.94
235.349	102.94
235.583	104.94
235.817	108.94
236.051	111.94
236.285	99.94
236.519	106.94
236.753	139.94
236.987	129.94
237.221	154.94
237.455	188.94
237.689	146.94
237.922	123.94
238.156	131.94
238.39	124.94
238.624	113.94
238.858	95.94
239.091	105.94
239.325	94.94
239.559	116.94
239.793	116.94
240.027	131.94
240.26	124.94
240.494	132.94
240.728	120.94
240.961	119.94
241.195	127.94
241.429	122.94
241.662	122.94
241.896	130.94
242.13	106.94
242.363	117.94
242.597	117.94
242.83	128.94
243.064	114.94
243.298	124.94
243.531	132.94
243.765	130.94
243.998	135.94
244.232	122.94
244.465	128.94
244.699	115.94
244.932	129.94
245.166	112.94
245.399	126.94
245.633	119.94
245.866	119.94
246.099	139.94
246.333	126.94
246.566	131.94
246.8	149.94
247.033	117.94
247.266	131.94
247.5	131.94
247.733	142.94
247.966	135.94
248.2	129.94
248.433	151.94
248.666	138.94
248.899	157.94
249.133	161.94
249.366	167.94
249.599	172.94
249.832	150.94
250.066	145.94
250.299	160.94
250.532	168.94
250.765	158.94
250.998	179.94
251.231	195.94
251.465	159.94
251.698	159.94
251.931	154.94
252.164	173.94
252.397	157.94
252.63	171.94
252.863	170.94
253.096	180.94
253.329	177.94
253.562	161.94
253.795	174.94
254.028	172.94
254.261	177.94
254.494	187.94
254.727	197.94
254.96	236.94
255.193	211.94
255.426	206.94
255.659	187.94
255.892	188.94
256.124	193.94
256.357	165.94
256.59	187.94
256.823	167.94
257.056	180.94
257.289	171.94
257.521	173.94
257.754	181.94
257.987	182.94
258.22	183.94
258.452	169.94
258.685	185.94
258.918	164.94
259.151	183.94
259.383	197.94
259.616	182.94
259.849	190.94
260.081	174.94
260.314	213.94
260.547	223.94
260.779	198.94
261.012	195.94
261.244	195.94
261.477	194.94
261.71	191.94
261.942	194.94
262.175	190.94
262.407	178.94
262.64	167.94
262.872	189.94
263.105	161.94
263.337	181.94
263.57	177.94
263.802	187.94
264.035	171.94
264.267	189.94
264.499	173.94
264.732	196.94
264.964	175.94
265.197	185.94
265.429	174.94
265.661	181.94
265.894	179.94
266.126	185.94
266.358	202.94
266.591	187.94
266.823	194.94
267.055	180.94
267.287	188.94
267.52	182.94
267.752	184.94
267.984	190.94
268.216	190.94
268.448	198.94
268.681	182.94
268.913	189.94
269.145	211.94
269.377	220.94
269.609	214.94
269.841	221.94
270.073	214.94
270.306	227.94
270.538	234.94
270.77	243.94
271.002	234.94
271.234	237.94
271.466	253.94
271.698	242.94
271.93	249.94
272.162	230.94
272.394	251.94
272.626	253.94
272.858	246.94
273.09	212.94
273.322	230.94
273.553	214.94
273.785	208.94
274.017	206.94
274.249	215.94
274.481	234.94
274.713	215.94
274.945	207.94
275.176	202.94
275.408	205.94
275.64	219.94
275.872	221.94
276.104	228.94
276.335	201.94
276.567	228.94
276.799	231.94
277.031	239.94
277.262	250.94
277.494	236.94
277.726	230.94
277.957	233.94
278.189	231.94
278.421	218.94
278.652	229.94
278.884	223.94
279.115	223.94
279.347	217.94
279.579	214.94
279.81	215.94
280.042	205.94
280.273	223.94
280.505	217.94
280.736	218.94
280.968	196.94
281.199	203.94
281.431	222.94
281.662	215.94
281.894	221.94
282.125	216.94
282.356	257.94
282.588	245.94
282.819	237.94
283.051	236.94
283.282	224.94
283.513	242.94
283.745	223.94
283.976	219.94
284.207	217.94
284.439	212.94
284.67	234.94
284.901	232.94
285.132	216.94
285.364	230.94
285.595	229.94
285.826	233.94
286.057	229.94
286.288	243.94
286.52	227.94
286.751	246.94
286.982	226.94
287.213	237.94
287.444	238.94
287.675	227.94
287.906	248.94
288.138	232.94
288.369	248.94
288.6	235.94
288.831	241.94
289.062	236.94
289.293	258.94
289.524	242.94
289.755	236.94
289.986	243.94
290.217	250.94
290.448	234.94
290.679	223.94
290.91	230.94
291.141	229.94
291.371	247.94
291.602	238.94
291.833	236.94
292.064	227.94
292.295	230.94
292.526	242.94
292.757	232.94
292.987	243.94
293.218	253.94
293.449	237.94
293.68	223.94
293.91	244.94
294.141	227.94
294.372	238.94
294.603	235.94
294.833	229.94
295.064	231.94
295.295	251.94
295.525	230.94
295.756	233.94
295.987	228.94
296.217	277.94
296.448	270.94
296.679	241.94
296.909	238.94
297.14	248.94
297.37	235.94
297.601	232.94
297.831	225.94
298.062	245.94
298.292	239.94
298.523	234.94
298.753	246.94
298.984	259.94
299.214	248.94
299.445	236.94
299.675	255.94
299.905	246.94
300.136	247.94
300.366	242.94
300.597	237.94
300.827	269.94
301.057	280.94
301.288	239.94
301.518	235.94
301.748	266.94
301.979	269.94
302.209	273.94
302.439	255.94
302.669	266.94
302.9	272.94
303.13	251.94
303.36	263.94
303.59	265.94
303.82	276.94
304.051	261.94
304.281	268.94
304.511	269.94
304.741	262.94
304.971	257.94
305.201	258.94
305.431	263.94
305.661	273.94
305.891	278.94
306.121	265.94
306.352	261.94
306.582	269.94
306.812	269.94
307.042	254.94
307.272	256.94
307.502	272.94
307.731	291.94
307.961	273.94
308.191	277.94
308.421	276.94
308.651	269.94
308.881	267.94
309.111	286.94
309.341	278.94
309.571	275.94
309.8	280.94
310.03	281.94
310.26	284.94
310.49	299.94
310.72	296.94
310.949	313.94
311.179	324.94
311.409	298.94
311.639	309.94
311.868	293.94
312.098	296.94
312.328	301.94
312.557	317.94
312.787	323.94
313.017	324.94
313.246	312.94
313.476	306.94
313.706	301.94
313.935	312.94
314.165	306.94
314.394	328.94
314.624	318.94
314.853	302.94
315.083	296.94
315.312	291.94
315.542	295.94
315.771	302.94
316.001	291.94
316.23	317.94
316.46	300.94
316.689	313.94
316.919	294.94
317.148	307.94
317.377	295.94
317.607	321.94
317.836	310.94
318.065	302.94
318.295	300.94
318.524	288.94
318.753	289.94
318.983	301.94
319.212	307.94
319.441	297.94
319.67	319.94
319.9	325.94
320.129	306.94
320.358	319.94
320.587	298.94
320.816	325.94
321.046	309.94
321.275	324.94
321.504	334.94
321.733	333.94
321.962	339.94
322.191	300.94
322.42	335.94
322.649	341.94
322.878	354.94
323.108	359.94
323.337	371.94
323.566	389.94
323.795	403.94
324.024	430.94
324.253	525.94
324.482	738.94
324.71	1034.94
324.939	1463.94
325.168	1244.94
325.397	673.94
325.626	468.94
325.855	405.94
326.084	389.94
326.313	388.94
326.542	380.94
326.77	411.94
326.999	477.94
327.228	642.94
327.457	944.94
327.686	1053.94
327.914	739.94
328.143	499.94
328.372	444.94
328.6	418.94
328.829	421.94
329.058	438.94
329.287	452.94
329.515	410.94
329.744	388.94
329.972	381.94
330.201	395.94
330.43	397.94
330.658	418.94
330.887	454.94
331.115	433.94
331.344	383.94
331.572	377.94
331.801	359.94
332.03	393.94
332.258	379.94
332.486	352.94
332.715	355.94
332.943	331.94
333.172	346.94
333.4	343.94
333.629	363.94
333.857	356.94
334.085	358.94
334.314	360.94
334.542	362.94
334.771	373.94
334.999	361.94
335.227	373.94
335.455	357.94
335.684	345.94
335.912	348.94
336.14	334.94
336.369	343.94
336.597	371.94
336.825	355.94
337.053	327.94
337.281	332.94
337.51	339.94
337.738	353.94
337.966	344.94
338.194	333.94
338.422	344.94
338.65	336.94
338.878	358.94
339.106	348.94
339.334	345.94
339.562	340.94
339.79	324.94
340.018	341.94
340.246	339.94
340.474	347.94
340.702	339.94
340.93	343.94
341.158	329.94
341.386	366.94
341.614	350.94
341.842	331.94
342.07	348.94
342.298	331.94
342.526	339.94
342.754	326.94
342.981	313.94
343.209	317.94
343.437	329.94
343.665	327.94
343.893	331.94
344.12	353.94
344.348	364.94
344.576	349.94
344.804	355.94
345.031	364.94
345.259	359.94
345.487	349.94
345.714	340.94
345.942	335.94
346.17	294.94
346.397	334.94
346.625	316.94
346.853	343.94
347.08	321.94
347.308	317.94
347.535	339.94
347.763	349.94
347.99	346.94
348.218	341.94
348.445	335.94
348.673	342.94
348.9	353.94
349.128	324.94
349.355	334.94
349.583	324.94
349.81	328.94
350.037	312.94
350.265	313.94
350.492	343.94
350.72	328.94
350.947	313.94
351.174	328.94
351.402	316.94
351.629	319.94
351.856	346.94
352.083	324.94
352.311	331.94
352.538	343.94
352.765	350.94
352.992	324.94
353.22	331.94
353.447	340.94
353.674	335.94
353.901	326.94
354.128	316.94
354.355	313.94
354.583	312.94
354.81	321.94
355.037	317.94
355.264	314.94
355.491	308.94
355.718	319.94
355.945	314.94
356.172	295.94
356.399	305.94
356.626	289.94
356.853	314.94
357.08	299.94
357.307	301.94
357.534	305.94
357.761	316.94
357.988	311.94
358.215	297.94
358.441	308.94
358.668	307.94
358.895	311.94
359.122	311.94
359.349	323.94
359.576	342.94
359.802	349.94
360.029	346.94
360.256	358.94
360.483	361.94
360.709	327.94
360.936	338.94
361.163	321.94
361.39	323.94
361.616	336.94
361.843	322.94
362.07	348.94
362.296	318.94
362.523	322.94
362.749	326.94
362.976	334.94
363.203	331.94
363.429	313.94
363.656	315.94
363.882	306.94
364.109	298.94
364.335	306.94
364.562	325.94
364.788	307.94
365.015	326.94
365.241	318.94
365.468	323.94
365.694	324.94
365.92	329.94
366.147	335.94
366.373	298.94
366.599	305.94
366.826	307.94
367.052	315.94
367.278	319.94
367.505	321.94
367.731	318.94
367.957	316.94
368.184	305.94
368.41	333.94
368.636	316.94
368.862	341.94
369.089	326.94
369.315	330.94
369.541	323.94
369.767	325.94
369.993	310.94
370.219	310.94
370.445	321.94
370.672	328.94
370.898	314.94
371.124	325.94
371.35	310.94
371.576	314.94
371.802	314.94
372.028	303.94
372.254	317.94
372.48	328.94
372.706	320.94
372.932	310.94
373.158	315.94
373.384	305.94
373.61	338.94
373.835	327.94
374.061	300.94
374.287	338.94
374.513	313.94
374.739	312.94
374.965	320.94
375.191	319.94
375.416	325.94
375.642	326.94
375.868	309.94
376.094	321.94
376.319	341.94
376.545	313.94
376.771	313.94
376.997	311.94
377.222	307.94
377.448	324.94
377.674	305.94
377.899	309.94
378.125	314.94
378.35	316.94
378.576	310.94
378.802	311.94
379.027	311.94
379.253	317.94
379.478	310.94
379.704	320.94
379.929	307.94
380.155	300.94
380.38	315.94
380.606	316.94
380.831	319.94
381.057	326.94
381.282	301.94
381.507	317.94
381.733	311.94
381.958	313.94
382.184	315.94
382.409	308.94
382.634	318.94
382.86	334.94
383.085	294.94
383.31	349.94
383.535	311.94
383.761	315.94
383.986	328.94
384.211	332.94
384.436	326.94
384.662	301.94
384.887	328.94
385.112	348.94
385.337	338.94
385.562	331.94
385.787	329.94
386.013	360.94
386.238	334.94
386.463	355.94
386.688	341.94
386.913	339.94
387.138	331.94
387.363	348.94
387.588	343.94
387.813	341.94
388.038	310.94
388.263	354.94
388.488	335.94
388.713	363.94
388.938	341.94
389.163	344.94
389.387	332.94
389.612	348.94
389.837	334.94
390.062	350.94
390.287	319.94
390.512	332.94
390.736	361.94
390.961	329.94
391.186	343.94
391.411	334.94
391.636	336.94
391.86	345.94
392.085	366.94
392.31	344.94
392.534	358.94
392.759	334.94
392.984	338.94
393.208	341.94
393.433	347.94
393.658	351.94
393.882	328.94
394.107	324.94
394.331	319.94
394.556	340.94
394.78	359.94
395.005	333.94
395.229	331.94
395.454	346.94
395.678	341.94
395.903	352.94
396.127	373.94
396.352	353.94
396.576	339.94
396.801	358.94
397.025	350.94
397.249	361.94
397.474	347.94
397.698	367.94
397.922	371.94
398.147	366.94
398.371	393.94
398.595	385.94
398.82	396.94
399.044	379.94
399.268	391.94
399.492	418.94
399.717	423.94
399.941	442.94
400.165	445.94
400.389	478.94
400.613	443.94
400.837	414.94
401.062	404.94
401.286	383.94
401.51	373.94
401.734	376.94
401.958	389.94
402.182	378.94
402.406	381.94
402.63	401.94
402.854	372.94
403.078	389.94
403.302	388.94
403.526	399.94
403.75	378.94
403.974	398.94
404.198	383.94
404.422	379.94
404.645	391.94
404.869	387.94
405.093	409.94
405.317	433.94
405.541	445.94
405.765	390.94
405.988	395.94
406.212	425.94
406.436	424.94
406.66	431.94
406.883	443.94
407.107	461.94
407.331	460.94
407.555	518.94
407.778	494.94
408.002	464.94
408.226	429.94
408.449	426.94
408.673	440.94
408.896	436.94
409.12	457.94
409.344	438.94
409.567	400.94
409.791	402.94
410.014	422.94
410.238	397.94
410.461	413.94
410.685	389.94
410.908	421.94
411.132	428.94
411.355	448.94
411.578	440.94
411.802	411.94
412.025	398.94
412.249	393.94
412.472	393.94
412.695	387.94
412.919	364.94
413.142	373.94
413.365	379.94
413.589	401.94
413.812	361.94
414.035	374.94
414.258	372.94
414.482	368.94
414.705	357.94
414.928	370.94
415.151	377.94
415.374	361.94
415.597	362.94
415.821	379.94
416.044	382.94
416.267	378.94
416.49	385.94
416.713	363.94
416.936	377.94
417.159	377.94
417.382	384.94
417.605	383.94
417.828	371.94
418.051	388.94
418.274	389.94
418.497	380.94
418.72	374.94
418.943	339.94
419.166	376.94
419.389	399.94
419.611	401.94
419.834	380.94
420.057	401.94
420.28	381.94
420.503	381.94
420.726	376.94
420.948	389.94
421.171	446.94
421.394	424.94
421.617	411.94
421.839	400.94
422.062	386.94
422.285	398.94
422.507	438.94
422.73	473.94
422.953	468.94
423.175	405.94
423.398	400.94
423.621	395.94
423.843	413.94
424.066	415.94
424.288	419.94
424.511	412.94
424.733	470.94
424.956	513.94
425.178	497.94
425.401	480.94
425.623	484.94
425.846	444.94
426.068	410.94
426.291	411.94
426.513	413.94
426.735	418.94
426.958	437.94
427.18	513.94
427.402	594.94
427.625	616.94
427.847	546.94
428.069	476.94
428.292	440.94
428.514	419.94
428.736	401.94
428.958	380.94
429.181	398.94
429.403	373.94
429.625	400.94
429.847	411.94
430.069	463.94
430.292	460.94
430.514	394.94
430.736	379.94
430.958	379.94
431.18	390.94
431.402	403.94
431.624	356.94
431.846	359.94
432.068	383.94
432.29	372.94
432.512	357.94
432.734	349.94
432.956	370.94
433.178	373.94
433.4	376.94
433.622	365.94
433.844	364.94
434.066	374.94
434.287	358.94
434.509	358.94
434.731	382.94
434.953	379.94
435.175	409.94
435.397	415.94
435.618	422.94
435.84	453.94
436.062	525.94
436.284	532.94
436.505	476.94
436.727	433.94
436.949	395.94
437.17	385.94
437.392	380.94
437.614	399.94
437.835	424.94
438.057	484.94
438.278	558.94
438.5	544.94
438.721	592.94
438.943	569.94
439.165	454.94
439.386	428.94
439.608	433.94
439.829	417.94
440.05	435.94
440.272	462.94
440.493	461.94
440.715	417.94
440.936	413.94
441.158	400.94
441.379	379.94
441.6	388.94
441.822	437.94
442.043	449.94
442.264	498.94
442.486	523.94
442.707	453.94
442.928	427.94
443.149	414.94
443.371	451.94
443.592	483.94
443.813	531.94
444.034	553.94
444.255	470.94
444.476	421.94
444.698	427.94
444.919	411.94
445.14	539.94
445.361	463.94
445.582	449.94
445.803	491.94
446.024	555.94
446.245	550.94
446.466	502.94
446.687	466.94
446.908	416.94
447.129	409.94
447.35	395.94
447.571	381.94
447.792	373.94
448.013	394.94
448.234	415.94
448.455	426.94
448.675	523.94
448.896	590.94
449.117	491.94
449.338	469.94
449.559	547.94
449.779	627.94
450	506.94
450.221	411.94
450.442	392.94
450.662	364.94
450.883	389.94
451.104	390.94
451.324	380.94
451.545	369.94
451.766	365.94
451.986	335.94
452.207	360.94
452.428	363.94
452.648	354.94
452.869	351.94
453.089	347.94
453.31	361.94
453.53	349.94
453.751	330.94
453.971	357.94
454.192	383.94
454.412	366.94
454.633	343.94
454.853	348.94
455.073	349.94
455.294	390.94
455.514	415.94
455.734	392.94
455.955	345.94
456.175	335.94
456.395	334.94
456.616	308.94
456.836	326.94
457.056	329.94
457.276	327.94
457.497	333.94
457.717	327.94
457.937	329.94
458.157	351.94
458.377	332.94
458.598	354.94
458.818	410.94
459.038	465.94
459.258	455.94
459.478	387.94
459.698	364.94
459.918	375.94
460.138	371.94
460.358	369.94
460.578	378.94
460.798	383.94
461.018	374.94
461.238	364.94
461.458	375.94
461.678	379.94
461.898	367.94
462.118	359.94
462.338	373.94
462.558	384.94
462.777	383.94
462.997	380.94
463.217	403.94
463.437	412.94
463.657	395.94
463.876	392.94
464.096	398.94
464.316	396.94
464.536	413.94
464.755	387.94
464.975	401.94
465.195	429.94
465.414	460.94
465.634	430.94
465.854	408.94
466.073	379.94
466.293	363.94
466.512	373.94
466.732	365.94
466.951	351.94
467.171	372.94
467.391	356.94
467.61	371.94
467.829	365.94
468.049	378.94
468.268	356.94
468.488	347.94
468.707	363.94
468.927	334.94
469.146	350.94
469.365	361.94
469.585	356.94
469.804	348.94
470.023	374.94
470.243	355.94
470.462	374.94
470.681	386.94
470.901	383.94
471.12	366.94
471.339	374.94
471.558	350.94
471.777	363.94
471.997	356.94
472.216	364.94
472.435	375.94
472.654	358.94
472.873	347.94
473.092	354.94
473.311	357.94
473.53	364.94
473.749	373.94
473.968	399.94
474.187	470.94
474.406	457.94
474.625	410.94
474.844	365.94
475.063	375.94
475.282	357.94
475.501	383.94
475.72	360.94
475.939	367.94
476.158	380.94
476.377	379.94
476.596	380.94
476.814	373.94
477.033	392.94
477.252	372.94
477.471	393.94
477.69	399.94
477.908	381.94
478.127	379.94
478.346	386.94
478.564	405.94
478.783	394.94
479.002	401.94
479.22	409.94
479.439	427.94
479.658	431.94
479.876	435.94
480.095	419.94
480.313	443.94
480.532	444.94
480.751	421.94
480.969	441.94
481.188	440.94
481.406	437.94
481.624	417.94
481.843	416.94
482.061	418.94
482.28	422.94
482.498	402.94
482.717	433.94
482.935	427.94
483.153	427.94
483.372	416.94
483.59	425.94
483.808	430.94
484.027	416.94
484.245	430.94
484.463	423.94
484.681	414.94
484.9	417.94
485.118	411.94
485.336	416.94
485.554	422.94
485.772	434.94
485.99	447.94
486.209	440.94
486.427	440.94
486.645	431.94
486.863	423.94
487.081	450.94
487.299	428.94
487.517	438.94
487.735	441.94
487.953	444.94
488.171	479.94
488.389	457.94
488.607	453.94
488.825	437.94
489.043	444.94
489.261	439.94
489.479	446.94
489.696	413.94
489.914	439.94
490.132	461.94
490.35	453.94
490.568	449.94
490.786	460.94
491.003	498.94
491.221	489.94
491.439	510.94
491.657	494.94
491.874	499.94
492.092	505.94
492.31	516.94
492.527	510.94
492.745	523.94
492.963	514.94
493.18	531.94
493.398	511.94
493.615	515.94
493.833	516.94
494.05	511.94
494.268	527.94
494.485	504.94
494.703	511.94
494.92	526.94
495.138	534.94
495.355	527.94
495.573	508.94
495.79	525.94
496.008	513.94
496.225	512.94
496.442	513.94
496.66	517.94
496.877	522.94
497.094	510.94
497.312	517.94
497.529	546.94
497.746	546.94
497.963	542.94
498.181	567.94
498.398	554.94
498.615	591.94
498.832	581.94
499.049	591.94
499.267	614.94
499.484	631.94
499.701	649.94
499.918	642.94
500.135	673.94
500.352	702.94
500.569	727.94
500.786	730.94
501.003	700.94
501.22	689.94
501.437	665.94
501.654	641.94
501.871	641.94
502.088	626.94
