Data from 1983.PennyLincolnUp.Lamp.En5.5.200Scan.071819.P1_HRD10591_16-53-32-965.txt Node
Date: Thu Jul 18 16:53:32 EDT 2019
User: cochatt
Spectrometer: HR+D1059
Trigger mode: 1
Integration Time (sec): 1.000000E-1
Scans to average: 1
Electric dark correction enabled: true
Nonlinearity correction enabled: false
Boxcar width: 0
XAxis mode: Wavelengths
Number of Pixels in Spectrum: 2048
>>>>>Begin Spectral Data<<<<<
223.165	-3.94
223.4	-3.94
223.635	-3.94
223.869	-14.94
224.104	-10.94
224.338	-7.94
224.573	-11.94
224.808	-10.94
225.042	-16.94
225.277	-6.94
225.511	-2.94
225.746	-8.94
225.98	8.06
226.215	12.06
226.449	5.06
226.683	15.06
226.918	31.06
227.152	25.06
227.387	32.06
227.621	41.06
227.856	46.06
228.09	54.06
228.324	44.06
228.559	58.06
228.793	70.06
229.027	73.06
229.262	95.06
229.496	103.06
229.73	116.06
229.964	149.06
230.199	131.06
230.433	116.06
230.667	111.06
230.901	104.06
231.136	119.06
231.37	116.06
231.604	116.06
231.838	121.06
232.072	98.06
232.306	104.06
232.541	110.06
232.775	108.06
233.009	98.06
233.243	103.06
233.477	102.06
233.711	120.06
233.945	126.06
234.179	120.06
234.413	119.06
234.647	108.06
234.881	108.06
235.115	105.06
235.349	110.06
235.583	120.06
235.817	100.06
236.051	119.06
236.285	127.06
236.519	106.06
236.753	126.06
236.987	150.06
237.221	184.06
237.455	215.06
237.689	187.06
237.922	133.06
238.156	135.06
238.39	115.06
238.624	130.06
238.858	124.06
239.091	118.06
239.325	123.06
239.559	124.06
239.793	127.06
240.027	131.06
240.26	141.06
240.494	163.06
240.728	145.06
240.961	143.06
241.195	142.06
241.429	142.06
241.662	126.06
241.896	136.06
242.13	134.06
242.363	128.06
242.597	127.06
242.83	132.06
243.064	118.06
243.298	130.06
243.531	137.06
243.765	129.06
243.998	154.06
244.232	141.06
244.465	145.06
244.699	136.06
244.932	138.06
245.166	138.06
245.399	151.06
245.633	145.06
245.866	141.06
246.099	135.06
246.333	144.06
246.566	132.06
246.8	145.06
247.033	157.06
247.266	137.06
247.5	170.06
247.733	169.06
247.966	147.06
248.2	164.06
248.433	155.06
248.666	166.06
248.899	176.06
249.133	178.06
249.366	175.06
249.599	181.06
249.832	167.06
250.066	158.06
250.299	171.06
250.532	181.06
250.765	193.06
250.998	201.06
251.231	207.06
251.465	196.06
251.698	188.06
251.931	186.06
252.164	184.06
252.397	179.06
252.63	194.06
252.863	175.06
253.096	190.06
253.329	207.06
253.562	216.06
253.795	215.06
254.028	212.06
254.261	215.06
254.494	216.06
254.727	243.06
254.96	259.06
255.193	263.06
255.426	223.06
255.659	207.06
255.892	214.06
256.124	212.06
256.357	205.06
256.59	190.06
256.823	198.06
257.056	204.06
257.289	207.06
257.521	176.06
257.754	212.06
257.987	192.06
258.22	209.06
258.452	205.06
258.685	205.06
258.918	197.06
259.151	193.06
259.383	213.06
259.616	200.06
259.849	217.06
260.081	223.06
260.314	250.06
260.547	245.06
260.779	230.06
261.012	213.06
261.244	217.06
261.477	229.06
261.71	196.06
261.942	225.06
262.175	245.06
262.407	235.06
262.64	195.06
262.872	208.06
263.105	189.06
263.337	191.06
263.57	183.06
263.802	190.06
264.035	197.06
264.267	211.06
264.499	205.06
264.732	200.06
264.964	197.06
265.197	190.06
265.429	181.06
265.661	177.06
265.894	214.06
266.126	189.06
266.358	216.06
266.591	209.06
266.823	218.06
267.055	224.06
267.287	231.06
267.52	220.06
267.752	215.06
267.984	207.06
268.216	213.06
268.448	228.06
268.681	233.06
268.913	243.06
269.145	263.06
269.377	266.06
269.609	263.06
269.841	246.06
270.073	248.06
270.306	268.06
270.538	287.06
270.77	286.06
271.002	270.06
271.234	268.06
271.466	278.06
271.698	288.06
271.93	283.06
272.162	283.06
272.394	295.06
272.626	273.06
272.858	246.06
273.09	261.06
273.322	263.06
273.553	244.06
273.785	255.06
274.017	256.06
274.249	246.06
274.481	248.06
274.713	247.06
274.945	252.06
275.176	237.06
275.408	241.06
275.64	238.06
275.872	244.06
276.104	237.06
276.335	245.06
276.567	261.06
276.799	266.06
277.031	288.06
277.262	295.06
277.494	289.06
277.726	282.06
277.957	257.06
278.189	252.06
278.421	241.06
278.652	262.06
278.884	241.06
279.115	247.06
279.347	249.06
279.579	240.06
279.81	219.06
280.042	241.06
280.273	228.06
280.505	252.06
280.736	238.06
280.968	228.06
281.199	261.06
281.431	242.06
281.662	259.06
281.894	254.06
282.125	265.06
282.356	268.06
282.588	266.06
282.819	296.06
283.051	259.06
283.282	235.06
283.513	261.06
283.745	263.06
283.976	263.06
284.207	255.06
284.439	271.06
284.67	243.06
284.901	255.06
285.132	263.06
285.364	256.06
285.595	242.06
285.826	248.06
286.057	233.06
286.288	257.06
286.52	249.06
286.751	264.06
286.982	266.06
287.213	272.06
287.444	250.06
287.675	265.06
287.906	275.06
288.138	292.06
288.369	265.06
288.6	273.06
288.831	260.06
289.062	269.06
289.293	271.06
289.524	262.06
289.755	271.06
289.986	280.06
290.217	247.06
290.448	271.06
290.679	256.06
290.91	265.06
291.141	257.06
291.371	274.06
291.602	278.06
291.833	265.06
292.064	259.06
292.295	244.06
292.526	260.06
292.757	281.06
292.987	264.06
293.218	268.06
293.449	268.06
293.68	266.06
293.91	266.06
294.141	266.06
294.372	254.06
294.603	280.06
294.833	284.06
295.064	268.06
295.295	254.06
295.525	273.06
295.756	269.06
295.987	276.06
296.217	292.06
296.448	315.06
296.679	304.06
296.909	273.06
297.14	271.06
297.37	267.06
297.601	276.06
297.831	278.06
298.062	288.06
298.292	273.06
298.523	304.06
298.753	284.06
298.984	275.06
299.214	285.06
299.445	287.06
299.675	271.06
299.905	286.06
300.136	280.06
300.366	292.06
300.597	280.06
300.827	315.06
301.057	304.06
301.288	315.06
301.518	313.06
301.748	298.06
301.979	290.06
302.209	297.06
302.439	318.06
302.669	287.06
302.9	289.06
303.13	306.06
303.36	298.06
303.59	315.06
303.82	330.06
304.051	325.06
304.281	307.06
304.511	302.06
304.741	293.06
304.971	291.06
305.201	299.06
305.431	291.06
305.661	309.06
305.891	295.06
306.121	309.06
306.352	295.06
306.582	299.06
306.812	318.06
307.042	303.06
307.272	300.06
307.502	319.06
307.731	310.06
307.961	317.06
308.191	316.06
308.421	318.06
308.651	316.06
308.881	303.06
309.111	294.06
309.341	297.06
309.571	315.06
309.8	341.06
310.03	342.06
310.26	339.06
310.49	363.06
310.72	366.06
310.949	379.06
311.179	366.06
311.409	345.06
311.639	364.06
311.868	326.06
312.098	357.06
312.328	377.06
312.557	373.06
312.787	382.06
313.017	381.06
313.246	369.06
313.476	355.06
313.706	345.06
313.935	352.06
314.165	348.06
314.394	380.06
314.624	377.06
314.853	358.06
315.083	360.06
315.312	353.06
315.542	350.06
315.771	354.06
316.001	329.06
316.23	340.06
316.46	349.06
316.689	346.06
316.919	345.06
317.148	365.06
317.377	366.06
317.607	339.06
317.836	352.06
318.065	351.06
318.295	351.06
318.524	348.06
318.753	334.06
318.983	359.06
319.212	353.06
319.441	360.06
319.67	371.06
319.9	349.06
320.129	339.06
320.358	350.06
320.587	355.06
320.816	365.06
321.046	372.06
321.275	362.06
321.504	367.06
321.733	373.06
321.962	381.06
322.191	389.06
322.42	391.06
322.649	414.06
322.878	401.06
323.108	424.06
323.337	458.06
323.566	474.06
323.795	522.06
324.024	540.06
324.253	685.06
324.482	973.06
324.71	1452.06
324.939	2021.06
325.168	1651.06
325.397	892.06
325.626	614.06
325.855	535.06
326.084	477.06
326.313	477.06
326.542	474.06
326.77	529.06
326.999	647.06
327.228	894.06
327.457	1288.06
327.686	1469.06
327.914	987.06
328.143	666.06
328.372	575.06
328.6	549.06
328.829	522.06
329.058	551.06
329.287	561.06
329.515	529.06
329.744	456.06
329.972	436.06
330.201	473.06
330.43	507.06
330.658	551.06
330.887	562.06
331.115	567.06
331.344	486.06
331.572	445.06
331.801	446.06
332.03	429.06
332.258	422.06
332.486	429.06
332.715	402.06
332.943	411.06
333.172	390.06
333.4	401.06
333.629	425.06
333.857	424.06
334.085	439.06
334.314	431.06
334.542	454.06
334.771	455.06
334.999	432.06
335.227	423.06
335.455	402.06
335.684	409.06
335.912	392.06
336.14	411.06
336.369	389.06
336.597	405.06
336.825	412.06
337.053	407.06
337.281	389.06
337.51	380.06
337.738	400.06
337.966	400.06
338.194	398.06
338.422	395.06
338.65	400.06
338.878	395.06
339.106	371.06
339.334	397.06
339.562	399.06
339.79	383.06
340.018	406.06
340.246	405.06
340.474	384.06
340.702	395.06
340.93	402.06
341.158	391.06
341.386	380.06
341.614	397.06
341.842	388.06
342.07	386.06
342.298	381.06
342.526	402.06
342.754	371.06
342.981	361.06
343.209	347.06
343.437	389.06
343.665	400.06
343.893	399.06
344.12	392.06
344.348	393.06
344.576	408.06
344.804	403.06
345.031	413.06
345.259	416.06
345.487	431.06
345.714	392.06
345.942	397.06
346.17	397.06
346.397	375.06
346.625	381.06
346.853	350.06
347.08	375.06
347.308	377.06
347.535	385.06
347.763	414.06
347.99	385.06
348.218	399.06
348.445	402.06
348.673	399.06
348.9	403.06
349.128	364.06
349.355	355.06
349.583	378.06
349.81	369.06
350.037	357.06
350.265	368.06
350.492	352.06
350.72	355.06
350.947	357.06
351.174	393.06
351.402	383.06
351.629	389.06
351.856	359.06
352.083	376.06
352.311	387.06
352.538	411.06
352.765	395.06
352.992	396.06
353.22	364.06
353.447	379.06
353.674	377.06
353.901	360.06
354.128	362.06
354.355	344.06
354.583	355.06
354.81	351.06
355.037	352.06
355.264	378.06
355.491	341.06
355.718	350.06
355.945	368.06
356.172	362.06
356.399	350.06
356.626	346.06
356.853	348.06
357.08	339.06
357.307	336.06
357.534	344.06
357.761	353.06
357.988	356.06
358.215	348.06
358.441	358.06
358.668	348.06
358.895	354.06
359.122	348.06
359.349	380.06
359.576	366.06
359.802	405.06
360.029	433.06
360.256	432.06
360.483	413.06
360.709	395.06
360.936	368.06
361.163	358.06
361.39	383.06
361.616	379.06
361.843	375.06
362.07	393.06
362.296	390.06
362.523	367.06
362.749	375.06
362.976	363.06
363.203	373.06
363.429	349.06
363.656	352.06
363.882	346.06
364.109	352.06
364.335	332.06
364.562	359.06
364.788	355.06
365.015	364.06
365.241	372.06
365.468	369.06
365.694	362.06
365.92	381.06
366.147	364.06
366.373	367.06
366.599	355.06
366.826	357.06
367.052	349.06
367.278	348.06
367.505	365.06
367.731	359.06
367.957	355.06
368.184	327.06
368.41	376.06
368.636	364.06
368.862	367.06
369.089	363.06
369.315	352.06
369.541	363.06
369.767	349.06
369.993	361.06
370.219	337.06
370.445	351.06
370.672	349.06
370.898	354.06
371.124	347.06
371.35	352.06
371.576	352.06
371.802	336.06
372.028	334.06
372.254	339.06
372.48	345.06
372.706	344.06
372.932	362.06
373.158	350.06
373.384	343.06
373.61	348.06
373.835	355.06
374.061	360.06
374.287	349.06
374.513	342.06
374.739	362.06
374.965	343.06
375.191	351.06
375.416	349.06
375.642	345.06
375.868	353.06
376.094	355.06
376.319	361.06
376.545	340.06
376.771	348.06
376.997	348.06
377.222	349.06
377.448	364.06
377.674	350.06
377.899	339.06
378.125	345.06
378.35	352.06
378.576	327.06
378.802	365.06
379.027	339.06
379.253	347.06
379.478	358.06
379.704	353.06
379.929	348.06
380.155	353.06
380.38	350.06
380.606	346.06
380.831	349.06
381.057	365.06
381.282	365.06
381.507	345.06
381.733	351.06
381.958	356.06
382.184	352.06
382.409	355.06
382.634	359.06
382.86	350.06
383.085	351.06
383.31	355.06
383.535	362.06
383.761	359.06
383.986	366.06
384.211	356.06
384.436	363.06
384.662	375.06
384.887	372.06
385.112	357.06
385.337	367.06
385.562	381.06
385.787	395.06
386.013	383.06
386.238	380.06
386.463	379.06
386.688	380.06
386.913	361.06
387.138	387.06
387.363	375.06
387.588	380.06
387.813	387.06
388.038	381.06
388.263	382.06
388.488	367.06
388.713	365.06
388.938	392.06
389.163	372.06
389.387	395.06
389.612	383.06
389.837	376.06
390.062	375.06
390.287	374.06
390.512	366.06
390.736	356.06
390.961	355.06
391.186	367.06
391.411	367.06
391.636	394.06
391.86	379.06
392.085	383.06
392.31	362.06
392.534	386.06
392.759	392.06
392.984	380.06
393.208	385.06
393.433	387.06
393.658	375.06
393.882	394.06
394.107	363.06
394.331	389.06
394.556	364.06
394.78	379.06
395.005	383.06
395.229	382.06
395.454	398.06
395.678	403.06
395.903	399.06
396.127	420.06
396.352	418.06
396.576	405.06
396.801	383.06
397.025	385.06
397.249	404.06
397.474	388.06
397.698	386.06
397.922	393.06
398.147	396.06
398.371	426.06
398.595	427.06
398.82	422.06
399.044	412.06
399.268	445.06
399.492	455.06
399.717	479.06
399.941	513.06
400.165	523.06
400.389	533.06
400.613	469.06
400.837	462.06
401.062	458.06
401.286	423.06
401.51	411.06
401.734	421.06
401.958	428.06
402.182	439.06
402.406	439.06
402.63	418.06
402.854	441.06
403.078	429.06
403.302	426.06
403.526	441.06
403.75	429.06
403.974	422.06
404.198	444.06
404.422	447.06
404.645	441.06
404.869	454.06
405.093	470.06
405.317	475.06
405.541	508.06
405.765	465.06
405.988	452.06
406.212	476.06
406.436	510.06
406.66	533.06
406.883	503.06
407.107	488.06
407.331	541.06
407.555	583.06
407.778	555.06
408.002	527.06
408.226	496.06
408.449	475.06
408.673	485.06
408.896	494.06
409.12	527.06
409.344	505.06
409.567	462.06
409.791	435.06
410.014	456.06
410.238	439.06
410.461	454.06
410.685	445.06
410.908	454.06
411.132	472.06
411.355	501.06
411.578	457.06
411.802	477.06
412.025	425.06
412.249	439.06
412.472	451.06
412.695	455.06
412.919	455.06
413.142	420.06
413.365	417.06
413.589	417.06
413.812	432.06
414.035	421.06
414.258	407.06
414.482	402.06
414.705	412.06
414.928	430.06
415.151	411.06
415.374	410.06
415.597	435.06
415.821	408.06
416.044	415.06
416.267	445.06
416.49	417.06
416.713	405.06
416.936	420.06
417.159	428.06
417.382	413.06
417.605	415.06
417.828	422.06
418.051	437.06
418.274	439.06
418.497	424.06
418.72	421.06
418.943	399.06
419.166	433.06
419.389	444.06
419.611	462.06
419.834	456.06
420.057	465.06
420.28	453.06
420.503	432.06
420.726	425.06
420.948	440.06
421.171	489.06
421.394	491.06
421.617	443.06
421.839	431.06
422.062	435.06
422.285	442.06
422.507	489.06
422.73	548.06
422.953	520.06
423.175	475.06
423.398	443.06
423.621	464.06
423.843	458.06
424.066	472.06
424.288	451.06
424.511	471.06
424.733	519.06
424.956	579.06
425.178	572.06
425.401	583.06
425.623	582.06
425.846	503.06
426.068	504.06
426.291	472.06
426.513	457.06
426.735	463.06
426.958	475.06
427.18	574.06
427.402	664.06
427.625	752.06
427.847	641.06
428.069	581.06
428.292	513.06
428.514	473.06
428.736	445.06
428.958	444.06
429.181	429.06
429.403	442.06
429.625	421.06
429.847	479.06
430.069	512.06
430.292	508.06
430.514	464.06
430.736	437.06
430.958	427.06
431.18	429.06
431.402	403.06
431.624	409.06
431.846	403.06
432.068	401.06
432.29	423.06
432.512	427.06
432.734	420.06
432.956	439.06
433.178	412.06
433.4	400.06
433.622	412.06
433.844	419.06
434.066	429.06
434.287	410.06
434.509	435.06
434.731	419.06
434.953	431.06
435.175	446.06
435.397	447.06
435.618	467.06
435.84	488.06
436.062	559.06
436.284	627.06
436.505	527.06
436.727	468.06
436.949	448.06
437.17	445.06
437.392	455.06
437.614	469.06
437.835	487.06
438.057	579.06
438.278	657.06
438.5	616.06
438.721	663.06
438.943	633.06
439.165	511.06
439.386	481.06
439.608	508.06
439.829	485.06
440.05	506.06
440.272	511.06
440.493	518.06
440.715	481.06
440.936	429.06
441.158	449.06
441.379	446.06
441.6	464.06
441.822	478.06
442.043	533.06
442.264	558.06
442.486	606.06
442.707	525.06
442.928	486.06
443.149	507.06
443.371	527.06
443.592	545.06
443.813	608.06
444.034	653.06
444.255	555.06
444.476	493.06
444.698	489.06
444.919	487.06
445.14	587.06
445.361	538.06
445.582	531.06
445.803	553.06
446.024	637.06
446.245	647.06
446.466	600.06
446.687	504.06
446.908	471.06
447.129	460.06
447.35	446.06
447.571	428.06
447.792	435.06
448.013	441.06
448.234	457.06
448.455	518.06
448.675	596.06
448.896	666.06
449.117	574.06
449.338	548.06
449.559	658.06
449.779	716.06
450	542.06
450.221	477.06
450.442	441.06
450.662	444.06
450.883	438.06
451.104	469.06
451.324	438.06
451.545	426.06
451.766	419.06
451.986	409.06
452.207	396.06
452.428	397.06
452.648	384.06
452.869	392.06
453.089	403.06
453.31	407.06
453.53	411.06
453.751	394.06
453.971	397.06
454.192	443.06
454.412	436.06
454.633	411.06
454.853	360.06
455.073	376.06
455.294	427.06
455.514	463.06
455.734	466.06
455.955	389.06
456.175	381.06
456.395	368.06
456.616	382.06
456.836	346.06
457.056	358.06
457.276	369.06
457.497	379.06
457.717	364.06
457.937	381.06
458.157	391.06
458.377	388.06
458.598	397.06
458.818	490.06
459.038	542.06
459.258	536.06
459.478	457.06
459.698	437.06
459.918	407.06
460.138	428.06
460.358	427.06
460.578	419.06
460.798	412.06
461.018	422.06
461.238	422.06
461.458	417.06
461.678	398.06
461.898	407.06
462.118	423.06
462.338	435.06
462.558	431.06
462.777	439.06
462.997	435.06
463.217	444.06
463.437	452.06
463.657	441.06
463.876	452.06
464.096	449.06
464.316	437.06
464.536	449.06
464.755	456.06
464.975	456.06
465.195	488.06
465.414	579.06
465.634	512.06
465.854	453.06
466.073	415.06
466.293	413.06
466.512	397.06
466.732	415.06
466.951	407.06
467.171	386.06
467.391	407.06
467.61	403.06
467.829	421.06
468.049	415.06
468.268	384.06
468.488	404.06
468.707	391.06
468.927	407.06
469.146	391.06
469.365	398.06
469.585	392.06
469.804	401.06
470.023	423.06
470.243	402.06
470.462	398.06
470.681	420.06
470.901	437.06
471.12	417.06
471.339	417.06
471.558	409.06
471.777	399.06
471.997	403.06
472.216	407.06
472.435	409.06
472.654	405.06
472.873	399.06
473.092	387.06
473.311	427.06
473.53	393.06
473.749	432.06
473.968	462.06
474.187	544.06
474.406	545.06
474.625	462.06
474.844	423.06
475.063	401.06
475.282	413.06
475.501	406.06
475.72	442.06
475.939	399.06
476.158	429.06
476.377	418.06
476.596	417.06
476.814	416.06
477.033	424.06
477.252	436.06
477.471	428.06
477.69	449.06
477.908	447.06
478.127	418.06
478.346	443.06
478.564	477.06
478.783	460.06
479.002	445.06
479.22	453.06
479.439	475.06
479.658	481.06
479.876	471.06
480.095	506.06
480.313	525.06
480.532	495.06
480.751	483.06
480.969	501.06
481.188	511.06
481.406	513.06
481.624	468.06
481.843	470.06
482.061	502.06
482.28	483.06
482.498	472.06
482.717	473.06
482.935	461.06
483.153	444.06
483.372	471.06
483.59	469.06
483.808	452.06
484.027	479.06
484.245	474.06
484.463	453.06
484.681	469.06
484.9	492.06
485.118	483.06
485.336	503.06
485.554	476.06
485.772	471.06
485.99	482.06
486.209	476.06
486.427	507.06
486.645	505.06
486.863	521.06
487.081	532.06
487.299	502.06
487.517	524.06
487.735	507.06
487.953	506.06
488.171	503.06
488.389	524.06
488.607	524.06
488.825	530.06
489.043	519.06
489.261	515.06
489.479	504.06
489.696	520.06
489.914	529.06
490.132	530.06
490.35	533.06
490.568	503.06
490.786	546.06
491.003	573.06
491.221	564.06
491.439	574.06
491.657	595.06
491.874	571.06
492.092	582.06
492.31	599.06
492.527	592.06
492.745	560.06
492.963	581.06
493.18	627.06
493.398	596.06
493.615	592.06
493.833	573.06
494.05	600.06
494.268	603.06
494.485	591.06
494.703	612.06
494.92	592.06
495.138	602.06
495.355	598.06
495.573	620.06
495.79	604.06
496.008	611.06
496.225	603.06
496.442	597.06
496.66	622.06
496.877	604.06
497.094	592.06
497.312	613.06
497.529	628.06
497.746	611.06
497.963	641.06
498.181	615.06
498.398	653.06
498.615	664.06
498.832	667.06
499.049	674.06
499.267	680.06
499.484	710.06
499.701	728.06
499.918	741.06
500.135	762.06
500.352	807.06
500.569	829.06
500.786	798.06
501.003	816.06
501.22	772.06
501.437	755.06
501.654	737.06
501.871	755.06
502.088	725.06
