Data from 1983.PennyLincolnUp.Lamp.En5.5.200Scan.071819.P1_HRD10591_16-55-13-966.txt Node
Date: Thu Jul 18 16:55:13 EDT 2019
User: cochatt
Spectrometer: HR+D1059
Trigger mode: 1
Integration Time (sec): 1.000000E-1
Scans to average: 1
Electric dark correction enabled: true
Nonlinearity correction enabled: false
Boxcar width: 0
XAxis mode: Wavelengths
Number of Pixels in Spectrum: 2048
>>>>>Begin Spectral Data<<<<<
223.165	-22.38
223.4	-22.38
223.635	-22.38
223.869	-9.38
224.104	-17.38
224.338	-4.38
224.573	-8.38
224.808	-14.38
225.042	-0.38
225.277	0.62
225.511	-5.38
225.746	2.62
225.98	-1.38
226.215	2.62
226.449	12.62
226.683	20.62
226.918	20.62
227.152	23.62
227.387	45.62
227.621	32.62
227.856	42.62
228.09	48.62
228.324	58.62
228.559	66.62
228.793	65.62
229.027	86.62
229.262	116.62
229.496	107.62
229.73	137.62
229.964	159.62
230.199	112.62
230.433	110.62
230.667	113.62
230.901	111.62
231.136	109.62
231.37	103.62
231.604	102.62
231.838	119.62
232.072	118.62
232.306	100.62
232.541	116.62
232.775	115.62
233.009	116.62
233.243	119.62
233.477	113.62
233.711	114.62
233.945	115.62
234.179	119.62
234.413	125.62
234.647	114.62
234.881	111.62
235.115	112.62
235.349	108.62
235.583	111.62
235.817	127.62
236.051	124.62
236.285	130.62
236.519	130.62
236.753	127.62
236.987	156.62
237.221	182.62
237.455	218.62
237.689	182.62
237.922	144.62
238.156	120.62
238.39	128.62
238.624	127.62
238.858	131.62
239.091	131.62
239.325	139.62
239.559	122.62
239.793	136.62
240.027	122.62
240.26	151.62
240.494	154.62
240.728	143.62
240.961	146.62
241.195	128.62
241.429	140.62
241.662	121.62
241.896	126.62
242.13	135.62
242.363	122.62
242.597	132.62
242.83	148.62
243.064	139.62
243.298	135.62
243.531	136.62
243.765	122.62
243.998	134.62
244.232	126.62
244.465	137.62
244.699	132.62
244.932	131.62
245.166	142.62
245.399	134.62
245.633	142.62
245.866	145.62
246.099	147.62
246.333	152.62
246.566	146.62
246.8	140.62
247.033	148.62
247.266	162.62
247.5	143.62
247.733	147.62
247.966	170.62
248.2	165.62
248.433	166.62
248.666	171.62
248.899	177.62
249.133	175.62
249.366	199.62
249.599	193.62
249.832	179.62
250.066	177.62
250.299	175.62
250.532	194.62
250.765	202.62
250.998	211.62
251.231	221.62
251.465	220.62
251.698	193.62
251.931	188.62
252.164	202.62
252.397	180.62
252.63	184.62
252.863	208.62
253.096	209.62
253.329	229.62
253.562	222.62
253.795	211.62
254.028	202.62
254.261	209.62
254.494	193.62
254.727	248.62
254.96	242.62
255.193	260.62
255.426	222.62
255.659	225.62
255.892	218.62
256.124	242.62
256.357	245.62
256.59	228.62
256.823	228.62
257.056	202.62
257.289	210.62
257.521	213.62
257.754	209.62
257.987	207.62
258.22	207.62
258.452	199.62
258.685	199.62
258.918	203.62
259.151	201.62
259.383	216.62
259.616	211.62
259.849	209.62
260.081	231.62
260.314	238.62
260.547	240.62
260.779	235.62
261.012	223.62
261.244	210.62
261.477	227.62
261.71	216.62
261.942	219.62
262.175	226.62
262.407	216.62
262.64	220.62
262.872	206.62
263.105	212.62
263.337	211.62
263.57	217.62
263.802	209.62
264.035	195.62
264.267	198.62
264.499	213.62
264.732	196.62
264.964	198.62
265.197	204.62
265.429	186.62
265.661	201.62
265.894	207.62
266.126	206.62
266.358	193.62
266.591	208.62
266.823	228.62
267.055	218.62
267.287	220.62
267.52	220.62
267.752	225.62
267.984	208.62
268.216	218.62
268.448	219.62
268.681	231.62
268.913	235.62
269.145	254.62
269.377	258.62
269.609	267.62
269.841	258.62
270.073	270.62
270.306	276.62
270.538	304.62
270.77	291.62
271.002	275.62
271.234	280.62
271.466	276.62
271.698	288.62
271.93	298.62
272.162	282.62
272.394	276.62
272.626	284.62
272.858	274.62
273.09	244.62
273.322	254.62
273.553	252.62
273.785	262.62
274.017	245.62
274.249	256.62
274.481	265.62
274.713	250.62
274.945	256.62
275.176	250.62
275.408	267.62
275.64	241.62
275.872	274.62
276.104	250.62
276.335	248.62
276.567	272.62
276.799	270.62
277.031	306.62
277.262	295.62
277.494	319.62
277.726	275.62
277.957	268.62
278.189	271.62
278.421	247.62
278.652	267.62
278.884	250.62
279.115	243.62
279.347	258.62
279.579	249.62
279.81	241.62
280.042	240.62
280.273	261.62
280.505	267.62
280.736	253.62
280.968	254.62
281.199	262.62
281.431	258.62
281.662	254.62
281.894	249.62
282.125	274.62
282.356	278.62
282.588	294.62
282.819	283.62
283.051	260.62
283.282	265.62
283.513	251.62
283.745	260.62
283.976	272.62
284.207	275.62
284.439	267.62
284.67	259.62
284.901	249.62
285.132	262.62
285.364	256.62
285.595	267.62
285.826	260.62
286.057	269.62
286.288	239.62
286.52	282.62
286.751	255.62
286.982	280.62
287.213	254.62
287.444	274.62
287.675	259.62
287.906	260.62
288.138	277.62
288.369	284.62
288.6	268.62
288.831	276.62
289.062	266.62
289.293	269.62
289.524	269.62
289.755	270.62
289.986	272.62
290.217	259.62
290.448	271.62
290.679	240.62
290.91	262.62
291.141	266.62
291.371	259.62
291.602	275.62
291.833	262.62
292.064	268.62
292.295	254.62
292.526	253.62
292.757	268.62
292.987	270.62
293.218	267.62
293.449	285.62
293.68	278.62
293.91	307.62
294.141	265.62
294.372	261.62
294.603	283.62
294.833	271.62
295.064	269.62
295.295	296.62
295.525	256.62
295.756	300.62
295.987	318.62
296.217	298.62
296.448	326.62
296.679	294.62
296.909	290.62
297.14	281.62
297.37	297.62
297.601	286.62
297.831	263.62
298.062	289.62
298.292	266.62
298.523	264.62
298.753	284.62
298.984	294.62
299.214	285.62
299.445	287.62
299.675	267.62
299.905	303.62
300.136	281.62
300.366	271.62
300.597	289.62
300.827	294.62
301.057	321.62
301.288	326.62
301.518	310.62
301.748	312.62
301.979	318.62
302.209	290.62
302.439	306.62
302.669	335.62
302.9	296.62
303.13	305.62
303.36	316.62
303.59	330.62
303.82	318.62
304.051	304.62
304.281	296.62
304.511	304.62
304.741	290.62
304.971	313.62
305.201	304.62
305.431	295.62
305.661	299.62
305.891	310.62
306.121	314.62
306.352	310.62
306.582	326.62
306.812	313.62
307.042	320.62
307.272	299.62
307.502	310.62
307.731	329.62
307.961	318.62
308.191	320.62
308.421	330.62
308.651	328.62
308.881	311.62
309.111	322.62
309.341	323.62
309.571	304.62
309.8	348.62
310.03	339.62
310.26	350.62
310.49	355.62
310.72	358.62
310.949	358.62
311.179	369.62
311.409	367.62
311.639	366.62
311.868	364.62
312.098	346.62
312.328	364.62
312.557	368.62
312.787	399.62
313.017	402.62
313.246	361.62
313.476	360.62
313.706	356.62
313.935	355.62
314.165	367.62
314.394	375.62
314.624	374.62
314.853	392.62
315.083	380.62
315.312	343.62
315.542	354.62
315.771	329.62
316.001	343.62
316.23	346.62
316.46	370.62
316.689	355.62
316.919	350.62
317.148	355.62
317.377	367.62
317.607	374.62
317.836	360.62
318.065	366.62
318.295	350.62
318.524	339.62
318.753	356.62
318.983	350.62
319.212	360.62
319.441	372.62
319.67	372.62
319.9	346.62
320.129	382.62
320.358	382.62
320.587	367.62
320.816	372.62
321.046	370.62
321.275	395.62
321.504	395.62
321.733	394.62
321.962	382.62
322.191	407.62
322.42	400.62
322.649	413.62
322.878	444.62
323.108	454.62
323.337	453.62
323.566	489.62
323.795	537.62
324.024	553.62
324.253	706.62
324.482	992.62
324.71	1525.62
324.939	2060.62
325.168	1708.62
325.397	921.62
325.626	620.62
325.855	545.62
326.084	491.62
326.313	486.62
326.542	493.62
326.77	538.62
326.999	641.62
327.228	889.62
327.457	1313.62
327.686	1519.62
327.914	999.62
328.143	701.62
328.372	621.62
328.6	616.62
328.829	563.62
329.058	563.62
329.287	596.62
329.515	516.62
329.744	506.62
329.972	509.62
330.201	550.62
330.43	594.62
330.658	630.62
330.887	632.62
331.115	578.62
331.344	502.62
331.572	476.62
331.801	481.62
332.03	469.62
332.258	454.62
332.486	445.62
332.715	425.62
332.943	438.62
333.172	427.62
333.4	457.62
333.629	454.62
333.857	465.62
334.085	496.62
334.314	539.62
334.542	566.62
334.771	596.62
334.999	498.62
335.227	452.62
335.455	436.62
335.684	440.62
335.912	428.62
336.14	431.62
336.369	419.62
336.597	413.62
336.825	431.62
337.053	422.62
337.281	414.62
337.51	411.62
337.738	409.62
337.966	423.62
338.194	404.62
338.422	420.62
338.65	421.62
338.878	388.62
339.106	402.62
339.334	399.62
339.562	384.62
339.79	403.62
340.018	412.62
340.246	407.62
340.474	400.62
340.702	408.62
340.93	400.62
341.158	381.62
341.386	389.62
341.614	404.62
341.842	390.62
342.07	376.62
342.298	391.62
342.526	388.62
342.754	377.62
342.981	368.62
343.209	369.62
343.437	396.62
343.665	400.62
343.893	384.62
344.12	385.62
344.348	378.62
344.576	372.62
344.804	400.62
345.031	426.62
345.259	418.62
345.487	423.62
345.714	406.62
345.942	389.62
346.17	382.62
346.397	370.62
346.625	376.62
346.853	371.62
347.08	403.62
347.308	404.62
347.535	383.62
347.763	385.62
347.99	382.62
348.218	410.62
348.445	398.62
348.673	381.62
348.9	389.62
349.128	370.62
349.355	380.62
349.583	378.62
349.81	375.62
350.037	370.62
350.265	372.62
350.492	381.62
350.72	370.62
350.947	366.62
351.174	394.62
351.402	380.62
351.629	383.62
351.856	398.62
352.083	423.62
352.311	405.62
352.538	412.62
352.765	421.62
352.992	399.62
353.22	409.62
353.447	387.62
353.674	366.62
353.901	382.62
354.128	369.62
354.355	346.62
354.583	371.62
354.81	368.62
355.037	345.62
355.264	340.62
355.491	362.62
355.718	348.62
355.945	351.62
356.172	351.62
356.399	377.62
356.626	348.62
356.853	337.62
357.08	345.62
357.307	327.62
357.534	337.62
357.761	366.62
357.988	363.62
358.215	356.62
358.441	359.62
358.668	363.62
358.895	361.62
359.122	369.62
359.349	369.62
359.576	376.62
359.802	412.62
360.029	425.62
360.256	439.62
360.483	419.62
360.709	384.62
360.936	384.62
361.163	386.62
361.39	386.62
361.616	382.62
361.843	366.62
362.07	390.62
362.296	384.62
362.523	385.62
362.749	388.62
362.976	390.62
363.203	371.62
363.429	362.62
363.656	383.62
363.882	368.62
364.109	377.62
364.335	366.62
364.562	351.62
364.788	366.62
365.015	359.62
365.241	364.62
365.468	377.62
365.694	355.62
365.92	355.62
366.147	362.62
366.373	367.62
366.599	353.62
366.826	359.62
367.052	361.62
367.278	368.62
367.505	365.62
367.731	364.62
367.957	351.62
368.184	375.62
368.41	382.62
368.636	365.62
368.862	380.62
369.089	379.62
369.315	357.62
369.541	367.62
369.767	368.62
369.993	368.62
370.219	368.62
370.445	369.62
370.672	354.62
370.898	375.62
371.124	370.62
371.35	358.62
371.576	361.62
371.802	355.62
372.028	359.62
372.254	344.62
372.48	342.62
372.706	346.62
372.932	339.62
373.158	355.62
373.384	369.62
373.61	370.62
373.835	365.62
374.061	367.62
374.287	374.62
374.513	359.62
374.739	346.62
374.965	370.62
375.191	355.62
375.416	382.62
375.642	368.62
375.868	346.62
376.094	360.62
376.319	348.62
376.545	364.62
376.771	353.62
376.997	331.62
377.222	355.62
377.448	340.62
377.674	341.62
377.899	361.62
378.125	364.62
378.35	350.62
378.576	326.62
378.802	339.62
379.027	340.62
379.253	362.62
379.478	332.62
379.704	348.62
379.929	359.62
380.155	347.62
380.38	356.62
380.606	349.62
380.831	327.62
381.057	352.62
381.282	365.62
381.507	342.62
381.733	351.62
381.958	358.62
382.184	352.62
382.409	346.62
382.634	364.62
382.86	367.62
383.085	355.62
383.31	350.62
383.535	357.62
383.761	355.62
383.986	362.62
384.211	354.62
384.436	361.62
384.662	374.62
384.887	365.62
385.112	367.62
385.337	391.62
385.562	386.62
385.787	358.62
386.013	382.62
386.238	374.62
386.463	385.62
386.688	383.62
386.913	363.62
387.138	384.62
387.363	382.62
387.588	378.62
387.813	384.62
388.038	354.62
388.263	384.62
388.488	351.62
388.713	386.62
388.938	370.62
389.163	382.62
389.387	387.62
389.612	387.62
389.837	368.62
390.062	368.62
390.287	365.62
390.512	368.62
390.736	379.62
390.961	378.62
391.186	390.62
391.411	386.62
391.636	382.62
391.86	387.62
392.085	374.62
392.31	392.62
392.534	386.62
392.759	409.62
392.984	361.62
393.208	380.62
393.433	376.62
393.658	383.62
393.882	379.62
394.107	366.62
394.331	396.62
394.556	378.62
394.78	372.62
395.005	374.62
395.229	376.62
395.454	380.62
395.678	390.62
395.903	416.62
396.127	430.62
396.352	407.62
396.576	385.62
396.801	400.62
397.025	404.62
397.249	406.62
397.474	405.62
397.698	411.62
397.922	411.62
398.147	427.62
398.371	410.62
398.595	416.62
398.82	427.62
399.044	438.62
399.268	435.62
399.492	465.62
399.717	490.62
399.941	496.62
400.165	494.62
400.389	531.62
400.613	476.62
400.837	445.62
401.062	429.62
401.286	433.62
401.51	407.62
401.734	419.62
401.958	431.62
402.182	417.62
402.406	460.62
402.63	438.62
402.854	413.62
403.078	436.62
403.302	442.62
403.526	455.62
403.75	451.62
403.974	436.62
404.198	435.62
404.422	413.62
404.645	458.62
404.869	473.62
405.093	482.62
405.317	515.62
405.541	577.62
405.765	502.62
405.988	486.62
406.212	494.62
406.436	513.62
406.66	516.62
406.883	495.62
407.107	508.62
407.331	548.62
407.555	540.62
407.778	567.62
408.002	503.62
408.226	484.62
408.449	498.62
408.673	479.62
408.896	505.62
409.12	516.62
409.344	515.62
409.567	472.62
409.791	446.62
410.014	443.62
410.238	451.62
410.461	449.62
410.685	434.62
410.908	474.62
411.132	499.62
411.355	498.62
411.578	506.62
411.802	428.62
412.025	450.62
412.249	444.62
412.472	476.62
412.695	506.62
412.919	498.62
413.142	458.62
413.365	430.62
413.589	464.62
413.812	425.62
414.035	422.62
414.258	408.62
414.482	443.62
414.705	428.62
414.928	416.62
415.151	415.62
415.374	400.62
415.597	403.62
415.821	416.62
416.044	436.62
416.267	442.62
416.49	414.62
416.713	416.62
416.936	429.62
417.159	402.62
417.382	420.62
417.605	433.62
417.828	428.62
418.051	445.62
418.274	434.62
418.497	438.62
418.72	405.62
418.943	420.62
419.166	450.62
419.389	441.62
419.611	452.62
419.834	441.62
420.057	427.62
420.28	462.62
420.503	479.62
420.726	455.62
420.948	472.62
421.171	486.62
421.394	515.62
421.617	468.62
421.839	439.62
422.062	424.62
422.285	459.62
422.507	495.62
422.73	554.62
422.953	536.62
423.175	457.62
423.398	466.62
423.621	440.62
423.843	465.62
424.066	449.62
424.288	479.62
424.511	488.62
424.733	520.62
424.956	573.62
425.178	556.62
425.401	579.62
425.623	570.62
425.846	478.62
426.068	474.62
426.291	459.62
426.513	456.62
426.735	467.62
426.958	489.62
427.18	564.62
427.402	678.62
427.625	760.62
427.847	659.62
428.069	604.62
428.292	526.62
428.514	487.62
428.736	451.62
428.958	444.62
429.181	435.62
429.403	435.62
429.625	420.62
429.847	469.62
430.069	520.62
430.292	513.62
430.514	449.62
430.736	440.62
430.958	428.62
431.18	432.62
431.402	417.62
431.624	426.62
431.846	414.62
432.068	423.62
432.29	409.62
432.512	404.62
432.734	424.62
432.956	428.62
433.178	434.62
433.4	429.62
433.622	419.62
433.844	425.62
434.066	415.62
434.287	419.62
434.509	402.62
434.731	403.62
434.953	434.62
435.175	444.62
435.397	450.62
435.618	459.62
435.84	486.62
436.062	585.62
436.284	620.62
436.505	525.62
436.727	490.62
436.949	422.62
437.17	456.62
437.392	451.62
437.614	470.62
437.835	501.62
438.057	583.62
438.278	646.62
438.5	632.62
438.721	683.62
438.943	646.62
439.165	525.62
439.386	474.62
439.608	485.62
439.829	465.62
440.05	504.62
440.272	526.62
440.493	535.62
440.715	464.62
440.936	439.62
441.158	451.62
441.379	448.62
441.6	445.62
441.822	460.62
442.043	499.62
442.264	564.62
442.486	599.62
442.707	503.62
442.928	486.62
443.149	518.62
443.371	517.62
443.592	535.62
443.813	598.62
444.034	652.62
444.255	557.62
444.476	503.62
444.698	474.62
444.919	480.62
445.14	556.62
445.361	540.62
445.582	518.62
445.803	587.62
446.024	648.62
446.245	634.62
446.466	593.62
446.687	510.62
446.908	487.62
447.129	461.62
447.35	423.62
447.571	430.62
447.792	429.62
448.013	444.62
448.234	455.62
448.455	498.62
448.675	593.62
448.896	677.62
449.117	570.62
449.338	568.62
449.559	624.62
449.779	691.62
450	568.62
450.221	491.62
450.442	429.62
450.662	427.62
450.883	456.62
451.104	478.62
451.324	459.62
451.545	432.62
451.766	410.62
451.986	411.62
452.207	386.62
452.428	390.62
452.648	389.62
452.869	398.62
453.089	401.62
453.31	420.62
453.53	415.62
453.751	408.62
453.971	402.62
454.192	434.62
454.412	424.62
454.633	389.62
454.853	410.62
455.073	396.62
455.294	432.62
455.514	498.62
455.734	445.62
455.955	392.62
456.175	370.62
456.395	382.62
456.616	380.62
456.836	377.62
457.056	377.62
457.276	377.62
457.497	397.62
457.717	374.62
457.937	371.62
458.157	372.62
458.377	390.62
458.598	417.62
458.818	463.62
459.038	538.62
459.258	525.62
459.478	475.62
459.698	442.62
459.918	432.62
460.138	403.62
460.358	431.62
460.578	409.62
460.798	398.62
461.018	410.62
461.238	400.62
461.458	423.62
461.678	396.62
461.898	399.62
462.118	404.62
462.338	428.62
462.558	427.62
462.777	440.62
462.997	439.62
463.217	428.62
463.437	440.62
463.657	433.62
463.876	455.62
464.096	446.62
464.316	432.62
464.536	462.62
464.755	454.62
464.975	468.62
465.195	487.62
465.414	594.62
465.634	504.62
465.854	448.62
466.073	426.62
466.293	420.62
466.512	417.62
466.732	396.62
466.951	414.62
467.171	405.62
467.391	427.62
467.61	415.62
467.829	426.62
468.049	455.62
468.268	418.62
468.488	417.62
468.707	411.62
468.927	396.62
469.146	405.62
469.365	402.62
469.585	389.62
469.804	405.62
470.023	422.62
470.243	403.62
470.462	435.62
470.681	433.62
470.901	446.62
471.12	417.62
471.339	422.62
471.558	431.62
471.777	390.62
471.997	414.62
472.216	418.62
472.435	493.62
472.654	476.62
472.873	420.62
473.092	418.62
473.311	418.62
473.53	414.62
473.749	419.62
473.968	474.62
474.187	559.62
474.406	572.62
474.625	458.62
474.844	412.62
475.063	418.62
475.282	414.62
475.501	422.62
475.72	426.62
475.939	422.62
476.158	421.62
476.377	441.62
476.596	418.62
476.814	425.62
477.033	427.62
477.252	435.62
477.471	432.62
477.69	438.62
477.908	424.62
478.127	449.62
478.346	437.62
478.564	466.62
478.783	456.62
479.002	463.62
479.22	479.62
479.439	494.62
479.658	505.62
479.876	491.62
480.095	502.62
480.313	520.62
480.532	505.62
480.751	514.62
480.969	523.62
481.188	635.62
481.406	711.62
481.624	566.62
481.843	486.62
482.061	518.62
482.28	504.62
482.498	478.62
482.717	483.62
482.935	494.62
483.153	479.62
483.372	465.62
483.59	487.62
483.808	502.62
484.027	453.62
484.245	491.62
484.463	483.62
484.681	474.62
484.9	491.62
485.118	500.62
485.336	522.62
485.554	483.62
485.772	482.62
485.99	516.62
486.209	502.62
486.427	506.62
486.645	518.62
486.863	515.62
487.081	537.62
487.299	526.62
487.517	530.62
487.735	518.62
487.953	538.62
488.171	517.62
488.389	512.62
488.607	547.62
488.825	521.62
489.043	514.62
489.261	527.62
489.479	528.62
489.696	526.62
489.914	531.62
490.132	527.62
490.35	531.62
490.568	562.62
490.786	567.62
491.003	577.62
491.221	591.62
491.439	590.62
491.657	608.62
491.874	627.62
492.092	616.62
492.31	615.62
492.527	611.62
492.745	616.62
492.963	626.62
493.18	637.62
493.398	645.62
493.615	619.62
493.833	646.62
494.05	625.62
494.268	620.62
494.485	624.62
494.703	609.62
494.92	630.62
495.138	624.62
495.355	614.62
495.573	620.62
495.79	630.62
496.008	602.62
496.225	608.62
496.442	593.62
496.66	616.62
496.877	630.62
497.094	630.62
497.312	603.62
497.529	630.62
497.746	620.62
497.963	630.62
498.181	644.62
498.398	656.62
498.615	669.62
498.832	655.62
499.049	685.62
499.267	696.62
499.484	691.62
499.701	718.62
499.918	740.62
500.135	756.62
500.352	813.62
500.569	801.62
500.786	803.62
501.003	797.62
501.22	765.62
501.437	782.62
501.654	762.62
501.871	755.62
502.088	713.62
