Data from 1983.PennyLincolnUp.Lamp.En5.5.200Scan.071819.P1_HRD10591_16-52-22-964.txt Node
Date: Thu Jul 18 16:52:22 EDT 2019
User: cochatt
Spectrometer: HR+D1059
Trigger mode: 1
Integration Time (sec): 1.000000E-1
Scans to average: 1
Electric dark correction enabled: true
Nonlinearity correction enabled: false
Boxcar width: 0
XAxis mode: Wavelengths
Number of Pixels in Spectrum: 2048
>>>>>Begin Spectral Data<<<<<
223.165	-15.19
223.4	-15.19
223.635	-15.19
223.869	-11.19
224.104	-17.19
224.338	-14.19
224.573	-15.19
224.808	-9.19
225.042	-18.19
225.277	-14.19
225.511	9.81
225.746	10.81
225.98	0.81
226.215	8.81
226.449	5.81
226.683	8.81
226.918	31.81
227.152	37.81
227.387	21.81
227.621	27.81
227.856	41.81
228.09	45.81
228.324	44.81
228.559	55.81
228.793	51.81
229.027	86.81
229.262	89.81
229.496	104.81
229.73	102.81
229.964	130.81
230.199	118.81
230.433	94.81
230.667	111.81
230.901	94.81
231.136	92.81
231.37	86.81
231.604	103.81
231.838	85.81
232.072	92.81
232.306	104.81
232.541	96.81
232.775	108.81
233.009	104.81
233.243	106.81
233.477	106.81
233.711	105.81
233.945	92.81
234.179	93.81
234.413	94.81
234.647	107.81
234.881	102.81
235.115	112.81
235.349	85.81
235.583	101.81
235.817	97.81
236.051	107.81
236.285	102.81
236.519	113.81
236.753	103.81
236.987	121.81
237.221	141.81
237.455	177.81
237.689	146.81
237.922	118.81
238.156	119.81
238.39	128.81
238.624	92.81
238.858	110.81
239.091	110.81
239.325	97.81
239.559	94.81
239.793	108.81
240.027	111.81
240.26	105.81
240.494	140.81
240.728	132.81
240.961	122.81
241.195	131.81
241.429	119.81
241.662	118.81
241.896	116.81
242.13	114.81
242.363	122.81
242.597	112.81
242.83	124.81
243.064	122.81
243.298	114.81
243.531	120.81
243.765	125.81
243.998	114.81
244.232	120.81
244.465	144.81
244.699	115.81
244.932	118.81
245.166	124.81
245.399	133.81
245.633	121.81
245.866	121.81
246.099	118.81
246.333	126.81
246.566	134.81
246.8	118.81
247.033	122.81
247.266	139.81
247.5	121.81
247.733	148.81
247.966	145.81
248.2	139.81
248.433	125.81
248.666	151.81
248.899	141.81
249.133	153.81
249.366	168.81
249.599	163.81
249.832	175.81
250.066	146.81
250.299	154.81
250.532	148.81
250.765	168.81
250.998	165.81
251.231	178.81
251.465	177.81
251.698	169.81
251.931	171.81
252.164	151.81
252.397	156.81
252.63	168.81
252.863	153.81
253.096	164.81
253.329	168.81
253.562	184.81
253.795	184.81
254.028	188.81
254.261	182.81
254.494	185.81
254.727	210.81
254.96	212.81
255.193	211.81
255.426	201.81
255.659	198.81
255.892	170.81
256.124	182.81
256.357	182.81
256.59	178.81
256.823	167.81
257.056	177.81
257.289	183.81
257.521	175.81
257.754	189.81
257.987	170.81
258.22	160.81
258.452	168.81
258.685	179.81
258.918	181.81
259.151	172.81
259.383	181.81
259.616	184.81
259.849	198.81
260.081	199.81
260.314	187.81
260.547	194.81
260.779	203.81
261.012	184.81
261.244	189.81
261.477	190.81
261.71	179.81
261.942	208.81
262.175	177.81
262.407	176.81
262.64	180.81
262.872	188.81
263.105	173.81
263.337	181.81
263.57	180.81
263.802	173.81
264.035	164.81
264.267	180.81
264.499	176.81
264.732	179.81
264.964	180.81
265.197	166.81
265.429	184.81
265.661	179.81
265.894	182.81
266.126	158.81
266.358	190.81
266.591	173.81
266.823	180.81
267.055	193.81
267.287	182.81
267.52	205.81
267.752	186.81
267.984	175.81
268.216	189.81
268.448	192.81
268.681	198.81
268.913	202.81
269.145	218.81
269.377	221.81
269.609	206.81
269.841	217.81
270.073	213.81
270.306	229.81
270.538	241.81
270.77	233.81
271.002	235.81
271.234	238.81
271.466	243.81
271.698	224.81
271.93	252.81
272.162	263.81
272.394	254.81
272.626	246.81
272.858	227.81
273.09	215.81
273.322	201.81
273.553	219.81
273.785	231.81
274.017	219.81
274.249	204.81
274.481	214.81
274.713	214.81
274.945	241.81
275.176	212.81
275.408	203.81
275.64	212.81
275.872	202.81
276.104	238.81
276.335	224.81
276.567	223.81
276.799	229.81
277.031	241.81
277.262	261.81
277.494	244.81
277.726	225.81
277.957	215.81
278.189	218.81
278.421	213.81
278.652	221.81
278.884	229.81
279.115	216.81
279.347	216.81
279.579	229.81
279.81	216.81
280.042	221.81
280.273	221.81
280.505	217.81
280.736	214.81
280.968	200.81
281.199	228.81
281.431	218.81
281.662	230.81
281.894	219.81
282.125	216.81
282.356	202.81
282.588	264.81
282.819	252.81
283.051	228.81
283.282	237.81
283.513	233.81
283.745	227.81
283.976	219.81
284.207	217.81
284.439	225.81
284.67	222.81
284.901	226.81
285.132	207.81
285.364	222.81
285.595	227.81
285.826	229.81
286.057	217.81
286.288	215.81
286.52	250.81
286.751	230.81
286.982	231.81
287.213	221.81
287.444	242.81
287.675	216.81
287.906	246.81
288.138	242.81
288.369	270.81
288.6	242.81
288.831	245.81
289.062	236.81
289.293	225.81
289.524	253.81
289.755	236.81
289.986	223.81
290.217	228.81
290.448	241.81
290.679	236.81
290.91	232.81
291.141	217.81
291.371	245.81
291.602	252.81
291.833	232.81
292.064	249.81
292.295	240.81
292.526	243.81
292.757	241.81
292.987	254.81
293.218	238.81
293.449	241.81
293.68	234.81
293.91	241.81
294.141	238.81
294.372	241.81
294.603	233.81
294.833	248.81
295.064	236.81
295.295	234.81
295.525	216.81
295.756	255.81
295.987	262.81
296.217	261.81
296.448	276.81
296.679	252.81
296.909	254.81
297.14	242.81
297.37	245.81
297.601	252.81
297.831	238.81
298.062	231.81
298.292	223.81
298.523	250.81
298.753	259.81
298.984	251.81
299.214	258.81
299.445	262.81
299.675	259.81
299.905	236.81
300.136	252.81
300.366	273.81
300.597	240.81
300.827	239.81
301.057	264.81
301.288	257.81
301.518	268.81
301.748	263.81
301.979	260.81
302.209	285.81
302.439	273.81
302.669	261.81
302.9	268.81
303.13	279.81
303.36	250.81
303.59	279.81
303.82	252.81
304.051	281.81
304.281	272.81
304.511	260.81
304.741	265.81
304.971	259.81
305.201	255.81
305.431	249.81
305.661	278.81
305.891	273.81
306.121	261.81
306.352	290.81
306.582	278.81
306.812	265.81
307.042	270.81
307.272	258.81
307.502	270.81
307.731	272.81
307.961	280.81
308.191	267.81
308.421	279.81
308.651	267.81
308.881	284.81
309.111	266.81
309.341	281.81
309.571	278.81
309.8	287.81
310.03	288.81
310.26	307.81
310.49	313.81
310.72	322.81
310.949	320.81
311.179	333.81
311.409	312.81
311.639	295.81
311.868	298.81
312.098	307.81
312.328	315.81
312.557	307.81
312.787	328.81
313.017	309.81
313.246	316.81
313.476	282.81
313.706	297.81
313.935	292.81
314.165	321.81
314.394	328.81
314.624	323.81
314.853	311.81
315.083	318.81
315.312	300.81
315.542	312.81
315.771	295.81
316.001	304.81
316.23	318.81
316.46	302.81
316.689	307.81
316.919	313.81
317.148	304.81
317.377	320.81
317.607	301.81
317.836	321.81
318.065	302.81
318.295	307.81
318.524	295.81
318.753	304.81
318.983	323.81
319.212	304.81
319.441	318.81
319.67	323.81
319.9	297.81
320.129	300.81
320.358	314.81
320.587	308.81
320.816	315.81
321.046	322.81
321.275	316.81
321.504	328.81
321.733	327.81
321.962	328.81
322.191	328.81
322.42	343.81
322.649	353.81
322.878	372.81
323.108	357.81
323.337	389.81
323.566	406.81
323.795	423.81
324.024	442.81
324.253	520.81
324.482	723.81
324.71	1065.81
324.939	1451.81
325.168	1194.81
325.397	658.81
325.626	463.81
325.855	416.81
326.084	376.81
326.313	392.81
326.542	397.81
326.77	419.81
326.999	494.81
327.228	672.81
327.457	953.81
327.686	1074.81
327.914	727.81
328.143	516.81
328.372	467.81
328.6	440.81
328.829	408.81
329.058	421.81
329.287	432.81
329.515	406.81
329.744	373.81
329.972	374.81
330.201	384.81
330.43	384.81
330.658	444.81
330.887	460.81
331.115	462.81
331.344	380.81
331.572	372.81
331.801	378.81
332.03	383.81
332.258	370.81
332.486	358.81
332.715	374.81
332.943	344.81
333.172	341.81
333.4	366.81
333.629	372.81
333.857	355.81
334.085	371.81
334.314	357.81
334.542	368.81
334.771	378.81
334.999	384.81
335.227	366.81
335.455	359.81
335.684	352.81
335.912	359.81
336.14	362.81
336.369	340.81
336.597	351.81
336.825	365.81
337.053	356.81
337.281	339.81
337.51	345.81
337.738	327.81
337.966	337.81
338.194	348.81
338.422	355.81
338.65	343.81
338.878	359.81
339.106	330.81
339.334	342.81
339.562	349.81
339.79	342.81
340.018	341.81
340.246	349.81
340.474	353.81
340.702	357.81
340.93	357.81
341.158	305.81
341.386	351.81
341.614	338.81
341.842	354.81
342.07	334.81
342.298	354.81
342.526	335.81
342.754	326.81
342.981	332.81
343.209	326.81
343.437	340.81
343.665	317.81
343.893	368.81
344.12	353.81
344.348	358.81
344.576	361.81
344.804	364.81
345.031	350.81
345.259	356.81
345.487	349.81
345.714	334.81
345.942	337.81
346.17	345.81
346.397	336.81
346.625	325.81
346.853	322.81
347.08	344.81
347.308	340.81
347.535	338.81
347.763	312.81
347.99	335.81
348.218	327.81
348.445	338.81
348.673	331.81
348.9	329.81
349.128	324.81
349.355	329.81
349.583	335.81
349.81	320.81
350.037	322.81
350.265	314.81
350.492	311.81
350.72	312.81
350.947	310.81
351.174	345.81
351.402	355.81
351.629	346.81
351.856	351.81
352.083	340.81
352.311	334.81
352.538	335.81
352.765	360.81
352.992	339.81
353.22	346.81
353.447	319.81
353.674	343.81
353.901	337.81
354.128	312.81
354.355	294.81
354.583	316.81
354.81	332.81
355.037	315.81
355.264	314.81
355.491	300.81
355.718	312.81
355.945	308.81
356.172	318.81
356.399	319.81
356.626	296.81
356.853	313.81
357.08	304.81
357.307	309.81
357.534	324.81
357.761	334.81
357.988	316.81
358.215	319.81
358.441	327.81
358.668	325.81
358.895	295.81
359.122	331.81
359.349	333.81
359.576	328.81
359.802	336.81
360.029	352.81
360.256	365.81
360.483	356.81
360.709	316.81
360.936	341.81
361.163	324.81
361.39	307.81
361.616	340.81
361.843	322.81
362.07	316.81
362.296	334.81
362.523	343.81
362.749	326.81
362.976	343.81
363.203	301.81
363.429	316.81
363.656	322.81
363.882	326.81
364.109	314.81
364.335	317.81
364.562	320.81
364.788	324.81
365.015	304.81
365.241	325.81
365.468	322.81
365.694	319.81
365.92	330.81
366.147	327.81
366.373	308.81
366.599	325.81
366.826	306.81
367.052	332.81
367.278	318.81
367.505	326.81
367.731	334.81
367.957	308.81
368.184	316.81
368.41	339.81
368.636	316.81
368.862	330.81
369.089	338.81
369.315	317.81
369.541	310.81
369.767	340.81
369.993	332.81
370.219	336.81
370.445	335.81
370.672	309.81
370.898	296.81
371.124	324.81
371.35	322.81
371.576	326.81
371.802	319.81
372.028	331.81
372.254	312.81
372.48	322.81
372.706	330.81
372.932	309.81
373.158	336.81
373.384	334.81
373.61	315.81
373.835	316.81
374.061	319.81
374.287	318.81
374.513	320.81
374.739	319.81
374.965	314.81
375.191	329.81
375.416	312.81
375.642	324.81
375.868	337.81
376.094	321.81
376.319	321.81
376.545	335.81
376.771	315.81
376.997	320.81
377.222	337.81
377.448	332.81
377.674	323.81
377.899	310.81
378.125	324.81
378.35	312.81
378.576	309.81
378.802	309.81
379.027	316.81
379.253	321.81
379.478	320.81
379.704	323.81
379.929	313.81
380.155	334.81
380.38	317.81
380.606	307.81
380.831	320.81
381.057	321.81
381.282	336.81
381.507	325.81
381.733	302.81
381.958	333.81
382.184	330.81
382.409	332.81
382.634	348.81
382.86	333.81
383.085	332.81
383.31	333.81
383.535	351.81
383.761	343.81
383.986	326.81
384.211	348.81
384.436	354.81
384.662	331.81
384.887	341.81
385.112	337.81
385.337	334.81
385.562	344.81
385.787	329.81
386.013	360.81
386.238	348.81
386.463	358.81
386.688	348.81
386.913	329.81
387.138	330.81
387.363	344.81
387.588	366.81
387.813	356.81
388.038	320.81
388.263	322.81
388.488	351.81
388.713	363.81
388.938	336.81
389.163	329.81
389.387	346.81
389.612	327.81
389.837	350.81
390.062	340.81
390.287	355.81
390.512	343.81
390.736	333.81
390.961	354.81
391.186	337.81
391.411	350.81
391.636	339.81
391.86	354.81
392.085	348.81
392.31	367.81
392.534	349.81
392.759	355.81
392.984	354.81
393.208	343.81
393.433	348.81
393.658	352.81
393.882	347.81
394.107	355.81
394.331	360.81
394.556	353.81
394.78	328.81
395.005	357.81
395.229	354.81
395.454	352.81
395.678	365.81
395.903	373.81
396.127	371.81
396.352	361.81
396.576	376.81
396.801	342.81
397.025	358.81
397.249	358.81
397.474	361.81
397.698	367.81
397.922	364.81
398.147	378.81
398.371	380.81
398.595	379.81
398.82	395.81
399.044	381.81
399.268	399.81
399.492	434.81
399.717	438.81
399.941	447.81
400.165	469.81
400.389	474.81
400.613	439.81
400.837	404.81
401.062	402.81
401.286	380.81
401.51	397.81
401.734	391.81
401.958	395.81
402.182	390.81
402.406	379.81
402.63	395.81
402.854	392.81
403.078	396.81
403.302	394.81
403.526	399.81
403.75	397.81
403.974	406.81
404.198	391.81
404.422	389.81
404.645	415.81
404.869	417.81
405.093	420.81
405.317	428.81
405.541	463.81
405.765	430.81
405.988	415.81
406.212	412.81
406.436	438.81
406.66	447.81
406.883	430.81
407.107	448.81
407.331	469.81
407.555	520.81
407.778	523.81
408.002	503.81
408.226	441.81
408.449	453.81
408.673	444.81
408.896	448.81
409.12	494.81
409.344	444.81
409.567	400.81
409.791	385.81
410.014	388.81
410.238	380.81
410.461	394.81
410.685	421.81
410.908	391.81
411.132	429.81
411.355	447.81
411.578	416.81
411.802	406.81
412.025	409.81
412.249	407.81
412.472	387.81
412.695	401.81
412.919	408.81
413.142	416.81
413.365	394.81
413.589	386.81
413.812	385.81
414.035	381.81
414.258	374.81
414.482	387.81
414.705	386.81
414.928	378.81
415.151	364.81
415.374	382.81
415.597	358.81
415.821	388.81
416.044	386.81
416.267	392.81
416.49	398.81
416.713	368.81
416.936	410.81
417.159	385.81
417.382	352.81
417.605	376.81
417.828	394.81
418.051	415.81
418.274	383.81
418.497	384.81
418.72	368.81
418.943	374.81
419.166	383.81
419.389	380.81
419.611	380.81
419.834	394.81
420.057	396.81
420.28	417.81
420.503	394.81
420.726	390.81
420.948	401.81
421.171	417.81
421.394	436.81
421.617	389.81
421.839	377.81
422.062	398.81
422.285	399.81
422.507	446.81
422.73	492.81
422.953	466.81
423.175	434.81
423.398	433.81
423.621	418.81
423.843	442.81
424.066	407.81
424.288	425.81
424.511	429.81
424.733	460.81
424.956	536.81
425.178	512.81
425.401	497.81
425.623	510.81
425.846	435.81
426.068	424.81
426.291	425.81
426.513	405.81
426.735	431.81
426.958	448.81
427.18	506.81
427.402	579.81
427.625	640.81
427.847	562.81
428.069	472.81
428.292	437.81
428.514	428.81
428.736	399.81
428.958	385.81
429.181	400.81
429.403	378.81
429.625	394.81
429.847	414.81
430.069	455.81
430.292	459.81
430.514	407.81
430.736	393.81
430.958	385.81
431.18	369.81
431.402	382.81
431.624	377.81
431.846	367.81
432.068	370.81
432.29	354.81
432.512	407.81
432.734	394.81
432.956	380.81
433.178	369.81
433.4	388.81
433.622	373.81
433.844	389.81
434.066	376.81
434.287	377.81
434.509	383.81
434.731	397.81
434.953	392.81
435.175	414.81
435.397	426.81
435.618	433.81
435.84	453.81
436.062	497.81
436.284	546.81
436.505	464.81
436.727	436.81
436.949	403.81
437.17	404.81
437.392	403.81
437.614	432.81
437.835	426.81
438.057	493.81
438.278	546.81
438.5	544.81
438.721	611.81
438.943	555.81
439.165	471.81
439.386	438.81
439.608	427.81
439.829	421.81
440.05	426.81
440.272	459.81
440.493	433.81
440.715	412.81
440.936	430.81
441.158	400.81
441.379	390.81
441.6	398.81
441.822	430.81
442.043	461.81
442.264	512.81
442.486	512.81
442.707	442.81
442.928	423.81
443.149	411.81
443.371	448.81
443.592	489.81
443.813	532.81
444.034	586.81
444.255	493.81
444.476	424.81
444.698	431.81
444.919	426.81
445.14	542.81
445.361	485.81
445.582	449.81
445.803	488.81
446.024	572.81
446.245	532.81
446.466	509.81
446.687	434.81
446.908	388.81
447.129	384.81
447.35	391.81
447.571	371.81
447.792	392.81
448.013	392.81
448.234	407.81
448.455	432.81
448.675	522.81
448.896	606.81
449.117	519.81
449.338	485.81
449.559	547.81
449.779	629.81
450	516.81
450.221	430.81
450.442	398.81
450.662	373.81
450.883	375.81
451.104	385.81
451.324	406.81
451.545	385.81
451.766	360.81
451.986	348.81
452.207	350.81
452.428	351.81
452.648	341.81
452.869	345.81
453.089	349.81
453.31	395.81
453.53	348.81
453.751	331.81
453.971	361.81
454.192	361.81
454.412	364.81
454.633	344.81
454.853	338.81
455.073	340.81
455.294	371.81
455.514	420.81
455.734	400.81
455.955	351.81
456.175	360.81
456.395	357.81
456.616	328.81
456.836	331.81
457.056	325.81
457.276	302.81
457.497	333.81
457.717	316.81
457.937	344.81
458.157	340.81
458.377	342.81
458.598	353.81
458.818	392.81
459.038	447.81
459.258	462.81
459.478	393.81
459.698	380.81
459.918	360.81
460.138	367.81
460.358	370.81
460.578	371.81
460.798	375.81
461.018	389.81
461.238	384.81
461.458	377.81
461.678	365.81
461.898	359.81
462.118	378.81
462.338	406.81
462.558	386.81
462.777	416.81
462.997	398.81
463.217	403.81
463.437	401.81
463.657	394.81
463.876	401.81
464.096	418.81
464.316	392.81
464.536	405.81
464.755	406.81
464.975	392.81
465.195	442.81
465.414	463.81
465.634	426.81
465.854	396.81
466.073	374.81
466.293	378.81
466.512	368.81
466.732	361.81
466.951	380.81
467.171	372.81
467.391	362.81
467.61	360.81
467.829	358.81
468.049	360.81
468.268	357.81
468.488	360.81
468.707	334.81
468.927	347.81
469.146	368.81
469.365	367.81
469.585	354.81
469.804	359.81
470.023	371.81
470.243	351.81
470.462	366.81
470.681	359.81
470.901	384.81
471.12	366.81
471.339	362.81
471.558	384.81
471.777	368.81
471.997	373.81
472.216	342.81
472.435	358.81
472.654	350.81
472.873	361.81
473.092	369.81
473.311	370.81
473.53	364.81
473.749	388.81
473.968	381.81
474.187	456.81
474.406	492.81
474.625	409.81
474.844	368.81
475.063	363.81
475.282	381.81
475.501	370.81
475.72	373.81
475.939	375.81
476.158	376.81
476.377	375.81
476.596	369.81
476.814	370.81
477.033	399.81
477.252	393.81
477.471	371.81
477.69	380.81
477.908	398.81
478.127	383.81
478.346	364.81
478.564	414.81
478.783	377.81
479.002	418.81
479.22	414.81
479.439	436.81
479.658	441.81
479.876	403.81
480.095	450.81
480.313	447.81
480.532	456.81
480.751	421.81
480.969	459.81
481.188	459.81
481.406	463.81
481.624	441.81
481.843	414.81
482.061	446.81
482.28	415.81
482.498	415.81
482.717	421.81
482.935	428.81
483.153	432.81
483.372	433.81
483.59	418.81
483.808	426.81
484.027	426.81
484.245	414.81
484.463	432.81
484.681	424.81
484.9	432.81
485.118	442.81
485.336	429.81
485.554	424.81
485.772	429.81
485.99	415.81
486.209	424.81
486.427	468.81
486.645	466.81
486.863	452.81
487.081	446.81
487.299	438.81
487.517	465.81
487.735	439.81
487.953	444.81
488.171	457.81
488.389	458.81
488.607	463.81
488.825	452.81
489.043	465.81
489.261	450.81
489.479	446.81
489.696	454.81
489.914	465.81
490.132	492.81
490.35	464.81
490.568	473.81
490.786	485.81
491.003	467.81
491.221	501.81
491.439	497.81
491.657	481.81
491.874	494.81
492.092	508.81
492.31	507.81
492.527	515.81
492.745	523.81
492.963	515.81
493.18	511.81
493.398	516.81
493.615	515.81
493.833	496.81
494.05	518.81
494.268	515.81
494.485	511.81
494.703	520.81
494.92	517.81
495.138	533.81
495.355	528.81
495.573	542.81
495.79	520.81
496.008	541.81
496.225	527.81
496.442	554.81
496.66	537.81
496.877	550.81
497.094	542.81
497.312	527.81
497.529	549.81
497.746	531.81
497.963	563.81
498.181	585.81
498.398	577.81
498.615	586.81
498.832	590.81
499.049	608.81
499.267	622.81
499.484	640.81
499.701	653.81
499.918	680.81
500.135	691.81
500.352	740.81
500.569	756.81
500.786	727.81
501.003	731.81
501.22	697.81
501.437	698.81
501.654	658.81
501.871	660.81
502.088	631.81
502.305	590.81
