Data from 1983.PennyLincolnUp.Lamp.En5.5.200Scan.071819.P1_HRD10591_16-54-04-965.txt Node
Date: Thu Jul 18 16:54:04 EDT 2019
User: cochatt
Spectrometer: HR+D1059
Trigger mode: 1
Integration Time (sec): 1.000000E-1
Scans to average: 1
Electric dark correction enabled: true
Nonlinearity correction enabled: false
Boxcar width: 0
XAxis mode: Wavelengths
Number of Pixels in Spectrum: 2048
>>>>>Begin Spectral Data<<<<<
223.165	-3.69
223.4	-3.69
223.635	-3.69
223.869	-17.69
224.104	-32.69
224.338	-12.69
224.573	-24.69
224.808	-17.69
225.042	-10.69
225.277	6.31
225.511	-6.69
225.746	-6.69
225.98	2.31
226.215	14.31
226.449	19.31
226.683	23.31
226.918	34.31
227.152	33.31
227.387	29.31
227.621	24.31
227.856	20.31
228.09	37.31
228.324	71.31
228.559	61.31
228.793	71.31
229.027	81.31
229.262	100.31
229.496	103.31
229.73	119.31
229.964	136.31
230.199	128.31
230.433	110.31
230.667	102.31
230.901	108.31
231.136	99.31
231.37	101.31
231.604	117.31
231.838	112.31
232.072	102.31
232.306	121.31
232.541	104.31
232.775	107.31
233.009	97.31
233.243	110.31
233.477	125.31
233.711	109.31
233.945	106.31
234.179	109.31
234.413	101.31
234.647	117.31
234.881	108.31
235.115	112.31
235.349	116.31
235.583	118.31
235.817	123.31
236.051	123.31
236.285	124.31
236.519	114.31
236.753	116.31
236.987	128.31
237.221	176.31
237.455	209.31
237.689	165.31
237.922	129.31
238.156	127.31
238.39	117.31
238.624	107.31
238.858	120.31
239.091	109.31
239.325	114.31
239.559	119.31
239.793	126.31
240.027	127.31
240.26	138.31
240.494	143.31
240.728	132.31
240.961	134.31
241.195	147.31
241.429	136.31
241.662	128.31
241.896	112.31
242.13	122.31
242.363	123.31
242.597	124.31
242.83	122.31
243.064	119.31
243.298	133.31
243.531	119.31
243.765	124.31
243.998	133.31
244.232	141.31
244.465	138.31
244.699	136.31
244.932	150.31
245.166	133.31
245.399	132.31
245.633	138.31
245.866	122.31
246.099	135.31
246.333	130.31
246.566	152.31
246.8	141.31
247.033	144.31
247.266	144.31
247.5	142.31
247.733	165.31
247.966	142.31
248.2	153.31
248.433	152.31
248.666	166.31
248.899	165.31
249.133	178.31
249.366	182.31
249.599	188.31
249.832	173.31
250.066	174.31
250.299	160.31
250.532	172.31
250.765	182.31
250.998	209.31
251.231	203.31
251.465	193.31
251.698	203.31
251.931	161.31
252.164	189.31
252.397	192.31
252.63	202.31
252.863	182.31
253.096	180.31
253.329	221.31
253.562	205.31
253.795	209.31
254.028	188.31
254.261	189.31
254.494	212.31
254.727	221.31
254.96	243.31
255.193	238.31
255.426	213.31
255.659	204.31
255.892	224.31
256.124	202.31
256.357	202.31
256.59	207.31
256.823	199.31
257.056	192.31
257.289	192.31
257.521	189.31
257.754	189.31
257.987	188.31
258.22	202.31
258.452	184.31
258.685	204.31
258.918	196.31
259.151	197.31
259.383	208.31
259.616	189.31
259.849	218.31
260.081	204.31
260.314	236.31
260.547	248.31
260.779	238.31
261.012	218.31
261.244	202.31
261.477	203.31
261.71	201.31
261.942	209.31
262.175	210.31
262.407	203.31
262.64	190.31
262.872	216.31
263.105	206.31
263.337	196.31
263.57	194.31
263.802	193.31
264.035	173.31
264.267	200.31
264.499	215.31
264.732	183.31
264.964	198.31
265.197	198.31
265.429	184.31
265.661	192.31
265.894	206.31
266.126	180.31
266.358	201.31
266.591	213.31
266.823	213.31
267.055	213.31
267.287	214.31
267.52	216.31
267.752	204.31
267.984	210.31
268.216	204.31
268.448	209.31
268.681	207.31
268.913	227.31
269.145	240.31
269.377	245.31
269.609	257.31
269.841	248.31
270.073	248.31
270.306	283.31
270.538	292.31
270.77	259.31
271.002	283.31
271.234	266.31
271.466	278.31
271.698	272.31
271.93	293.31
272.162	292.31
272.394	297.31
272.626	288.31
272.858	247.31
273.09	263.31
273.322	260.31
273.553	243.31
273.785	248.31
274.017	240.31
274.249	234.31
274.481	257.31
274.713	242.31
274.945	243.31
275.176	236.31
275.408	226.31
275.64	242.31
275.872	239.31
276.104	235.31
276.335	244.31
276.567	262.31
276.799	265.31
277.031	284.31
277.262	272.31
277.494	284.31
277.726	281.31
277.957	258.31
278.189	247.31
278.421	245.31
278.652	237.31
278.884	242.31
279.115	234.31
279.347	233.31
279.579	231.31
279.81	239.31
280.042	243.31
280.273	263.31
280.505	270.31
280.736	231.31
280.968	235.31
281.199	236.31
281.431	232.31
281.662	233.31
281.894	242.31
282.125	245.31
282.356	264.31
282.588	276.31
282.819	269.31
283.051	243.31
283.282	236.31
283.513	265.31
283.745	260.31
283.976	256.31
284.207	269.31
284.439	256.31
284.67	246.31
284.901	267.31
285.132	256.31
285.364	257.31
285.595	259.31
285.826	247.31
286.057	255.31
286.288	264.31
286.52	257.31
286.751	244.31
286.982	253.31
287.213	265.31
287.444	248.31
287.675	257.31
287.906	271.31
288.138	277.31
288.369	284.31
288.6	271.31
288.831	267.31
289.062	251.31
289.293	260.31
289.524	249.31
289.755	245.31
289.986	256.31
290.217	261.31
290.448	260.31
290.679	271.31
290.91	266.31
291.141	252.31
291.371	249.31
291.602	253.31
291.833	259.31
292.064	240.31
292.295	264.31
292.526	250.31
292.757	271.31
292.987	248.31
293.218	236.31
293.449	236.31
293.68	267.31
293.91	250.31
294.141	251.31
294.372	259.31
294.603	271.31
294.833	242.31
295.064	276.31
295.295	280.31
295.525	274.31
295.756	270.31
295.987	273.31
296.217	293.31
296.448	314.31
296.679	268.31
296.909	276.31
297.14	260.31
297.37	281.31
297.601	279.31
297.831	270.31
298.062	282.31
298.292	261.31
298.523	276.31
298.753	268.31
298.984	280.31
299.214	271.31
299.445	254.31
299.675	272.31
299.905	276.31
300.136	284.31
300.366	280.31
300.597	284.31
300.827	287.31
301.057	314.31
301.288	296.31
301.518	283.31
301.748	285.31
301.979	290.31
302.209	293.31
302.439	305.31
302.669	293.31
302.9	292.31
303.13	293.31
303.36	284.31
303.59	311.31
303.82	304.31
304.051	302.31
304.281	296.31
304.511	282.31
304.741	290.31
304.971	288.31
305.201	275.31
305.431	283.31
305.661	283.31
305.891	293.31
306.121	299.31
306.352	305.31
306.582	304.31
306.812	320.31
307.042	281.31
307.272	305.31
307.502	294.31
307.731	291.31
307.961	308.31
308.191	305.31
308.421	298.31
308.651	297.31
308.881	310.31
309.111	312.31
309.341	313.31
309.571	333.31
309.8	336.31
310.03	344.31
310.26	334.31
310.49	360.31
310.72	340.31
310.949	360.31
311.179	372.31
311.409	374.31
311.639	346.31
311.868	348.31
312.098	325.31
312.328	365.31
312.557	386.31
312.787	384.31
313.017	373.31
313.246	358.31
313.476	344.31
313.706	344.31
313.935	351.31
314.165	356.31
314.394	362.31
314.624	364.31
314.853	342.31
315.083	328.31
315.312	325.31
315.542	350.31
315.771	336.31
316.001	360.31
316.23	331.31
316.46	337.31
316.689	338.31
316.919	340.31
317.148	359.31
317.377	357.31
317.607	352.31
317.836	346.31
318.065	346.31
318.295	333.31
318.524	343.31
318.753	346.31
318.983	349.31
319.212	347.31
319.441	346.31
319.67	367.31
319.9	341.31
320.129	370.31
320.358	349.31
320.587	364.31
320.816	380.31
321.046	374.31
321.275	359.31
321.504	370.31
321.733	362.31
321.962	362.31
322.191	410.31
322.42	408.31
322.649	389.31
322.878	425.31
323.108	442.31
323.337	462.31
323.566	473.31
323.795	508.31
324.024	566.31
324.253	700.31
324.482	991.31
324.71	1528.31
324.939	2008.31
325.168	1691.31
325.397	902.31
325.626	610.31
325.855	518.31
326.084	484.31
326.313	465.31
326.542	475.31
326.77	526.31
326.999	618.31
327.228	880.31
327.457	1277.31
327.686	1483.31
327.914	1018.31
328.143	665.31
328.372	611.31
328.6	568.31
328.829	515.31
329.058	558.31
329.287	532.31
329.515	518.31
329.744	479.31
329.972	464.31
330.201	486.31
330.43	507.31
330.658	552.31
330.887	569.31
331.115	553.31
331.344	464.31
331.572	457.31
331.801	432.31
332.03	426.31
332.258	408.31
332.486	407.31
332.715	403.31
332.943	381.31
333.172	424.31
333.4	436.31
333.629	414.31
333.857	420.31
334.085	417.31
334.314	436.31
334.542	462.31
334.771	456.31
334.999	453.31
335.227	426.31
335.455	396.31
335.684	391.31
335.912	407.31
336.14	388.31
336.369	386.31
336.597	390.31
336.825	388.31
337.053	393.31
337.281	406.31
337.51	393.31
337.738	398.31
337.966	390.31
338.194	411.31
338.422	394.31
338.65	409.31
338.878	385.31
339.106	382.31
339.334	346.31
339.562	378.31
339.79	374.31
340.018	384.31
340.246	382.31
340.474	369.31
340.702	400.31
340.93	382.31
341.158	387.31
341.386	390.31
341.614	391.31
341.842	366.31
342.07	398.31
342.298	370.31
342.526	382.31
342.754	390.31
342.981	380.31
343.209	363.31
343.437	359.31
343.665	380.31
343.893	372.31
344.12	393.31
344.348	388.31
344.576	384.31
344.804	400.31
345.031	392.31
345.259	390.31
345.487	388.31
345.714	399.31
345.942	377.31
346.17	387.31
346.397	374.31
346.625	377.31
346.853	378.31
347.08	370.31
347.308	402.31
347.535	366.31
347.763	392.31
347.99	380.31
348.218	394.31
348.445	380.31
348.673	378.31
348.9	364.31
349.128	376.31
349.355	358.31
349.583	361.31
349.81	368.31
350.037	359.31
350.265	347.31
350.492	365.31
350.72	350.31
350.947	390.31
351.174	406.31
351.402	395.31
351.629	392.31
351.856	382.31
352.083	373.31
352.311	383.31
352.538	391.31
352.765	384.31
352.992	378.31
353.22	381.31
353.447	375.31
353.674	353.31
353.901	356.31
354.128	340.31
354.355	352.31
354.583	340.31
354.81	333.31
355.037	356.31
355.264	343.31
355.491	334.31
355.718	340.31
355.945	338.31
356.172	332.31
356.399	331.31
356.626	325.31
356.853	346.31
357.08	345.31
357.307	347.31
357.534	339.31
357.761	348.31
357.988	347.31
358.215	349.31
358.441	346.31
358.668	355.31
358.895	361.31
359.122	352.31
359.349	371.31
359.576	378.31
359.802	399.31
360.029	427.31
360.256	430.31
360.483	422.31
360.709	390.31
360.936	366.31
361.163	388.31
361.39	378.31
361.616	378.31
361.843	361.31
362.07	369.31
362.296	381.31
362.523	379.31
362.749	382.31
362.976	376.31
363.203	368.31
363.429	361.31
363.656	349.31
363.882	344.31
364.109	353.31
364.335	344.31
364.562	358.31
364.788	337.31
365.015	359.31
365.241	352.31
365.468	369.31
365.694	361.31
365.92	361.31
366.147	384.31
366.373	376.31
366.599	363.31
366.826	352.31
367.052	342.31
367.278	355.31
367.505	356.31
367.731	380.31
367.957	355.31
368.184	375.31
368.41	368.31
368.636	381.31
368.862	370.31
369.089	350.31
369.315	346.31
369.541	353.31
369.767	348.31
369.993	341.31
370.219	361.31
370.445	346.31
370.672	335.31
370.898	335.31
371.124	346.31
371.35	356.31
371.576	344.31
371.802	347.31
372.028	338.31
372.254	348.31
372.48	347.31
372.706	341.31
372.932	349.31
373.158	338.31
373.384	342.31
373.61	346.31
373.835	343.31
374.061	341.31
374.287	340.31
374.513	376.31
374.739	364.31
374.965	348.31
375.191	336.31
375.416	340.31
375.642	364.31
375.868	328.31
376.094	341.31
376.319	361.31
376.545	354.31
376.771	338.31
376.997	339.31
377.222	336.31
377.448	341.31
377.674	352.31
377.899	320.31
378.125	339.31
378.35	318.31
378.576	341.31
378.802	345.31
379.027	335.31
379.253	340.31
379.478	357.31
379.704	333.31
379.929	340.31
380.155	332.31
380.38	319.31
380.606	357.31
380.831	336.31
381.057	338.31
381.282	334.31
381.507	347.31
381.733	356.31
381.958	342.31
382.184	351.31
382.409	374.31
382.634	347.31
382.86	346.31
383.085	334.31
383.31	350.31
383.535	345.31
383.761	348.31
383.986	355.31
384.211	353.31
384.436	385.31
384.662	354.31
384.887	347.31
385.112	382.31
385.337	378.31
385.562	378.31
385.787	381.31
386.013	391.31
386.238	378.31
386.463	377.31
386.688	376.31
386.913	372.31
387.138	379.31
387.363	364.31
387.588	359.31
387.813	348.31
388.038	372.31
388.263	361.31
388.488	366.31
388.713	363.31
388.938	357.31
389.163	348.31
389.387	380.31
389.612	359.31
389.837	358.31
390.062	355.31
390.287	371.31
390.512	361.31
390.736	369.31
390.961	363.31
391.186	345.31
391.411	372.31
391.636	363.31
391.86	376.31
392.085	396.31
392.31	404.31
392.534	388.31
392.759	387.31
392.984	376.31
393.208	361.31
393.433	376.31
393.658	363.31
393.882	372.31
394.107	373.31
394.331	381.31
394.556	368.31
394.78	365.31
395.005	380.31
395.229	369.31
395.454	383.31
395.678	383.31
395.903	403.31
396.127	398.31
396.352	400.31
396.576	406.31
396.801	391.31
397.025	384.31
397.249	389.31
397.474	388.31
397.698	383.31
397.922	433.31
398.147	417.31
398.371	405.31
398.595	406.31
398.82	380.31
399.044	398.31
399.268	444.31
399.492	444.31
399.717	480.31
399.941	499.31
400.165	512.31
400.389	511.31
400.613	463.31
400.837	429.31
401.062	448.31
401.286	424.31
401.51	430.31
401.734	433.31
401.958	428.31
402.182	432.31
402.406	429.31
402.63	448.31
402.854	428.31
403.078	436.31
403.302	408.31
403.526	442.31
403.75	415.31
403.974	445.31
404.198	412.31
404.422	434.31
404.645	418.31
404.869	422.31
405.093	486.31
405.317	486.31
405.541	481.31
405.765	470.31
405.988	469.31
406.212	480.31
406.436	516.31
406.66	506.31
406.883	474.31
407.107	493.31
407.331	536.31
407.555	564.31
407.778	570.31
408.002	509.31
408.226	487.31
408.449	452.31
408.673	481.31
408.896	497.31
409.12	516.31
409.344	500.31
409.567	445.31
409.791	432.31
410.014	430.31
410.238	451.31
410.461	427.31
410.685	453.31
410.908	461.31
411.132	491.31
411.355	487.31
411.578	467.31
411.802	438.31
412.025	437.31
412.249	422.31
412.472	439.31
412.695	477.31
412.919	473.31
413.142	434.31
413.365	438.31
413.589	444.31
413.812	405.31
414.035	398.31
414.258	409.31
414.482	417.31
414.705	400.31
414.928	411.31
415.151	399.31
415.374	434.31
415.597	406.31
415.821	406.31
416.044	406.31
416.267	417.31
416.49	402.31
416.713	406.31
416.936	417.31
417.159	436.31
417.382	410.31
417.605	438.31
417.828	418.31
418.051	436.31
418.274	413.31
418.497	421.31
418.72	399.31
418.943	390.31
419.166	427.31
419.389	439.31
419.611	432.31
419.834	430.31
420.057	438.31
420.28	418.31
420.503	410.31
420.726	428.31
420.948	446.31
421.171	471.31
421.394	496.31
421.617	454.31
421.839	429.31
422.062	411.31
422.285	457.31
422.507	488.31
422.73	542.31
422.953	520.31
423.175	472.31
423.398	470.31
423.621	470.31
423.843	471.31
424.066	461.31
424.288	478.31
424.511	493.31
424.733	516.31
424.956	564.31
425.178	551.31
425.401	550.31
425.623	603.31
425.846	497.31
426.068	474.31
426.291	468.31
426.513	425.31
426.735	461.31
426.958	496.31
427.18	566.31
427.402	677.31
427.625	732.31
427.847	642.31
428.069	560.31
428.292	513.31
428.514	469.31
428.736	452.31
428.958	430.31
429.181	441.31
429.403	418.31
429.625	438.31
429.847	461.31
430.069	514.31
430.292	499.31
430.514	436.31
430.736	435.31
430.958	415.31
431.18	416.31
431.402	397.31
431.624	407.31
431.846	414.31
432.068	386.31
432.29	414.31
432.512	408.31
432.734	421.31
432.956	419.31
433.178	413.31
433.4	417.31
433.622	420.31
433.844	414.31
434.066	403.31
434.287	418.31
434.509	413.31
434.731	412.31
434.953	413.31
435.175	448.31
435.397	455.31
435.618	454.31
435.84	494.31
436.062	580.31
436.284	611.31
436.505	505.31
436.727	467.31
436.949	443.31
437.17	427.31
437.392	444.31
437.614	437.31
437.835	488.31
438.057	573.31
438.278	636.31
438.5	611.31
438.721	658.31
438.943	630.31
439.165	543.31
439.386	456.31
439.608	460.31
439.829	494.31
440.05	504.31
440.272	520.31
440.493	505.31
440.715	479.31
440.936	429.31
441.158	425.31
441.379	450.31
441.6	478.31
441.822	500.31
442.043	498.31
442.264	556.31
442.486	588.31
442.707	507.31
442.928	470.31
443.149	482.31
443.371	501.31
443.592	541.31
443.813	609.31
444.034	648.31
444.255	552.31
444.476	487.31
444.698	466.31
444.919	452.31
445.14	555.31
445.361	525.31
445.582	509.31
445.803	561.31
446.024	640.31
446.245	640.31
446.466	581.31
446.687	498.31
446.908	464.31
447.129	433.31
447.35	433.31
447.571	435.31
447.792	428.31
448.013	440.31
448.234	459.31
448.455	503.31
448.675	596.31
448.896	696.31
449.117	541.31
449.338	540.31
449.559	643.31
449.779	665.31
450	558.31
450.221	473.31
450.442	475.31
450.662	438.31
450.883	432.31
451.104	450.31
451.324	436.31
451.545	417.31
451.766	402.31
451.986	392.31
452.207	417.31
452.428	390.31
452.648	401.31
452.869	380.31
453.089	419.31
453.31	424.31
453.53	392.31
453.751	382.31
453.971	399.31
454.192	430.31
454.412	396.31
454.633	396.31
454.853	401.31
455.073	379.31
455.294	423.31
455.514	467.31
455.734	444.31
455.955	394.31
456.175	370.31
456.395	362.31
456.616	374.31
456.836	374.31
457.056	375.31
457.276	378.31
457.497	373.31
457.717	375.31
457.937	356.31
458.157	365.31
458.377	373.31
458.598	404.31
458.818	450.31
459.038	551.31
459.258	530.31
459.478	460.31
459.698	406.31
459.918	416.31
460.138	400.31
460.358	401.31
460.578	412.31
460.798	419.31
461.018	430.31
461.238	419.31
461.458	408.31
461.678	419.31
461.898	418.31
462.118	402.31
462.338	411.31
462.558	408.31
462.777	405.31
462.997	421.31
463.217	442.31
463.437	444.31
463.657	416.31
463.876	429.31
464.096	437.31
464.316	429.31
464.536	430.31
464.755	437.31
464.975	452.31
465.195	502.31
465.414	584.31
465.634	477.31
465.854	422.31
466.073	405.31
466.293	415.31
466.512	391.31
466.732	381.31
466.951	380.31
467.171	392.31
467.391	398.31
467.61	412.31
467.829	414.31
468.049	393.31
468.268	426.31
468.488	393.31
468.707	398.31
468.927	401.31
469.146	384.31
469.365	368.31
469.585	379.31
469.804	376.31
470.023	404.31
470.243	411.31
470.462	420.31
470.681	429.31
470.901	421.31
471.12	414.31
471.339	396.31
471.558	404.31
471.777	408.31
471.997	392.31
472.216	412.31
472.435	428.31
472.654	415.31
472.873	410.31
473.092	406.31
473.311	408.31
473.53	392.31
473.749	407.31
473.968	465.31
474.187	551.31
474.406	532.31
474.625	448.31
474.844	408.31
475.063	399.31
475.282	395.31
475.501	395.31
475.72	423.31
475.939	409.31
476.158	417.31
476.377	424.31
476.596	404.31
476.814	424.31
477.033	409.31
477.252	418.31
477.471	413.31
477.69	419.31
477.908	419.31
478.127	429.31
478.346	431.31
478.564	436.31
478.783	444.31
479.002	447.31
479.22	442.31
479.439	457.31
479.658	482.31
479.876	493.31
480.095	476.31
480.313	516.31
480.532	498.31
480.751	499.31
480.969	476.31
481.188	528.31
481.406	551.31
481.624	489.31
481.843	475.31
482.061	468.31
482.28	460.31
482.498	466.31
482.717	482.31
482.935	465.31
483.153	459.31
483.372	477.31
483.59	457.31
483.808	484.31
484.027	450.31
484.245	476.31
484.463	468.31
484.681	467.31
484.9	457.31
485.118	494.31
485.336	488.31
485.554	493.31
485.772	478.31
485.99	475.31
486.209	489.31
486.427	498.31
486.645	510.31
486.863	509.31
487.081	521.31
487.299	490.31
487.517	512.31
487.735	500.31
487.953	505.31
488.171	479.31
488.389	491.31
488.607	508.31
488.825	512.31
489.043	476.31
489.261	516.31
489.479	511.31
489.696	506.31
489.914	503.31
490.132	532.31
490.35	528.31
490.568	534.31
490.786	540.31
491.003	554.31
491.221	544.31
491.439	572.31
491.657	575.31
491.874	554.31
492.092	587.31
492.31	579.31
492.527	596.31
492.745	581.31
492.963	576.31
493.18	594.31
493.398	600.31
493.615	601.31
493.833	598.31
494.05	593.31
494.268	596.31
494.485	616.31
494.703	557.31
494.92	595.31
495.138	615.31
495.355	590.31
495.573	596.31
495.79	610.31
496.008	612.31
496.225	600.31
496.442	610.31
496.66	610.31
496.877	601.31
497.094	602.31
497.312	606.31
497.529	617.31
497.746	643.31
497.963	620.31
498.181	655.31
498.398	644.31
498.615	648.31
498.832	670.31
499.049	672.31
499.267	667.31
499.484	691.31
499.701	713.31
499.918	729.31
500.135	756.31
500.352	772.31
500.569	755.31
500.786	779.31
501.003	772.31
501.22	765.31
501.437	752.31
501.654	766.31
501.871	741.31
502.088	718.31
