Data from 1983.PennyLincolnUp.Lamp.En5.5.200Scan.071819.P1_HRD10591_16-53-29-966.txt Node
Date: Thu Jul 18 16:53:29 EDT 2019
User: cochatt
Spectrometer: HR+D1059
Trigger mode: 1
Integration Time (sec): 1.000000E-1
Scans to average: 1
Electric dark correction enabled: true
Nonlinearity correction enabled: false
Boxcar width: 0
XAxis mode: Wavelengths
Number of Pixels in Spectrum: 2048
>>>>>Begin Spectral Data<<<<<
223.165	-8.81
223.4	-8.81
223.635	-8.81
223.869	1.19
224.104	-15.81
224.338	-28.81
224.573	-29.81
224.808	-3.81
225.042	-11.81
225.277	6.19
225.511	-4.81
225.746	-5.81
225.98	17.19
226.215	12.19
226.449	16.19
226.683	22.19
226.918	22.19
227.152	12.19
227.387	33.19
227.621	42.19
227.856	48.19
228.09	53.19
228.324	49.19
228.559	58.19
228.793	75.19
229.027	82.19
229.262	113.19
229.496	114.19
229.73	117.19
229.964	149.19
230.199	133.19
230.433	118.19
230.667	125.19
230.901	108.19
231.136	97.19
231.37	119.19
231.604	114.19
231.838	100.19
232.072	102.19
232.306	120.19
232.541	117.19
232.775	112.19
233.009	116.19
233.243	114.19
233.477	112.19
233.711	110.19
233.945	114.19
234.179	112.19
234.413	105.19
234.647	122.19
234.881	107.19
235.115	103.19
235.349	112.19
235.583	122.19
235.817	116.19
236.051	128.19
236.285	99.19
236.519	125.19
236.753	129.19
236.987	142.19
237.221	167.19
237.455	208.19
237.689	164.19
237.922	141.19
238.156	118.19
238.39	133.19
238.624	113.19
238.858	130.19
239.091	120.19
239.325	117.19
239.559	128.19
239.793	118.19
240.027	139.19
240.26	140.19
240.494	129.19
240.728	146.19
240.961	144.19
241.195	140.19
241.429	133.19
241.662	122.19
241.896	123.19
242.13	142.19
242.363	139.19
242.597	116.19
242.83	139.19
243.064	134.19
243.298	119.19
243.531	125.19
243.765	133.19
243.998	139.19
244.232	147.19
244.465	136.19
244.699	132.19
244.932	131.19
245.166	130.19
245.399	144.19
245.633	140.19
245.866	132.19
246.099	154.19
246.333	140.19
246.566	140.19
246.8	145.19
247.033	136.19
247.266	156.19
247.5	133.19
247.733	153.19
247.966	174.19
248.2	173.19
248.433	164.19
248.666	168.19
248.899	165.19
249.133	183.19
249.366	190.19
249.599	173.19
249.832	163.19
250.066	182.19
250.299	168.19
250.532	191.19
250.765	170.19
250.998	209.19
251.231	213.19
251.465	206.19
251.698	195.19
251.931	192.19
252.164	182.19
252.397	181.19
252.63	198.19
252.863	185.19
253.096	204.19
253.329	199.19
253.562	208.19
253.795	196.19
254.028	218.19
254.261	207.19
254.494	197.19
254.727	219.19
254.96	246.19
255.193	245.19
255.426	229.19
255.659	206.19
255.892	202.19
256.124	199.19
256.357	201.19
256.59	200.19
256.823	183.19
257.056	197.19
257.289	191.19
257.521	197.19
257.754	199.19
257.987	203.19
258.22	214.19
258.452	202.19
258.685	203.19
258.918	201.19
259.151	185.19
259.383	197.19
259.616	199.19
259.849	200.19
260.081	217.19
260.314	232.19
260.547	238.19
260.779	240.19
261.012	217.19
261.244	196.19
261.477	215.19
261.71	201.19
261.942	214.19
262.175	227.19
262.407	225.19
262.64	202.19
262.872	208.19
263.105	196.19
263.337	188.19
263.57	201.19
263.802	190.19
264.035	181.19
264.267	189.19
264.499	195.19
264.732	196.19
264.964	198.19
265.197	189.19
265.429	204.19
265.661	193.19
265.894	197.19
266.126	183.19
266.358	192.19
266.591	211.19
266.823	207.19
267.055	192.19
267.287	201.19
267.52	221.19
267.752	196.19
267.984	197.19
268.216	194.19
268.448	212.19
268.681	215.19
268.913	230.19
269.145	226.19
269.377	251.19
269.609	238.19
269.841	232.19
270.073	254.19
270.306	273.19
270.538	280.19
270.77	267.19
271.002	267.19
271.234	271.19
271.466	282.19
271.698	272.19
271.93	282.19
272.162	294.19
272.394	292.19
272.626	288.19
272.858	259.19
273.09	241.19
273.322	264.19
273.553	233.19
273.785	245.19
274.017	244.19
274.249	239.19
274.481	262.19
274.713	254.19
274.945	246.19
275.176	248.19
275.408	225.19
275.64	228.19
275.872	229.19
276.104	236.19
276.335	264.19
276.567	253.19
276.799	282.19
277.031	274.19
277.262	288.19
277.494	287.19
277.726	292.19
277.957	273.19
278.189	257.19
278.421	244.19
278.652	264.19
278.884	240.19
279.115	236.19
279.347	258.19
279.579	230.19
279.81	238.19
280.042	237.19
280.273	237.19
280.505	245.19
280.736	238.19
280.968	247.19
281.199	238.19
281.431	249.19
281.662	238.19
281.894	238.19
282.125	230.19
282.356	256.19
282.588	287.19
282.819	291.19
283.051	240.19
283.282	240.19
283.513	245.19
283.745	266.19
283.976	248.19
284.207	254.19
284.439	233.19
284.67	245.19
284.901	242.19
285.132	264.19
285.364	254.19
285.595	256.19
285.826	260.19
286.057	246.19
286.288	257.19
286.52	269.19
286.751	241.19
286.982	246.19
287.213	255.19
287.444	274.19
287.675	278.19
287.906	278.19
288.138	275.19
288.369	280.19
288.6	248.19
288.831	273.19
289.062	251.19
289.293	266.19
289.524	255.19
289.755	265.19
289.986	268.19
290.217	264.19
290.448	256.19
290.679	280.19
290.91	267.19
291.141	262.19
291.371	238.19
291.602	258.19
291.833	267.19
292.064	266.19
292.295	270.19
292.526	237.19
292.757	276.19
292.987	244.19
293.218	265.19
293.449	256.19
293.68	260.19
293.91	263.19
294.141	253.19
294.372	255.19
294.603	257.19
294.833	278.19
295.064	269.19
295.295	260.19
295.525	258.19
295.756	285.19
295.987	287.19
296.217	291.19
296.448	305.19
296.679	290.19
296.909	260.19
297.14	266.19
297.37	270.19
297.601	247.19
297.831	282.19
298.062	283.19
298.292	271.19
298.523	274.19
298.753	275.19
298.984	266.19
299.214	273.19
299.445	286.19
299.675	280.19
299.905	289.19
300.136	274.19
300.366	275.19
300.597	286.19
300.827	292.19
301.057	292.19
301.288	302.19
301.518	293.19
301.748	294.19
301.979	286.19
302.209	296.19
302.439	324.19
302.669	285.19
302.9	280.19
303.13	261.19
303.36	300.19
303.59	301.19
303.82	301.19
304.051	301.19
304.281	284.19
304.511	285.19
304.741	281.19
304.971	274.19
305.201	299.19
305.431	270.19
305.661	299.19
305.891	276.19
306.121	290.19
306.352	295.19
306.582	332.19
306.812	308.19
307.042	296.19
307.272	282.19
307.502	301.19
307.731	286.19
307.961	296.19
308.191	302.19
308.421	318.19
308.651	305.19
308.881	326.19
309.111	298.19
309.341	287.19
309.571	323.19
309.8	341.19
310.03	347.19
310.26	324.19
310.49	344.19
310.72	333.19
310.949	343.19
311.179	357.19
311.409	345.19
311.639	337.19
311.868	326.19
312.098	336.19
312.328	365.19
312.557	364.19
312.787	378.19
313.017	358.19
313.246	357.19
313.476	336.19
313.706	339.19
313.935	374.19
314.165	350.19
314.394	360.19
314.624	354.19
314.853	344.19
315.083	335.19
315.312	337.19
315.542	357.19
315.771	337.19
316.001	351.19
316.23	325.19
316.46	308.19
316.689	330.19
316.919	325.19
317.148	355.19
317.377	351.19
317.607	347.19
317.836	379.19
318.065	341.19
318.295	331.19
318.524	341.19
318.753	330.19
318.983	331.19
319.212	347.19
319.441	338.19
319.67	361.19
319.9	359.19
320.129	354.19
320.358	344.19
320.587	350.19
320.816	349.19
321.046	351.19
321.275	353.19
321.504	368.19
321.733	373.19
321.962	369.19
322.191	369.19
322.42	390.19
322.649	398.19
322.878	398.19
323.108	424.19
323.337	428.19
323.566	478.19
323.795	493.19
324.024	543.19
324.253	680.19
324.482	979.19
324.71	1416.19
324.939	1880.19
325.168	1584.19
325.397	853.19
325.626	601.19
325.855	508.19
326.084	462.19
326.313	475.19
326.542	475.19
326.77	511.19
326.999	630.19
327.228	855.19
327.457	1286.19
327.686	1458.19
327.914	965.19
328.143	659.19
328.372	574.19
328.6	520.19
328.829	525.19
329.058	540.19
329.287	519.19
329.515	503.19
329.744	455.19
329.972	414.19
330.201	448.19
330.43	481.19
330.658	527.19
330.887	532.19
331.115	538.19
331.344	463.19
331.572	442.19
331.801	432.19
332.03	429.19
332.258	434.19
332.486	398.19
332.715	410.19
332.943	405.19
333.172	415.19
333.4	391.19
333.629	410.19
333.857	408.19
334.085	413.19
334.314	394.19
334.542	431.19
334.771	414.19
334.999	412.19
335.227	381.19
335.455	391.19
335.684	408.19
335.912	403.19
336.14	403.19
336.369	388.19
336.597	408.19
336.825	401.19
337.053	386.19
337.281	370.19
337.51	401.19
337.738	400.19
337.966	397.19
338.194	402.19
338.422	396.19
338.65	392.19
338.878	381.19
339.106	389.19
339.334	396.19
339.562	372.19
339.79	369.19
340.018	385.19
340.246	397.19
340.474	381.19
340.702	384.19
340.93	386.19
341.158	384.19
341.386	376.19
341.614	374.19
341.842	391.19
342.07	388.19
342.298	368.19
342.526	391.19
342.754	369.19
342.981	362.19
343.209	351.19
343.437	375.19
343.665	394.19
343.893	399.19
344.12	379.19
344.348	376.19
344.576	380.19
344.804	395.19
345.031	387.19
345.259	413.19
345.487	387.19
345.714	375.19
345.942	378.19
346.17	374.19
346.397	379.19
346.625	365.19
346.853	350.19
347.08	373.19
347.308	384.19
347.535	382.19
347.763	383.19
347.99	377.19
348.218	372.19
348.445	383.19
348.673	391.19
348.9	360.19
349.128	372.19
349.355	378.19
349.583	372.19
349.81	358.19
350.037	344.19
350.265	343.19
350.492	353.19
350.72	362.19
350.947	370.19
351.174	378.19
351.402	362.19
351.629	380.19
351.856	383.19
352.083	385.19
352.311	398.19
352.538	382.19
352.765	394.19
352.992	373.19
353.22	389.19
353.447	385.19
353.674	352.19
353.901	348.19
354.128	350.19
354.355	356.19
354.583	336.19
354.81	352.19
355.037	366.19
355.264	344.19
355.491	346.19
355.718	358.19
355.945	352.19
356.172	335.19
356.399	339.19
356.626	344.19
356.853	333.19
357.08	344.19
357.307	338.19
357.534	351.19
357.761	358.19
357.988	348.19
358.215	332.19
358.441	349.19
358.668	364.19
358.895	349.19
359.122	357.19
359.349	383.19
359.576	384.19
359.802	385.19
360.029	404.19
360.256	446.19
360.483	404.19
360.709	377.19
360.936	360.19
361.163	368.19
361.39	375.19
361.616	381.19
361.843	380.19
362.07	387.19
362.296	378.19
362.523	377.19
362.749	364.19
362.976	355.19
363.203	373.19
363.429	351.19
363.656	353.19
363.882	352.19
364.109	334.19
364.335	349.19
364.562	363.19
364.788	345.19
365.015	361.19
365.241	356.19
365.468	362.19
365.694	350.19
365.92	369.19
366.147	357.19
366.373	357.19
366.599	350.19
366.826	340.19
367.052	340.19
367.278	343.19
367.505	337.19
367.731	341.19
367.957	335.19
368.184	351.19
368.41	339.19
368.636	364.19
368.862	344.19
369.089	351.19
369.315	350.19
369.541	347.19
369.767	343.19
369.993	343.19
370.219	341.19
370.445	338.19
370.672	349.19
370.898	332.19
371.124	329.19
371.35	357.19
371.576	346.19
371.802	349.19
372.028	332.19
372.254	369.19
372.48	336.19
372.706	337.19
372.932	332.19
373.158	334.19
373.384	341.19
373.61	346.19
373.835	331.19
374.061	342.19
374.287	349.19
374.513	344.19
374.739	355.19
374.965	322.19
375.191	351.19
375.416	358.19
375.642	336.19
375.868	337.19
376.094	348.19
376.319	325.19
376.545	342.19
376.771	348.19
376.997	341.19
377.222	338.19
377.448	348.19
377.674	359.19
377.899	344.19
378.125	350.19
378.35	342.19
378.576	350.19
378.802	333.19
379.027	326.19
379.253	345.19
379.478	316.19
379.704	340.19
379.929	347.19
380.155	342.19
380.38	331.19
380.606	351.19
380.831	358.19
381.057	345.19
381.282	362.19
381.507	349.19
381.733	358.19
381.958	330.19
382.184	341.19
382.409	355.19
382.634	348.19
382.86	355.19
383.085	344.19
383.31	343.19
383.535	364.19
383.761	369.19
383.986	338.19
384.211	368.19
384.436	360.19
384.662	351.19
384.887	370.19
385.112	375.19
385.337	358.19
385.562	364.19
385.787	366.19
386.013	378.19
386.238	381.19
386.463	372.19
386.688	338.19
386.913	369.19
387.138	350.19
387.363	374.19
387.588	362.19
387.813	361.19
388.038	389.19
388.263	373.19
388.488	362.19
388.713	365.19
388.938	381.19
389.163	380.19
389.387	360.19
389.612	369.19
389.837	354.19
390.062	358.19
390.287	358.19
390.512	366.19
390.736	349.19
390.961	374.19
391.186	359.19
391.411	361.19
391.636	381.19
391.86	386.19
392.085	389.19
392.31	377.19
392.534	386.19
392.759	377.19
392.984	372.19
393.208	380.19
393.433	386.19
393.658	358.19
393.882	358.19
394.107	370.19
394.331	366.19
394.556	365.19
394.78	359.19
395.005	373.19
395.229	390.19
395.454	382.19
395.678	383.19
395.903	380.19
396.127	386.19
396.352	398.19
396.576	385.19
396.801	364.19
397.025	364.19
397.249	382.19
397.474	390.19
397.698	423.19
397.922	396.19
398.147	419.19
398.371	416.19
398.595	418.19
398.82	398.19
399.044	411.19
399.268	442.19
399.492	452.19
399.717	459.19
399.941	489.19
400.165	505.19
400.389	488.19
400.613	475.19
400.837	437.19
401.062	423.19
401.286	428.19
401.51	434.19
401.734	405.19
401.958	400.19
402.182	411.19
402.406	430.19
402.63	437.19
402.854	425.19
403.078	416.19
403.302	431.19
403.526	444.19
403.75	424.19
403.974	424.19
404.198	430.19
404.422	434.19
404.645	426.19
404.869	454.19
405.093	472.19
405.317	476.19
405.541	498.19
405.765	462.19
405.988	465.19
406.212	463.19
406.436	482.19
406.66	490.19
406.883	461.19
407.107	479.19
407.331	510.19
407.555	541.19
407.778	561.19
408.002	515.19
408.226	467.19
408.449	457.19
408.673	479.19
408.896	500.19
409.12	500.19
409.344	497.19
409.567	449.19
409.791	426.19
410.014	438.19
410.238	418.19
410.461	421.19
410.685	425.19
410.908	445.19
411.132	471.19
411.355	503.19
411.578	470.19
411.802	416.19
412.025	425.19
412.249	430.19
412.472	439.19
412.695	461.19
412.919	424.19
413.142	414.19
413.365	400.19
413.589	397.19
413.812	407.19
414.035	402.19
414.258	405.19
414.482	410.19
414.705	407.19
414.928	403.19
415.151	433.19
415.374	386.19
415.597	370.19
415.821	390.19
416.044	408.19
416.267	390.19
416.49	418.19
416.713	408.19
416.936	393.19
417.159	398.19
417.382	409.19
417.605	424.19
417.828	414.19
418.051	437.19
418.274	433.19
418.497	412.19
418.72	398.19
418.943	390.19
419.166	445.19
419.389	425.19
419.611	438.19
419.834	424.19
420.057	424.19
420.28	433.19
420.503	417.19
420.726	425.19
420.948	453.19
421.171	471.19
421.394	481.19
421.617	441.19
421.839	419.19
422.062	417.19
422.285	431.19
422.507	493.19
422.73	524.19
422.953	517.19
423.175	471.19
423.398	446.19
423.621	437.19
423.843	447.19
424.066	447.19
424.288	460.19
424.511	492.19
424.733	505.19
424.956	577.19
425.178	552.19
425.401	545.19
425.623	566.19
425.846	498.19
426.068	475.19
426.291	441.19
426.513	436.19
426.735	460.19
426.958	521.19
427.18	552.19
427.402	641.19
427.625	688.19
427.847	654.19
428.069	542.19
428.292	503.19
428.514	452.19
428.736	444.19
428.958	442.19
429.181	427.19
429.403	440.19
429.625	437.19
429.847	466.19
430.069	515.19
430.292	508.19
430.514	443.19
430.736	407.19
430.958	418.19
431.18	414.19
431.402	410.19
431.624	401.19
431.846	405.19
432.068	373.19
432.29	410.19
432.512	390.19
432.734	408.19
432.956	408.19
433.178	439.19
433.4	417.19
433.622	394.19
433.844	410.19
434.066	414.19
434.287	414.19
434.509	390.19
434.731	414.19
434.953	411.19
435.175	430.19
435.397	453.19
435.618	460.19
435.84	500.19
436.062	557.19
436.284	580.19
436.505	508.19
436.727	484.19
436.949	438.19
437.17	419.19
437.392	426.19
437.614	439.19
437.835	488.19
438.057	550.19
438.278	640.19
438.5	610.19
438.721	654.19
438.943	608.19
439.165	516.19
439.386	468.19
439.608	469.19
439.829	471.19
440.05	502.19
440.272	524.19
440.493	497.19
440.715	454.19
440.936	433.19
441.158	429.19
441.379	410.19
441.6	452.19
441.822	446.19
442.043	507.19
442.264	561.19
442.486	582.19
442.707	527.19
442.928	490.19
443.149	494.19
443.371	491.19
443.592	541.19
443.813	620.19
444.034	625.19
444.255	536.19
444.476	497.19
444.698	467.19
444.919	449.19
445.14	572.19
445.361	527.19
445.582	488.19
445.803	536.19
446.024	615.19
446.245	606.19
446.466	553.19
446.687	505.19
446.908	485.19
447.129	419.19
447.35	424.19
447.571	427.19
447.792	425.19
448.013	423.19
448.234	474.19
448.455	497.19
448.675	545.19
448.896	640.19
449.117	584.19
449.338	520.19
449.559	623.19
449.779	666.19
450	546.19
450.221	458.19
450.442	418.19
450.662	412.19
450.883	440.19
451.104	442.19
451.324	437.19
451.545	416.19
451.766	408.19
451.986	392.19
452.207	365.19
452.428	384.19
452.648	398.19
452.869	383.19
453.089	382.19
453.31	430.19
453.53	395.19
453.751	376.19
453.971	393.19
454.192	423.19
454.412	390.19
454.633	386.19
454.853	373.19
455.073	404.19
455.294	415.19
455.514	465.19
455.734	443.19
455.955	399.19
456.175	388.19
456.395	381.19
456.616	364.19
456.836	365.19
457.056	330.19
457.276	346.19
457.497	346.19
457.717	341.19
457.937	362.19
458.157	381.19
458.377	374.19
458.598	382.19
458.818	466.19
459.038	513.19
459.258	514.19
459.478	444.19
459.698	420.19
459.918	408.19
460.138	406.19
460.358	390.19
460.578	407.19
460.798	413.19
461.018	425.19
461.238	400.19
461.458	408.19
461.678	396.19
461.898	383.19
462.118	422.19
462.338	402.19
462.558	409.19
462.777	442.19
462.997	417.19
463.217	427.19
463.437	430.19
463.657	432.19
463.876	417.19
464.096	413.19
464.316	414.19
464.536	433.19
464.755	445.19
464.975	440.19
465.195	484.19
465.414	556.19
465.634	473.19
465.854	461.19
466.073	412.19
466.293	415.19
466.512	416.19
466.732	391.19
466.951	390.19
467.171	394.19
467.391	400.19
467.61	400.19
467.829	407.19
468.049	406.19
468.268	395.19
468.488	396.19
468.707	388.19
468.927	383.19
469.146	374.19
469.365	394.19
469.585	378.19
469.804	401.19
470.023	423.19
470.243	404.19
470.462	432.19
470.681	430.19
470.901	408.19
471.12	395.19
471.339	402.19
471.558	417.19
471.777	421.19
471.997	393.19
472.216	382.19
472.435	382.19
472.654	407.19
472.873	395.19
473.092	391.19
473.311	384.19
473.53	403.19
473.749	392.19
473.968	440.19
474.187	529.19
474.406	538.19
474.625	444.19
474.844	401.19
475.063	385.19
475.282	400.19
475.501	408.19
475.72	420.19
475.939	394.19
476.158	416.19
476.377	414.19
476.596	416.19
476.814	428.19
477.033	421.19
477.252	415.19
477.471	428.19
477.69	432.19
477.908	441.19
478.127	440.19
478.346	415.19
478.564	449.19
478.783	456.19
479.002	438.19
479.22	448.19
479.439	467.19
479.658	476.19
479.876	483.19
480.095	487.19
480.313	484.19
480.532	492.19
480.751	470.19
480.969	488.19
481.188	494.19
481.406	529.19
481.624	479.19
481.843	483.19
482.061	480.19
482.28	450.19
482.498	448.19
482.717	473.19
482.935	469.19
483.153	456.19
483.372	458.19
483.59	461.19
483.808	471.19
484.027	458.19
484.245	469.19
484.463	481.19
484.681	467.19
484.9	468.19
485.118	448.19
485.336	459.19
485.554	477.19
485.772	472.19
485.99	488.19
486.209	478.19
486.427	478.19
486.645	504.19
486.863	506.19
487.081	487.19
487.299	497.19
487.517	500.19
487.735	508.19
487.953	491.19
488.171	518.19
488.389	491.19
488.607	524.19
488.825	510.19
489.043	494.19
489.261	517.19
489.479	496.19
489.696	495.19
489.914	503.19
490.132	496.19
490.35	514.19
490.568	527.19
490.786	531.19
491.003	536.19
491.221	520.19
491.439	549.19
491.657	573.19
491.874	554.19
492.092	556.19
492.31	565.19
492.527	586.19
492.745	564.19
492.963	578.19
493.18	568.19
493.398	569.19
493.615	581.19
493.833	579.19
494.05	585.19
494.268	571.19
494.485	569.19
494.703	589.19
494.92	593.19
495.138	599.19
495.355	584.19
495.573	624.19
495.79	598.19
496.008	593.19
496.225	565.19
496.442	615.19
496.66	591.19
496.877	598.19
497.094	597.19
497.312	597.19
497.529	597.19
497.746	618.19
497.963	613.19
498.181	605.19
498.398	639.19
498.615	617.19
498.832	650.19
499.049	639.19
499.267	672.19
499.484	700.19
499.701	722.19
499.918	740.19
500.135	739.19
500.352	770.19
500.569	763.19
500.786	774.19
501.003	785.19
501.22	774.19
501.437	716.19
501.654	725.19
501.871	729.19
502.088	702.19
