Data from 1983.PennyLincolnUp.Lamp.En5.5.200Scan.071819.P1_HRD10591_16-53-56-965.txt Node
Date: Thu Jul 18 16:53:56 EDT 2019
User: cochatt
Spectrometer: HR+D1059
Trigger mode: 1
Integration Time (sec): 1.000000E-1
Scans to average: 1
Electric dark correction enabled: true
Nonlinearity correction enabled: false
Boxcar width: 0
XAxis mode: Wavelengths
Number of Pixels in Spectrum: 2048
>>>>>Begin Spectral Data<<<<<
223.165	-20.88
223.4	-20.88
223.635	-20.88
223.869	-20.88
224.104	-11.88
224.338	5.12
224.573	-25.88
224.808	-4.88
225.042	2.12
225.277	-21.88
225.511	-10.88
225.746	13.12
225.98	7.12
226.215	3.12
226.449	13.12
226.683	24.12
226.918	23.12
227.152	26.12
227.387	47.12
227.621	46.12
227.856	48.12
228.09	71.12
228.324	61.12
228.559	58.12
228.793	68.12
229.027	91.12
229.262	116.12
229.496	119.12
229.73	141.12
229.964	154.12
230.199	121.12
230.433	120.12
230.667	107.12
230.901	109.12
231.136	119.12
231.37	115.12
231.604	116.12
231.838	103.12
232.072	103.12
232.306	101.12
232.541	106.12
232.775	119.12
233.009	115.12
233.243	126.12
233.477	124.12
233.711	126.12
233.945	96.12
234.179	109.12
234.413	119.12
234.647	125.12
234.881	108.12
235.115	112.12
235.349	116.12
235.583	123.12
235.817	125.12
236.051	127.12
236.285	124.12
236.519	132.12
236.753	127.12
236.987	146.12
237.221	167.12
237.455	208.12
237.689	180.12
237.922	139.12
238.156	131.12
238.39	135.12
238.624	111.12
238.858	116.12
239.091	117.12
239.325	120.12
239.559	152.12
239.793	143.12
240.027	135.12
240.26	143.12
240.494	161.12
240.728	143.12
240.961	152.12
241.195	136.12
241.429	146.12
241.662	137.12
241.896	133.12
242.13	138.12
242.363	131.12
242.597	138.12
242.83	142.12
243.064	131.12
243.298	143.12
243.531	143.12
243.765	128.12
243.998	140.12
244.232	138.12
244.465	137.12
244.699	144.12
244.932	148.12
245.166	135.12
245.399	123.12
245.633	134.12
245.866	140.12
246.099	144.12
246.333	134.12
246.566	133.12
246.8	151.12
247.033	144.12
247.266	150.12
247.5	162.12
247.733	167.12
247.966	159.12
248.2	166.12
248.433	168.12
248.666	164.12
248.899	182.12
249.133	199.12
249.366	181.12
249.599	191.12
249.832	166.12
250.066	168.12
250.299	165.12
250.532	180.12
250.765	199.12
250.998	198.12
251.231	224.12
251.465	216.12
251.698	201.12
251.931	172.12
252.164	195.12
252.397	191.12
252.63	210.12
252.863	195.12
253.096	204.12
253.329	211.12
253.562	215.12
253.795	222.12
254.028	207.12
254.261	192.12
254.494	205.12
254.727	251.12
254.96	279.12
255.193	259.12
255.426	223.12
255.659	218.12
255.892	228.12
256.124	201.12
256.357	201.12
256.59	198.12
256.823	200.12
257.056	200.12
257.289	211.12
257.521	185.12
257.754	179.12
257.987	193.12
258.22	193.12
258.452	198.12
258.685	181.12
258.918	188.12
259.151	198.12
259.383	195.12
259.616	212.12
259.849	213.12
260.081	225.12
260.314	245.12
260.547	230.12
260.779	238.12
261.012	219.12
261.244	212.12
261.477	207.12
261.71	201.12
261.942	215.12
262.175	232.12
262.407	223.12
262.64	208.12
262.872	207.12
263.105	196.12
263.337	196.12
263.57	193.12
263.802	177.12
264.035	212.12
264.267	205.12
264.499	191.12
264.732	203.12
264.964	207.12
265.197	205.12
265.429	195.12
265.661	208.12
265.894	201.12
266.126	220.12
266.358	213.12
266.591	209.12
266.823	218.12
267.055	227.12
267.287	227.12
267.52	218.12
267.752	209.12
267.984	194.12
268.216	231.12
268.448	217.12
268.681	232.12
268.913	244.12
269.145	253.12
269.377	282.12
269.609	266.12
269.841	252.12
270.073	247.12
270.306	278.12
270.538	284.12
270.77	293.12
271.002	290.12
271.234	281.12
271.466	283.12
271.698	295.12
271.93	308.12
272.162	288.12
272.394	290.12
272.626	282.12
272.858	245.12
273.09	266.12
273.322	248.12
273.553	257.12
273.785	255.12
274.017	260.12
274.249	259.12
274.481	238.12
274.713	244.12
274.945	246.12
275.176	245.12
275.408	240.12
275.64	245.12
275.872	243.12
276.104	270.12
276.335	259.12
276.567	268.12
276.799	274.12
277.031	290.12
277.262	279.12
277.494	303.12
277.726	293.12
277.957	280.12
278.189	261.12
278.421	251.12
278.652	251.12
278.884	263.12
279.115	237.12
279.347	254.12
279.579	246.12
279.81	243.12
280.042	230.12
280.273	235.12
280.505	244.12
280.736	243.12
280.968	256.12
281.199	248.12
281.431	251.12
281.662	262.12
281.894	243.12
282.125	247.12
282.356	264.12
282.588	304.12
282.819	303.12
283.051	267.12
283.282	252.12
283.513	247.12
283.745	252.12
283.976	256.12
284.207	261.12
284.439	240.12
284.67	262.12
284.901	240.12
285.132	251.12
285.364	263.12
285.595	264.12
285.826	259.12
286.057	254.12
286.288	265.12
286.52	260.12
286.751	261.12
286.982	258.12
287.213	264.12
287.444	270.12
287.675	262.12
287.906	264.12
288.138	282.12
288.369	291.12
288.6	288.12
288.831	279.12
289.062	286.12
289.293	264.12
289.524	268.12
289.755	267.12
289.986	265.12
290.217	271.12
290.448	269.12
290.679	279.12
290.91	285.12
291.141	281.12
291.371	272.12
291.602	267.12
291.833	259.12
292.064	268.12
292.295	273.12
292.526	263.12
292.757	271.12
292.987	276.12
293.218	293.12
293.449	271.12
293.68	263.12
293.91	263.12
294.141	280.12
294.372	253.12
294.603	279.12
294.833	263.12
295.064	259.12
295.295	263.12
295.525	279.12
295.756	261.12
295.987	273.12
296.217	318.12
296.448	314.12
296.679	312.12
296.909	273.12
297.14	257.12
297.37	293.12
297.601	277.12
297.831	287.12
298.062	273.12
298.292	263.12
298.523	285.12
298.753	272.12
298.984	296.12
299.214	270.12
299.445	297.12
299.675	297.12
299.905	291.12
300.136	295.12
300.366	282.12
300.597	286.12
300.827	292.12
301.057	280.12
301.288	286.12
301.518	319.12
301.748	297.12
301.979	300.12
302.209	278.12
302.439	305.12
302.669	305.12
302.9	300.12
303.13	274.12
303.36	294.12
303.59	300.12
303.82	313.12
304.051	327.12
304.281	300.12
304.511	308.12
304.741	302.12
304.971	296.12
305.201	295.12
305.431	307.12
305.661	295.12
305.891	307.12
306.121	307.12
306.352	299.12
306.582	312.12
306.812	312.12
307.042	318.12
307.272	308.12
307.502	306.12
307.731	299.12
307.961	311.12
308.191	286.12
308.421	302.12
308.651	310.12
308.881	320.12
309.111	311.12
309.341	305.12
309.571	329.12
309.8	349.12
310.03	352.12
310.26	356.12
310.49	341.12
310.72	354.12
310.949	368.12
311.179	351.12
311.409	352.12
311.639	354.12
311.868	352.12
312.098	352.12
312.328	365.12
312.557	381.12
312.787	393.12
313.017	390.12
313.246	363.12
313.476	367.12
313.706	328.12
313.935	353.12
314.165	363.12
314.394	389.12
314.624	372.12
314.853	350.12
315.083	367.12
315.312	348.12
315.542	355.12
315.771	339.12
316.001	353.12
316.23	351.12
316.46	340.12
316.689	351.12
316.919	358.12
317.148	362.12
317.377	382.12
317.607	373.12
317.836	363.12
318.065	345.12
318.295	343.12
318.524	339.12
318.753	334.12
318.983	362.12
319.212	355.12
319.441	382.12
319.67	373.12
319.9	358.12
320.129	346.12
320.358	357.12
320.587	360.12
320.816	367.12
321.046	372.12
321.275	391.12
321.504	364.12
321.733	367.12
321.962	402.12
322.191	419.12
322.42	385.12
322.649	431.12
322.878	432.12
323.108	440.12
323.337	459.12
323.566	492.12
323.795	492.12
324.024	570.12
324.253	689.12
324.482	1019.12
324.71	1528.12
324.939	2071.12
325.168	1738.12
325.397	897.12
325.626	631.12
325.855	527.12
326.084	517.12
326.313	484.12
326.542	507.12
326.77	542.12
326.999	651.12
327.228	913.12
327.457	1326.12
327.686	1512.12
327.914	1027.12
328.143	700.12
328.372	611.12
328.6	569.12
328.829	530.12
329.058	565.12
329.287	546.12
329.515	504.12
329.744	474.12
329.972	458.12
330.201	471.12
330.43	510.12
330.658	551.12
330.887	601.12
331.115	598.12
331.344	501.12
331.572	471.12
331.801	441.12
332.03	491.12
332.258	460.12
332.486	408.12
332.715	426.12
332.943	405.12
333.172	410.12
333.4	420.12
333.629	410.12
333.857	428.12
334.085	439.12
334.314	451.12
334.542	468.12
334.771	473.12
334.999	456.12
335.227	421.12
335.455	433.12
335.684	406.12
335.912	412.12
336.14	418.12
336.369	414.12
336.597	398.12
336.825	400.12
337.053	405.12
337.281	400.12
337.51	387.12
337.738	428.12
337.966	412.12
338.194	426.12
338.422	396.12
338.65	405.12
338.878	411.12
339.106	383.12
339.334	390.12
339.562	388.12
339.79	395.12
340.018	393.12
340.246	375.12
340.474	376.12
340.702	413.12
340.93	391.12
341.158	398.12
341.386	394.12
341.614	399.12
341.842	389.12
342.07	380.12
342.298	375.12
342.526	385.12
342.754	376.12
342.981	384.12
343.209	377.12
343.437	383.12
343.665	375.12
343.893	380.12
344.12	392.12
344.348	387.12
344.576	386.12
344.804	392.12
345.031	435.12
345.259	432.12
345.487	403.12
345.714	401.12
345.942	377.12
346.17	390.12
346.397	369.12
346.625	383.12
346.853	381.12
347.08	369.12
347.308	378.12
347.535	401.12
347.763	392.12
347.99	403.12
348.218	390.12
348.445	398.12
348.673	390.12
348.9	389.12
349.128	379.12
349.355	379.12
349.583	355.12
349.81	367.12
350.037	377.12
350.265	381.12
350.492	366.12
350.72	361.12
350.947	368.12
351.174	381.12
351.402	383.12
351.629	401.12
351.856	389.12
352.083	409.12
352.311	383.12
352.538	392.12
352.765	389.12
352.992	396.12
353.22	399.12
353.447	372.12
353.674	388.12
353.901	382.12
354.128	360.12
354.355	364.12
354.583	368.12
354.81	378.12
355.037	347.12
355.264	341.12
355.491	344.12
355.718	336.12
355.945	376.12
356.172	362.12
356.399	351.12
356.626	348.12
356.853	359.12
357.08	356.12
357.307	337.12
357.534	332.12
357.761	361.12
357.988	339.12
358.215	362.12
358.441	355.12
358.668	359.12
358.895	358.12
359.122	356.12
359.349	369.12
359.576	387.12
359.802	407.12
360.029	435.12
360.256	443.12
360.483	427.12
360.709	392.12
360.936	383.12
361.163	381.12
361.39	404.12
361.616	385.12
361.843	360.12
362.07	367.12
362.296	379.12
362.523	380.12
362.749	377.12
362.976	380.12
363.203	367.12
363.429	347.12
363.656	371.12
363.882	375.12
364.109	357.12
364.335	357.12
364.562	363.12
364.788	376.12
365.015	359.12
365.241	368.12
365.468	388.12
365.694	369.12
365.92	369.12
366.147	365.12
366.373	376.12
366.599	348.12
366.826	373.12
367.052	360.12
367.278	354.12
367.505	374.12
367.731	357.12
367.957	373.12
368.184	371.12
368.41	377.12
368.636	384.12
368.862	376.12
369.089	389.12
369.315	364.12
369.541	380.12
369.767	362.12
369.993	347.12
370.219	355.12
370.445	363.12
370.672	346.12
370.898	353.12
371.124	348.12
371.35	363.12
371.576	355.12
371.802	351.12
372.028	352.12
372.254	353.12
372.48	364.12
372.706	370.12
372.932	373.12
373.158	352.12
373.384	377.12
373.61	352.12
373.835	371.12
374.061	355.12
374.287	352.12
374.513	372.12
374.739	366.12
374.965	362.12
375.191	367.12
375.416	361.12
375.642	341.12
375.868	385.12
376.094	353.12
376.319	350.12
376.545	377.12
376.771	359.12
376.997	349.12
377.222	349.12
377.448	356.12
377.674	344.12
377.899	329.12
378.125	351.12
378.35	364.12
378.576	365.12
378.802	357.12
379.027	356.12
379.253	364.12
379.478	355.12
379.704	349.12
379.929	347.12
380.155	342.12
380.38	351.12
380.606	355.12
380.831	346.12
381.057	359.12
381.282	328.12
381.507	335.12
381.733	364.12
381.958	344.12
382.184	352.12
382.409	352.12
382.634	359.12
382.86	374.12
383.085	379.12
383.31	352.12
383.535	367.12
383.761	371.12
383.986	385.12
384.211	368.12
384.436	379.12
384.662	355.12
384.887	391.12
385.112	395.12
385.337	381.12
385.562	390.12
385.787	382.12
386.013	393.12
386.238	386.12
386.463	388.12
386.688	392.12
386.913	383.12
387.138	380.12
387.363	377.12
387.588	409.12
387.813	361.12
388.038	383.12
388.263	376.12
388.488	372.12
388.713	379.12
388.938	379.12
389.163	408.12
389.387	392.12
389.612	367.12
389.837	378.12
390.062	399.12
390.287	372.12
390.512	371.12
390.736	358.12
390.961	383.12
391.186	362.12
391.411	372.12
391.636	373.12
391.86	380.12
392.085	393.12
392.31	397.12
392.534	380.12
392.759	383.12
392.984	385.12
393.208	396.12
393.433	379.12
393.658	366.12
393.882	364.12
394.107	388.12
394.331	375.12
394.556	391.12
394.78	380.12
395.005	391.12
395.229	405.12
395.454	381.12
395.678	385.12
395.903	409.12
396.127	404.12
396.352	408.12
396.576	406.12
396.801	391.12
397.025	401.12
397.249	381.12
397.474	396.12
397.698	392.12
397.922	439.12
398.147	419.12
398.371	431.12
398.595	421.12
398.82	412.12
399.044	417.12
399.268	451.12
399.492	447.12
399.717	493.12
399.941	501.12
400.165	497.12
400.389	501.12
400.613	471.12
400.837	453.12
401.062	454.12
401.286	463.12
401.51	415.12
401.734	429.12
401.958	427.12
402.182	451.12
402.406	443.12
402.63	455.12
402.854	430.12
403.078	444.12
403.302	445.12
403.526	440.12
403.75	429.12
403.974	461.12
404.198	461.12
404.422	452.12
404.645	450.12
404.869	451.12
405.093	482.12
405.317	477.12
405.541	502.12
405.765	496.12
405.988	464.12
406.212	478.12
406.436	500.12
406.66	491.12
406.883	476.12
407.107	499.12
407.331	521.12
407.555	566.12
407.778	567.12
408.002	526.12
408.226	491.12
408.449	472.12
408.673	487.12
408.896	506.12
409.12	533.12
409.344	515.12
409.567	467.12
409.791	455.12
410.014	443.12
410.238	438.12
410.461	443.12
410.685	436.12
410.908	445.12
411.132	489.12
411.355	483.12
411.578	491.12
411.802	444.12
412.025	441.12
412.249	438.12
412.472	481.12
412.695	457.12
412.919	471.12
413.142	432.12
413.365	444.12
413.589	433.12
413.812	416.12
414.035	410.12
414.258	420.12
414.482	397.12
414.705	427.12
414.928	425.12
415.151	421.12
415.374	409.12
415.597	410.12
415.821	412.12
416.044	415.12
416.267	416.12
416.49	419.12
416.713	402.12
416.936	441.12
417.159	419.12
417.382	434.12
417.605	411.12
417.828	411.12
418.051	444.12
418.274	419.12
418.497	420.12
418.72	422.12
418.943	423.12
419.166	431.12
419.389	449.12
419.611	443.12
419.834	435.12
420.057	445.12
420.28	425.12
420.503	423.12
420.726	431.12
420.948	461.12
421.171	473.12
421.394	492.12
421.617	445.12
421.839	416.12
422.062	442.12
422.285	446.12
422.507	503.12
422.73	538.12
422.953	521.12
423.175	465.12
423.398	463.12
423.621	428.12
423.843	455.12
424.066	468.12
424.288	462.12
424.511	482.12
424.733	551.12
424.956	590.12
425.178	567.12
425.401	565.12
425.623	574.12
425.846	504.12
426.068	486.12
426.291	480.12
426.513	467.12
426.735	467.12
426.958	516.12
427.18	564.12
427.402	663.12
427.625	741.12
427.847	691.12
428.069	561.12
428.292	511.12
428.514	463.12
428.736	453.12
428.958	464.12
429.181	459.12
429.403	425.12
429.625	452.12
429.847	462.12
430.069	535.12
430.292	529.12
430.514	465.12
430.736	439.12
430.958	430.12
431.18	433.12
431.402	413.12
431.624	406.12
431.846	396.12
432.068	409.12
432.29	421.12
432.512	408.12
432.734	433.12
432.956	414.12
433.178	432.12
433.4	414.12
433.622	401.12
433.844	399.12
434.066	434.12
434.287	416.12
434.509	414.12
434.731	438.12
434.953	439.12
435.175	441.12
435.397	466.12
435.618	486.12
435.84	541.12
436.062	585.12
436.284	615.12
436.505	532.12
436.727	475.12
436.949	442.12
437.17	416.12
437.392	445.12
437.614	449.12
437.835	468.12
438.057	565.12
438.278	647.12
438.5	601.12
438.721	661.12
438.943	656.12
439.165	529.12
439.386	477.12
439.608	495.12
439.829	500.12
440.05	499.12
440.272	541.12
440.493	520.12
440.715	467.12
440.936	451.12
441.158	423.12
441.379	402.12
441.6	463.12
441.822	475.12
442.043	511.12
442.264	568.12
442.486	592.12
442.707	507.12
442.928	488.12
443.149	492.12
443.371	505.12
443.592	569.12
443.813	611.12
444.034	661.12
444.255	549.12
444.476	474.12
444.698	454.12
444.919	474.12
445.14	563.12
445.361	551.12
445.582	531.12
445.803	569.12
446.024	640.12
446.245	639.12
446.466	570.12
446.687	506.12
446.908	459.12
447.129	458.12
447.35	441.12
447.571	454.12
447.792	446.12
448.013	457.12
448.234	477.12
448.455	503.12
448.675	576.12
448.896	675.12
449.117	577.12
449.338	566.12
449.559	651.12
449.779	699.12
450	556.12
450.221	461.12
450.442	448.12
450.662	442.12
450.883	448.12
451.104	445.12
451.324	446.12
451.545	424.12
451.766	420.12
451.986	413.12
452.207	411.12
452.428	405.12
452.648	418.12
452.869	400.12
453.089	395.12
453.31	413.12
453.53	408.12
453.751	391.12
453.971	393.12
454.192	427.12
454.412	413.12
454.633	392.12
454.853	397.12
455.073	395.12
455.294	427.12
455.514	474.12
455.734	481.12
455.955	423.12
456.175	393.12
456.395	382.12
456.616	362.12
456.836	373.12
457.056	361.12
457.276	354.12
457.497	376.12
457.717	379.12
457.937	360.12
458.157	389.12
458.377	393.12
458.598	435.12
458.818	477.12
459.038	540.12
459.258	534.12
459.478	460.12
459.698	431.12
459.918	411.12
460.138	420.12
460.358	419.12
460.578	408.12
460.798	429.12
461.018	424.12
461.238	404.12
461.458	420.12
461.678	402.12
461.898	420.12
462.118	418.12
462.338	417.12
462.558	408.12
462.777	437.12
462.997	441.12
463.217	442.12
463.437	451.12
463.657	449.12
463.876	432.12
464.096	419.12
464.316	435.12
464.536	432.12
464.755	464.12
464.975	464.12
465.195	502.12
465.414	591.12
465.634	509.12
465.854	459.12
466.073	426.12
466.293	426.12
466.512	416.12
466.732	403.12
466.951	405.12
467.171	391.12
467.391	418.12
467.61	404.12
467.829	428.12
468.049	402.12
468.268	398.12
468.488	400.12
468.707	391.12
468.927	395.12
469.146	393.12
469.365	396.12
469.585	400.12
469.804	410.12
470.023	425.12
470.243	411.12
470.462	432.12
470.681	462.12
470.901	442.12
471.12	409.12
471.339	415.12
471.558	427.12
471.777	404.12
471.997	408.12
472.216	410.12
472.435	431.12
472.654	414.12
472.873	405.12
473.092	405.12
473.311	389.12
473.53	413.12
473.749	426.12
473.968	466.12
474.187	545.12
474.406	530.12
474.625	454.12
474.844	437.12
475.063	413.12
475.282	415.12
475.501	395.12
475.72	432.12
475.939	419.12
476.158	447.12
476.377	401.12
476.596	417.12
476.814	415.12
477.033	432.12
477.252	440.12
477.471	435.12
477.69	441.12
477.908	447.12
478.127	428.12
478.346	440.12
478.564	441.12
478.783	437.12
479.002	458.12
479.22	456.12
479.439	464.12
479.658	485.12
479.876	494.12
480.095	513.12
480.313	495.12
480.532	517.12
480.751	485.12
480.969	489.12
481.188	505.12
481.406	555.12
481.624	537.12
481.843	507.12
482.061	503.12
482.28	459.12
482.498	473.12
482.717	467.12
482.935	476.12
483.153	479.12
483.372	456.12
483.59	481.12
483.808	481.12
484.027	469.12
484.245	490.12
484.463	483.12
484.681	516.12
484.9	468.12
485.118	491.12
485.336	491.12
485.554	492.12
485.772	481.12
485.99	486.12
486.209	478.12
486.427	508.12
486.645	522.12
486.863	512.12
487.081	529.12
487.299	508.12
487.517	492.12
487.735	483.12
487.953	536.12
488.171	526.12
488.389	524.12
488.607	523.12
488.825	507.12
489.043	519.12
489.261	494.12
489.479	513.12
489.696	533.12
489.914	506.12
490.132	535.12
490.35	526.12
490.568	539.12
490.786	567.12
491.003	569.12
491.221	574.12
491.439	551.12
491.657	576.12
491.874	585.12
492.092	569.12
492.31	591.12
492.527	590.12
492.745	592.12
492.963	604.12
493.18	596.12
493.398	592.12
493.615	612.12
493.833	585.12
494.05	600.12
494.268	604.12
494.485	593.12
494.703	595.12
494.92	623.12
495.138	605.12
495.355	598.12
495.573	612.12
495.79	622.12
496.008	615.12
496.225	611.12
496.442	607.12
496.66	618.12
496.877	622.12
497.094	611.12
497.312	625.12
497.529	618.12
497.746	629.12
497.963	643.12
498.181	642.12
498.398	655.12
498.615	667.12
498.832	649.12
499.049	658.12
499.267	681.12
499.484	715.12
499.701	718.12
499.918	746.12
500.135	755.12
500.352	804.12
500.569	793.12
500.786	809.12
501.003	806.12
501.22	766.12
501.437	742.12
501.654	759.12
501.871	748.12
