Data from 1983.PennyLincolnUp.Lamp.En5.5.200Scan.071819.P1_HRD10591_16-54-39-966.txt Node
Date: Thu Jul 18 16:54:39 EDT 2019
User: cochatt
Spectrometer: HR+D1059
Trigger mode: 1
Integration Time (sec): 1.000000E-1
Scans to average: 1
Electric dark correction enabled: true
Nonlinearity correction enabled: false
Boxcar width: 0
XAxis mode: Wavelengths
Number of Pixels in Spectrum: 2048
>>>>>Begin Spectral Data<<<<<
223.165	-28.62
223.4	-28.62
223.635	-28.62
223.869	-13.62
224.104	-21.62
224.338	-2.62
224.573	-21.62
224.808	-13.62
225.042	-21.62
225.277	-6.62
225.511	-9.62
225.746	8.38
225.98	8.38
226.215	32.38
226.449	19.38
226.683	20.38
226.918	12.38
227.152	38.38
227.387	36.38
227.621	39.38
227.856	42.38
228.09	60.38
228.324	46.38
228.559	52.38
228.793	71.38
229.027	95.38
229.262	93.38
229.496	94.38
229.73	119.38
229.964	137.38
230.199	128.38
230.433	104.38
230.667	100.38
230.901	108.38
231.136	109.38
231.37	102.38
231.604	107.38
231.838	105.38
232.072	115.38
232.306	108.38
232.541	106.38
232.775	99.38
233.009	89.38
233.243	105.38
233.477	105.38
233.711	107.38
233.945	107.38
234.179	115.38
234.413	119.38
234.647	129.38
234.881	116.38
235.115	98.38
235.349	99.38
235.583	108.38
235.817	104.38
236.051	117.38
236.285	108.38
236.519	124.38
236.753	123.38
236.987	137.38
237.221	167.38
237.455	194.38
237.689	175.38
237.922	126.38
238.156	133.38
238.39	128.38
238.624	118.38
238.858	131.38
239.091	113.38
239.325	123.38
239.559	115.38
239.793	112.38
240.027	136.38
240.26	147.38
240.494	139.38
240.728	129.38
240.961	132.38
241.195	131.38
241.429	127.38
241.662	118.38
241.896	116.38
242.13	120.38
242.363	122.38
242.597	125.38
242.83	129.38
243.064	145.38
243.298	128.38
243.531	134.38
243.765	121.38
243.998	127.38
244.232	129.38
244.465	130.38
244.699	135.38
244.932	133.38
245.166	131.38
245.399	133.38
245.633	146.38
245.866	141.38
246.099	151.38
246.333	152.38
246.566	149.38
246.8	145.38
247.033	157.38
247.266	150.38
247.5	151.38
247.733	141.38
247.966	152.38
248.2	152.38
248.433	155.38
248.666	156.38
248.899	179.38
249.133	193.38
249.366	197.38
249.599	190.38
249.832	159.38
250.066	168.38
250.299	162.38
250.532	184.38
250.765	189.38
250.998	199.38
251.231	215.38
251.465	205.38
251.698	180.38
251.931	195.38
252.164	186.38
252.397	193.38
252.63	188.38
252.863	189.38
253.096	212.38
253.329	200.38
253.562	207.38
253.795	202.38
254.028	197.38
254.261	189.38
254.494	227.38
254.727	242.38
254.96	273.38
255.193	257.38
255.426	216.38
255.659	211.38
255.892	232.38
256.124	231.38
256.357	226.38
256.59	229.38
256.823	206.38
257.056	194.38
257.289	181.38
257.521	210.38
257.754	202.38
257.987	196.38
258.22	197.38
258.452	188.38
258.685	197.38
258.918	192.38
259.151	189.38
259.383	202.38
259.616	203.38
259.849	216.38
260.081	235.38
260.314	230.38
260.547	255.38
260.779	227.38
261.012	211.38
261.244	213.38
261.477	196.38
261.71	209.38
261.942	210.38
262.175	215.38
262.407	215.38
262.64	203.38
262.872	192.38
263.105	197.38
263.337	206.38
263.57	195.38
263.802	202.38
264.035	191.38
264.267	184.38
264.499	193.38
264.732	192.38
264.964	223.38
265.197	202.38
265.429	186.38
265.661	205.38
265.894	211.38
266.126	201.38
266.358	199.38
266.591	197.38
266.823	194.38
267.055	212.38
267.287	208.38
267.52	191.38
267.752	205.38
267.984	217.38
268.216	196.38
268.448	208.38
268.681	208.38
268.913	229.38
269.145	253.38
269.377	247.38
269.609	264.38
269.841	270.38
270.073	255.38
270.306	287.38
270.538	285.38
270.77	295.38
271.002	283.38
271.234	261.38
271.466	267.38
271.698	283.38
271.93	283.38
272.162	305.38
272.394	283.38
272.626	270.38
272.858	259.38
273.09	257.38
273.322	257.38
273.553	242.38
273.785	225.38
274.017	243.38
274.249	236.38
274.481	269.38
274.713	244.38
274.945	250.38
275.176	234.38
275.408	257.38
275.64	253.38
275.872	245.38
276.104	248.38
276.335	265.38
276.567	261.38
276.799	258.38
277.031	279.38
277.262	303.38
277.494	298.38
277.726	285.38
277.957	259.38
278.189	271.38
278.421	243.38
278.652	246.38
278.884	241.38
279.115	248.38
279.347	226.38
279.579	232.38
279.81	229.38
280.042	227.38
280.273	263.38
280.505	237.38
280.736	235.38
280.968	243.38
281.199	237.38
281.431	236.38
281.662	246.38
281.894	235.38
282.125	255.38
282.356	273.38
282.588	284.38
282.819	282.38
283.051	250.38
283.282	223.38
283.513	239.38
283.745	249.38
283.976	244.38
284.207	276.38
284.439	263.38
284.67	259.38
284.901	268.38
285.132	278.38
285.364	257.38
285.595	243.38
285.826	270.38
286.057	251.38
286.288	247.38
286.52	253.38
286.751	250.38
286.982	241.38
287.213	269.38
287.444	252.38
287.675	258.38
287.906	279.38
288.138	255.38
288.369	268.38
288.6	273.38
288.831	268.38
289.062	286.38
289.293	262.38
289.524	278.38
289.755	266.38
289.986	259.38
290.217	287.38
290.448	273.38
290.679	259.38
290.91	259.38
291.141	266.38
291.371	266.38
291.602	250.38
291.833	270.38
292.064	273.38
292.295	278.38
292.526	260.38
292.757	258.38
292.987	269.38
293.218	257.38
293.449	273.38
293.68	263.38
293.91	238.38
294.141	268.38
294.372	266.38
294.603	256.38
294.833	259.38
295.064	252.38
295.295	263.38
295.525	277.38
295.756	279.38
295.987	299.38
296.217	311.38
296.448	287.38
296.679	272.38
296.909	263.38
297.14	262.38
297.37	269.38
297.601	284.38
297.831	264.38
298.062	269.38
298.292	296.38
298.523	276.38
298.753	285.38
298.984	286.38
299.214	292.38
299.445	279.38
299.675	274.38
299.905	277.38
300.136	298.38
300.366	292.38
300.597	288.38
300.827	296.38
301.057	297.38
301.288	300.38
301.518	289.38
301.748	292.38
301.979	307.38
302.209	294.38
302.439	300.38
302.669	308.38
302.9	307.38
303.13	288.38
303.36	275.38
303.59	286.38
303.82	318.38
304.051	303.38
304.281	297.38
304.511	298.38
304.741	299.38
304.971	291.38
305.201	298.38
305.431	307.38
305.661	289.38
305.891	296.38
306.121	300.38
306.352	308.38
306.582	294.38
306.812	289.38
307.042	295.38
307.272	309.38
307.502	307.38
307.731	296.38
307.961	327.38
308.191	297.38
308.421	305.38
308.651	294.38
308.881	313.38
309.111	306.38
309.341	299.38
309.571	325.38
309.8	320.38
310.03	331.38
310.26	344.38
310.49	351.38
310.72	349.38
310.949	363.38
311.179	373.38
311.409	345.38
311.639	359.38
311.868	335.38
312.098	369.38
312.328	360.38
312.557	373.38
312.787	365.38
313.017	391.38
313.246	359.38
313.476	347.38
313.706	345.38
313.935	353.38
314.165	375.38
314.394	378.38
314.624	354.38
314.853	359.38
315.083	355.38
315.312	342.38
315.542	349.38
315.771	343.38
316.001	323.38
316.23	335.38
316.46	340.38
316.689	348.38
316.919	375.38
317.148	364.38
317.377	344.38
317.607	348.38
317.836	344.38
318.065	341.38
318.295	343.38
318.524	335.38
318.753	352.38
318.983	352.38
319.212	356.38
319.441	339.38
319.67	348.38
319.9	367.38
320.129	358.38
320.358	344.38
320.587	347.38
320.816	361.38
321.046	375.38
321.275	377.38
321.504	384.38
321.733	358.38
321.962	391.38
322.191	388.38
322.42	401.38
322.649	421.38
322.878	434.38
323.108	443.38
323.337	454.38
323.566	484.38
323.795	488.38
324.024	563.38
324.253	721.38
324.482	1002.38
324.71	1502.38
324.939	2058.38
325.168	1692.38
325.397	904.38
325.626	645.38
325.855	532.38
326.084	489.38
326.313	479.38
326.542	470.38
326.77	525.38
326.999	623.38
327.228	897.38
327.457	1320.38
327.686	1541.38
327.914	1016.38
328.143	707.38
328.372	621.38
328.6	594.38
328.829	556.38
329.058	571.38
329.287	567.38
329.515	527.38
329.744	486.38
329.972	491.38
330.201	518.38
330.43	565.38
330.658	586.38
330.887	568.38
331.115	580.38
331.344	480.38
331.572	465.38
331.801	459.38
332.03	467.38
332.258	443.38
332.486	428.38
332.715	429.38
332.943	441.38
333.172	425.38
333.4	447.38
333.629	437.38
333.857	451.38
334.085	462.38
334.314	491.38
334.542	486.38
334.771	516.38
334.999	463.38
335.227	426.38
335.455	421.38
335.684	419.38
335.912	402.38
336.14	407.38
336.369	410.38
336.597	403.38
336.825	416.38
337.053	406.38
337.281	403.38
337.51	384.38
337.738	387.38
337.966	401.38
338.194	406.38
338.422	416.38
338.65	394.38
338.878	395.38
339.106	402.38
339.334	395.38
339.562	389.38
339.79	362.38
340.018	367.38
340.246	383.38
340.474	409.38
340.702	396.38
340.93	398.38
341.158	380.38
341.386	385.38
341.614	410.38
341.842	397.38
342.07	379.38
342.298	379.38
342.526	379.38
342.754	368.38
342.981	387.38
343.209	348.38
343.437	379.38
343.665	377.38
343.893	385.38
344.12	386.38
344.348	389.38
344.576	394.38
344.804	404.38
345.031	409.38
345.259	439.38
345.487	389.38
345.714	400.38
345.942	378.38
346.17	375.38
346.397	382.38
346.625	378.38
346.853	369.38
347.08	367.38
347.308	387.38
347.535	395.38
347.763	384.38
347.99	388.38
348.218	403.38
348.445	380.38
348.673	398.38
348.9	378.38
349.128	362.38
349.355	381.38
349.583	365.38
349.81	367.38
350.037	374.38
350.265	373.38
350.492	349.38
350.72	363.38
350.947	380.38
351.174	399.38
351.402	404.38
351.629	381.38
351.856	393.38
352.083	392.38
352.311	407.38
352.538	390.38
352.765	379.38
352.992	369.38
353.22	389.38
353.447	385.38
353.674	376.38
353.901	352.38
354.128	355.38
354.355	368.38
354.583	353.38
354.81	356.38
355.037	322.38
355.264	351.38
355.491	325.38
355.718	332.38
355.945	331.38
356.172	343.38
356.399	320.38
356.626	337.38
356.853	347.38
357.08	328.38
357.307	351.38
357.534	343.38
357.761	334.38
357.988	337.38
358.215	337.38
358.441	349.38
358.668	338.38
358.895	354.38
359.122	354.38
359.349	379.38
359.576	383.38
359.802	407.38
360.029	433.38
360.256	450.38
360.483	424.38
360.709	395.38
360.936	377.38
361.163	378.38
361.39	393.38
361.616	394.38
361.843	380.38
362.07	388.38
362.296	379.38
362.523	387.38
362.749	380.38
362.976	372.38
363.203	354.38
363.429	361.38
363.656	376.38
363.882	364.38
364.109	358.38
364.335	361.38
364.562	348.38
364.788	356.38
365.015	362.38
365.241	358.38
365.468	367.38
365.694	356.38
365.92	364.38
366.147	356.38
366.373	361.38
366.599	360.38
366.826	350.38
367.052	368.38
367.278	359.38
367.505	367.38
367.731	363.38
367.957	343.38
368.184	373.38
368.41	361.38
368.636	360.38
368.862	382.38
369.089	379.38
369.315	353.38
369.541	370.38
369.767	345.38
369.993	350.38
370.219	357.38
370.445	366.38
370.672	362.38
370.898	349.38
371.124	363.38
371.35	348.38
371.576	340.38
371.802	351.38
372.028	363.38
372.254	356.38
372.48	330.38
372.706	358.38
372.932	340.38
373.158	359.38
373.384	342.38
373.61	351.38
373.835	338.38
374.061	312.38
374.287	343.38
374.513	337.38
374.739	356.38
374.965	362.38
375.191	351.38
375.416	351.38
375.642	336.38
375.868	363.38
376.094	342.38
376.319	347.38
376.545	343.38
376.771	348.38
376.997	357.38
377.222	355.38
377.448	357.38
377.674	356.38
377.899	350.38
378.125	342.38
378.35	361.38
378.576	340.38
378.802	344.38
379.027	352.38
379.253	353.38
379.478	364.38
379.704	340.38
379.929	351.38
380.155	337.38
380.38	349.38
380.606	344.38
380.831	355.38
381.057	352.38
381.282	375.38
381.507	337.38
381.733	326.38
381.958	347.38
382.184	365.38
382.409	359.38
382.634	365.38
382.86	340.38
383.085	345.38
383.31	349.38
383.535	340.38
383.761	347.38
383.986	350.38
384.211	370.38
384.436	357.38
384.662	382.38
384.887	374.38
385.112	369.38
385.337	378.38
385.562	353.38
385.787	372.38
386.013	383.38
386.238	382.38
386.463	376.38
386.688	367.38
386.913	356.38
387.138	382.38
387.363	364.38
387.588	375.38
387.813	375.38
388.038	372.38
388.263	361.38
388.488	363.38
388.713	355.38
388.938	369.38
389.163	375.38
389.387	377.38
389.612	347.38
389.837	363.38
390.062	371.38
390.287	377.38
390.512	375.38
390.736	364.38
390.961	364.38
391.186	380.38
391.411	376.38
391.636	384.38
391.86	359.38
392.085	381.38
392.31	403.38
392.534	379.38
392.759	390.38
392.984	395.38
393.208	364.38
393.433	357.38
393.658	363.38
393.882	367.38
394.107	385.38
394.331	355.38
394.556	392.38
394.78	372.38
395.005	372.38
395.229	360.38
395.454	409.38
395.678	396.38
395.903	368.38
396.127	420.38
396.352	403.38
396.576	393.38
396.801	378.38
397.025	377.38
397.249	389.38
397.474	396.38
397.698	394.38
397.922	391.38
398.147	415.38
398.371	409.38
398.595	408.38
398.82	413.38
399.044	423.38
399.268	455.38
399.492	454.38
399.717	464.38
399.941	483.38
400.165	505.38
400.389	486.38
400.613	476.38
400.837	438.38
401.062	428.38
401.286	425.38
401.51	422.38
401.734	426.38
401.958	424.38
402.182	427.38
402.406	423.38
402.63	433.38
402.854	419.38
403.078	423.38
403.302	447.38
403.526	427.38
403.75	450.38
403.974	433.38
404.198	433.38
404.422	441.38
404.645	458.38
404.869	429.38
405.093	465.38
405.317	516.38
405.541	533.38
405.765	502.38
405.988	452.38
406.212	469.38
406.436	501.38
406.66	500.38
406.883	474.38
407.107	480.38
407.331	515.38
407.555	595.38
407.778	572.38
408.002	528.38
408.226	489.38
408.449	483.38
408.673	479.38
408.896	483.38
409.12	536.38
409.344	489.38
409.567	460.38
409.791	422.38
410.014	435.38
410.238	430.38
410.461	423.38
410.685	442.38
410.908	451.38
411.132	476.38
411.355	515.38
411.578	481.38
411.802	437.38
412.025	427.38
412.249	444.38
412.472	469.38
412.695	486.38
412.919	489.38
413.142	448.38
413.365	441.38
413.589	417.38
413.812	419.38
414.035	434.38
414.258	411.38
414.482	419.38
414.705	419.38
414.928	419.38
415.151	397.38
415.374	409.38
415.597	404.38
415.821	413.38
416.044	412.38
416.267	401.38
416.49	409.38
416.713	411.38
416.936	417.38
417.159	405.38
417.382	397.38
417.605	426.38
417.828	421.38
418.051	441.38
418.274	435.38
418.497	416.38
418.72	416.38
418.943	410.38
419.166	433.38
419.389	453.38
419.611	437.38
419.834	425.38
420.057	431.38
420.28	431.38
420.503	443.38
420.726	444.38
420.948	427.38
421.171	473.38
421.394	473.38
421.617	446.38
421.839	428.38
422.062	427.38
422.285	459.38
422.507	497.38
422.73	520.38
422.953	536.38
423.175	473.38
423.398	472.38
423.621	448.38
423.843	467.38
424.066	460.38
424.288	462.38
424.511	495.38
424.733	509.38
424.956	590.38
425.178	552.38
425.401	542.38
425.623	565.38
425.846	509.38
426.068	463.38
426.291	477.38
426.513	448.38
426.735	470.38
426.958	511.38
427.18	551.38
427.402	675.38
427.625	721.38
427.847	652.38
428.069	583.38
428.292	523.38
428.514	459.38
428.736	459.38
428.958	428.38
429.181	436.38
429.403	452.38
429.625	442.38
429.847	453.38
430.069	517.38
430.292	520.38
430.514	450.38
430.736	440.38
430.958	437.38
431.18	419.38
431.402	409.38
431.624	392.38
431.846	394.38
432.068	397.38
432.29	391.38
432.512	399.38
432.734	407.38
432.956	412.38
433.178	419.38
433.4	442.38
433.622	435.38
433.844	416.38
434.066	391.38
434.287	413.38
434.509	401.38
434.731	441.38
434.953	426.38
435.175	439.38
435.397	437.38
435.618	464.38
435.84	493.38
436.062	591.38
436.284	600.38
436.505	535.38
436.727	479.38
436.949	451.38
437.17	436.38
437.392	424.38
437.614	426.38
437.835	478.38
438.057	559.38
438.278	608.38
438.5	613.38
438.721	688.38
438.943	645.38
439.165	515.38
439.386	499.38
439.608	471.38
439.829	468.38
440.05	470.38
440.272	516.38
440.493	508.38
440.715	471.38
440.936	466.38
441.158	453.38
441.379	426.38
441.6	465.38
441.822	466.38
442.043	494.38
442.264	559.38
442.486	587.38
442.707	524.38
442.928	472.38
443.149	498.38
443.371	510.38
443.592	525.38
443.813	624.38
444.034	641.38
444.255	543.38
444.476	487.38
444.698	477.38
444.919	475.38
445.14	593.38
445.361	530.38
445.582	492.38
445.803	556.38
446.024	660.38
446.245	625.38
446.466	597.38
446.687	507.38
446.908	474.38
447.129	447.38
447.35	444.38
447.571	438.38
447.792	423.38
448.013	417.38
448.234	437.38
448.455	506.38
448.675	586.38
448.896	664.38
449.117	557.38
449.338	566.38
449.559	608.38
449.779	684.38
450	561.38
450.221	482.38
450.442	462.38
450.662	438.38
450.883	431.38
451.104	456.38
451.324	447.38
451.545	421.38
451.766	396.38
451.986	395.38
452.207	381.38
452.428	369.38
452.648	395.38
452.869	394.38
453.089	397.38
453.31	411.38
453.53	412.38
453.751	405.38
453.971	406.38
454.192	417.38
454.412	409.38
454.633	401.38
454.853	394.38
455.073	390.38
455.294	427.38
455.514	481.38
455.734	456.38
455.955	389.38
456.175	385.38
456.395	375.38
456.616	367.38
456.836	355.38
457.056	383.38
457.276	379.38
457.497	357.38
457.717	369.38
457.937	361.38
458.157	382.38
458.377	385.38
458.598	403.38
458.818	465.38
459.038	546.38
459.258	553.38
459.478	464.38
459.698	424.38
459.918	411.38
460.138	388.38
460.358	406.38
460.578	426.38
460.798	401.38
461.018	412.38
461.238	431.38
461.458	408.38
461.678	392.38
461.898	402.38
462.118	412.38
462.338	397.38
462.558	438.38
462.777	424.38
462.997	426.38
463.217	445.38
463.437	444.38
463.657	435.38
463.876	437.38
464.096	423.38
464.316	435.38
464.536	440.38
464.755	437.38
464.975	449.38
465.195	519.38
465.414	589.38
465.634	502.38
465.854	460.38
466.073	428.38
466.293	411.38
466.512	384.38
466.732	406.38
466.951	391.38
467.171	385.38
467.391	411.38
467.61	433.38
467.829	407.38
468.049	409.38
468.268	411.38
468.488	390.38
468.707	387.38
468.927	387.38
469.146	385.38
469.365	380.38
469.585	387.38
469.804	407.38
470.023	416.38
470.243	411.38
470.462	420.38
470.681	423.38
470.901	425.38
471.12	404.38
471.339	407.38
471.558	412.38
471.777	415.38
471.997	405.38
472.216	429.38
472.435	458.38
472.654	435.38
472.873	418.38
473.092	408.38
473.311	409.38
473.53	380.38
473.749	403.38
473.968	441.38
474.187	530.38
474.406	527.38
474.625	461.38
474.844	425.38
475.063	399.38
475.282	401.38
475.501	408.38
475.72	425.38
475.939	415.38
476.158	384.38
476.377	424.38
476.596	404.38
476.814	419.38
477.033	442.38
477.252	417.38
477.471	417.38
477.69	434.38
477.908	433.38
478.127	463.38
478.346	443.38
478.564	423.38
478.783	443.38
479.002	460.38
479.22	441.38
479.439	465.38
479.658	490.38
479.876	477.38
480.095	489.38
480.313	501.38
480.532	505.38
480.751	489.38
480.969	522.38
481.188	591.38
481.406	621.38
481.624	534.38
481.843	500.38
482.061	492.38
482.28	483.38
482.498	483.38
482.717	459.38
482.935	452.38
483.153	488.38
483.372	486.38
483.59	449.38
483.808	471.38
484.027	481.38
484.245	466.38
484.463	473.38
484.681	481.38
484.9	472.38
485.118	515.38
485.336	481.38
485.554	489.38
485.772	488.38
485.99	479.38
486.209	486.38
486.427	483.38
486.645	510.38
486.863	501.38
487.081	510.38
487.299	521.38
487.517	511.38
487.735	511.38
487.953	495.38
488.171	518.38
488.389	511.38
488.607	513.38
488.825	531.38
489.043	495.38
489.261	515.38
489.479	529.38
489.696	516.38
489.914	554.38
490.132	529.38
490.35	530.38
490.568	519.38
490.786	548.38
491.003	506.38
491.221	574.38
491.439	567.38
491.657	584.38
491.874	574.38
492.092	592.38
492.31	601.38
492.527	589.38
492.745	571.38
492.963	593.38
493.18	635.38
493.398	590.38
493.615	587.38
493.833	598.38
494.05	631.38
494.268	608.38
494.485	607.38
494.703	584.38
494.92	592.38
495.138	594.38
495.355	607.38
495.573	605.38
495.79	593.38
496.008	614.38
496.225	602.38
496.442	604.38
496.66	614.38
496.877	611.38
497.094	625.38
497.312	617.38
497.529	616.38
497.746	610.38
497.963	603.38
498.181	635.38
498.398	635.38
498.615	632.38
498.832	649.38
499.049	661.38
499.267	699.38
499.484	712.38
499.701	703.38
499.918	714.38
500.135	745.38
500.352	775.38
500.569	798.38
500.786	788.38
501.003	807.38
501.22	777.38
501.437	754.38
501.654	774.38
501.871	742.38
502.088	736.38
