Data from 1983.PennyLincolnUp.Lamp.En5.5.200Scan.071819.P1_HRD10591_16-52-08-965.txt Node
Date: Thu Jul 18 16:52:08 EDT 2019
User: cochatt
Spectrometer: HR+D1059
Trigger mode: 1
Integration Time (sec): 1.000000E-1
Scans to average: 1
Electric dark correction enabled: true
Nonlinearity correction enabled: false
Boxcar width: 0
XAxis mode: Wavelengths
Number of Pixels in Spectrum: 2048
>>>>>Begin Spectral Data<<<<<
223.165	-13.06
223.4	-13.06
223.635	-13.06
223.869	-27.06
224.104	-12.06
224.338	-7.06
224.573	-20.06
224.808	-10.06
225.042	-19.06
225.277	10.94
225.511	-3.06
225.746	-4.06
225.98	-1.06
226.215	18.94
226.449	6.94
226.683	21.94
226.918	25.94
227.152	31.94
227.387	35.94
227.621	45.94
227.856	29.94
228.09	41.94
228.324	42.94
228.559	53.94
228.793	64.94
229.027	91.94
229.262	85.94
229.496	102.94
229.73	120.94
229.964	132.94
230.199	120.94
230.433	112.94
230.667	113.94
230.901	117.94
231.136	104.94
231.37	107.94
231.604	117.94
231.838	118.94
232.072	105.94
232.306	101.94
232.541	113.94
232.775	108.94
233.009	90.94
233.243	108.94
233.477	108.94
233.711	109.94
233.945	108.94
234.179	108.94
234.413	112.94
234.647	103.94
234.881	106.94
235.115	117.94
235.349	87.94
235.583	109.94
235.817	122.94
236.051	108.94
236.285	108.94
236.519	89.94
236.753	125.94
236.987	136.94
237.221	166.94
237.455	200.94
237.689	148.94
237.922	121.94
238.156	112.94
238.39	101.94
238.624	116.94
238.858	100.94
239.091	107.94
239.325	115.94
239.559	100.94
239.793	120.94
240.027	122.94
240.26	117.94
240.494	140.94
240.728	126.94
240.961	128.94
241.195	130.94
241.429	116.94
241.662	129.94
241.896	130.94
242.13	130.94
242.363	122.94
242.597	131.94
242.83	108.94
243.064	122.94
243.298	116.94
243.531	120.94
243.765	125.94
243.998	138.94
244.232	112.94
244.465	132.94
244.699	140.94
244.932	123.94
245.166	131.94
245.399	136.94
245.633	133.94
245.866	140.94
246.099	142.94
246.333	134.94
246.566	143.94
246.8	144.94
247.033	146.94
247.266	158.94
247.5	137.94
247.733	132.94
247.966	162.94
248.2	177.94
248.433	162.94
248.666	157.94
248.899	162.94
249.133	171.94
249.366	176.94
249.599	172.94
249.832	161.94
250.066	157.94
250.299	164.94
250.532	153.94
250.765	171.94
250.998	201.94
251.231	192.94
251.465	200.94
251.698	195.94
251.931	170.94
252.164	173.94
252.397	172.94
252.63	166.94
252.863	165.94
253.096	175.94
253.329	201.94
253.562	179.94
253.795	183.94
254.028	192.94
254.261	180.94
254.494	188.94
254.727	209.94
254.96	220.94
255.193	198.94
255.426	192.94
255.659	187.94
255.892	170.94
256.124	182.94
256.357	182.94
256.59	191.94
256.823	191.94
257.056	183.94
257.289	168.94
257.521	193.94
257.754	187.94
257.987	172.94
258.22	164.94
258.452	184.94
258.685	177.94
258.918	178.94
259.151	181.94
259.383	178.94
259.616	181.94
259.849	192.94
260.081	200.94
260.314	211.94
260.547	210.94
260.779	198.94
261.012	202.94
261.244	192.94
261.477	193.94
261.71	191.94
261.942	170.94
262.175	204.94
262.407	210.94
262.64	197.94
262.872	198.94
263.105	194.94
263.337	186.94
263.57	184.94
263.802	193.94
264.035	189.94
264.267	187.94
264.499	167.94
264.732	188.94
264.964	175.94
265.197	168.94
265.429	189.94
265.661	179.94
265.894	182.94
266.126	203.94
266.358	185.94
266.591	176.94
266.823	178.94
267.055	212.94
267.287	194.94
267.52	185.94
267.752	203.94
267.984	205.94
268.216	168.94
268.448	200.94
268.681	201.94
268.913	208.94
269.145	229.94
269.377	227.94
269.609	212.94
269.841	212.94
270.073	244.94
270.306	238.94
270.538	268.94
270.77	262.94
271.002	238.94
271.234	240.94
271.466	241.94
271.698	253.94
271.93	255.94
272.162	259.94
272.394	247.94
272.626	240.94
272.858	225.94
273.09	235.94
273.322	249.94
273.553	221.94
273.785	221.94
274.017	211.94
274.249	232.94
274.481	232.94
274.713	222.94
274.945	228.94
275.176	232.94
275.408	241.94
275.64	229.94
275.872	216.94
276.104	224.94
276.335	229.94
276.567	234.94
276.799	242.94
277.031	264.94
277.262	272.94
277.494	277.94
277.726	241.94
277.957	237.94
278.189	240.94
278.421	244.94
278.652	237.94
278.884	218.94
279.115	240.94
279.347	231.94
279.579	264.94
279.81	282.94
280.042	258.94
280.273	269.94
280.505	279.94
280.736	244.94
280.968	246.94
281.199	218.94
281.431	242.94
281.662	234.94
281.894	242.94
282.125	252.94
282.356	264.94
282.588	273.94
282.819	245.94
283.051	244.94
283.282	240.94
283.513	262.94
283.745	245.94
283.976	225.94
284.207	232.94
284.439	243.94
284.67	256.94
284.901	229.94
285.132	246.94
285.364	258.94
285.595	265.94
285.826	231.94
286.057	242.94
286.288	240.94
286.52	226.94
286.751	226.94
286.982	252.94
287.213	253.94
287.444	250.94
287.675	241.94
287.906	263.94
288.138	263.94
288.369	284.94
288.6	286.94
288.831	245.94
289.062	252.94
289.293	242.94
289.524	241.94
289.755	248.94
289.986	259.94
290.217	267.94
290.448	254.94
290.679	262.94
290.91	269.94
291.141	248.94
291.371	257.94
291.602	237.94
291.833	245.94
292.064	250.94
292.295	242.94
292.526	256.94
292.757	244.94
292.987	246.94
293.218	243.94
293.449	242.94
293.68	245.94
293.91	244.94
294.141	247.94
294.372	268.94
294.603	256.94
294.833	250.94
295.064	246.94
295.295	267.94
295.525	254.94
295.756	264.94
295.987	244.94
296.217	279.94
296.448	294.94
296.679	273.94
296.909	264.94
297.14	264.94
297.37	250.94
297.601	259.94
297.831	266.94
298.062	257.94
298.292	264.94
298.523	249.94
298.753	257.94
298.984	257.94
299.214	273.94
299.445	270.94
299.675	275.94
299.905	274.94
300.136	271.94
300.366	277.94
300.597	250.94
300.827	264.94
301.057	276.94
301.288	301.94
301.518	297.94
301.748	274.94
301.979	289.94
302.209	281.94
302.439	270.94
302.669	267.94
302.9	284.94
303.13	269.94
303.36	285.94
303.59	291.94
303.82	308.94
304.051	293.94
304.281	276.94
304.511	294.94
304.741	285.94
304.971	261.94
305.201	278.94
305.431	281.94
305.661	269.94
305.891	271.94
306.121	292.94
306.352	301.94
306.582	304.94
306.812	293.94
307.042	298.94
307.272	269.94
307.502	287.94
307.731	264.94
307.961	268.94
308.191	290.94
308.421	309.94
308.651	286.94
308.881	295.94
309.111	311.94
309.341	315.94
309.571	314.94
309.8	326.94
310.03	320.94
310.26	321.94
310.49	329.94
310.72	347.94
310.949	334.94
311.179	372.94
311.409	340.94
311.639	338.94
311.868	323.94
312.098	318.94
312.328	330.94
312.557	351.94
312.787	358.94
313.017	349.94
313.246	330.94
313.476	338.94
313.706	336.94
313.935	327.94
314.165	336.94
314.394	352.94
314.624	337.94
314.853	324.94
315.083	318.94
315.312	353.94
315.542	330.94
315.771	317.94
316.001	311.94
316.23	320.94
316.46	339.94
316.689	327.94
316.919	324.94
317.148	327.94
317.377	338.94
317.607	338.94
317.836	350.94
318.065	324.94
318.295	318.94
318.524	335.94
318.753	318.94
318.983	321.94
319.212	336.94
319.441	319.94
319.67	355.94
319.9	334.94
320.129	339.94
320.358	327.94
320.587	321.94
320.816	315.94
321.046	349.94
321.275	366.94
321.504	336.94
321.733	340.94
321.962	353.94
322.191	359.94
322.42	380.94
322.649	390.94
322.878	399.94
323.108	390.94
323.337	439.94
323.566	459.94
323.795	521.94
324.024	542.94
324.253	654.94
324.482	968.94
324.71	1409.94
324.939	1901.94
325.168	1532.94
325.397	856.94
325.626	575.94
325.855	472.94
326.084	434.94
326.313	444.94
326.542	429.94
326.77	498.94
326.999	596.94
327.228	830.94
327.457	1229.94
327.686	1410.94
327.914	964.94
328.143	648.94
328.372	536.94
328.6	512.94
328.829	494.94
329.058	514.94
329.287	514.94
329.515	463.94
329.744	429.94
329.972	429.94
330.201	414.94
330.43	464.94
330.658	523.94
330.887	542.94
331.115	516.94
331.344	461.94
331.572	424.94
331.801	399.94
332.03	406.94
332.258	400.94
332.486	372.94
332.715	377.94
332.943	381.94
333.172	372.94
333.4	379.94
333.629	385.94
333.857	418.94
334.085	398.94
334.314	424.94
334.542	442.94
334.771	432.94
334.999	426.94
335.227	418.94
335.455	407.94
335.684	410.94
335.912	379.94
336.14	378.94
336.369	392.94
336.597	402.94
336.825	396.94
337.053	368.94
337.281	389.94
337.51	379.94
337.738	377.94
337.966	364.94
338.194	402.94
338.422	405.94
338.65	397.94
338.878	381.94
339.106	365.94
339.334	372.94
339.562	382.94
339.79	349.94
340.018	356.94
340.246	370.94
340.474	392.94
340.702	371.94
340.93	388.94
341.158	361.94
341.386	373.94
341.614	390.94
341.842	381.94
342.07	358.94
342.298	364.94
342.526	352.94
342.754	340.94
342.981	344.94
343.209	363.94
343.437	353.94
343.665	351.94
343.893	356.94
344.12	370.94
344.348	377.94
344.576	366.94
344.804	370.94
345.031	361.94
345.259	398.94
345.487	389.94
345.714	380.94
345.942	357.94
346.17	365.94
346.397	348.94
346.625	366.94
346.853	359.94
347.08	358.94
347.308	353.94
347.535	389.94
347.763	380.94
347.99	377.94
348.218	381.94
348.445	373.94
348.673	364.94
348.9	357.94
349.128	347.94
349.355	338.94
349.583	356.94
349.81	342.94
350.037	338.94
350.265	341.94
350.492	333.94
350.72	347.94
350.947	361.94
351.174	369.94
351.402	381.94
351.629	372.94
351.856	358.94
352.083	375.94
352.311	370.94
352.538	382.94
352.765	384.94
352.992	370.94
353.22	369.94
353.447	372.94
353.674	342.94
353.901	337.94
354.128	332.94
354.355	344.94
354.583	333.94
354.81	325.94
355.037	329.94
355.264	334.94
355.491	337.94
355.718	311.94
355.945	345.94
356.172	328.94
356.399	332.94
356.626	339.94
356.853	350.94
357.08	327.94
357.307	318.94
357.534	353.94
357.761	340.94
357.988	335.94
358.215	345.94
358.441	333.94
358.668	358.94
358.895	361.94
359.122	356.94
359.349	341.94
359.576	368.94
359.802	389.94
360.029	431.94
360.256	434.94
360.483	403.94
360.709	360.94
360.936	370.94
361.163	364.94
361.39	360.94
361.616	362.94
361.843	364.94
362.07	354.94
362.296	369.94
362.523	369.94
362.749	371.94
362.976	348.94
363.203	357.94
363.429	357.94
363.656	366.94
363.882	354.94
364.109	342.94
364.335	328.94
364.562	340.94
364.788	337.94
365.015	360.94
365.241	343.94
365.468	352.94
365.694	346.94
365.92	355.94
366.147	345.94
366.373	340.94
366.599	350.94
366.826	334.94
367.052	338.94
367.278	331.94
367.505	333.94
367.731	328.94
367.957	334.94
368.184	330.94
368.41	356.94
368.636	388.94
368.862	366.94
369.089	375.94
369.315	348.94
369.541	344.94
369.767	343.94
369.993	351.94
370.219	339.94
370.445	333.94
370.672	340.94
370.898	332.94
371.124	348.94
371.35	343.94
371.576	324.94
371.802	339.94
372.028	325.94
372.254	320.94
372.48	342.94
372.706	345.94
372.932	320.94
373.158	330.94
373.384	338.94
373.61	342.94
373.835	349.94
374.061	357.94
374.287	359.94
374.513	348.94
374.739	341.94
374.965	330.94
375.191	348.94
375.416	342.94
375.642	342.94
375.868	352.94
376.094	374.94
376.319	330.94
376.545	338.94
376.771	344.94
376.997	352.94
377.222	326.94
377.448	327.94
377.674	353.94
377.899	350.94
378.125	330.94
378.35	331.94
378.576	336.94
378.802	330.94
379.027	340.94
379.253	329.94
379.478	325.94
379.704	324.94
379.929	331.94
380.155	318.94
380.38	338.94
380.606	335.94
380.831	337.94
381.057	352.94
381.282	348.94
381.507	355.94
381.733	345.94
381.958	350.94
382.184	344.94
382.409	351.94
382.634	341.94
382.86	348.94
383.085	374.94
383.31	365.94
383.535	366.94
383.761	361.94
383.986	366.94
384.211	374.94
384.436	362.94
384.662	364.94
384.887	375.94
385.112	376.94
385.337	374.94
385.562	367.94
385.787	374.94
386.013	379.94
386.238	398.94
386.463	383.94
386.688	395.94
386.913	387.94
387.138	383.94
387.363	364.94
387.588	374.94
387.813	369.94
388.038	370.94
388.263	398.94
388.488	400.94
388.713	370.94
388.938	352.94
389.163	356.94
389.387	359.94
389.612	357.94
389.837	366.94
390.062	357.94
390.287	370.94
390.512	366.94
390.736	350.94
390.961	360.94
391.186	366.94
391.411	366.94
391.636	354.94
391.86	381.94
392.085	370.94
392.31	363.94
392.534	375.94
392.759	391.94
392.984	398.94
393.208	397.94
393.433	508.94
393.658	518.94
393.882	418.94
394.107	376.94
394.331	368.94
394.556	388.94
394.78	380.94
395.005	394.94
395.229	351.94
395.454	382.94
395.678	386.94
395.903	403.94
396.127	435.94
396.352	455.94
396.576	407.94
396.801	414.94
397.025	473.94
397.249	437.94
397.474	387.94
397.698	398.94
397.922	398.94
398.147	403.94
398.371	412.94
398.595	410.94
398.82	394.94
399.044	410.94
399.268	420.94
399.492	440.94
399.717	448.94
399.941	490.94
400.165	493.94
400.389	489.94
400.613	458.94
400.837	438.94
401.062	417.94
401.286	407.94
401.51	399.94
401.734	395.94
401.958	410.94
402.182	451.94
402.406	439.94
402.63	425.94
402.854	422.94
403.078	415.94
403.302	410.94
403.526	420.94
403.75	417.94
403.974	428.94
404.198	430.94
404.422	446.94
404.645	430.94
404.869	428.94
405.093	444.94
405.317	451.94
405.541	487.94
405.765	453.94
405.988	428.94
406.212	459.94
406.436	476.94
406.66	494.94
406.883	478.94
407.107	476.94
407.331	508.94
407.555	533.94
407.778	532.94
408.002	490.94
408.226	464.94
408.449	462.94
408.673	461.94
408.896	465.94
409.12	500.94
409.344	492.94
409.567	448.94
409.791	422.94
410.014	402.94
410.238	400.94
410.461	424.94
410.685	418.94
410.908	445.94
411.132	459.94
411.355	449.94
411.578	456.94
411.802	420.94
412.025	406.94
412.249	424.94
412.472	418.94
412.695	421.94
412.919	425.94
413.142	436.94
413.365	410.94
413.589	408.94
413.812	378.94
414.035	396.94
414.258	392.94
414.482	391.94
414.705	411.94
414.928	403.94
415.151	401.94
415.374	392.94
415.597	386.94
415.821	369.94
416.044	364.94
416.267	406.94
416.49	399.94
416.713	398.94
416.936	372.94
417.159	393.94
417.382	408.94
417.605	404.94
417.828	411.94
418.051	411.94
418.274	412.94
418.497	406.94
418.72	408.94
418.943	405.94
419.166	426.94
419.389	422.94
419.611	428.94
419.834	426.94
420.057	417.94
420.28	403.94
420.503	397.94
420.726	408.94
420.948	410.94
421.171	468.94
421.394	455.94
421.617	411.94
421.839	413.94
422.062	421.94
422.285	434.94
422.507	466.94
422.73	541.94
422.953	556.94
423.175	449.94
423.398	411.94
423.621	435.94
423.843	447.94
424.066	429.94
424.288	427.94
424.511	438.94
424.733	472.94
424.956	536.94
425.178	538.94
425.401	530.94
425.623	522.94
425.846	458.94
426.068	454.94
426.291	455.94
426.513	428.94
426.735	437.94
426.958	500.94
427.18	520.94
427.402	619.94
427.625	689.94
427.847	626.94
428.069	501.94
428.292	461.94
428.514	446.94
428.736	417.94
428.958	412.94
429.181	425.94
429.403	415.94
429.625	387.94
429.847	454.94
430.069	505.94
430.292	462.94
430.514	422.94
430.736	420.94
430.958	411.94
431.18	402.94
431.402	376.94
431.624	379.94
431.846	377.94
432.068	385.94
432.29	390.94
432.512	389.94
432.734	422.94
432.956	389.94
433.178	394.94
433.4	408.94
433.622	391.94
433.844	381.94
434.066	394.94
434.287	401.94
434.509	425.94
434.731	408.94
434.953	414.94
435.175	413.94
435.397	459.94
435.618	437.94
435.84	464.94
436.062	553.94
436.284	564.94
436.505	485.94
436.727	437.94
436.949	422.94
437.17	418.94
437.392	397.94
437.614	410.94
437.835	458.94
438.057	540.94
438.278	590.94
438.5	576.94
438.721	647.94
438.943	605.94
439.165	517.94
439.386	462.94
439.608	437.94
439.829	433.94
440.05	466.94
440.272	494.94
440.493	477.94
440.715	448.94
440.936	436.94
441.158	425.94
441.379	428.94
441.6	443.94
441.822	420.94
442.043	454.94
442.264	523.94
442.486	545.94
442.707	470.94
442.928	459.94
443.149	452.94
443.371	486.94
443.592	504.94
443.813	592.94
444.034	577.94
444.255	523.94
444.476	462.94
444.698	456.94
444.919	445.94
445.14	569.94
445.361	523.94
445.582	473.94
445.803	544.94
446.024	610.94
446.245	582.94
446.466	558.94
446.687	458.94
446.908	442.94
447.129	435.94
447.35	401.94
447.571	411.94
447.792	413.94
448.013	429.94
448.234	432.94
448.455	469.94
448.675	543.94
448.896	620.94
449.117	521.94
449.338	495.94
449.559	577.94
449.779	616.94
450	527.94
450.221	418.94
450.442	421.94
450.662	402.94
450.883	417.94
451.104	437.94
451.324	410.94
451.545	399.94
451.766	382.94
451.986	380.94
452.207	382.94
452.428	372.94
452.648	386.94
452.869	364.94
453.089	397.94
453.31	410.94
453.53	399.94
453.751	390.94
453.971	379.94
454.192	396.94
454.412	399.94
454.633	378.94
454.853	377.94
455.073	365.94
455.294	382.94
455.514	440.94
455.734	434.94
455.955	379.94
456.175	361.94
456.395	345.94
456.616	348.94
456.836	345.94
457.056	328.94
457.276	346.94
457.497	347.94
457.717	339.94
457.937	360.94
458.157	369.94
458.377	377.94
458.598	384.94
458.818	440.94
459.038	499.94
459.258	520.94
459.478	444.94
459.698	393.94
459.918	402.94
460.138	398.94
460.358	384.94
460.578	382.94
460.798	400.94
461.018	417.94
461.238	392.94
461.458	402.94
461.678	375.94
461.898	392.94
462.118	406.94
462.338	421.94
462.558	397.94
462.777	412.94
462.997	432.94
463.217	422.94
463.437	438.94
463.657	431.94
463.876	413.94
464.096	409.94
464.316	436.94
464.536	427.94
464.755	445.94
464.975	441.94
465.195	515.94
465.414	583.94
465.634	488.94
465.854	442.94
466.073	418.94
466.293	401.94
466.512	380.94
466.732	369.94
466.951	390.94
467.171	381.94
467.391	379.94
467.61	387.94
467.829	397.94
468.049	415.94
468.268	376.94
468.488	373.94
468.707	390.94
468.927	384.94
469.146	380.94
469.365	380.94
469.585	391.94
469.804	403.94
470.023	402.94
470.243	378.94
470.462	392.94
470.681	426.94
470.901	413.94
471.12	383.94
471.339	384.94
471.558	370.94
471.777	395.94
471.997	400.94
472.216	392.94
472.435	397.94
472.654	384.94
472.873	375.94
473.092	391.94
473.311	386.94
473.53	376.94
473.749	388.94
473.968	429.94
474.187	502.94
474.406	525.94
474.625	404.94
474.844	410.94
475.063	379.94
475.282	390.94
475.501	401.94
475.72	404.94
475.939	410.94
476.158	404.94
476.377	411.94
476.596	403.94
476.814	415.94
477.033	425.94
477.252	419.94
477.471	405.94
477.69	408.94
477.908	414.94
478.127	425.94
478.346	428.94
478.564	410.94
478.783	437.94
479.002	437.94
479.22	419.94
479.439	440.94
479.658	467.94
479.876	473.94
480.095	496.94
480.313	497.94
480.532	483.94
480.751	485.94
480.969	480.94
481.188	490.94
481.406	530.94
481.624	488.94
481.843	470.94
482.061	446.94
482.28	452.94
482.498	447.94
482.717	449.94
482.935	430.94
483.153	448.94
483.372	452.94
483.59	460.94
483.808	458.94
484.027	462.94
484.245	458.94
484.463	467.94
484.681	483.94
484.9	461.94
485.118	471.94
485.336	476.94
485.554	471.94
485.772	455.94
485.99	481.94
486.209	471.94
486.427	484.94
486.645	503.94
486.863	518.94
487.081	496.94
487.299	504.94
487.517	488.94
487.735	489.94
487.953	491.94
488.171	485.94
488.389	489.94
488.607	498.94
488.825	469.94
489.043	490.94
489.261	486.94
489.479	473.94
489.696	502.94
489.914	494.94
490.132	499.94
490.35	513.94
490.568	496.94
490.786	504.94
491.003	513.94
491.221	519.94
491.439	514.94
491.657	525.94
491.874	536.94
492.092	527.94
492.31	546.94
492.527	531.94
492.745	534.94
492.963	538.94
493.18	555.94
493.398	545.94
493.615	574.94
493.833	551.94
494.05	553.94
494.268	558.94
494.485	558.94
494.703	545.94
494.92	558.94
495.138	571.94
495.355	570.94
495.573	548.94
495.79	565.94
496.008	585.94
496.225	575.94
496.442	535.94
496.66	562.94
496.877	566.94
497.094	572.94
497.312	549.94
497.529	574.94
497.746	578.94
497.963	581.94
498.181	609.94
498.398	625.94
498.615	644.94
498.832	625.94
499.049	636.94
499.267	652.94
499.484	659.94
499.701	682.94
499.918	700.94
500.135	734.94
500.352	757.94
500.569	755.94
500.786	747.94
501.003	777.94
501.22	738.94
501.437	706.94
501.654	722.94
501.871	681.94
502.088	691.94
