Data from 1983.PennyLincolnUp.Lamp.En5.5.200Scan.071819.P1_HRD10591_16-53-24-966.txt Node
Date: Thu Jul 18 16:53:24 EDT 2019
User: cochatt
Spectrometer: HR+D1059
Trigger mode: 1
Integration Time (sec): 1.000000E-1
Scans to average: 1
Electric dark correction enabled: true
Nonlinearity correction enabled: false
Boxcar width: 0
XAxis mode: Wavelengths
Number of Pixels in Spectrum: 2048
>>>>>Begin Spectral Data<<<<<
223.165	-25.12
223.4	-25.12
223.635	-25.12
223.869	-6.12
224.104	-10.12
224.338	-26.12
224.573	-9.12
224.808	-13.12
225.042	-4.12
225.277	-6.12
225.511	-23.12
225.746	-2.12
225.98	5.88
226.215	14.88
226.449	21.88
226.683	25.88
226.918	20.88
227.152	35.88
227.387	23.88
227.621	37.88
227.856	37.88
228.09	40.88
228.324	45.88
228.559	56.88
228.793	61.88
229.027	89.88
229.262	105.88
229.496	95.88
229.73	123.88
229.964	138.88
230.199	119.88
230.433	129.88
230.667	103.88
230.901	117.88
231.136	113.88
231.37	117.88
231.604	114.88
231.838	103.88
232.072	98.88
232.306	114.88
232.541	121.88
232.775	99.88
233.009	94.88
233.243	117.88
233.477	117.88
233.711	114.88
233.945	102.88
234.179	109.88
234.413	105.88
234.647	111.88
234.881	116.88
235.115	104.88
235.349	119.88
235.583	115.88
235.817	122.88
236.051	110.88
236.285	97.88
236.519	118.88
236.753	139.88
236.987	143.88
237.221	167.88
237.455	200.88
237.689	157.88
237.922	122.88
238.156	119.88
238.39	118.88
238.624	120.88
238.858	108.88
239.091	123.88
239.325	121.88
239.559	117.88
239.793	113.88
240.027	131.88
240.26	121.88
240.494	146.88
240.728	133.88
240.961	131.88
241.195	129.88
241.429	120.88
241.662	123.88
241.896	131.88
242.13	121.88
242.363	127.88
242.597	115.88
242.83	122.88
243.064	140.88
243.298	121.88
243.531	122.88
243.765	125.88
243.998	116.88
244.232	134.88
244.465	125.88
244.699	141.88
244.932	131.88
245.166	135.88
245.399	140.88
245.633	155.88
245.866	148.88
246.099	133.88
246.333	137.88
246.566	143.88
246.8	133.88
247.033	137.88
247.266	128.88
247.5	151.88
247.733	166.88
247.966	155.88
248.2	153.88
248.433	171.88
248.666	174.88
248.899	170.88
249.133	185.88
249.366	187.88
249.599	180.88
249.832	165.88
250.066	149.88
250.299	169.88
250.532	170.88
250.765	168.88
250.998	185.88
251.231	203.88
251.465	183.88
251.698	185.88
251.931	185.88
252.164	182.88
252.397	165.88
252.63	190.88
252.863	189.88
253.096	202.88
253.329	203.88
253.562	207.88
253.795	195.88
254.028	194.88
254.261	206.88
254.494	203.88
254.727	250.88
254.96	256.88
255.193	245.88
255.426	210.88
255.659	209.88
255.892	209.88
256.124	194.88
256.357	203.88
256.59	209.88
256.823	187.88
257.056	184.88
257.289	188.88
257.521	185.88
257.754	199.88
257.987	186.88
258.22	191.88
258.452	183.88
258.685	183.88
258.918	196.88
259.151	204.88
259.383	197.88
259.616	175.88
259.849	199.88
260.081	226.88
260.314	212.88
260.547	244.88
260.779	229.88
261.012	213.88
261.244	216.88
261.477	204.88
261.71	193.88
261.942	214.88
262.175	218.88
262.407	203.88
262.64	198.88
262.872	200.88
263.105	183.88
263.337	202.88
263.57	197.88
263.802	183.88
264.035	185.88
264.267	196.88
264.499	209.88
264.732	197.88
264.964	206.88
265.197	185.88
265.429	201.88
265.661	190.88
265.894	196.88
266.126	197.88
266.358	204.88
266.591	201.88
266.823	206.88
267.055	199.88
267.287	215.88
267.52	204.88
267.752	209.88
267.984	205.88
268.216	199.88
268.448	196.88
268.681	208.88
268.913	205.88
269.145	232.88
269.377	239.88
269.609	264.88
269.841	240.88
270.073	247.88
270.306	259.88
270.538	271.88
270.77	286.88
271.002	271.88
271.234	249.88
271.466	265.88
271.698	266.88
271.93	288.88
272.162	294.88
272.394	289.88
272.626	285.88
272.858	269.88
273.09	249.88
273.322	258.88
273.553	247.88
273.785	241.88
274.017	230.88
274.249	225.88
274.481	237.88
274.713	234.88
274.945	256.88
275.176	243.88
275.408	239.88
275.64	246.88
275.872	228.88
276.104	228.88
276.335	250.88
276.567	253.88
276.799	269.88
277.031	286.88
277.262	287.88
277.494	277.88
277.726	271.88
277.957	261.88
278.189	241.88
278.421	248.88
278.652	260.88
278.884	231.88
279.115	245.88
279.347	231.88
279.579	249.88
279.81	241.88
280.042	238.88
280.273	241.88
280.505	265.88
280.736	234.88
280.968	241.88
281.199	263.88
281.431	237.88
281.662	257.88
281.894	243.88
282.125	250.88
282.356	249.88
282.588	274.88
282.819	294.88
283.051	261.88
283.282	248.88
283.513	261.88
283.745	243.88
283.976	257.88
284.207	259.88
284.439	244.88
284.67	240.88
284.901	248.88
285.132	238.88
285.364	254.88
285.595	243.88
285.826	260.88
286.057	245.88
286.288	259.88
286.52	252.88
286.751	252.88
286.982	252.88
287.213	250.88
287.444	259.88
287.675	261.88
287.906	266.88
288.138	254.88
288.369	269.88
288.6	278.88
288.831	275.88
289.062	253.88
289.293	274.88
289.524	256.88
289.755	243.88
289.986	268.88
290.217	245.88
290.448	257.88
290.679	273.88
290.91	242.88
291.141	252.88
291.371	267.88
291.602	272.88
291.833	279.88
292.064	261.88
292.295	253.88
292.526	258.88
292.757	272.88
292.987	274.88
293.218	267.88
293.449	276.88
293.68	280.88
293.91	271.88
294.141	240.88
294.372	236.88
294.603	269.88
294.833	272.88
295.064	273.88
295.295	280.88
295.525	257.88
295.756	279.88
295.987	279.88
296.217	278.88
296.448	311.88
296.679	282.88
296.909	277.88
297.14	273.88
297.37	286.88
297.601	286.88
297.831	269.88
298.062	260.88
298.292	269.88
298.523	275.88
298.753	275.88
298.984	267.88
299.214	289.88
299.445	296.88
299.675	269.88
299.905	290.88
300.136	273.88
300.366	281.88
300.597	283.88
300.827	280.88
301.057	282.88
301.288	306.88
301.518	289.88
301.748	295.88
301.979	294.88
302.209	294.88
302.439	304.88
302.669	295.88
302.9	309.88
303.13	299.88
303.36	293.88
303.59	287.88
303.82	296.88
304.051	309.88
304.281	309.88
304.511	300.88
304.741	302.88
304.971	277.88
305.201	295.88
305.431	296.88
305.661	286.88
305.891	292.88
306.121	286.88
306.352	321.88
306.582	305.88
306.812	292.88
307.042	295.88
307.272	299.88
307.502	305.88
307.731	308.88
307.961	295.88
308.191	299.88
308.421	310.88
308.651	297.88
308.881	299.88
309.111	311.88
309.341	307.88
309.571	345.88
309.8	332.88
310.03	340.88
310.26	347.88
310.49	342.88
310.72	370.88
310.949	369.88
311.179	366.88
311.409	347.88
311.639	336.88
311.868	334.88
312.098	337.88
312.328	356.88
312.557	359.88
312.787	367.88
313.017	366.88
313.246	355.88
313.476	341.88
313.706	370.88
313.935	359.88
314.165	331.88
314.394	369.88
314.624	363.88
314.853	369.88
315.083	334.88
315.312	344.88
315.542	338.88
315.771	335.88
316.001	339.88
316.23	343.88
316.46	331.88
316.689	344.88
316.919	357.88
317.148	362.88
317.377	326.88
317.607	364.88
317.836	361.88
318.065	334.88
318.295	339.88
318.524	333.88
318.753	326.88
318.983	330.88
319.212	322.88
319.441	345.88
319.67	375.88
319.9	349.88
320.129	340.88
320.358	346.88
320.587	339.88
320.816	346.88
321.046	360.88
321.275	364.88
321.504	377.88
321.733	375.88
321.962	363.88
322.191	391.88
322.42	401.88
322.649	406.88
322.878	413.88
323.108	424.88
323.337	455.88
323.566	459.88
323.795	474.88
324.024	548.88
324.253	665.88
324.482	950.88
324.71	1431.88
324.939	1885.88
325.168	1603.88
325.397	882.88
325.626	605.88
325.855	515.88
326.084	479.88
326.313	473.88
326.542	462.88
326.77	511.88
326.999	605.88
327.228	822.88
327.457	1260.88
327.686	1418.88
327.914	949.88
328.143	625.88
328.372	566.88
328.6	538.88
328.829	501.88
329.058	513.88
329.287	529.88
329.515	489.88
329.744	455.88
329.972	430.88
330.201	472.88
330.43	478.88
330.658	521.88
330.887	555.88
331.115	550.88
331.344	484.88
331.572	442.88
331.801	441.88
332.03	434.88
332.258	410.88
332.486	413.88
332.715	420.88
332.943	407.88
333.172	398.88
333.4	414.88
333.629	411.88
333.857	399.88
334.085	416.88
334.314	410.88
334.542	412.88
334.771	423.88
334.999	425.88
335.227	398.88
335.455	405.88
335.684	401.88
335.912	403.88
336.14	395.88
336.369	381.88
336.597	413.88
336.825	395.88
337.053	391.88
337.281	386.88
337.51	389.88
337.738	379.88
337.966	407.88
338.194	391.88
338.422	396.88
338.65	376.88
338.878	385.88
339.106	393.88
339.334	371.88
339.562	375.88
339.79	375.88
340.018	400.88
340.246	385.88
340.474	404.88
340.702	377.88
340.93	403.88
341.158	388.88
341.386	380.88
341.614	391.88
341.842	385.88
342.07	393.88
342.298	384.88
342.526	382.88
342.754	383.88
342.981	374.88
343.209	400.88
343.437	372.88
343.665	365.88
343.893	397.88
344.12	383.88
344.348	382.88
344.576	374.88
344.804	396.88
345.031	413.88
345.259	388.88
345.487	406.88
345.714	393.88
345.942	379.88
346.17	389.88
346.397	363.88
346.625	379.88
346.853	358.88
347.08	359.88
347.308	396.88
347.535	383.88
347.763	386.88
347.99	377.88
348.218	363.88
348.445	385.88
348.673	379.88
348.9	389.88
349.128	379.88
349.355	361.88
349.583	360.88
349.81	366.88
350.037	364.88
350.265	350.88
350.492	361.88
350.72	365.88
350.947	367.88
351.174	394.88
351.402	377.88
351.629	385.88
351.856	382.88
352.083	369.88
352.311	406.88
352.538	412.88
352.765	396.88
352.992	391.88
353.22	373.88
353.447	386.88
353.674	364.88
353.901	369.88
354.128	345.88
354.355	359.88
354.583	358.88
354.81	356.88
355.037	340.88
355.264	327.88
355.491	349.88
355.718	327.88
355.945	343.88
356.172	346.88
356.399	331.88
356.626	346.88
356.853	355.88
357.08	358.88
357.307	354.88
357.534	348.88
357.761	346.88
357.988	356.88
358.215	352.88
358.441	359.88
358.668	352.88
358.895	350.88
359.122	363.88
359.349	356.88
359.576	380.88
359.802	383.88
360.029	418.88
360.256	437.88
360.483	396.88
360.709	375.88
360.936	370.88
361.163	345.88
361.39	364.88
361.616	397.88
361.843	372.88
362.07	381.88
362.296	360.88
362.523	363.88
362.749	363.88
362.976	370.88
363.203	385.88
363.429	366.88
363.656	365.88
363.882	347.88
364.109	357.88
364.335	364.88
364.562	330.88
364.788	365.88
365.015	348.88
365.241	347.88
365.468	354.88
365.694	362.88
365.92	379.88
366.147	359.88
366.373	333.88
366.599	329.88
366.826	332.88
367.052	351.88
367.278	358.88
367.505	336.88
367.731	346.88
367.957	343.88
368.184	355.88
368.41	341.88
368.636	354.88
368.862	364.88
369.089	348.88
369.315	378.88
369.541	341.88
369.767	341.88
369.993	354.88
370.219	361.88
370.445	359.88
370.672	356.88
370.898	362.88
371.124	347.88
371.35	342.88
371.576	361.88
371.802	332.88
372.028	341.88
372.254	356.88
372.48	351.88
372.706	340.88
372.932	356.88
373.158	352.88
373.384	360.88
373.61	362.88
373.835	329.88
374.061	334.88
374.287	359.88
374.513	354.88
374.739	379.88
374.965	352.88
375.191	361.88
375.416	371.88
375.642	343.88
375.868	356.88
376.094	349.88
376.319	342.88
376.545	362.88
376.771	323.88
376.997	343.88
377.222	361.88
377.448	343.88
377.674	339.88
377.899	350.88
378.125	342.88
378.35	340.88
378.576	360.88
378.802	337.88
379.027	327.88
379.253	337.88
379.478	350.88
379.704	353.88
379.929	354.88
380.155	341.88
380.38	342.88
380.606	344.88
380.831	348.88
381.057	363.88
381.282	362.88
381.507	345.88
381.733	377.88
381.958	362.88
382.184	346.88
382.409	348.88
382.634	358.88
382.86	366.88
383.085	361.88
383.31	349.88
383.535	355.88
383.761	378.88
383.986	353.88
384.211	363.88
384.436	363.88
384.662	360.88
384.887	381.88
385.112	375.88
385.337	374.88
385.562	383.88
385.787	355.88
386.013	384.88
386.238	373.88
386.463	381.88
386.688	375.88
386.913	349.88
387.138	362.88
387.363	365.88
387.588	376.88
387.813	366.88
388.038	378.88
388.263	356.88
388.488	383.88
388.713	375.88
388.938	371.88
389.163	363.88
389.387	367.88
389.612	362.88
389.837	369.88
390.062	378.88
390.287	376.88
390.512	362.88
390.736	361.88
390.961	364.88
391.186	378.88
391.411	381.88
391.636	368.88
391.86	385.88
392.085	383.88
392.31	391.88
392.534	380.88
392.759	399.88
392.984	375.88
393.208	370.88
393.433	367.88
393.658	381.88
393.882	399.88
394.107	383.88
394.331	387.88
394.556	363.88
394.78	378.88
395.005	385.88
395.229	380.88
395.454	401.88
395.678	374.88
395.903	416.88
396.127	411.88
396.352	402.88
396.576	375.88
396.801	368.88
397.025	385.88
397.249	388.88
397.474	403.88
397.698	391.88
397.922	411.88
398.147	421.88
398.371	418.88
398.595	433.88
398.82	427.88
399.044	433.88
399.268	420.88
399.492	469.88
399.717	489.88
399.941	507.88
400.165	519.88
400.389	501.88
400.613	468.88
400.837	461.88
401.062	457.88
401.286	405.88
401.51	430.88
401.734	430.88
401.958	434.88
402.182	450.88
402.406	438.88
402.63	445.88
402.854	414.88
403.078	439.88
403.302	439.88
403.526	428.88
403.75	445.88
403.974	411.88
404.198	430.88
404.422	436.88
404.645	428.88
404.869	451.88
405.093	437.88
405.317	473.88
405.541	497.88
405.765	481.88
405.988	448.88
406.212	457.88
406.436	492.88
406.66	491.88
406.883	491.88
407.107	503.88
407.331	526.88
407.555	549.88
407.778	558.88
408.002	537.88
408.226	500.88
408.449	491.88
408.673	488.88
408.896	498.88
409.12	519.88
409.344	497.88
409.567	454.88
409.791	437.88
410.014	431.88
410.238	423.88
410.461	439.88
410.685	459.88
410.908	445.88
411.132	488.88
411.355	497.88
411.578	457.88
411.802	445.88
412.025	422.88
412.249	421.88
412.472	418.88
412.695	452.88
412.919	437.88
413.142	439.88
413.365	422.88
413.589	436.88
413.812	423.88
414.035	398.88
414.258	422.88
414.482	419.88
414.705	430.88
414.928	409.88
415.151	417.88
415.374	406.88
415.597	398.88
415.821	408.88
416.044	439.88
416.267	408.88
416.49	412.88
416.713	430.88
416.936	400.88
417.159	438.88
417.382	419.88
417.605	411.88
417.828	431.88
418.051	427.88
418.274	439.88
418.497	414.88
418.72	407.88
418.943	404.88
419.166	448.88
419.389	447.88
419.611	433.88
419.834	446.88
420.057	428.88
420.28	448.88
420.503	412.88
420.726	427.88
420.948	436.88
421.171	465.88
421.394	491.88
421.617	451.88
421.839	426.88
422.062	440.88
422.285	445.88
422.507	478.88
422.73	533.88
422.953	521.88
423.175	481.88
423.398	459.88
423.621	462.88
423.843	476.88
424.066	456.88
424.288	465.88
424.511	479.88
424.733	531.88
424.956	594.88
425.178	567.88
425.401	574.88
425.623	571.88
425.846	486.88
426.068	498.88
426.291	473.88
426.513	459.88
426.735	482.88
426.958	521.88
427.18	573.88
427.402	686.88
427.625	705.88
427.847	657.88
428.069	546.88
428.292	482.88
428.514	473.88
428.736	447.88
428.958	450.88
429.181	425.88
429.403	423.88
429.625	455.88
429.847	445.88
430.069	520.88
430.292	508.88
430.514	456.88
430.736	420.88
430.958	417.88
431.18	434.88
431.402	399.88
431.624	406.88
431.846	398.88
432.068	388.88
432.29	413.88
432.512	426.88
432.734	418.88
432.956	414.88
433.178	417.88
433.4	407.88
433.622	417.88
433.844	409.88
434.066	421.88
434.287	410.88
434.509	411.88
434.731	423.88
434.953	424.88
435.175	431.88
435.397	460.88
435.618	474.88
435.84	524.88
436.062	584.88
436.284	614.88
436.505	525.88
436.727	484.88
436.949	443.88
437.17	450.88
437.392	420.88
437.614	460.88
437.835	470.88
438.057	553.88
438.278	609.88
438.5	635.88
438.721	659.88
438.943	645.88
439.165	521.88
439.386	479.88
439.608	468.88
439.829	472.88
440.05	482.88
440.272	531.88
440.493	502.88
440.715	474.88
440.936	442.88
441.158	447.88
441.379	419.88
441.6	465.88
441.822	485.88
442.043	492.88
442.264	568.88
442.486	587.88
442.707	509.88
442.928	484.88
443.149	474.88
443.371	502.88
443.592	550.88
443.813	614.88
444.034	651.88
444.255	532.88
444.476	491.88
444.698	470.88
444.919	476.88
445.14	597.88
445.361	540.88
445.582	511.88
445.803	563.88
446.024	633.88
446.245	637.88
446.466	573.88
446.687	500.88
446.908	458.88
447.129	430.88
447.35	434.88
447.571	418.88
447.792	415.88
448.013	451.88
448.234	456.88
448.455	476.88
448.675	579.88
448.896	655.88
449.117	582.88
449.338	526.88
449.559	631.88
449.779	669.88
450	550.88
450.221	489.88
450.442	449.88
450.662	417.88
450.883	427.88
451.104	466.88
451.324	445.88
451.545	425.88
451.766	411.88
451.986	403.88
452.207	408.88
452.428	379.88
452.648	402.88
452.869	401.88
453.089	397.88
453.31	428.88
453.53	386.88
453.751	390.88
453.971	388.88
454.192	404.88
454.412	422.88
454.633	393.88
454.853	377.88
455.073	383.88
455.294	428.88
455.514	477.88
455.734	458.88
455.955	375.88
456.175	362.88
456.395	347.88
456.616	373.88
456.836	363.88
457.056	383.88
457.276	342.88
457.497	368.88
457.717	363.88
457.937	381.88
458.157	381.88
458.377	389.88
458.598	391.88
458.818	460.88
459.038	509.88
459.258	543.88
459.478	455.88
459.698	405.88
459.918	423.88
460.138	421.88
460.358	426.88
460.578	413.88
460.798	401.88
461.018	407.88
461.238	418.88
461.458	426.88
461.678	408.88
461.898	416.88
462.118	403.88
462.338	422.88
462.558	430.88
462.777	415.88
462.997	448.88
463.217	457.88
463.437	437.88
463.657	430.88
463.876	437.88
464.096	440.88
464.316	440.88
464.536	444.88
464.755	440.88
464.975	454.88
465.195	493.88
465.414	589.88
465.634	487.88
465.854	440.88
466.073	421.88
466.293	405.88
466.512	411.88
466.732	391.88
466.951	382.88
467.171	398.88
467.391	405.88
467.61	412.88
467.829	399.88
468.049	422.88
468.268	390.88
468.488	373.88
468.707	410.88
468.927	405.88
469.146	389.88
469.365	392.88
469.585	383.88
469.804	407.88
470.023	425.88
470.243	402.88
470.462	409.88
470.681	437.88
470.901	435.88
471.12	424.88
471.339	410.88
471.558	403.88
471.777	401.88
471.997	381.88
472.216	386.88
472.435	396.88
472.654	399.88
472.873	401.88
473.092	395.88
473.311	388.88
473.53	405.88
473.749	418.88
473.968	429.88
474.187	526.88
474.406	527.88
474.625	443.88
474.844	405.88
475.063	399.88
475.282	400.88
475.501	414.88
475.72	409.88
475.939	385.88
476.158	405.88
476.377	405.88
476.596	421.88
476.814	431.88
477.033	422.88
477.252	423.88
477.471	427.88
477.69	435.88
477.908	422.88
478.127	450.88
478.346	443.88
478.564	430.88
478.783	422.88
479.002	464.88
479.22	457.88
479.439	477.88
479.658	491.88
479.876	481.88
480.095	497.88
480.313	478.88
480.532	513.88
480.751	484.88
480.969	475.88
481.188	485.88
481.406	506.88
481.624	472.88
481.843	471.88
482.061	447.88
482.28	464.88
482.498	475.88
482.717	467.88
482.935	471.88
483.153	463.88
483.372	466.88
483.59	444.88
483.808	448.88
484.027	469.88
484.245	481.88
484.463	462.88
484.681	465.88
484.9	464.88
485.118	471.88
485.336	492.88
485.554	474.88
485.772	503.88
485.99	465.88
486.209	484.88
486.427	502.88
486.645	497.88
486.863	498.88
487.081	513.88
487.299	514.88
487.517	485.88
487.735	490.88
487.953	515.88
488.171	526.88
488.389	509.88
488.607	506.88
488.825	489.88
489.043	499.88
489.261	485.88
489.479	498.88
489.696	505.88
489.914	517.88
490.132	493.88
490.35	539.88
490.568	535.88
490.786	538.88
491.003	541.88
491.221	552.88
491.439	558.88
491.657	570.88
491.874	564.88
492.092	564.88
492.31	600.88
492.527	549.88
492.745	573.88
492.963	573.88
493.18	591.88
493.398	583.88
493.615	573.88
493.833	600.88
494.05	582.88
494.268	594.88
494.485	621.88
494.703	601.88
494.92	616.88
495.138	575.88
495.355	594.88
495.573	575.88
495.79	606.88
496.008	607.88
496.225	589.88
496.442	589.88
496.66	578.88
496.877	606.88
497.094	592.88
497.312	579.88
497.529	626.88
497.746	626.88
497.963	627.88
498.181	637.88
498.398	627.88
498.615	650.88
498.832	661.88
499.049	697.88
499.267	679.88
499.484	715.88
499.701	742.88
499.918	722.88
500.135	771.88
500.352	793.88
500.569	794.88
500.786	810.88
501.003	790.88
501.22	789.88
501.437	748.88
501.654	746.88
501.871	750.88
502.088	702.88
