Data from 1983.PennyLincolnUp.Lamp.En5.5.200Scan.071819.P1_HRD10591_16-55-06-966.txt Node
Date: Thu Jul 18 16:55:06 EDT 2019
User: cochatt
Spectrometer: HR+D1059
Trigger mode: 1
Integration Time (sec): 1.000000E-1
Scans to average: 1
Electric dark correction enabled: true
Nonlinearity correction enabled: false
Boxcar width: 0
XAxis mode: Wavelengths
Number of Pixels in Spectrum: 2048
>>>>>Begin Spectral Data<<<<<
223.165	-16.75
223.4	-16.75
223.635	-16.75
223.869	-24.75
224.104	-25.75
224.338	-5.75
224.573	-9.75
224.808	-4.75
225.042	-24.75
225.277	-6.75
225.511	8.25
225.746	15.25
225.98	4.25
226.215	12.25
226.449	17.25
226.683	16.25
226.918	24.25
227.152	21.25
227.387	19.25
227.621	47.25
227.856	53.25
228.09	34.25
228.324	63.25
228.559	34.25
228.793	47.25
229.027	80.25
229.262	93.25
229.496	94.25
229.73	119.25
229.964	140.25
230.199	124.25
230.433	114.25
230.667	90.25
230.901	108.25
231.136	96.25
231.37	97.25
231.604	113.25
231.838	87.25
232.072	96.25
232.306	102.25
232.541	117.25
232.775	109.25
233.009	114.25
233.243	103.25
233.477	103.25
233.711	92.25
233.945	100.25
234.179	112.25
234.413	102.25
234.647	104.25
234.881	117.25
235.115	93.25
235.349	108.25
235.583	118.25
235.817	111.25
236.051	108.25
236.285	108.25
236.519	103.25
236.753	127.25
236.987	125.25
237.221	161.25
237.455	212.25
237.689	168.25
237.922	112.25
238.156	118.25
238.39	110.25
238.624	98.25
238.858	121.25
239.091	114.25
239.325	122.25
239.559	112.25
239.793	103.25
240.027	128.25
240.26	118.25
240.494	136.25
240.728	138.25
240.961	136.25
241.195	133.25
241.429	121.25
241.662	123.25
241.896	132.25
242.13	117.25
242.363	112.25
242.597	108.25
242.83	120.25
243.064	124.25
243.298	114.25
243.531	118.25
243.765	137.25
243.998	127.25
244.232	120.25
244.465	127.25
244.699	145.25
244.932	124.25
245.166	132.25
245.399	124.25
245.633	132.25
245.866	127.25
246.099	142.25
246.333	150.25
246.566	145.25
246.8	144.25
247.033	133.25
247.266	140.25
247.5	153.25
247.733	150.25
247.966	145.25
248.2	165.25
248.433	164.25
248.666	164.25
248.899	167.25
249.133	179.25
249.366	186.25
249.599	160.25
249.832	162.25
250.066	179.25
250.299	169.25
250.532	180.25
250.765	196.25
250.998	200.25
251.231	200.25
251.465	200.25
251.698	188.25
251.931	176.25
252.164	173.25
252.397	194.25
252.63	193.25
252.863	182.25
253.096	199.25
253.329	197.25
253.562	204.25
253.795	195.25
254.028	209.25
254.261	204.25
254.494	220.25
254.727	226.25
254.96	244.25
255.193	239.25
255.426	236.25
255.659	233.25
255.892	217.25
256.124	237.25
256.357	240.25
256.59	218.25
256.823	222.25
257.056	198.25
257.289	190.25
257.521	189.25
257.754	200.25
257.987	174.25
258.22	193.25
258.452	200.25
258.685	179.25
258.918	177.25
259.151	177.25
259.383	197.25
259.616	204.25
259.849	190.25
260.081	216.25
260.314	225.25
260.547	238.25
260.779	230.25
261.012	216.25
261.244	203.25
261.477	201.25
261.71	199.25
261.942	206.25
262.175	224.25
262.407	214.25
262.64	206.25
262.872	187.25
263.105	194.25
263.337	170.25
263.57	196.25
263.802	178.25
264.035	187.25
264.267	196.25
264.499	190.25
264.732	188.25
264.964	208.25
265.197	192.25
265.429	190.25
265.661	185.25
265.894	191.25
266.126	198.25
266.358	196.25
266.591	189.25
266.823	212.25
267.055	204.25
267.287	209.25
267.52	193.25
267.752	197.25
267.984	205.25
268.216	204.25
268.448	218.25
268.681	218.25
268.913	216.25
269.145	230.25
269.377	243.25
269.609	243.25
269.841	232.25
270.073	252.25
270.306	279.25
270.538	269.25
270.77	286.25
271.002	281.25
271.234	263.25
271.466	265.25
271.698	276.25
271.93	285.25
272.162	278.25
272.394	290.25
272.626	274.25
272.858	272.25
273.09	259.25
273.322	241.25
273.553	240.25
273.785	246.25
274.017	228.25
274.249	236.25
274.481	236.25
274.713	237.25
274.945	247.25
275.176	227.25
275.408	234.25
275.64	233.25
275.872	236.25
276.104	227.25
276.335	229.25
276.567	254.25
276.799	262.25
277.031	284.25
277.262	295.25
277.494	286.25
277.726	280.25
277.957	263.25
278.189	261.25
278.421	256.25
278.652	256.25
278.884	256.25
279.115	252.25
279.347	233.25
279.579	253.25
279.81	234.25
280.042	236.25
280.273	243.25
280.505	250.25
280.736	262.25
280.968	255.25
281.199	238.25
281.431	241.25
281.662	237.25
281.894	248.25
282.125	245.25
282.356	264.25
282.588	276.25
282.819	297.25
283.051	251.25
283.282	254.25
283.513	240.25
283.745	263.25
283.976	250.25
284.207	263.25
284.439	225.25
284.67	231.25
284.901	257.25
285.132	249.25
285.364	239.25
285.595	265.25
285.826	268.25
286.057	250.25
286.288	245.25
286.52	253.25
286.751	262.25
286.982	269.25
287.213	262.25
287.444	260.25
287.675	251.25
287.906	261.25
288.138	293.25
288.369	266.25
288.6	275.25
288.831	269.25
289.062	261.25
289.293	277.25
289.524	276.25
289.755	270.25
289.986	249.25
290.217	271.25
290.448	277.25
290.679	268.25
290.91	266.25
291.141	265.25
291.371	268.25
291.602	256.25
291.833	265.25
292.064	257.25
292.295	260.25
292.526	270.25
292.757	271.25
292.987	273.25
293.218	247.25
293.449	260.25
293.68	266.25
293.91	257.25
294.141	254.25
294.372	267.25
294.603	254.25
294.833	255.25
295.064	273.25
295.295	270.25
295.525	277.25
295.756	275.25
295.987	276.25
296.217	293.25
296.448	286.25
296.679	280.25
296.909	264.25
297.14	266.25
297.37	257.25
297.601	273.25
297.831	266.25
298.062	261.25
298.292	266.25
298.523	256.25
298.753	262.25
298.984	277.25
299.214	282.25
299.445	271.25
299.675	280.25
299.905	292.25
300.136	279.25
300.366	267.25
300.597	275.25
300.827	291.25
301.057	293.25
301.288	291.25
301.518	295.25
301.748	291.25
301.979	310.25
302.209	280.25
302.439	294.25
302.669	289.25
302.9	287.25
303.13	310.25
303.36	297.25
303.59	309.25
303.82	292.25
304.051	300.25
304.281	304.25
304.511	287.25
304.741	307.25
304.971	281.25
305.201	295.25
305.431	309.25
305.661	292.25
305.891	308.25
306.121	308.25
306.352	309.25
306.582	288.25
306.812	306.25
307.042	304.25
307.272	333.25
307.502	312.25
307.731	313.25
307.961	288.25
308.191	284.25
308.421	301.25
308.651	316.25
308.881	300.25
309.111	311.25
309.341	308.25
309.571	324.25
309.8	331.25
310.03	350.25
310.26	352.25
310.49	353.25
310.72	365.25
310.949	349.25
311.179	358.25
311.409	344.25
311.639	348.25
311.868	322.25
312.098	335.25
312.328	354.25
312.557	358.25
312.787	384.25
313.017	358.25
313.246	375.25
313.476	346.25
313.706	346.25
313.935	344.25
314.165	350.25
314.394	368.25
314.624	370.25
314.853	359.25
315.083	334.25
315.312	329.25
315.542	322.25
315.771	327.25
316.001	331.25
316.23	326.25
316.46	353.25
316.689	336.25
316.919	357.25
317.148	357.25
317.377	367.25
317.607	349.25
317.836	353.25
318.065	339.25
318.295	351.25
318.524	326.25
318.753	330.25
318.983	335.25
319.212	332.25
319.441	358.25
319.67	365.25
319.9	334.25
320.129	354.25
320.358	348.25
320.587	344.25
320.816	348.25
321.046	383.25
321.275	374.25
321.504	374.25
321.733	373.25
321.962	359.25
322.191	390.25
322.42	389.25
322.649	411.25
322.878	433.25
323.108	433.25
323.337	460.25
323.566	482.25
323.795	528.25
324.024	564.25
324.253	705.25
324.482	1021.25
324.71	1495.25
324.939	2050.25
325.168	1660.25
325.397	918.25
325.626	620.25
325.855	526.25
326.084	488.25
326.313	472.25
326.542	480.25
326.77	555.25
326.999	651.25
327.228	885.25
327.457	1290.25
327.686	1497.25
327.914	994.25
328.143	697.25
328.372	623.25
328.6	592.25
328.829	552.25
329.058	547.25
329.287	569.25
329.515	514.25
329.744	507.25
329.972	508.25
330.201	535.25
330.43	587.25
330.658	601.25
330.887	606.25
331.115	577.25
331.344	496.25
331.572	463.25
331.801	474.25
332.03	471.25
332.258	446.25
332.486	427.25
332.715	414.25
332.943	434.25
333.172	423.25
333.4	428.25
333.629	430.25
333.857	459.25
334.085	481.25
334.314	524.25
334.542	562.25
334.771	569.25
334.999	495.25
335.227	452.25
335.455	410.25
335.684	416.25
335.912	416.25
336.14	410.25
336.369	402.25
336.597	413.25
336.825	425.25
337.053	386.25
337.281	390.25
337.51	382.25
337.738	388.25
337.966	400.25
338.194	402.25
338.422	396.25
338.65	396.25
338.878	385.25
339.106	384.25
339.334	392.25
339.562	378.25
339.79	407.25
340.018	402.25
340.246	382.25
340.474	392.25
340.702	397.25
340.93	396.25
341.158	383.25
341.386	374.25
341.614	370.25
341.842	391.25
342.07	375.25
342.298	381.25
342.526	364.25
342.754	370.25
342.981	366.25
343.209	358.25
343.437	384.25
343.665	376.25
343.893	374.25
344.12	397.25
344.348	381.25
344.576	399.25
344.804	373.25
345.031	405.25
345.259	430.25
345.487	398.25
345.714	410.25
345.942	366.25
346.17	377.25
346.397	366.25
346.625	380.25
346.853	387.25
347.08	355.25
347.308	384.25
347.535	400.25
347.763	364.25
347.99	381.25
348.218	388.25
348.445	398.25
348.673	374.25
348.9	384.25
349.128	393.25
349.355	346.25
349.583	342.25
349.81	360.25
350.037	357.25
350.265	356.25
350.492	362.25
350.72	361.25
350.947	358.25
351.174	377.25
351.402	380.25
351.629	392.25
351.856	370.25
352.083	389.25
352.311	378.25
352.538	408.25
352.765	385.25
352.992	361.25
353.22	369.25
353.447	382.25
353.674	352.25
353.901	360.25
354.128	357.25
354.355	340.25
354.583	348.25
354.81	368.25
355.037	344.25
355.264	329.25
355.491	339.25
355.718	356.25
355.945	341.25
356.172	325.25
356.399	337.25
356.626	335.25
356.853	352.25
357.08	351.25
357.307	324.25
357.534	319.25
357.761	349.25
357.988	359.25
358.215	339.25
358.441	333.25
358.668	344.25
358.895	350.25
359.122	351.25
359.349	355.25
359.576	371.25
359.802	418.25
360.029	437.25
360.256	447.25
360.483	434.25
360.709	377.25
360.936	379.25
361.163	374.25
361.39	400.25
361.616	382.25
361.843	371.25
362.07	375.25
362.296	391.25
362.523	374.25
362.749	377.25
362.976	365.25
363.203	356.25
363.429	357.25
363.656	365.25
363.882	342.25
364.109	347.25
364.335	334.25
364.562	368.25
364.788	376.25
365.015	364.25
365.241	344.25
365.468	354.25
365.694	350.25
365.92	354.25
366.147	357.25
366.373	359.25
366.599	342.25
366.826	329.25
367.052	332.25
367.278	368.25
367.505	347.25
367.731	366.25
367.957	340.25
368.184	328.25
368.41	376.25
368.636	362.25
368.862	358.25
369.089	370.25
369.315	342.25
369.541	362.25
369.767	334.25
369.993	327.25
370.219	336.25
370.445	353.25
370.672	341.25
370.898	345.25
371.124	340.25
371.35	365.25
371.576	351.25
371.802	340.25
372.028	348.25
372.254	352.25
372.48	353.25
372.706	346.25
372.932	369.25
373.158	347.25
373.384	366.25
373.61	337.25
373.835	339.25
374.061	338.25
374.287	360.25
374.513	346.25
374.739	356.25
374.965	350.25
375.191	364.25
375.416	343.25
375.642	338.25
375.868	350.25
376.094	334.25
376.319	344.25
376.545	343.25
376.771	340.25
376.997	330.25
377.222	345.25
377.448	346.25
377.674	340.25
377.899	332.25
378.125	328.25
378.35	329.25
378.576	357.25
378.802	333.25
379.027	318.25
379.253	353.25
379.478	339.25
379.704	341.25
379.929	345.25
380.155	343.25
380.38	329.25
380.606	348.25
380.831	341.25
381.057	349.25
381.282	333.25
381.507	347.25
381.733	366.25
381.958	348.25
382.184	350.25
382.409	338.25
382.634	344.25
382.86	348.25
383.085	357.25
383.31	344.25
383.535	349.25
383.761	353.25
383.986	367.25
384.211	356.25
384.436	374.25
384.662	344.25
384.887	380.25
385.112	375.25
385.337	368.25
385.562	357.25
385.787	370.25
386.013	380.25
386.238	362.25
386.463	405.25
386.688	368.25
386.913	355.25
387.138	349.25
387.363	372.25
387.588	366.25
387.813	383.25
388.038	360.25
388.263	349.25
388.488	374.25
388.713	372.25
388.938	363.25
389.163	370.25
389.387	375.25
389.612	372.25
389.837	357.25
390.062	342.25
390.287	364.25
390.512	365.25
390.736	354.25
390.961	364.25
391.186	336.25
391.411	342.25
391.636	364.25
391.86	387.25
392.085	372.25
392.31	366.25
392.534	367.25
392.759	380.25
392.984	361.25
393.208	351.25
393.433	365.25
393.658	374.25
393.882	351.25
394.107	350.25
394.331	370.25
394.556	365.25
394.78	365.25
395.005	381.25
395.229	371.25
395.454	387.25
395.678	380.25
395.903	385.25
396.127	390.25
396.352	413.25
396.576	388.25
396.801	377.25
397.025	362.25
397.249	376.25
397.474	391.25
397.698	400.25
397.922	394.25
398.147	419.25
398.371	422.25
398.595	412.25
398.82	409.25
399.044	408.25
399.268	434.25
399.492	454.25
399.717	459.25
399.941	481.25
400.165	488.25
400.389	488.25
400.613	468.25
400.837	431.25
401.062	415.25
401.286	431.25
401.51	417.25
401.734	416.25
401.958	442.25
402.182	437.25
402.406	413.25
402.63	428.25
402.854	417.25
403.078	427.25
403.302	407.25
403.526	431.25
403.75	417.25
403.974	446.25
404.198	425.25
404.422	444.25
404.645	446.25
404.869	453.25
405.093	476.25
405.317	493.25
405.541	530.25
405.765	488.25
405.988	478.25
406.212	466.25
406.436	479.25
406.66	516.25
406.883	450.25
407.107	487.25
407.331	530.25
407.555	567.25
407.778	558.25
408.002	530.25
408.226	463.25
408.449	475.25
408.673	481.25
408.896	461.25
409.12	521.25
409.344	498.25
409.567	457.25
409.791	441.25
410.014	430.25
410.238	421.25
410.461	435.25
410.685	436.25
410.908	451.25
411.132	466.25
411.355	497.25
411.578	477.25
411.802	452.25
412.025	432.25
412.249	446.25
412.472	478.25
412.695	483.25
412.919	482.25
413.142	440.25
413.365	440.25
413.589	426.25
413.812	422.25
414.035	416.25
414.258	433.25
414.482	400.25
414.705	399.25
414.928	391.25
415.151	402.25
415.374	416.25
415.597	413.25
415.821	400.25
416.044	386.25
416.267	412.25
416.49	386.25
416.713	414.25
416.936	387.25
417.159	383.25
417.382	411.25
417.605	407.25
417.828	410.25
418.051	440.25
418.274	420.25
418.497	398.25
418.72	402.25
418.943	405.25
419.166	411.25
419.389	446.25
419.611	406.25
419.834	407.25
420.057	429.25
420.28	444.25
420.503	422.25
420.726	436.25
420.948	450.25
421.171	476.25
421.394	496.25
421.617	452.25
421.839	417.25
422.062	420.25
422.285	445.25
422.507	494.25
422.73	533.25
422.953	510.25
423.175	472.25
423.398	438.25
423.621	451.25
423.843	458.25
424.066	452.25
424.288	454.25
424.511	472.25
424.733	515.25
424.956	568.25
425.178	575.25
425.401	566.25
425.623	581.25
425.846	482.25
426.068	463.25
426.291	463.25
426.513	452.25
426.735	449.25
426.958	498.25
427.18	560.25
427.402	658.25
427.625	712.25
427.847	681.25
428.069	597.25
428.292	527.25
428.514	460.25
428.736	440.25
428.958	452.25
429.181	440.25
429.403	438.25
429.625	457.25
429.847	455.25
430.069	519.25
430.292	510.25
430.514	421.25
430.736	424.25
430.958	419.25
431.18	412.25
431.402	432.25
431.624	399.25
431.846	384.25
432.068	395.25
432.29	388.25
432.512	394.25
432.734	391.25
432.956	410.25
433.178	400.25
433.4	436.25
433.622	401.25
433.844	409.25
434.066	403.25
434.287	413.25
434.509	412.25
434.731	409.25
434.953	418.25
435.175	447.25
435.397	452.25
435.618	455.25
435.84	500.25
436.062	562.25
436.284	599.25
436.505	514.25
436.727	467.25
436.949	428.25
437.17	444.25
437.392	437.25
437.614	439.25
437.835	471.25
438.057	553.25
438.278	622.25
438.5	623.25
438.721	674.25
438.943	632.25
439.165	518.25
439.386	478.25
439.608	467.25
439.829	472.25
440.05	492.25
440.272	532.25
440.493	508.25
440.715	470.25
440.936	440.25
441.158	423.25
441.379	419.25
441.6	454.25
441.822	482.25
442.043	473.25
442.264	542.25
442.486	578.25
442.707	504.25
442.928	477.25
443.149	462.25
443.371	500.25
443.592	522.25
443.813	609.25
444.034	626.25
444.255	553.25
444.476	485.25
444.698	478.25
444.919	456.25
445.14	537.25
445.361	487.25
445.582	489.25
445.803	556.25
446.024	638.25
446.245	614.25
446.466	564.25
446.687	479.25
446.908	472.25
447.129	431.25
447.35	445.25
447.571	425.25
447.792	416.25
448.013	436.25
448.234	441.25
448.455	490.25
448.675	593.25
448.896	658.25
449.117	549.25
449.338	540.25
449.559	622.25
449.779	675.25
450	568.25
450.221	475.25
450.442	454.25
450.662	437.25
450.883	438.25
451.104	464.25
451.324	429.25
451.545	436.25
451.766	393.25
451.986	389.25
452.207	395.25
452.428	395.25
452.648	392.25
452.869	376.25
453.089	389.25
453.31	417.25
453.53	398.25
453.751	380.25
453.971	383.25
454.192	429.25
454.412	400.25
454.633	395.25
454.853	389.25
455.073	388.25
455.294	404.25
455.514	438.25
455.734	445.25
455.955	368.25
456.175	374.25
456.395	377.25
456.616	357.25
456.836	352.25
457.056	361.25
457.276	358.25
457.497	376.25
457.717	372.25
457.937	378.25
458.157	380.25
458.377	375.25
458.598	405.25
458.818	451.25
459.038	513.25
459.258	514.25
459.478	470.25
459.698	398.25
459.918	406.25
460.138	400.25
460.358	400.25
460.578	411.25
460.798	405.25
461.018	414.25
461.238	399.25
461.458	409.25
461.678	410.25
461.898	384.25
462.118	398.25
462.338	412.25
462.558	400.25
462.777	394.25
462.997	441.25
463.217	417.25
463.437	445.25
463.657	414.25
463.876	426.25
464.096	429.25
464.316	437.25
464.536	431.25
464.755	450.25
464.975	468.25
465.195	471.25
465.414	566.25
465.634	486.25
465.854	426.25
466.073	408.25
466.293	418.25
466.512	392.25
466.732	374.25
466.951	383.25
467.171	380.25
467.391	393.25
467.61	419.25
467.829	410.25
468.049	408.25
468.268	416.25
468.488	416.25
468.707	385.25
468.927	388.25
469.146	364.25
469.365	358.25
469.585	384.25
469.804	384.25
470.023	414.25
470.243	416.25
470.462	402.25
470.681	428.25
470.901	420.25
471.12	407.25
471.339	414.25
471.558	388.25
471.777	421.25
471.997	408.25
472.216	417.25
472.435	484.25
472.654	455.25
472.873	409.25
473.092	394.25
473.311	405.25
473.53	404.25
473.749	417.25
473.968	450.25
474.187	523.25
474.406	543.25
474.625	445.25
474.844	417.25
475.063	409.25
475.282	402.25
475.501	398.25
475.72	419.25
475.939	406.25
476.158	408.25
476.377	414.25
476.596	405.25
476.814	401.25
477.033	431.25
477.252	435.25
477.471	418.25
477.69	415.25
477.908	404.25
478.127	436.25
478.346	429.25
478.564	454.25
478.783	451.25
479.002	447.25
479.22	440.25
479.439	477.25
479.658	468.25
479.876	474.25
480.095	504.25
480.313	508.25
480.532	480.25
480.751	509.25
480.969	520.25
481.188	609.25
481.406	672.25
481.624	560.25
481.843	528.25
482.061	481.25
482.28	492.25
482.498	470.25
482.717	465.25
482.935	462.25
483.153	462.25
483.372	476.25
483.59	472.25
483.808	476.25
484.027	463.25
484.245	473.25
484.463	479.25
484.681	484.25
484.9	465.25
485.118	473.25
485.336	489.25
485.554	481.25
485.772	470.25
485.99	490.25
486.209	489.25
486.427	495.25
486.645	478.25
486.863	498.25
487.081	496.25
487.299	516.25
487.517	510.25
487.735	495.25
487.953	508.25
488.171	513.25
488.389	508.25
488.607	530.25
488.825	518.25
489.043	514.25
489.261	495.25
489.479	519.25
489.696	498.25
489.914	518.25
490.132	519.25
490.35	534.25
490.568	520.25
490.786	554.25
491.003	562.25
491.221	571.25
491.439	582.25
491.657	602.25
491.874	603.25
492.092	565.25
492.31	607.25
492.527	614.25
492.745	585.25
492.963	596.25
493.18	610.25
493.398	614.25
493.615	641.25
493.833	622.25
494.05	606.25
494.268	603.25
494.485	604.25
494.703	597.25
494.92	603.25
495.138	608.25
495.355	612.25
495.573	607.25
495.79	628.25
496.008	626.25
496.225	606.25
496.442	593.25
496.66	608.25
496.877	606.25
497.094	613.25
497.312	623.25
497.529	622.25
497.746	634.25
497.963	617.25
498.181	646.25
498.398	646.25
498.615	678.25
498.832	649.25
499.049	655.25
499.267	684.25
499.484	689.25
499.701	706.25
499.918	716.25
500.135	750.25
500.352	761.25
500.569	775.25
500.786	801.25
501.003	782.25
501.22	761.25
501.437	737.25
501.654	727.25
501.871	763.25
502.088	709.25
