Data from 1983.PennyLincolnUp.Lamp.En5.5.200Scan.071819.P1_HRD10591_16-53-52-965.txt Node
Date: Thu Jul 18 16:53:52 EDT 2019
User: cochatt
Spectrometer: HR+D1059
Trigger mode: 1
Integration Time (sec): 1.000000E-1
Scans to average: 1
Electric dark correction enabled: true
Nonlinearity correction enabled: false
Boxcar width: 0
XAxis mode: Wavelengths
Number of Pixels in Spectrum: 2048
>>>>>Begin Spectral Data<<<<<
223.165	-3.88
223.4	-3.88
223.635	-3.88
223.869	-24.88
224.104	-10.88
224.338	-21.88
224.573	-20.88
224.808	-2.88
225.042	-16.88
225.277	-14.88
225.511	5.12
225.746	12.12
225.98	17.12
226.215	16.12
226.449	5.12
226.683	14.12
226.918	17.12
227.152	30.12
227.387	39.12
227.621	43.12
227.856	37.12
228.09	39.12
228.324	66.12
228.559	57.12
228.793	80.12
229.027	89.12
229.262	105.12
229.496	115.12
229.73	118.12
229.964	129.12
230.199	104.12
230.433	112.12
230.667	110.12
230.901	114.12
231.136	113.12
231.37	101.12
231.604	105.12
231.838	127.12
232.072	113.12
232.306	101.12
232.541	99.12
232.775	105.12
233.009	111.12
233.243	113.12
233.477	110.12
233.711	121.12
233.945	117.12
234.179	113.12
234.413	102.12
234.647	113.12
234.881	111.12
235.115	102.12
235.349	100.12
235.583	104.12
235.817	105.12
236.051	109.12
236.285	121.12
236.519	112.12
236.753	121.12
236.987	138.12
237.221	157.12
237.455	192.12
237.689	168.12
237.922	144.12
238.156	130.12
238.39	122.12
238.624	110.12
238.858	113.12
239.091	123.12
239.325	127.12
239.559	120.12
239.793	118.12
240.027	124.12
240.26	141.12
240.494	151.12
240.728	144.12
240.961	143.12
241.195	133.12
241.429	127.12
241.662	121.12
241.896	126.12
242.13	130.12
242.363	122.12
242.597	112.12
242.83	107.12
243.064	132.12
243.298	137.12
243.531	129.12
243.765	125.12
243.998	141.12
244.232	143.12
244.465	142.12
244.699	137.12
244.932	144.12
245.166	134.12
245.399	136.12
245.633	138.12
245.866	129.12
246.099	131.12
246.333	142.12
246.566	129.12
246.8	134.12
247.033	115.12
247.266	129.12
247.5	135.12
247.733	153.12
247.966	146.12
248.2	157.12
248.433	137.12
248.666	155.12
248.899	165.12
249.133	173.12
249.366	193.12
249.599	173.12
249.832	161.12
250.066	173.12
250.299	172.12
250.532	177.12
250.765	179.12
250.998	198.12
251.231	204.12
251.465	203.12
251.698	188.12
251.931	175.12
252.164	172.12
252.397	191.12
252.63	177.12
252.863	183.12
253.096	217.12
253.329	199.12
253.562	193.12
253.795	195.12
254.028	185.12
254.261	174.12
254.494	210.12
254.727	236.12
254.96	222.12
255.193	219.12
255.426	214.12
255.659	178.12
255.892	194.12
256.124	199.12
256.357	201.12
256.59	190.12
256.823	190.12
257.056	198.12
257.289	165.12
257.521	195.12
257.754	187.12
257.987	194.12
258.22	184.12
258.452	195.12
258.685	183.12
258.918	167.12
259.151	188.12
259.383	202.12
259.616	176.12
259.849	192.12
260.081	203.12
260.314	210.12
260.547	226.12
260.779	215.12
261.012	205.12
261.244	216.12
261.477	207.12
261.71	197.12
261.942	200.12
262.175	217.12
262.407	192.12
262.64	182.12
262.872	178.12
263.105	185.12
263.337	203.12
263.57	189.12
263.802	192.12
264.035	167.12
264.267	191.12
264.499	179.12
264.732	185.12
264.964	191.12
265.197	174.12
265.429	172.12
265.661	193.12
265.894	199.12
266.126	197.12
266.358	192.12
266.591	197.12
266.823	200.12
267.055	189.12
267.287	193.12
267.52	181.12
267.752	204.12
267.984	203.12
268.216	198.12
268.448	197.12
268.681	205.12
268.913	193.12
269.145	211.12
269.377	242.12
269.609	249.12
269.841	226.12
270.073	243.12
270.306	262.12
270.538	267.12
270.77	270.12
271.002	265.12
271.234	251.12
271.466	257.12
271.698	282.12
271.93	267.12
272.162	273.12
272.394	283.12
272.626	257.12
272.858	254.12
273.09	239.12
273.322	235.12
273.553	217.12
273.785	219.12
274.017	225.12
274.249	205.12
274.481	232.12
274.713	227.12
274.945	230.12
275.176	224.12
275.408	220.12
275.64	229.12
275.872	235.12
276.104	210.12
276.335	253.12
276.567	230.12
276.799	257.12
277.031	265.12
277.262	262.12
277.494	279.12
277.726	272.12
277.957	254.12
278.189	246.12
278.421	214.12
278.652	232.12
278.884	234.12
279.115	199.12
279.347	223.12
279.579	237.12
279.81	225.12
280.042	204.12
280.273	227.12
280.505	227.12
280.736	225.12
280.968	221.12
281.199	233.12
281.431	230.12
281.662	216.12
281.894	243.12
282.125	232.12
282.356	256.12
282.588	257.12
282.819	265.12
283.051	234.12
283.282	216.12
283.513	238.12
283.745	253.12
283.976	244.12
284.207	243.12
284.439	220.12
284.67	236.12
284.901	230.12
285.132	226.12
285.364	221.12
285.595	219.12
285.826	223.12
286.057	226.12
286.288	235.12
286.52	245.12
286.751	241.12
286.982	211.12
287.213	221.12
287.444	236.12
287.675	234.12
287.906	242.12
288.138	258.12
288.369	268.12
288.6	269.12
288.831	246.12
289.062	235.12
289.293	242.12
289.524	253.12
289.755	245.12
289.986	226.12
290.217	239.12
290.448	244.12
290.679	242.12
290.91	232.12
291.141	230.12
291.371	232.12
291.602	245.12
291.833	220.12
292.064	254.12
292.295	246.12
292.526	235.12
292.757	256.12
292.987	245.12
293.218	234.12
293.449	256.12
293.68	253.12
293.91	249.12
294.141	258.12
294.372	241.12
294.603	239.12
294.833	234.12
295.064	225.12
295.295	251.12
295.525	261.12
295.756	248.12
295.987	275.12
296.217	273.12
296.448	284.12
296.679	262.12
296.909	266.12
297.14	251.12
297.37	259.12
297.601	250.12
297.831	265.12
298.062	274.12
298.292	267.12
298.523	238.12
298.753	240.12
298.984	262.12
299.214	252.12
299.445	249.12
299.675	251.12
299.905	266.12
300.136	271.12
300.366	259.12
300.597	272.12
300.827	269.12
301.057	265.12
301.288	269.12
301.518	275.12
301.748	263.12
301.979	276.12
302.209	273.12
302.439	273.12
302.669	262.12
302.9	277.12
303.13	271.12
303.36	274.12
303.59	281.12
303.82	288.12
304.051	271.12
304.281	279.12
304.511	261.12
304.741	265.12
304.971	249.12
305.201	271.12
305.431	267.12
305.661	281.12
305.891	274.12
306.121	256.12
306.352	274.12
306.582	287.12
306.812	285.12
307.042	262.12
307.272	260.12
307.502	274.12
307.731	275.12
307.961	288.12
308.191	292.12
308.421	270.12
308.651	265.12
308.881	293.12
309.111	276.12
309.341	292.12
309.571	306.12
309.8	301.12
310.03	320.12
310.26	325.12
310.49	343.12
310.72	325.12
310.949	346.12
311.179	347.12
311.409	335.12
311.639	320.12
311.868	343.12
312.098	339.12
312.328	326.12
312.557	347.12
312.787	343.12
313.017	339.12
313.246	341.12
313.476	306.12
313.706	325.12
313.935	321.12
314.165	319.12
314.394	336.12
314.624	337.12
314.853	325.12
315.083	320.12
315.312	311.12
315.542	304.12
315.771	311.12
316.001	319.12
316.23	289.12
316.46	296.12
316.689	311.12
316.919	303.12
317.148	338.12
317.377	318.12
317.607	321.12
317.836	325.12
318.065	293.12
318.295	323.12
318.524	297.12
318.753	329.12
318.983	318.12
319.212	328.12
319.441	318.12
319.67	315.12
319.9	337.12
320.129	307.12
320.358	317.12
320.587	323.12
320.816	337.12
321.046	345.12
321.275	345.12
321.504	345.12
321.733	343.12
321.962	349.12
322.191	347.12
322.42	384.12
322.649	373.12
322.878	398.12
323.108	383.12
323.337	397.12
323.566	409.12
323.795	462.12
324.024	501.12
324.253	633.12
324.482	932.12
324.71	1397.12
324.939	1879.12
325.168	1533.12
325.397	841.12
325.626	572.12
325.855	490.12
326.084	432.12
326.313	439.12
326.542	461.12
326.77	485.12
326.999	583.12
327.228	817.12
327.457	1191.12
327.686	1397.12
327.914	939.12
328.143	643.12
328.372	532.12
328.6	495.12
328.829	477.12
329.058	511.12
329.287	507.12
329.515	473.12
329.744	437.12
329.972	445.12
330.201	451.12
330.43	480.12
330.658	503.12
330.887	533.12
331.115	513.12
331.344	451.12
331.572	430.12
331.801	419.12
332.03	415.12
332.258	409.12
332.486	390.12
332.715	360.12
332.943	377.12
333.172	371.12
333.4	379.12
333.629	391.12
333.857	394.12
334.085	390.12
334.314	393.12
334.542	421.12
334.771	406.12
334.999	394.12
335.227	356.12
335.455	371.12
335.684	374.12
335.912	366.12
336.14	334.12
336.369	353.12
336.597	378.12
336.825	367.12
337.053	394.12
337.281	358.12
337.51	357.12
337.738	375.12
337.966	345.12
338.194	365.12
338.422	375.12
338.65	361.12
338.878	359.12
339.106	345.12
339.334	341.12
339.562	342.12
339.79	354.12
340.018	350.12
340.246	360.12
340.474	349.12
340.702	357.12
340.93	362.12
341.158	363.12
341.386	362.12
341.614	363.12
341.842	343.12
342.07	350.12
342.298	343.12
342.526	344.12
342.754	334.12
342.981	305.12
343.209	320.12
343.437	352.12
343.665	347.12
343.893	350.12
344.12	366.12
344.348	356.12
344.576	332.12
344.804	353.12
345.031	389.12
345.259	366.12
345.487	369.12
345.714	353.12
345.942	332.12
346.17	335.12
346.397	359.12
346.625	321.12
346.853	350.12
347.08	343.12
347.308	353.12
347.535	377.12
347.763	361.12
347.99	365.12
348.218	373.12
348.445	353.12
348.673	383.12
348.9	347.12
349.128	351.12
349.355	343.12
349.583	329.12
349.81	339.12
350.037	334.12
350.265	330.12
350.492	327.12
350.72	323.12
350.947	335.12
351.174	363.12
351.402	357.12
351.629	344.12
351.856	361.12
352.083	357.12
352.311	350.12
352.538	363.12
352.765	367.12
352.992	363.12
353.22	348.12
353.447	351.12
353.674	333.12
353.901	346.12
354.128	339.12
354.355	319.12
354.583	336.12
354.81	313.12
355.037	324.12
355.264	324.12
355.491	322.12
355.718	309.12
355.945	305.12
356.172	317.12
356.399	302.12
356.626	293.12
356.853	335.12
357.08	329.12
357.307	314.12
357.534	305.12
357.761	320.12
357.988	313.12
358.215	321.12
358.441	335.12
358.668	320.12
358.895	316.12
359.122	333.12
359.349	345.12
359.576	355.12
359.802	381.12
360.029	398.12
360.256	405.12
360.483	381.12
360.709	363.12
360.936	344.12
361.163	349.12
361.39	333.12
361.616	347.12
361.843	325.12
362.07	347.12
362.296	337.12
362.523	331.12
362.749	342.12
362.976	350.12
363.203	347.12
363.429	333.12
363.656	313.12
363.882	322.12
364.109	335.12
364.335	312.12
364.562	325.12
364.788	318.12
365.015	317.12
365.241	309.12
365.468	337.12
365.694	331.12
365.92	345.12
366.147	328.12
366.373	331.12
366.599	332.12
366.826	323.12
367.052	319.12
367.278	324.12
367.505	334.12
367.731	329.12
367.957	329.12
368.184	326.12
368.41	330.12
368.636	323.12
368.862	336.12
369.089	334.12
369.315	323.12
369.541	307.12
369.767	338.12
369.993	333.12
370.219	340.12
370.445	324.12
370.672	320.12
370.898	308.12
371.124	337.12
371.35	310.12
371.576	322.12
371.802	327.12
372.028	329.12
372.254	327.12
372.48	306.12
372.706	317.12
372.932	314.12
373.158	313.12
373.384	320.12
373.61	309.12
373.835	314.12
374.061	327.12
374.287	342.12
374.513	316.12
374.739	326.12
374.965	318.12
375.191	325.12
375.416	317.12
375.642	304.12
375.868	329.12
376.094	304.12
376.319	317.12
376.545	318.12
376.771	319.12
376.997	319.12
377.222	332.12
377.448	321.12
377.674	303.12
377.899	304.12
378.125	302.12
378.35	313.12
378.576	301.12
378.802	307.12
379.027	322.12
379.253	315.12
379.478	323.12
379.704	314.12
379.929	327.12
380.155	323.12
380.38	317.12
380.606	327.12
380.831	333.12
381.057	333.12
381.282	333.12
381.507	318.12
381.733	325.12
381.958	315.12
382.184	314.12
382.409	334.12
382.634	323.12
382.86	319.12
383.085	333.12
383.31	322.12
383.535	320.12
383.761	298.12
383.986	329.12
384.211	327.12
384.436	319.12
384.662	325.12
384.887	337.12
385.112	344.12
385.337	334.12
385.562	341.12
385.787	327.12
386.013	338.12
386.238	354.12
386.463	346.12
386.688	332.12
386.913	342.12
387.138	337.12
387.363	332.12
387.588	329.12
387.813	332.12
388.038	337.12
388.263	320.12
388.488	339.12
388.713	333.12
388.938	342.12
389.163	352.12
389.387	347.12
389.612	316.12
389.837	329.12
390.062	336.12
390.287	331.12
390.512	349.12
390.736	337.12
390.961	338.12
391.186	341.12
391.411	357.12
391.636	359.12
391.86	335.12
392.085	330.12
392.31	332.12
392.534	333.12
392.759	337.12
392.984	331.12
393.208	318.12
393.433	350.12
393.658	339.12
393.882	328.12
394.107	327.12
394.331	341.12
394.556	318.12
394.78	338.12
395.005	334.12
395.229	339.12
395.454	354.12
395.678	362.12
395.903	350.12
396.127	357.12
396.352	375.12
396.576	362.12
396.801	329.12
397.025	360.12
397.249	369.12
397.474	351.12
397.698	346.12
397.922	350.12
398.147	374.12
398.371	383.12
398.595	366.12
398.82	379.12
399.044	381.12
399.268	375.12
399.492	383.12
399.717	395.12
399.941	434.12
400.165	422.12
400.389	474.12
400.613	423.12
400.837	383.12
401.062	399.12
401.286	381.12
401.51	373.12
401.734	367.12
401.958	375.12
402.182	379.12
402.406	397.12
402.63	402.12
402.854	391.12
403.078	384.12
403.302	387.12
403.526	393.12
403.75	397.12
403.974	397.12
404.198	400.12
404.422	402.12
404.645	399.12
404.869	391.12
405.093	395.12
405.317	414.12
405.541	466.12
405.765	425.12
405.988	398.12
406.212	423.12
406.436	434.12
406.66	447.12
406.883	421.12
407.107	432.12
407.331	461.12
407.555	512.12
407.778	510.12
408.002	473.12
408.226	449.12
408.449	429.12
408.673	424.12
408.896	443.12
409.12	459.12
409.344	429.12
409.567	411.12
409.791	393.12
410.014	391.12
410.238	394.12
410.461	386.12
410.685	410.12
410.908	387.12
411.132	433.12
411.355	440.12
411.578	421.12
411.802	417.12
412.025	387.12
412.249	396.12
412.472	411.12
412.695	398.12
412.919	410.12
413.142	370.12
413.365	391.12
413.589	385.12
413.812	383.12
414.035	373.12
414.258	365.12
414.482	368.12
414.705	363.12
414.928	366.12
415.151	367.12
415.374	379.12
415.597	353.12
415.821	352.12
416.044	378.12
416.267	368.12
416.49	368.12
416.713	375.12
416.936	363.12
417.159	377.12
417.382	367.12
417.605	385.12
417.828	381.12
418.051	397.12
418.274	387.12
418.497	387.12
418.72	365.12
418.943	369.12
419.166	378.12
419.389	391.12
419.611	378.12
419.834	385.12
420.057	393.12
420.28	384.12
420.503	355.12
420.726	380.12
420.948	391.12
421.171	416.12
421.394	450.12
421.617	399.12
421.839	374.12
422.062	390.12
422.285	391.12
422.507	450.12
422.73	494.12
422.953	454.12
423.175	414.12
423.398	387.12
423.621	393.12
423.843	401.12
424.066	424.12
424.288	416.12
424.511	431.12
424.733	466.12
424.956	515.12
425.178	520.12
425.401	510.12
425.623	491.12
425.846	461.12
426.068	417.12
426.291	413.12
426.513	422.12
426.735	419.12
426.958	454.12
427.18	503.12
427.402	573.12
427.625	661.12
427.847	589.12
428.069	527.12
428.292	453.12
428.514	417.12
428.736	398.12
428.958	404.12
429.181	400.12
429.403	369.12
429.625	421.12
429.847	431.12
430.069	471.12
430.292	473.12
430.514	393.12
430.736	368.12
430.958	386.12
431.18	385.12
431.402	388.12
431.624	381.12
431.846	385.12
432.068	364.12
432.29	377.12
432.512	377.12
432.734	387.12
432.956	362.12
433.178	377.12
433.4	373.12
433.622	382.12
433.844	365.12
434.066	368.12
434.287	367.12
434.509	360.12
434.731	365.12
434.953	368.12
435.175	386.12
435.397	411.12
435.618	399.12
435.84	454.12
436.062	525.12
436.284	550.12
436.505	476.12
436.727	442.12
436.949	425.12
437.17	381.12
437.392	391.12
437.614	427.12
437.835	427.12
438.057	517.12
438.278	567.12
438.5	581.12
438.721	615.12
438.943	555.12
439.165	453.12
439.386	439.12
439.608	452.12
439.829	421.12
440.05	462.12
440.272	490.12
440.493	454.12
440.715	422.12
440.936	392.12
441.158	404.12
441.379	389.12
441.6	399.12
441.822	423.12
442.043	452.12
442.264	519.12
442.486	541.12
442.707	461.12
442.928	437.12
443.149	433.12
443.371	470.12
443.592	496.12
443.813	540.12
444.034	573.12
444.255	489.12
444.476	447.12
444.698	435.12
444.919	411.12
445.14	515.12
445.361	454.12
445.582	467.12
445.803	498.12
446.024	583.12
446.245	563.12
446.466	528.12
446.687	450.12
446.908	433.12
447.129	409.12
447.35	406.12
447.571	385.12
447.792	391.12
448.013	397.12
448.234	420.12
448.455	458.12
448.675	530.12
448.896	578.12
449.117	510.12
449.338	519.12
449.559	575.12
449.779	603.12
450	513.12
450.221	448.12
450.442	412.12
450.662	389.12
450.883	407.12
451.104	434.12
451.324	416.12
451.545	376.12
451.766	374.12
451.986	366.12
452.207	369.12
452.428	357.12
452.648	346.12
452.869	358.12
453.089	381.12
453.31	379.12
453.53	362.12
453.751	362.12
453.971	378.12
454.192	385.12
454.412	365.12
454.633	368.12
454.853	350.12
455.073	358.12
455.294	384.12
455.514	423.12
455.734	408.12
455.955	381.12
456.175	341.12
456.395	343.12
456.616	324.12
456.836	336.12
457.056	338.12
457.276	321.12
457.497	325.12
457.717	335.12
457.937	337.12
458.157	351.12
458.377	347.12
458.598	342.12
458.818	413.12
459.038	515.12
459.258	488.12
459.478	415.12
459.698	396.12
459.918	380.12
460.138	364.12
460.358	369.12
460.578	384.12
460.798	387.12
461.018	375.12
461.238	364.12
461.458	372.12
461.678	357.12
461.898	364.12
462.118	383.12
462.338	355.12
462.558	381.12
462.777	395.12
462.997	387.12
463.217	387.12
463.437	399.12
463.657	380.12
463.876	385.12
464.096	397.12
464.316	383.12
464.536	377.12
464.755	407.12
464.975	417.12
465.195	455.12
465.414	534.12
465.634	451.12
465.854	405.12
466.073	381.12
466.293	380.12
466.512	350.12
466.732	362.12
466.951	363.12
467.171	381.12
467.391	370.12
467.61	383.12
467.829	381.12
468.049	378.12
468.268	366.12
468.488	349.12
468.707	360.12
468.927	350.12
469.146	335.12
469.365	347.12
469.585	348.12
469.804	371.12
470.023	357.12
470.243	366.12
470.462	365.12
470.681	391.12
470.901	381.12
471.12	390.12
471.339	380.12
471.558	389.12
471.777	366.12
471.997	370.12
472.216	370.12
472.435	388.12
472.654	375.12
472.873	391.12
473.092	376.12
473.311	378.12
473.53	366.12
473.749	377.12
473.968	420.12
474.187	496.12
474.406	498.12
474.625	399.12
474.844	371.12
475.063	373.12
475.282	375.12
475.501	392.12
475.72	350.12
475.939	357.12
476.158	376.12
476.377	372.12
476.596	387.12
476.814	389.12
477.033	368.12
477.252	375.12
477.471	387.12
477.69	401.12
477.908	395.12
478.127	385.12
478.346	382.12
478.564	412.12
478.783	393.12
479.002	387.12
479.22	408.12
479.439	402.12
479.658	437.12
479.876	437.12
480.095	438.12
480.313	439.12
480.532	449.12
480.751	460.12
480.969	445.12
481.188	471.12
481.406	486.12
481.624	449.12
481.843	425.12
482.061	423.12
482.28	418.12
482.498	417.12
482.717	443.12
482.935	447.12
483.153	426.12
483.372	432.12
483.59	421.12
483.808	414.12
484.027	427.12
484.245	414.12
484.463	428.12
484.681	446.12
484.9	437.12
485.118	421.12
485.336	445.12
485.554	433.12
485.772	444.12
485.99	462.12
486.209	436.12
486.427	457.12
486.645	466.12
486.863	469.12
487.081	485.12
487.299	471.12
487.517	478.12
487.735	447.12
487.953	460.12
488.171	476.12
488.389	469.12
488.607	455.12
488.825	458.12
489.043	455.12
489.261	443.12
489.479	460.12
489.696	478.12
489.914	487.12
490.132	457.12
490.35	466.12
490.568	480.12
490.786	495.12
491.003	483.12
491.221	503.12
491.439	534.12
491.657	522.12
491.874	534.12
492.092	529.12
492.31	520.12
492.527	521.12
492.745	525.12
492.963	544.12
493.18	551.12
493.398	523.12
493.615	528.12
493.833	531.12
494.05	556.12
494.268	545.12
494.485	538.12
494.703	546.12
494.92	532.12
495.138	530.12
495.355	538.12
495.573	545.12
495.79	546.12
496.008	523.12
496.225	535.12
496.442	546.12
496.66	544.12
496.877	544.12
497.094	542.12
497.312	555.12
497.529	553.12
497.746	573.12
497.963	558.12
498.181	595.12
498.398	576.12
498.615	592.12
498.832	596.12
499.049	577.12
499.267	613.12
499.484	616.12
499.701	623.12
499.918	622.12
500.135	677.12
500.352	697.12
500.569	706.12
500.786	720.12
501.003	676.12
501.22	682.12
501.437	690.12
501.654	654.12
501.871	651.12
502.088	637.12
