Data from 1983.PennyLincolnUp.Lamp.En5.5.200Scan.071819.P1_HRD10591_16-53-14-965.txt Node
Date: Thu Jul 18 16:53:14 EDT 2019
User: cochatt
Spectrometer: HR+D1059
Trigger mode: 1
Integration Time (sec): 1.000000E-1
Scans to average: 1
Electric dark correction enabled: true
Nonlinearity correction enabled: false
Boxcar width: 0
XAxis mode: Wavelengths
Number of Pixels in Spectrum: 2048
>>>>>Begin Spectral Data<<<<<
223.165	-9.56
223.4	-9.56
223.635	-9.56
223.869	-10.56
224.104	-21.56
224.338	-20.56
224.573	-0.56
224.808	-11.56
225.042	-17.56
225.277	-5.56
225.511	-5.56
225.746	7.44
225.98	4.44
226.215	8.44
226.449	16.44
226.683	19.44
226.918	19.44
227.152	27.44
227.387	32.44
227.621	28.44
227.856	31.44
228.09	23.44
228.324	55.44
228.559	59.44
228.793	70.44
229.027	77.44
229.262	98.44
229.496	100.44
229.73	105.44
229.964	130.44
230.199	110.44
230.433	107.44
230.667	102.44
230.901	102.44
231.136	97.44
231.37	117.44
231.604	97.44
231.838	108.44
232.072	99.44
232.306	95.44
232.541	91.44
232.775	114.44
233.009	114.44
233.243	106.44
233.477	104.44
233.711	114.44
233.945	106.44
234.179	107.44
234.413	105.44
234.647	91.44
234.881	115.44
235.115	100.44
235.349	117.44
235.583	102.44
235.817	112.44
236.051	118.44
236.285	117.44
236.519	116.44
236.753	104.44
236.987	124.44
237.221	169.44
237.455	190.44
237.689	154.44
237.922	138.44
238.156	134.44
238.39	126.44
238.624	110.44
238.858	114.44
239.091	121.44
239.325	112.44
239.559	119.44
239.793	115.44
240.027	138.44
240.26	133.44
240.494	163.44
240.728	151.44
240.961	147.44
241.195	130.44
241.429	107.44
241.662	116.44
241.896	123.44
242.13	122.44
242.363	103.44
242.597	130.44
242.83	121.44
243.064	143.44
243.298	138.44
243.531	127.44
243.765	134.44
243.998	136.44
244.232	121.44
244.465	130.44
244.699	136.44
244.932	150.44
245.166	135.44
245.399	134.44
245.633	136.44
245.866	113.44
246.099	124.44
246.333	119.44
246.566	131.44
246.8	138.44
247.033	146.44
247.266	134.44
247.5	136.44
247.733	148.44
247.966	154.44
248.2	152.44
248.433	151.44
248.666	150.44
248.899	170.44
249.133	175.44
249.366	181.44
249.599	166.44
249.832	161.44
250.066	165.44
250.299	159.44
250.532	176.44
250.765	185.44
250.998	187.44
251.231	207.44
251.465	186.44
251.698	193.44
251.931	191.44
252.164	178.44
252.397	186.44
252.63	179.44
252.863	200.44
253.096	186.44
253.329	193.44
253.562	212.44
253.795	197.44
254.028	198.44
254.261	204.44
254.494	196.44
254.727	231.44
254.96	270.44
255.193	229.44
255.426	210.44
255.659	213.44
255.892	208.44
256.124	197.44
256.357	200.44
256.59	190.44
256.823	181.44
257.056	183.44
257.289	180.44
257.521	192.44
257.754	190.44
257.987	180.44
258.22	193.44
258.452	185.44
258.685	186.44
258.918	188.44
259.151	198.44
259.383	191.44
259.616	180.44
259.849	199.44
260.081	190.44
260.314	215.44
260.547	215.44
260.779	209.44
261.012	209.44
261.244	197.44
261.477	201.44
261.71	205.44
261.942	223.44
262.175	203.44
262.407	193.44
262.64	202.44
262.872	176.44
263.105	188.44
263.337	182.44
263.57	194.44
263.802	181.44
264.035	197.44
264.267	187.44
264.499	188.44
264.732	195.44
264.964	196.44
265.197	192.44
265.429	190.44
265.661	189.44
265.894	196.44
266.126	178.44
266.358	186.44
266.591	198.44
266.823	196.44
267.055	195.44
267.287	191.44
267.52	203.44
267.752	206.44
267.984	194.44
268.216	211.44
268.448	213.44
268.681	214.44
268.913	214.44
269.145	226.44
269.377	252.44
269.609	225.44
269.841	247.44
270.073	230.44
270.306	271.44
270.538	288.44
270.77	258.44
271.002	275.44
271.234	259.44
271.466	262.44
271.698	256.44
271.93	272.44
272.162	258.44
272.394	282.44
272.626	252.44
272.858	250.44
273.09	248.44
273.322	242.44
273.553	232.44
273.785	232.44
274.017	246.44
274.249	228.44
274.481	219.44
274.713	239.44
274.945	240.44
275.176	230.44
275.408	251.44
275.64	228.44
275.872	217.44
276.104	228.44
276.335	226.44
276.567	230.44
276.799	266.44
277.031	292.44
277.262	272.44
277.494	268.44
277.726	258.44
277.957	255.44
278.189	255.44
278.421	258.44
278.652	248.44
278.884	248.44
279.115	239.44
279.347	228.44
279.579	234.44
279.81	217.44
280.042	233.44
280.273	244.44
280.505	227.44
280.736	211.44
280.968	231.44
281.199	235.44
281.431	235.44
281.662	258.44
281.894	242.44
282.125	241.44
282.356	256.44
282.588	277.44
282.819	256.44
283.051	234.44
283.282	245.44
283.513	232.44
283.745	230.44
283.976	255.44
284.207	255.44
284.439	229.44
284.67	256.44
284.901	267.44
285.132	243.44
285.364	233.44
285.595	255.44
285.826	254.44
286.057	253.44
286.288	233.44
286.52	245.44
286.751	260.44
286.982	244.44
287.213	239.44
287.444	246.44
287.675	254.44
287.906	261.44
288.138	280.44
288.369	267.44
288.6	261.44
288.831	264.44
289.062	275.44
289.293	268.44
289.524	244.44
289.755	256.44
289.986	256.44
290.217	246.44
290.448	257.44
290.679	257.44
290.91	265.44
291.141	261.44
291.371	255.44
291.602	251.44
291.833	239.44
292.064	239.44
292.295	255.44
292.526	243.44
292.757	244.44
292.987	242.44
293.218	261.44
293.449	267.44
293.68	257.44
293.91	259.44
294.141	256.44
294.372	260.44
294.603	245.44
294.833	262.44
295.064	277.44
295.295	246.44
295.525	283.44
295.756	269.44
295.987	269.44
296.217	301.44
296.448	293.44
296.679	264.44
296.909	254.44
297.14	290.44
297.37	268.44
297.601	250.44
297.831	271.44
298.062	260.44
298.292	258.44
298.523	264.44
298.753	267.44
298.984	273.44
299.214	276.44
299.445	276.44
299.675	296.44
299.905	281.44
300.136	283.44
300.366	262.44
300.597	271.44
300.827	292.44
301.057	290.44
301.288	286.44
301.518	298.44
301.748	276.44
301.979	280.44
302.209	291.44
302.439	291.44
302.669	294.44
302.9	299.44
303.13	285.44
303.36	292.44
303.59	304.44
303.82	312.44
304.051	305.44
304.281	286.44
304.511	300.44
304.741	296.44
304.971	274.44
305.201	278.44
305.431	298.44
305.661	309.44
305.891	266.44
306.121	294.44
306.352	305.44
306.582	279.44
306.812	289.44
307.042	300.44
307.272	274.44
307.502	286.44
307.731	283.44
307.961	289.44
308.191	303.44
308.421	293.44
308.651	304.44
308.881	312.44
309.111	295.44
309.341	303.44
309.571	312.44
309.8	326.44
310.03	316.44
310.26	331.44
310.49	322.44
310.72	350.44
310.949	350.44
311.179	341.44
311.409	343.44
311.639	352.44
311.868	332.44
312.098	334.44
312.328	351.44
312.557	357.44
312.787	349.44
313.017	373.44
313.246	351.44
313.476	311.44
313.706	340.44
313.935	331.44
314.165	354.44
314.394	348.44
314.624	344.44
314.853	347.44
315.083	339.44
315.312	344.44
315.542	329.44
315.771	329.44
316.001	336.44
316.23	329.44
316.46	321.44
316.689	342.44
316.919	339.44
317.148	354.44
317.377	342.44
317.607	339.44
317.836	348.44
318.065	329.44
318.295	335.44
318.524	341.44
318.753	346.44
318.983	354.44
319.212	327.44
319.441	354.44
319.67	338.44
319.9	341.44
320.129	350.44
320.358	338.44
320.587	328.44
320.816	352.44
321.046	357.44
321.275	358.44
321.504	352.44
321.733	366.44
321.962	376.44
322.191	363.44
322.42	406.44
322.649	396.44
322.878	430.44
323.108	406.44
323.337	439.44
323.566	460.44
323.795	512.44
324.024	525.44
324.253	663.44
324.482	930.44
324.71	1390.44
324.939	1879.44
325.168	1589.44
325.397	833.44
325.626	576.44
325.855	495.44
326.084	469.44
326.313	432.44
326.542	458.44
326.77	481.44
326.999	603.44
327.228	810.44
327.457	1183.44
327.686	1361.44
327.914	918.44
328.143	646.44
328.372	569.44
328.6	502.44
328.829	494.44
329.058	518.44
329.287	519.44
329.515	486.44
329.744	448.44
329.972	438.44
330.201	453.44
330.43	455.44
330.658	500.44
330.887	528.44
331.115	528.44
331.344	471.44
331.572	448.44
331.801	435.44
332.03	434.44
332.258	419.44
332.486	393.44
332.715	393.44
332.943	385.44
333.172	409.44
333.4	385.44
333.629	410.44
333.857	392.44
334.085	381.44
334.314	397.44
334.542	408.44
334.771	428.44
334.999	405.44
335.227	397.44
335.455	385.44
335.684	382.44
335.912	392.44
336.14	405.44
336.369	377.44
336.597	396.44
336.825	386.44
337.053	390.44
337.281	406.44
337.51	380.44
337.738	393.44
337.966	364.44
338.194	378.44
338.422	386.44
338.65	382.44
338.878	366.44
339.106	368.44
339.334	368.44
339.562	376.44
339.79	377.44
340.018	374.44
340.246	380.44
340.474	359.44
340.702	363.44
340.93	370.44
341.158	390.44
341.386	382.44
341.614	381.44
341.842	381.44
342.07	386.44
342.298	359.44
342.526	368.44
342.754	346.44
342.981	366.44
343.209	353.44
343.437	375.44
343.665	362.44
343.893	389.44
344.12	383.44
344.348	366.44
344.576	385.44
344.804	401.44
345.031	385.44
345.259	405.44
345.487	395.44
345.714	379.44
345.942	357.44
346.17	368.44
346.397	367.44
346.625	360.44
346.853	374.44
347.08	358.44
347.308	378.44
347.535	382.44
347.763	373.44
347.99	372.44
348.218	379.44
348.445	367.44
348.673	370.44
348.9	352.44
349.128	355.44
349.355	357.44
349.583	338.44
349.81	354.44
350.037	335.44
350.265	350.44
350.492	367.44
350.72	340.44
350.947	364.44
351.174	366.44
351.402	388.44
351.629	379.44
351.856	376.44
352.083	380.44
352.311	378.44
352.538	378.44
352.765	402.44
352.992	367.44
353.22	374.44
353.447	362.44
353.674	331.44
353.901	331.44
354.128	337.44
354.355	339.44
354.583	331.44
354.81	341.44
355.037	324.44
355.264	334.44
355.491	323.44
355.718	322.44
355.945	334.44
356.172	332.44
356.399	334.44
356.626	334.44
356.853	347.44
357.08	341.44
357.307	349.44
357.534	349.44
357.761	329.44
357.988	338.44
358.215	336.44
358.441	329.44
358.668	344.44
358.895	336.44
359.122	338.44
359.349	358.44
359.576	371.44
359.802	386.44
360.029	417.44
360.256	414.44
360.483	412.44
360.709	358.44
360.936	370.44
361.163	366.44
361.39	376.44
361.616	379.44
361.843	374.44
362.07	355.44
362.296	373.44
362.523	366.44
362.749	376.44
362.976	360.44
363.203	362.44
363.429	338.44
363.656	358.44
363.882	361.44
364.109	344.44
364.335	362.44
364.562	359.44
364.788	368.44
365.015	344.44
365.241	358.44
365.468	340.44
365.694	355.44
365.92	357.44
366.147	361.44
366.373	342.44
366.599	331.44
366.826	345.44
367.052	335.44
367.278	344.44
367.505	339.44
367.731	344.44
367.957	345.44
368.184	354.44
368.41	349.44
368.636	357.44
368.862	367.44
369.089	346.44
369.315	330.44
369.541	330.44
369.767	340.44
369.993	346.44
370.219	368.44
370.445	342.44
370.672	346.44
370.898	324.44
371.124	345.44
371.35	344.44
371.576	360.44
371.802	335.44
372.028	334.44
372.254	341.44
372.48	355.44
372.706	361.44
372.932	348.44
373.158	345.44
373.384	353.44
373.61	347.44
373.835	355.44
374.061	358.44
374.287	361.44
374.513	355.44
374.739	347.44
374.965	349.44
375.191	345.44
375.416	338.44
375.642	313.44
375.868	324.44
376.094	345.44
376.319	339.44
376.545	356.44
376.771	331.44
376.997	336.44
377.222	344.44
377.448	339.44
377.674	347.44
377.899	335.44
378.125	348.44
378.35	342.44
378.576	331.44
378.802	331.44
379.027	340.44
379.253	334.44
379.478	324.44
379.704	326.44
379.929	347.44
380.155	325.44
380.38	324.44
380.606	352.44
380.831	336.44
381.057	319.44
381.282	330.44
381.507	349.44
381.733	336.44
381.958	338.44
382.184	338.44
382.409	337.44
382.634	328.44
382.86	328.44
383.085	349.44
383.31	355.44
383.535	345.44
383.761	340.44
383.986	339.44
384.211	356.44
384.436	333.44
384.662	357.44
384.887	347.44
385.112	357.44
385.337	362.44
385.562	374.44
385.787	370.44
386.013	366.44
386.238	374.44
386.463	368.44
386.688	363.44
386.913	349.44
387.138	376.44
387.363	370.44
387.588	371.44
387.813	374.44
388.038	364.44
388.263	356.44
388.488	363.44
388.713	370.44
388.938	370.44
389.163	371.44
389.387	375.44
389.612	358.44
389.837	350.44
390.062	380.44
390.287	370.44
390.512	362.44
390.736	357.44
390.961	382.44
391.186	364.44
391.411	360.44
391.636	374.44
391.86	364.44
392.085	378.44
392.31	388.44
392.534	388.44
392.759	374.44
392.984	375.44
393.208	364.44
393.433	353.44
393.658	353.44
393.882	339.44
394.107	374.44
394.331	380.44
394.556	392.44
394.78	382.44
395.005	379.44
395.229	353.44
395.454	360.44
395.678	394.44
395.903	392.44
396.127	400.44
396.352	396.44
396.576	397.44
396.801	391.44
397.025	392.44
397.249	383.44
397.474	392.44
397.698	391.44
397.922	380.44
398.147	409.44
398.371	398.44
398.595	406.44
398.82	410.44
399.044	415.44
399.268	424.44
399.492	453.44
399.717	467.44
399.941	487.44
400.165	494.44
400.389	510.44
400.613	463.44
400.837	443.44
401.062	424.44
401.286	422.44
401.51	413.44
401.734	422.44
401.958	422.44
402.182	421.44
402.406	439.44
402.63	412.44
402.854	424.44
403.078	432.44
403.302	414.44
403.526	427.44
403.75	431.44
403.974	450.44
404.198	418.44
404.422	424.44
404.645	446.44
404.869	423.44
405.093	439.44
405.317	480.44
405.541	493.44
405.765	478.44
405.988	443.44
406.212	474.44
406.436	473.44
406.66	489.44
406.883	480.44
407.107	498.44
407.331	499.44
407.555	551.44
407.778	574.44
408.002	498.44
408.226	487.44
408.449	483.44
408.673	473.44
408.896	486.44
409.12	536.44
409.344	482.44
409.567	441.44
409.791	454.44
410.014	420.44
410.238	407.44
410.461	423.44
410.685	439.44
410.908	459.44
411.132	472.44
411.355	496.44
411.578	476.44
411.802	434.44
412.025	432.44
412.249	409.44
412.472	420.44
412.695	424.44
412.919	437.44
413.142	395.44
413.365	400.44
413.589	418.44
413.812	409.44
414.035	394.44
414.258	401.44
414.482	398.44
414.705	439.44
414.928	403.44
415.151	395.44
415.374	427.44
415.597	393.44
415.821	397.44
416.044	404.44
416.267	426.44
416.49	397.44
416.713	397.44
416.936	419.44
417.159	411.44
417.382	417.44
417.605	411.44
417.828	429.44
418.051	412.44
418.274	417.44
418.497	397.44
418.72	410.44
418.943	393.44
419.166	418.44
419.389	434.44
419.611	412.44
419.834	419.44
420.057	419.44
420.28	429.44
420.503	423.44
420.726	419.44
420.948	438.44
421.171	464.44
421.394	503.44
421.617	464.44
421.839	452.44
422.062	411.44
422.285	439.44
422.507	478.44
422.73	535.44
422.953	511.44
423.175	455.44
423.398	461.44
423.621	436.44
423.843	439.44
424.066	468.44
424.288	465.44
424.511	486.44
424.733	516.44
424.956	568.44
425.178	552.44
425.401	526.44
425.623	564.44
425.846	486.44
426.068	474.44
426.291	462.44
426.513	461.44
426.735	451.44
426.958	485.44
427.18	537.44
427.402	647.44
427.625	697.44
427.847	632.44
428.069	532.44
428.292	470.44
428.514	437.44
428.736	438.44
428.958	436.44
429.181	423.44
429.403	415.44
429.625	426.44
429.847	452.44
430.069	491.44
430.292	498.44
430.514	458.44
430.736	423.44
430.958	420.44
431.18	417.44
431.402	399.44
431.624	415.44
431.846	387.44
432.068	394.44
432.29	385.44
432.512	388.44
432.734	422.44
432.956	408.44
433.178	413.44
433.4	426.44
433.622	411.44
433.844	393.44
434.066	411.44
434.287	416.44
434.509	416.44
434.731	404.44
434.953	443.44
435.175	431.44
435.397	466.44
435.618	465.44
435.84	508.44
436.062	548.44
436.284	588.44
436.505	509.44
436.727	459.44
436.949	454.44
437.17	441.44
437.392	433.44
437.614	435.44
437.835	464.44
438.057	544.44
438.278	602.44
438.5	624.44
438.721	678.44
438.943	634.44
439.165	488.44
439.386	481.44
439.608	467.44
439.829	460.44
440.05	488.44
440.272	544.44
440.493	481.44
440.715	446.44
440.936	444.44
441.158	423.44
441.379	423.44
441.6	440.44
441.822	473.44
442.043	479.44
442.264	579.44
442.486	562.44
442.707	489.44
442.928	451.44
443.149	488.44
443.371	506.44
443.592	529.44
443.813	578.44
444.034	639.44
444.255	538.44
444.476	494.44
444.698	458.44
444.919	470.44
445.14	590.44
445.361	513.44
445.582	490.44
445.803	564.44
446.024	614.44
446.245	622.44
446.466	558.44
446.687	488.44
446.908	449.44
447.129	435.44
447.35	399.44
447.571	412.44
447.792	437.44
448.013	412.44
448.234	446.44
448.455	500.44
448.675	567.44
448.896	617.44
449.117	554.44
449.338	561.44
449.559	636.44
449.779	662.44
450	551.44
450.221	451.44
450.442	436.44
450.662	431.44
450.883	440.44
451.104	450.44
451.324	443.44
451.545	416.44
451.766	393.44
451.986	386.44
452.207	376.44
452.428	384.44
452.648	390.44
452.869	387.44
453.089	407.44
453.31	397.44
453.53	401.44
453.751	387.44
453.971	382.44
454.192	410.44
454.412	400.44
454.633	378.44
454.853	391.44
455.073	353.44
455.294	404.44
455.514	463.44
455.734	448.44
455.955	375.44
456.175	378.44
456.395	362.44
456.616	347.44
456.836	350.44
457.056	358.44
457.276	355.44
457.497	362.44
457.717	359.44
457.937	379.44
458.157	374.44
458.377	375.44
458.598	410.44
458.818	443.44
459.038	527.44
459.258	512.44
459.478	455.44
459.698	415.44
459.918	403.44
460.138	411.44
460.358	422.44
460.578	412.44
460.798	391.44
461.018	415.44
461.238	401.44
461.458	407.44
461.678	387.44
461.898	407.44
462.118	414.44
462.338	419.44
462.558	416.44
462.777	420.44
462.997	426.44
463.217	433.44
463.437	440.44
463.657	441.44
463.876	420.44
464.096	442.44
464.316	421.44
464.536	448.44
464.755	439.44
464.975	449.44
465.195	486.44
465.414	532.44
465.634	459.44
465.854	440.44
466.073	403.44
466.293	419.44
466.512	381.44
466.732	385.44
466.951	408.44
467.171	375.44
467.391	393.44
467.61	406.44
467.829	415.44
468.049	388.44
468.268	376.44
468.488	380.44
468.707	379.44
468.927	383.44
469.146	386.44
469.365	394.44
469.585	359.44
469.804	386.44
470.023	412.44
470.243	403.44
470.462	402.44
470.681	421.44
470.901	417.44
471.12	401.44
471.339	392.44
471.558	385.44
471.777	399.44
471.997	391.44
472.216	381.44
472.435	377.44
472.654	383.44
472.873	378.44
473.092	384.44
473.311	393.44
473.53	399.44
473.749	392.44
473.968	445.44
474.187	514.44
474.406	542.44
474.625	425.44
474.844	387.44
475.063	414.44
475.282	405.44
475.501	389.44
475.72	407.44
475.939	400.44
476.158	392.44
476.377	393.44
476.596	415.44
476.814	409.44
477.033	443.44
477.252	393.44
477.471	419.44
477.69	430.44
477.908	413.44
478.127	442.44
478.346	420.44
478.564	430.44
478.783	437.44
479.002	452.44
479.22	440.44
479.439	470.44
479.658	489.44
479.876	483.44
480.095	478.44
480.313	488.44
480.532	498.44
480.751	484.44
480.969	460.44
481.188	483.44
481.406	513.44
481.624	450.44
481.843	451.44
482.061	463.44
482.28	444.44
482.498	454.44
482.717	461.44
482.935	452.44
483.153	457.44
483.372	447.44
483.59	463.44
483.808	446.44
484.027	450.44
484.245	459.44
484.463	440.44
484.681	478.44
484.9	441.44
485.118	474.44
485.336	470.44
485.554	478.44
485.772	474.44
485.99	474.44
486.209	489.44
486.427	478.44
486.645	502.44
486.863	498.44
487.081	503.44
487.299	492.44
487.517	494.44
487.735	476.44
487.953	500.44
488.171	502.44
488.389	501.44
488.607	486.44
488.825	499.44
489.043	516.44
489.261	512.44
489.479	495.44
489.696	500.44
489.914	510.44
490.132	510.44
490.35	507.44
490.568	531.44
490.786	513.44
491.003	545.44
491.221	552.44
491.439	532.44
491.657	546.44
491.874	560.44
492.092	569.44
492.31	563.44
492.527	571.44
492.745	569.44
492.963	563.44
493.18	578.44
493.398	593.44
493.615	578.44
493.833	579.44
494.05	569.44
494.268	578.44
494.485	566.44
494.703	582.44
494.92	590.44
495.138	580.44
495.355	567.44
495.573	584.44
495.79	576.44
496.008	594.44
496.225	600.44
496.442	568.44
496.66	571.44
496.877	584.44
497.094	576.44
497.312	589.44
497.529	574.44
497.746	622.44
497.963	597.44
498.181	619.44
498.398	640.44
498.615	656.44
498.832	641.44
499.049	631.44
499.267	660.44
499.484	692.44
499.701	704.44
499.918	737.44
500.135	767.44
500.352	772.44
500.569	783.44
500.786	801.44
501.003	759.44
501.22	778.44
501.437	744.44
501.654	705.44
501.871	734.44
502.088	707.44
