Data from 1983.PennyLincolnUp.Lamp.En5.5.200Scan.071819.P1_HRD10591_16-52-45-964.txt Node
Date: Thu Jul 18 16:52:45 EDT 2019
User: cochatt
Spectrometer: HR+D1059
Trigger mode: 1
Integration Time (sec): 1.000000E-1
Scans to average: 1
Electric dark correction enabled: true
Nonlinearity correction enabled: false
Boxcar width: 0
XAxis mode: Wavelengths
Number of Pixels in Spectrum: 2048
>>>>>Begin Spectral Data<<<<<
223.165	-16.31
223.4	-16.31
223.635	-16.31
223.869	-11.31
224.104	-15.31
224.338	-12.31
224.573	-4.31
224.808	-4.31
225.042	2.69
225.277	-7.31
225.511	-13.31
225.746	-10.31
225.98	13.69
226.215	-2.31
226.449	24.69
226.683	20.69
226.918	12.69
227.152	22.69
227.387	23.69
227.621	36.69
227.856	43.69
228.09	52.69
228.324	62.69
228.559	64.69
228.793	64.69
229.027	95.69
229.262	94.69
229.496	108.69
229.73	108.69
229.964	129.69
230.199	119.69
230.433	111.69
230.667	107.69
230.901	105.69
231.136	95.69
231.37	86.69
231.604	97.69
231.838	106.69
232.072	103.69
232.306	103.69
232.541	114.69
232.775	119.69
233.009	105.69
233.243	101.69
233.477	99.69
233.711	103.69
233.945	115.69
234.179	120.69
234.413	91.69
234.647	113.69
234.881	121.69
235.115	111.69
235.349	104.69
235.583	117.69
235.817	117.69
236.051	119.69
236.285	114.69
236.519	111.69
236.753	130.69
236.987	137.69
237.221	162.69
237.455	209.69
237.689	159.69
237.922	129.69
238.156	97.69
238.39	115.69
238.624	114.69
238.858	108.69
239.091	117.69
239.325	119.69
239.559	128.69
239.793	115.69
240.027	115.69
240.26	120.69
240.494	151.69
240.728	123.69
240.961	129.69
241.195	139.69
241.429	125.69
241.662	124.69
241.896	116.69
242.13	119.69
242.363	104.69
242.597	129.69
242.83	122.69
243.064	133.69
243.298	120.69
243.531	117.69
243.765	118.69
243.998	124.69
244.232	134.69
244.465	124.69
244.699	121.69
244.932	119.69
245.166	130.69
245.399	104.69
245.633	135.69
245.866	131.69
246.099	134.69
246.333	129.69
246.566	138.69
246.8	135.69
247.033	137.69
247.266	139.69
247.5	139.69
247.733	141.69
247.966	160.69
248.2	149.69
248.433	161.69
248.666	161.69
248.899	139.69
249.133	168.69
249.366	196.69
249.599	166.69
249.832	166.69
250.066	156.69
250.299	163.69
250.532	153.69
250.765	160.69
250.998	189.69
251.231	184.69
251.465	180.69
251.698	176.69
251.931	177.69
252.164	171.69
252.397	179.69
252.63	181.69
252.863	179.69
253.096	180.69
253.329	192.69
253.562	193.69
253.795	202.69
254.028	183.69
254.261	200.69
254.494	200.69
254.727	226.69
254.96	220.69
255.193	232.69
255.426	206.69
255.659	204.69
255.892	200.69
256.124	175.69
256.357	196.69
256.59	190.69
256.823	169.69
257.056	174.69
257.289	177.69
257.521	179.69
257.754	203.69
257.987	195.69
258.22	195.69
258.452	178.69
258.685	179.69
258.918	183.69
259.151	184.69
259.383	196.69
259.616	197.69
259.849	195.69
260.081	218.69
260.314	213.69
260.547	202.69
260.779	226.69
261.012	209.69
261.244	179.69
261.477	213.69
261.71	200.69
261.942	202.69
262.175	214.69
262.407	212.69
262.64	199.69
262.872	203.69
263.105	182.69
263.337	177.69
263.57	184.69
263.802	188.69
264.035	173.69
264.267	188.69
264.499	191.69
264.732	196.69
264.964	181.69
265.197	192.69
265.429	197.69
265.661	200.69
265.894	185.69
266.126	168.69
266.358	188.69
266.591	185.69
266.823	201.69
267.055	184.69
267.287	201.69
267.52	190.69
267.752	199.69
267.984	191.69
268.216	189.69
268.448	201.69
268.681	196.69
268.913	211.69
269.145	218.69
269.377	251.69
269.609	236.69
269.841	237.69
270.073	224.69
270.306	230.69
270.538	265.69
270.77	282.69
271.002	255.69
271.234	259.69
271.466	249.69
271.698	253.69
271.93	284.69
272.162	271.69
272.394	279.69
272.626	276.69
272.858	237.69
273.09	250.69
273.322	255.69
273.553	229.69
273.785	245.69
274.017	244.69
274.249	222.69
274.481	221.69
274.713	218.69
274.945	236.69
275.176	244.69
275.408	221.69
275.64	229.69
275.872	228.69
276.104	212.69
276.335	224.69
276.567	231.69
276.799	242.69
277.031	271.69
277.262	263.69
277.494	253.69
277.726	269.69
277.957	265.69
278.189	243.69
278.421	235.69
278.652	229.69
278.884	228.69
279.115	222.69
279.347	223.69
279.579	245.69
279.81	243.69
280.042	229.69
280.273	247.69
280.505	218.69
280.736	233.69
280.968	244.69
281.199	235.69
281.431	230.69
281.662	220.69
281.894	247.69
282.125	243.69
282.356	239.69
282.588	268.69
282.819	269.69
283.051	244.69
283.282	243.69
283.513	242.69
283.745	251.69
283.976	229.69
284.207	243.69
284.439	236.69
284.67	267.69
284.901	249.69
285.132	246.69
285.364	255.69
285.595	261.69
285.826	257.69
286.057	245.69
286.288	239.69
286.52	214.69
286.751	239.69
286.982	247.69
287.213	248.69
287.444	231.69
287.675	253.69
287.906	255.69
288.138	275.69
288.369	255.69
288.6	264.69
288.831	253.69
289.062	263.69
289.293	254.69
289.524	270.69
289.755	253.69
289.986	243.69
290.217	263.69
290.448	235.69
290.679	263.69
290.91	257.69
291.141	261.69
291.371	244.69
291.602	253.69
291.833	244.69
292.064	236.69
292.295	261.69
292.526	259.69
292.757	252.69
292.987	261.69
293.218	259.69
293.449	255.69
293.68	248.69
293.91	262.69
294.141	255.69
294.372	254.69
294.603	265.69
294.833	244.69
295.064	247.69
295.295	257.69
295.525	265.69
295.756	278.69
295.987	269.69
296.217	280.69
296.448	294.69
296.679	261.69
296.909	242.69
297.14	269.69
297.37	259.69
297.601	234.69
297.831	260.69
298.062	251.69
298.292	281.69
298.523	269.69
298.753	260.69
298.984	266.69
299.214	266.69
299.445	260.69
299.675	288.69
299.905	269.69
300.136	276.69
300.366	259.69
300.597	277.69
300.827	265.69
301.057	268.69
301.288	284.69
301.518	296.69
301.748	273.69
301.979	280.69
302.209	277.69
302.439	291.69
302.669	282.69
302.9	273.69
303.13	273.69
303.36	295.69
303.59	289.69
303.82	305.69
304.051	296.69
304.281	287.69
304.511	295.69
304.741	277.69
304.971	294.69
305.201	287.69
305.431	297.69
305.661	288.69
305.891	270.69
306.121	304.69
306.352	300.69
306.582	304.69
306.812	293.69
307.042	300.69
307.272	281.69
307.502	282.69
307.731	266.69
307.961	304.69
308.191	300.69
308.421	282.69
308.651	284.69
308.881	305.69
309.111	308.69
309.341	299.69
309.571	296.69
309.8	325.69
310.03	333.69
310.26	336.69
310.49	325.69
310.72	331.69
310.949	356.69
311.179	326.69
311.409	321.69
311.639	326.69
311.868	329.69
312.098	335.69
312.328	322.69
312.557	320.69
312.787	342.69
313.017	366.69
313.246	350.69
313.476	315.69
313.706	341.69
313.935	332.69
314.165	355.69
314.394	331.69
314.624	359.69
314.853	356.69
315.083	319.69
315.312	323.69
315.542	331.69
315.771	341.69
316.001	324.69
316.23	314.69
316.46	312.69
316.689	333.69
316.919	346.69
317.148	329.69
317.377	325.69
317.607	331.69
317.836	328.69
318.065	316.69
318.295	325.69
318.524	320.69
318.753	323.69
318.983	342.69
319.212	338.69
319.441	335.69
319.67	340.69
319.9	345.69
320.129	340.69
320.358	327.69
320.587	319.69
320.816	342.69
321.046	340.69
321.275	363.69
321.504	361.69
321.733	344.69
321.962	341.69
322.191	368.69
322.42	393.69
322.649	383.69
322.878	381.69
323.108	395.69
323.337	424.69
323.566	403.69
323.795	441.69
324.024	489.69
324.253	594.69
324.482	846.69
324.71	1224.69
324.939	1637.69
325.168	1379.69
325.397	746.69
325.626	525.69
325.855	468.69
326.084	442.69
326.313	433.69
326.542	435.69
326.77	473.69
326.999	555.69
327.228	736.69
327.457	1107.69
327.686	1199.69
327.914	847.69
328.143	589.69
328.372	497.69
328.6	481.69
328.829	479.69
329.058	485.69
329.287	502.69
329.515	459.69
329.744	439.69
329.972	411.69
330.201	437.69
330.43	433.69
330.658	467.69
330.887	491.69
331.115	476.69
331.344	455.69
331.572	401.69
331.801	412.69
332.03	409.69
332.258	397.69
332.486	391.69
332.715	377.69
332.943	371.69
333.172	381.69
333.4	380.69
333.629	403.69
333.857	398.69
334.085	388.69
334.314	393.69
334.542	388.69
334.771	404.69
334.999	377.69
335.227	387.69
335.455	391.69
335.684	377.69
335.912	388.69
336.14	376.69
336.369	362.69
336.597	399.69
336.825	383.69
337.053	395.69
337.281	376.69
337.51	367.69
337.738	374.69
337.966	371.69
338.194	357.69
338.422	356.69
338.65	383.69
338.878	385.69
339.106	378.69
339.334	367.69
339.562	376.69
339.79	369.69
340.018	372.69
340.246	361.69
340.474	373.69
340.702	361.69
340.93	363.69
341.158	347.69
341.386	359.69
341.614	350.69
341.842	358.69
342.07	367.69
342.298	374.69
342.526	385.69
342.754	350.69
342.981	364.69
343.209	359.69
343.437	367.69
343.665	360.69
343.893	377.69
344.12	373.69
344.348	374.69
344.576	359.69
344.804	378.69
345.031	389.69
345.259	375.69
345.487	371.69
345.714	379.69
345.942	338.69
346.17	383.69
346.397	357.69
346.625	357.69
346.853	373.69
347.08	368.69
347.308	342.69
347.535	369.69
347.763	359.69
347.99	379.69
348.218	385.69
348.445	380.69
348.673	362.69
348.9	349.69
349.128	367.69
349.355	349.69
349.583	368.69
349.81	359.69
350.037	355.69
350.265	359.69
350.492	333.69
350.72	344.69
350.947	365.69
351.174	383.69
351.402	367.69
351.629	379.69
351.856	370.69
352.083	377.69
352.311	370.69
352.538	353.69
352.765	363.69
352.992	344.69
353.22	367.69
353.447	359.69
353.674	353.69
353.901	347.69
354.128	370.69
354.355	339.69
354.583	334.69
354.81	324.69
355.037	333.69
355.264	336.69
355.491	353.69
355.718	316.69
355.945	341.69
356.172	333.69
356.399	333.69
356.626	328.69
356.853	336.69
357.08	311.69
357.307	320.69
357.534	331.69
357.761	341.69
357.988	322.69
358.215	335.69
358.441	317.69
358.668	348.69
358.895	357.69
359.122	336.69
359.349	348.69
359.576	354.69
359.802	394.69
360.029	392.69
360.256	381.69
360.483	394.69
360.709	382.69
360.936	360.69
361.163	355.69
361.39	356.69
361.616	362.69
361.843	352.69
362.07	355.69
362.296	360.69
362.523	353.69
362.749	373.69
362.976	364.69
363.203	348.69
363.429	351.69
363.656	349.69
363.882	345.69
364.109	355.69
364.335	354.69
364.562	356.69
364.788	365.69
365.015	356.69
365.241	347.69
365.468	333.69
365.694	351.69
365.92	343.69
366.147	343.69
366.373	338.69
366.599	336.69
366.826	341.69
367.052	346.69
367.278	320.69
367.505	315.69
367.731	345.69
367.957	362.69
368.184	344.69
368.41	358.69
368.636	351.69
368.862	355.69
369.089	340.69
369.315	357.69
369.541	358.69
369.767	351.69
369.993	355.69
370.219	333.69
370.445	343.69
370.672	331.69
370.898	341.69
371.124	363.69
371.35	329.69
371.576	341.69
371.802	337.69
372.028	348.69
372.254	332.69
372.48	328.69
372.706	323.69
372.932	341.69
373.158	353.69
373.384	337.69
373.61	338.69
373.835	336.69
374.061	347.69
374.287	332.69
374.513	364.69
374.739	351.69
374.965	341.69
375.191	330.69
375.416	348.69
375.642	346.69
375.868	356.69
376.094	342.69
376.319	335.69
376.545	365.69
376.771	330.69
376.997	341.69
377.222	335.69
377.448	343.69
377.674	334.69
377.899	341.69
378.125	339.69
378.35	344.69
378.576	333.69
378.802	334.69
379.027	344.69
379.253	337.69
379.478	339.69
379.704	353.69
379.929	354.69
380.155	354.69
380.38	338.69
380.606	343.69
380.831	340.69
381.057	356.69
381.282	329.69
381.507	352.69
381.733	323.69
381.958	344.69
382.184	345.69
382.409	346.69
382.634	355.69
382.86	348.69
383.085	351.69
383.31	365.69
383.535	365.69
383.761	333.69
383.986	346.69
384.211	348.69
384.436	374.69
384.662	355.69
384.887	361.69
385.112	363.69
385.337	360.69
385.562	368.69
385.787	371.69
386.013	371.69
386.238	360.69
386.463	352.69
386.688	368.69
386.913	359.69
387.138	369.69
387.363	379.69
387.588	359.69
387.813	371.69
388.038	383.69
388.263	385.69
388.488	384.69
388.713	368.69
388.938	355.69
389.163	351.69
389.387	379.69
389.612	356.69
389.837	373.69
390.062	377.69
390.287	374.69
390.512	361.69
390.736	368.69
390.961	361.69
391.186	367.69
391.411	379.69
391.636	363.69
391.86	377.69
392.085	389.69
392.31	370.69
392.534	378.69
392.759	376.69
392.984	368.69
393.208	369.69
393.433	370.69
393.658	361.69
393.882	353.69
394.107	370.69
394.331	377.69
394.556	364.69
394.78	371.69
395.005	356.69
395.229	362.69
395.454	375.69
395.678	383.69
395.903	384.69
396.127	396.69
396.352	397.69
396.576	415.69
396.801	389.69
397.025	360.69
397.249	355.69
397.474	386.69
397.698	387.69
397.922	408.69
398.147	405.69
398.371	411.69
398.595	397.69
398.82	395.69
399.044	399.69
399.268	415.69
399.492	432.69
399.717	479.69
399.941	501.69
400.165	495.69
400.389	518.69
400.613	468.69
400.837	445.69
401.062	406.69
401.286	405.69
401.51	419.69
401.734	394.69
401.958	403.69
402.182	409.69
402.406	436.69
402.63	442.69
402.854	430.69
403.078	436.69
403.302	440.69
403.526	412.69
403.75	416.69
403.974	423.69
404.198	445.69
404.422	434.69
404.645	425.69
404.869	427.69
405.093	442.69
405.317	477.69
405.541	481.69
405.765	468.69
405.988	437.69
406.212	431.69
406.436	481.69
406.66	465.69
406.883	457.69
407.107	481.69
407.331	513.69
407.555	556.69
407.778	546.69
408.002	501.69
408.226	467.69
408.449	466.69
408.673	482.69
408.896	503.69
409.12	513.69
409.344	484.69
409.567	454.69
409.791	434.69
410.014	436.69
410.238	423.69
410.461	440.69
410.685	422.69
410.908	453.69
411.132	470.69
411.355	489.69
411.578	463.69
411.802	434.69
412.025	395.69
412.249	424.69
412.472	431.69
412.695	439.69
412.919	413.69
413.142	429.69
413.365	417.69
413.589	407.69
413.812	400.69
414.035	411.69
414.258	393.69
414.482	396.69
414.705	419.69
414.928	394.69
415.151	393.69
415.374	415.69
415.597	384.69
415.821	418.69
416.044	418.69
416.267	416.69
416.49	387.69
416.713	389.69
416.936	398.69
417.159	399.69
417.382	396.69
417.605	396.69
417.828	406.69
418.051	416.69
418.274	414.69
418.497	416.69
418.72	412.69
418.943	409.69
419.166	439.69
419.389	447.69
419.611	424.69
419.834	435.69
420.057	414.69
420.28	420.69
420.503	404.69
420.726	422.69
420.948	424.69
421.171	474.69
421.394	475.69
421.617	444.69
421.839	412.69
422.062	429.69
422.285	451.69
422.507	463.69
422.73	515.69
422.953	505.69
423.175	439.69
423.398	445.69
423.621	427.69
423.843	435.69
424.066	443.69
424.288	434.69
424.511	466.69
424.733	494.69
424.956	556.69
425.178	525.69
425.401	536.69
425.623	554.69
425.846	481.69
426.068	457.69
426.291	449.69
426.513	440.69
426.735	448.69
426.958	493.69
427.18	539.69
427.402	658.69
427.625	721.69
427.847	612.69
428.069	524.69
428.292	464.69
428.514	447.69
428.736	419.69
428.958	434.69
429.181	429.69
429.403	414.69
429.625	426.69
429.847	445.69
430.069	513.69
430.292	503.69
430.514	435.69
430.736	411.69
430.958	424.69
431.18	413.69
431.402	404.69
431.624	404.69
431.846	409.69
432.068	396.69
432.29	396.69
432.512	402.69
432.734	401.69
432.956	388.69
433.178	410.69
433.4	419.69
433.622	399.69
433.844	408.69
434.066	406.69
434.287	406.69
434.509	395.69
434.731	409.69
434.953	412.69
435.175	437.69
435.397	433.69
435.618	451.69
435.84	491.69
436.062	546.69
436.284	596.69
436.505	530.69
436.727	466.69
436.949	429.69
437.17	414.69
437.392	419.69
437.614	412.69
437.835	471.69
438.057	544.69
438.278	610.69
438.5	598.69
438.721	632.69
438.943	602.69
439.165	503.69
439.386	443.69
439.608	477.69
439.829	459.69
440.05	465.69
440.272	517.69
440.493	477.69
440.715	441.69
440.936	407.69
441.158	415.69
441.379	408.69
441.6	417.69
441.822	446.69
442.043	449.69
442.264	537.69
442.486	580.69
442.707	487.69
442.928	465.69
443.149	468.69
443.371	505.69
443.592	521.69
443.813	589.69
444.034	614.69
444.255	530.69
444.476	483.69
444.698	478.69
444.919	456.69
445.14	556.69
445.361	529.69
445.582	493.69
445.803	513.69
446.024	551.69
446.245	580.69
446.466	561.69
446.687	465.69
446.908	460.69
447.129	446.69
447.35	426.69
447.571	447.69
447.792	412.69
448.013	431.69
448.234	434.69
448.455	478.69
448.675	555.69
448.896	644.69
449.117	550.69
449.338	530.69
449.559	593.69
449.779	647.69
450	533.69
450.221	459.69
450.442	437.69
450.662	411.69
450.883	405.69
451.104	421.69
451.324	428.69
451.545	420.69
451.766	399.69
451.986	376.69
452.207	376.69
452.428	376.69
452.648	377.69
452.869	384.69
453.089	376.69
453.31	402.69
453.53	393.69
453.751	380.69
453.971	376.69
454.192	386.69
454.412	372.69
454.633	373.69
454.853	390.69
455.073	376.69
455.294	407.69
455.514	451.69
455.734	434.69
455.955	381.69
456.175	363.69
456.395	361.69
456.616	350.69
456.836	355.69
457.056	357.69
457.276	362.69
457.497	372.69
457.717	369.69
457.937	354.69
458.157	371.69
458.377	383.69
458.598	403.69
458.818	436.69
459.038	482.69
459.258	466.69
459.478	433.69
459.698	406.69
459.918	400.69
460.138	407.69
460.358	396.69
460.578	421.69
460.798	401.69
461.018	422.69
461.238	393.69
461.458	406.69
461.678	396.69
461.898	395.69
462.118	409.69
462.338	404.69
462.558	421.69
462.777	405.69
462.997	447.69
463.217	426.69
463.437	431.69
463.657	416.69
463.876	435.69
464.096	431.69
464.316	440.69
464.536	437.69
464.755	437.69
464.975	423.69
465.195	435.69
465.414	520.69
465.634	473.69
465.854	419.69
466.073	416.69
466.293	404.69
466.512	395.69
466.732	385.69
466.951	375.69
467.171	395.69
467.391	394.69
467.61	399.69
467.829	384.69
468.049	376.69
468.268	378.69
468.488	376.69
468.707	375.69
468.927	377.69
469.146	364.69
469.365	364.69
469.585	382.69
469.804	377.69
470.023	392.69
470.243	400.69
470.462	398.69
470.681	415.69
470.901	395.69
471.12	382.69
471.339	372.69
471.558	394.69
471.777	390.69
471.997	390.69
472.216	393.69
472.435	391.69
472.654	393.69
472.873	380.69
473.092	393.69
473.311	392.69
473.53	387.69
473.749	403.69
473.968	407.69
474.187	515.69
474.406	506.69
474.625	432.69
474.844	390.69
475.063	390.69
475.282	396.69
475.501	403.69
475.72	397.69
475.939	403.69
476.158	421.69
476.377	424.69
476.596	395.69
476.814	410.69
477.033	414.69
477.252	397.69
477.471	402.69
477.69	421.69
477.908	419.69
478.127	438.69
478.346	413.69
478.564	435.69
478.783	439.69
479.002	434.69
479.22	444.69
479.439	452.69
479.658	454.69
479.876	461.69
480.095	468.69
480.313	489.69
480.532	479.69
480.751	467.69
480.969	457.69
481.188	476.69
481.406	468.69
481.624	468.69
481.843	445.69
482.061	459.69
482.28	450.69
482.498	439.69
482.717	454.69
482.935	452.69
483.153	461.69
483.372	461.69
483.59	457.69
483.808	452.69
484.027	449.69
484.245	456.69
484.463	469.69
484.681	470.69
484.9	449.69
485.118	480.69
485.336	461.69
485.554	461.69
485.772	450.69
485.99	471.69
486.209	448.69
486.427	448.69
486.645	465.69
486.863	490.69
487.081	496.69
487.299	481.69
487.517	492.69
487.735	491.69
487.953	471.69
488.171	478.69
488.389	493.69
488.607	496.69
488.825	480.69
489.043	511.69
489.261	502.69
489.479	496.69
489.696	492.69
489.914	508.69
490.132	500.69
490.35	486.69
490.568	499.69
490.786	516.69
491.003	507.69
491.221	527.69
491.439	533.69
491.657	540.69
491.874	552.69
492.092	577.69
492.31	565.69
492.527	545.69
492.745	547.69
492.963	574.69
493.18	560.69
493.398	565.69
493.615	535.69
493.833	561.69
494.05	556.69
494.268	561.69
494.485	573.69
494.703	573.69
494.92	565.69
495.138	572.69
495.355	561.69
495.573	590.69
495.79	595.69
496.008	570.69
496.225	568.69
496.442	583.69
496.66	581.69
496.877	591.69
497.094	595.69
497.312	572.69
497.529	574.69
497.746	590.69
497.963	614.69
498.181	636.69
498.398	623.69
498.615	626.69
498.832	613.69
499.049	651.69
499.267	658.69
499.484	664.69
499.701	698.69
499.918	737.69
500.135	744.69
500.352	778.69
500.569	780.69
500.786	797.69
501.003	805.69
501.22	769.69
501.437	741.69
501.654	717.69
501.871	721.69
502.088	721.69
