Data from 1983.PennyLincolnUp.Lamp.En5.5.200Scan.071819.P1_HRD10591_16-52-51-965.txt Node
Date: Thu Jul 18 16:52:51 EDT 2019
User: cochatt
Spectrometer: HR+D1059
Trigger mode: 1
Integration Time (sec): 1.000000E-1
Scans to average: 1
Electric dark correction enabled: true
Nonlinearity correction enabled: false
Boxcar width: 0
XAxis mode: Wavelengths
Number of Pixels in Spectrum: 2048
>>>>>Begin Spectral Data<<<<<
223.165	-9.06
223.4	-9.06
223.635	-9.06
223.869	-31.06
224.104	-25.06
224.338	-14.06
224.573	-11.06
224.808	-17.06
225.042	-5.06
225.277	3.94
225.511	-2.06
225.746	2.94
225.98	7.94
226.215	4.94
226.449	12.94
226.683	21.94
226.918	22.94
227.152	36.94
227.387	39.94
227.621	34.94
227.856	41.94
228.09	47.94
228.324	52.94
228.559	60.94
228.793	74.94
229.027	98.94
229.262	104.94
229.496	96.94
229.73	136.94
229.964	136.94
230.199	144.94
230.433	107.94
230.667	98.94
230.901	107.94
231.136	112.94
231.37	117.94
231.604	106.94
231.838	102.94
232.072	101.94
232.306	106.94
232.541	110.94
232.775	112.94
233.009	114.94
233.243	112.94
233.477	106.94
233.711	116.94
233.945	100.94
234.179	106.94
234.413	101.94
234.647	123.94
234.881	107.94
235.115	123.94
235.349	110.94
235.583	110.94
235.817	104.94
236.051	131.94
236.285	126.94
236.519	120.94
236.753	121.94
236.987	142.94
237.221	152.94
237.455	201.94
237.689	157.94
237.922	152.94
238.156	127.94
238.39	129.94
238.624	127.94
238.858	123.94
239.091	121.94
239.325	112.94
239.559	121.94
239.793	125.94
240.027	127.94
240.26	134.94
240.494	142.94
240.728	133.94
240.961	132.94
241.195	134.94
241.429	142.94
241.662	130.94
241.896	121.94
242.13	132.94
242.363	114.94
242.597	116.94
242.83	123.94
243.064	126.94
243.298	123.94
243.531	122.94
243.765	124.94
243.998	108.94
244.232	125.94
244.465	125.94
244.699	132.94
244.932	122.94
245.166	139.94
245.399	148.94
245.633	120.94
245.866	135.94
246.099	131.94
246.333	129.94
246.566	139.94
246.8	132.94
247.033	140.94
247.266	129.94
247.5	156.94
247.733	156.94
247.966	151.94
248.2	153.94
248.433	158.94
248.666	156.94
248.899	169.94
249.133	178.94
249.366	184.94
249.599	172.94
249.832	165.94
250.066	178.94
250.299	162.94
250.532	170.94
250.765	186.94
250.998	197.94
251.231	191.94
251.465	187.94
251.698	176.94
251.931	168.94
252.164	173.94
252.397	192.94
252.63	190.94
252.863	185.94
253.096	190.94
253.329	203.94
253.562	188.94
253.795	207.94
254.028	194.94
254.261	203.94
254.494	197.94
254.727	219.94
254.96	249.94
255.193	221.94
255.426	222.94
255.659	196.94
255.892	210.94
256.124	194.94
256.357	192.94
256.59	192.94
256.823	172.94
257.056	184.94
257.289	195.94
257.521	196.94
257.754	180.94
257.987	182.94
258.22	188.94
258.452	195.94
258.685	198.94
258.918	189.94
259.151	195.94
259.383	181.94
259.616	200.94
259.849	215.94
260.081	195.94
260.314	220.94
260.547	232.94
260.779	205.94
261.012	198.94
261.244	205.94
261.477	202.94
261.71	194.94
261.942	200.94
262.175	217.94
262.407	230.94
262.64	201.94
262.872	195.94
263.105	184.94
263.337	190.94
263.57	179.94
263.802	201.94
264.035	189.94
264.267	198.94
264.499	194.94
264.732	195.94
264.964	178.94
265.197	174.94
265.429	196.94
265.661	184.94
265.894	187.94
266.126	195.94
266.358	195.94
266.591	189.94
266.823	195.94
267.055	205.94
267.287	206.94
267.52	185.94
267.752	186.94
267.984	202.94
268.216	206.94
268.448	203.94
268.681	203.94
268.913	209.94
269.145	237.94
269.377	234.94
269.609	250.94
269.841	231.94
270.073	248.94
270.306	282.94
270.538	282.94
270.77	289.94
271.002	268.94
271.234	258.94
271.466	263.94
271.698	281.94
271.93	286.94
272.162	283.94
272.394	276.94
272.626	278.94
272.858	266.94
273.09	261.94
273.322	243.94
273.553	234.94
273.785	239.94
274.017	232.94
274.249	214.94
274.481	242.94
274.713	223.94
274.945	256.94
275.176	234.94
275.408	241.94
275.64	235.94
275.872	238.94
276.104	239.94
276.335	252.94
276.567	242.94
276.799	246.94
277.031	262.94
277.262	267.94
277.494	266.94
277.726	271.94
277.957	258.94
278.189	246.94
278.421	229.94
278.652	234.94
278.884	249.94
279.115	235.94
279.347	227.94
279.579	235.94
279.81	218.94
280.042	235.94
280.273	246.94
280.505	248.94
280.736	229.94
280.968	224.94
281.199	216.94
281.431	231.94
281.662	228.94
281.894	256.94
282.125	245.94
282.356	253.94
282.588	262.94
282.819	276.94
283.051	237.94
283.282	227.94
283.513	242.94
283.745	223.94
283.976	245.94
284.207	258.94
284.439	242.94
284.67	247.94
284.901	257.94
285.132	242.94
285.364	232.94
285.595	242.94
285.826	243.94
286.057	244.94
286.288	235.94
286.52	242.94
286.751	250.94
286.982	265.94
287.213	231.94
287.444	250.94
287.675	252.94
287.906	262.94
288.138	262.94
288.369	272.94
288.6	253.94
288.831	240.94
289.062	277.94
289.293	272.94
289.524	254.94
289.755	264.94
289.986	252.94
290.217	267.94
290.448	260.94
290.679	261.94
290.91	259.94
291.141	254.94
291.371	247.94
291.602	240.94
291.833	240.94
292.064	230.94
292.295	244.94
292.526	271.94
292.757	262.94
292.987	270.94
293.218	254.94
293.449	252.94
293.68	242.94
293.91	244.94
294.141	276.94
294.372	259.94
294.603	261.94
294.833	233.94
295.064	266.94
295.295	248.94
295.525	247.94
295.756	271.94
295.987	265.94
296.217	272.94
296.448	309.94
296.679	283.94
296.909	272.94
297.14	263.94
297.37	236.94
297.601	266.94
297.831	247.94
298.062	267.94
298.292	261.94
298.523	263.94
298.753	268.94
298.984	259.94
299.214	279.94
299.445	285.94
299.675	254.94
299.905	279.94
300.136	282.94
300.366	292.94
300.597	281.94
300.827	273.94
301.057	268.94
301.288	294.94
301.518	289.94
301.748	288.94
301.979	279.94
302.209	275.94
302.439	295.94
302.669	296.94
302.9	286.94
303.13	290.94
303.36	283.94
303.59	296.94
303.82	297.94
304.051	300.94
304.281	285.94
304.511	281.94
304.741	278.94
304.971	282.94
305.201	304.94
305.431	294.94
305.661	265.94
305.891	277.94
306.121	288.94
306.352	296.94
306.582	310.94
306.812	290.94
307.042	281.94
307.272	288.94
307.502	285.94
307.731	291.94
307.961	299.94
308.191	295.94
308.421	276.94
308.651	292.94
308.881	290.94
309.111	307.94
309.341	300.94
309.571	327.94
309.8	336.94
310.03	328.94
310.26	324.94
310.49	319.94
310.72	324.94
310.949	336.94
311.179	347.94
311.409	322.94
311.639	324.94
311.868	329.94
312.098	313.94
312.328	328.94
312.557	328.94
312.787	350.94
313.017	348.94
313.246	337.94
313.476	315.94
313.706	333.94
313.935	354.94
314.165	341.94
314.394	342.94
314.624	348.94
314.853	336.94
315.083	342.94
315.312	342.94
315.542	319.94
315.771	329.94
316.001	330.94
316.23	345.94
316.46	322.94
316.689	354.94
316.919	332.94
317.148	325.94
317.377	334.94
317.607	361.94
317.836	333.94
318.065	314.94
318.295	342.94
318.524	338.94
318.753	342.94
318.983	339.94
319.212	339.94
319.441	335.94
319.67	343.94
319.9	340.94
320.129	344.94
320.358	325.94
320.587	329.94
320.816	341.94
321.046	352.94
321.275	344.94
321.504	368.94
321.733	349.94
321.962	352.94
322.191	382.94
322.42	391.94
322.649	392.94
322.878	392.94
323.108	413.94
323.337	416.94
323.566	452.94
323.795	457.94
324.024	520.94
324.253	614.94
324.482	887.94
324.71	1348.94
324.939	1784.94
325.168	1454.94
325.397	805.94
325.626	552.94
325.855	456.94
326.084	443.94
326.313	440.94
326.542	431.94
326.77	481.94
326.999	566.94
327.228	770.94
327.457	1167.94
327.686	1348.94
327.914	887.94
328.143	616.94
328.372	557.94
328.6	500.94
328.829	482.94
329.058	510.94
329.287	507.94
329.515	475.94
329.744	447.94
329.972	416.94
330.201	413.94
330.43	446.94
330.658	469.94
330.887	526.94
331.115	507.94
331.344	453.94
331.572	431.94
331.801	422.94
332.03	425.94
332.258	418.94
332.486	405.94
332.715	387.94
332.943	376.94
333.172	381.94
333.4	380.94
333.629	378.94
333.857	400.94
334.085	403.94
334.314	392.94
334.542	394.94
334.771	391.94
334.999	390.94
335.227	382.94
335.455	385.94
335.684	387.94
335.912	366.94
336.14	368.94
336.369	381.94
336.597	403.94
336.825	384.94
337.053	372.94
337.281	362.94
337.51	374.94
337.738	380.94
337.966	387.94
338.194	378.94
338.422	380.94
338.65	367.94
338.878	366.94
339.106	377.94
339.334	376.94
339.562	370.94
339.79	354.94
340.018	366.94
340.246	388.94
340.474	384.94
340.702	359.94
340.93	347.94
341.158	365.94
341.386	373.94
341.614	355.94
341.842	362.94
342.07	349.94
342.298	337.94
342.526	356.94
342.754	363.94
342.981	349.94
343.209	344.94
343.437	356.94
343.665	360.94
343.893	396.94
344.12	382.94
344.348	384.94
344.576	378.94
344.804	372.94
345.031	374.94
345.259	387.94
345.487	359.94
345.714	374.94
345.942	371.94
346.17	364.94
346.397	366.94
346.625	354.94
346.853	354.94
347.08	363.94
347.308	388.94
347.535	357.94
347.763	381.94
347.99	390.94
348.218	374.94
348.445	373.94
348.673	371.94
348.9	379.94
349.128	351.94
349.355	356.94
349.583	348.94
349.81	338.94
350.037	347.94
350.265	335.94
350.492	354.94
350.72	351.94
350.947	346.94
351.174	355.94
351.402	367.94
351.629	385.94
351.856	364.94
352.083	362.94
352.311	386.94
352.538	372.94
352.765	393.94
352.992	372.94
353.22	362.94
353.447	347.94
353.674	349.94
353.901	354.94
354.128	347.94
354.355	343.94
354.583	344.94
354.81	343.94
355.037	331.94
355.264	342.94
355.491	336.94
355.718	345.94
355.945	326.94
356.172	322.94
356.399	341.94
356.626	334.94
356.853	348.94
357.08	327.94
357.307	333.94
357.534	352.94
357.761	320.94
357.988	330.94
358.215	349.94
358.441	344.94
358.668	342.94
358.895	338.94
359.122	345.94
359.349	324.94
359.576	363.94
359.802	359.94
360.029	406.94
360.256	414.94
360.483	406.94
360.709	367.94
360.936	354.94
361.163	335.94
361.39	355.94
361.616	350.94
361.843	345.94
362.07	364.94
362.296	359.94
362.523	363.94
362.749	342.94
362.976	353.94
363.203	331.94
363.429	358.94
363.656	361.94
363.882	346.94
364.109	361.94
364.335	349.94
364.562	333.94
364.788	342.94
365.015	352.94
365.241	351.94
365.468	355.94
365.694	325.94
365.92	341.94
366.147	352.94
366.373	350.94
366.599	355.94
366.826	329.94
367.052	338.94
367.278	348.94
367.505	335.94
367.731	340.94
367.957	346.94
368.184	342.94
368.41	351.94
368.636	350.94
368.862	349.94
369.089	343.94
369.315	334.94
369.541	346.94
369.767	332.94
369.993	344.94
370.219	310.94
370.445	346.94
370.672	334.94
370.898	348.94
371.124	348.94
371.35	353.94
371.576	326.94
371.802	330.94
372.028	351.94
372.254	340.94
372.48	315.94
372.706	334.94
372.932	333.94
373.158	344.94
373.384	332.94
373.61	357.94
373.835	348.94
374.061	336.94
374.287	339.94
374.513	329.94
374.739	343.94
374.965	344.94
375.191	340.94
375.416	334.94
375.642	329.94
375.868	351.94
376.094	342.94
376.319	332.94
376.545	336.94
376.771	342.94
376.997	340.94
377.222	354.94
377.448	342.94
377.674	325.94
377.899	331.94
378.125	330.94
378.35	346.94
378.576	345.94
378.802	332.94
379.027	332.94
379.253	331.94
379.478	336.94
379.704	330.94
379.929	343.94
380.155	338.94
380.38	341.94
380.606	335.94
380.831	343.94
381.057	332.94
381.282	343.94
381.507	337.94
381.733	328.94
381.958	321.94
382.184	333.94
382.409	332.94
382.634	339.94
382.86	331.94
383.085	347.94
383.31	344.94
383.535	334.94
383.761	342.94
383.986	341.94
384.211	360.94
384.436	358.94
384.662	344.94
384.887	360.94
385.112	358.94
385.337	349.94
385.562	355.94
385.787	358.94
386.013	355.94
386.238	358.94
386.463	362.94
386.688	360.94
386.913	366.94
387.138	362.94
387.363	365.94
387.588	376.94
387.813	350.94
388.038	357.94
388.263	365.94
388.488	364.94
388.713	351.94
388.938	342.94
389.163	372.94
389.387	383.94
389.612	358.94
389.837	363.94
390.062	356.94
390.287	359.94
390.512	356.94
390.736	335.94
390.961	356.94
391.186	349.94
391.411	373.94
391.636	384.94
391.86	370.94
392.085	354.94
392.31	373.94
392.534	374.94
392.759	360.94
392.984	368.94
393.208	371.94
393.433	370.94
393.658	369.94
393.882	362.94
394.107	348.94
394.331	354.94
394.556	362.94
394.78	354.94
395.005	373.94
395.229	340.94
395.454	386.94
395.678	372.94
395.903	363.94
396.127	410.94
396.352	415.94
396.576	364.94
396.801	374.94
397.025	372.94
397.249	379.94
397.474	386.94
397.698	393.94
397.922	399.94
398.147	371.94
398.371	411.94
398.595	409.94
398.82	404.94
399.044	416.94
399.268	441.94
399.492	423.94
399.717	479.94
399.941	481.94
400.165	494.94
400.389	507.94
400.613	454.94
400.837	426.94
401.062	427.94
401.286	416.94
401.51	411.94
401.734	403.94
401.958	398.94
402.182	395.94
402.406	412.94
402.63	442.94
402.854	415.94
403.078	420.94
403.302	411.94
403.526	420.94
403.75	426.94
403.974	430.94
404.198	406.94
404.422	423.94
404.645	412.94
404.869	438.94
405.093	446.94
405.317	430.94
405.541	478.94
405.765	457.94
405.988	438.94
406.212	444.94
406.436	450.94
406.66	493.94
406.883	436.94
407.107	469.94
407.331	525.94
407.555	537.94
407.778	535.94
408.002	491.94
408.226	491.94
408.449	473.94
408.673	455.94
408.896	488.94
409.12	486.94
409.344	480.94
409.567	421.94
409.791	430.94
410.014	400.94
410.238	424.94
410.461	418.94
410.685	437.94
410.908	430.94
411.132	446.94
411.355	474.94
411.578	452.94
411.802	445.94
412.025	413.94
412.249	430.94
412.472	431.94
412.695	438.94
412.919	404.94
413.142	405.94
413.365	422.94
413.589	414.94
413.812	423.94
414.035	394.94
414.258	401.94
414.482	379.94
414.705	399.94
414.928	376.94
415.151	377.94
415.374	385.94
415.597	398.94
415.821	400.94
416.044	389.94
416.267	418.94
416.49	389.94
416.713	390.94
416.936	386.94
417.159	405.94
417.382	411.94
417.605	398.94
417.828	406.94
418.051	423.94
418.274	409.94
418.497	407.94
418.72	407.94
418.943	416.94
419.166	406.94
419.389	423.94
419.611	423.94
419.834	437.94
420.057	419.94
420.28	421.94
420.503	400.94
420.726	421.94
420.948	440.94
421.171	454.94
421.394	486.94
421.617	439.94
421.839	413.94
422.062	427.94
422.285	422.94
422.507	467.94
422.73	520.94
422.953	502.94
423.175	449.94
423.398	436.94
423.621	438.94
423.843	446.94
424.066	438.94
424.288	452.94
424.511	461.94
424.733	493.94
424.956	560.94
425.178	544.94
425.401	531.94
425.623	561.94
425.846	484.94
426.068	476.94
426.291	445.94
426.513	454.94
426.735	458.94
426.958	512.94
427.18	539.94
427.402	637.94
427.625	690.94
427.847	621.94
428.069	526.94
428.292	492.94
428.514	446.94
428.736	421.94
428.958	427.94
429.181	435.94
429.403	416.94
429.625	417.94
429.847	450.94
430.069	509.94
430.292	492.94
430.514	443.94
430.736	412.94
430.958	406.94
431.18	409.94
431.402	415.94
431.624	399.94
431.846	397.94
432.068	390.94
432.29	398.94
432.512	384.94
432.734	400.94
432.956	417.94
433.178	402.94
433.4	405.94
433.622	407.94
433.844	407.94
434.066	402.94
434.287	397.94
434.509	386.94
434.731	416.94
434.953	405.94
435.175	411.94
435.397	450.94
435.618	459.94
435.84	475.94
436.062	552.94
436.284	568.94
436.505	490.94
436.727	453.94
436.949	442.94
437.17	419.94
437.392	410.94
437.614	431.94
437.835	438.94
438.057	536.94
438.278	609.94
438.5	599.94
438.721	646.94
438.943	620.94
439.165	477.94
439.386	453.94
439.608	447.94
439.829	465.94
440.05	495.94
440.272	524.94
440.493	503.94
440.715	437.94
440.936	456.94
441.158	446.94
441.379	425.94
441.6	423.94
441.822	456.94
442.043	486.94
442.264	562.94
442.486	559.94
442.707	478.94
442.928	476.94
443.149	482.94
443.371	472.94
443.592	531.94
443.813	564.94
444.034	619.94
444.255	525.94
444.476	464.94
444.698	442.94
444.919	474.94
445.14	571.94
445.361	502.94
445.582	489.94
445.803	548.94
446.024	597.94
446.245	642.94
446.466	562.94
446.687	506.94
446.908	460.94
447.129	440.94
447.35	428.94
447.571	430.94
447.792	421.94
448.013	408.94
448.234	418.94
448.455	489.94
448.675	566.94
448.896	631.94
449.117	526.94
449.338	518.94
449.559	602.94
449.779	669.94
450	526.94
450.221	456.94
450.442	428.94
450.662	412.94
450.883	434.94
451.104	438.94
451.324	421.94
451.545	412.94
451.766	393.94
451.986	378.94
452.207	389.94
452.428	398.94
452.648	385.94
452.869	372.94
453.089	379.94
453.31	416.94
453.53	399.94
453.751	382.94
453.971	371.94
454.192	397.94
454.412	384.94
454.633	374.94
454.853	368.94
455.073	373.94
455.294	417.94
455.514	452.94
455.734	438.94
455.955	369.94
456.175	378.94
456.395	368.94
456.616	354.94
456.836	345.94
457.056	370.94
457.276	374.94
457.497	359.94
457.717	363.94
457.937	370.94
458.157	363.94
458.377	373.94
458.598	376.94
458.818	438.94
459.038	501.94
459.258	495.94
459.478	430.94
459.698	400.94
459.918	410.94
460.138	406.94
460.358	394.94
460.578	389.94
460.798	406.94
461.018	423.94
461.238	402.94
461.458	390.94
461.678	398.94
461.898	411.94
462.118	410.94
462.338	406.94
462.558	394.94
462.777	417.94
462.997	416.94
463.217	442.94
463.437	445.94
463.657	418.94
463.876	431.94
464.096	416.94
464.316	418.94
464.536	419.94
464.755	431.94
464.975	424.94
465.195	467.94
465.414	532.94
465.634	471.94
465.854	424.94
466.073	399.94
466.293	411.94
466.512	404.94
466.732	400.94
466.951	390.94
467.171	379.94
467.391	393.94
467.61	406.94
467.829	406.94
468.049	382.94
468.268	355.94
468.488	380.94
468.707	365.94
468.927	384.94
469.146	366.94
469.365	359.94
469.585	384.94
469.804	386.94
470.023	390.94
470.243	401.94
470.462	400.94
470.681	422.94
470.901	408.94
471.12	391.94
471.339	383.94
471.558	378.94
471.777	390.94
471.997	380.94
472.216	387.94
472.435	388.94
472.654	380.94
472.873	380.94
473.092	373.94
473.311	372.94
473.53	386.94
473.749	394.94
473.968	427.94
474.187	507.94
474.406	516.94
474.625	459.94
474.844	390.94
475.063	401.94
475.282	388.94
475.501	371.94
475.72	400.94
475.939	400.94
476.158	384.94
476.377	412.94
476.596	396.94
476.814	397.94
477.033	415.94
477.252	399.94
477.471	406.94
477.69	420.94
477.908	431.94
478.127	419.94
478.346	419.94
478.564	423.94
478.783	426.94
479.002	437.94
479.22	442.94
479.439	463.94
479.658	480.94
479.876	467.94
480.095	469.94
480.313	479.94
480.532	461.94
480.751	482.94
480.969	478.94
481.188	478.94
481.406	480.94
481.624	463.94
481.843	440.94
482.061	440.94
482.28	452.94
482.498	440.94
482.717	448.94
482.935	441.94
483.153	463.94
483.372	453.94
483.59	468.94
483.808	447.94
484.027	442.94
484.245	427.94
484.463	445.94
484.681	466.94
484.9	472.94
485.118	462.94
485.336	462.94
485.554	463.94
485.772	476.94
485.99	475.94
486.209	471.94
486.427	485.94
486.645	472.94
486.863	488.94
487.081	485.94
487.299	472.94
487.517	471.94
487.735	483.94
487.953	502.94
488.171	474.94
488.389	512.94
488.607	490.94
488.825	466.94
489.043	482.94
489.261	491.94
489.479	498.94
489.696	494.94
489.914	486.94
490.132	473.94
490.35	501.94
490.568	505.94
490.786	514.94
491.003	504.94
491.221	541.94
491.439	555.94
491.657	542.94
491.874	525.94
492.092	528.94
492.31	536.94
492.527	543.94
492.745	556.94
492.963	565.94
493.18	550.94
493.398	556.94
493.615	566.94
493.833	528.94
494.05	566.94
494.268	572.94
494.485	590.94
494.703	540.94
494.92	551.94
495.138	570.94
495.355	569.94
495.573	567.94
495.79	568.94
496.008	577.94
496.225	570.94
496.442	555.94
496.66	598.94
496.877	569.94
497.094	584.94
497.312	588.94
497.529	586.94
497.746	612.94
497.963	614.94
498.181	606.94
498.398	616.94
498.615	628.94
498.832	644.94
499.049	654.94
499.267	685.94
499.484	658.94
499.701	707.94
499.918	706.94
500.135	712.94
500.352	772.94
500.569	780.94
500.786	763.94
501.003	750.94
501.22	740.94
501.437	731.94
501.654	715.94
501.871	732.94
502.088	711.94
