Data from 1983.PennyLincolnUp.Lamp.En5.5.200Scan.071819.P1_HRD10591_16-55-15-966.txt Node
Date: Thu Jul 18 16:55:15 EDT 2019
User: cochatt
Spectrometer: HR+D1059
Trigger mode: 1
Integration Time (sec): 1.000000E-1
Scans to average: 1
Electric dark correction enabled: true
Nonlinearity correction enabled: false
Boxcar width: 0
XAxis mode: Wavelengths
Number of Pixels in Spectrum: 2048
>>>>>Begin Spectral Data<<<<<
223.165	-8.19
223.4	-8.19
223.635	-8.19
223.869	-16.19
224.104	-13.19
224.338	-11.19
224.573	-12.19
224.808	-14.19
225.042	-11.19
225.277	-8.19
225.511	-16.19
225.746	9.81
225.98	15.81
226.215	5.81
226.449	8.81
226.683	13.81
226.918	26.81
227.152	29.81
227.387	33.81
227.621	33.81
227.856	58.81
228.09	40.81
228.324	57.81
228.559	61.81
228.793	77.81
229.027	102.81
229.262	105.81
229.496	121.81
229.73	124.81
229.964	144.81
230.199	125.81
230.433	121.81
230.667	115.81
230.901	111.81
231.136	102.81
231.37	106.81
231.604	109.81
231.838	113.81
232.072	106.81
232.306	98.81
232.541	118.81
232.775	121.81
233.009	118.81
233.243	121.81
233.477	102.81
233.711	116.81
233.945	103.81
234.179	103.81
234.413	125.81
234.647	105.81
234.881	101.81
235.115	126.81
235.349	126.81
235.583	117.81
235.817	129.81
236.051	120.81
236.285	129.81
236.519	145.81
236.753	137.81
236.987	133.81
237.221	180.81
237.455	220.81
237.689	174.81
237.922	122.81
238.156	125.81
238.39	130.81
238.624	124.81
238.858	122.81
239.091	105.81
239.325	123.81
239.559	114.81
239.793	138.81
240.027	127.81
240.26	138.81
240.494	139.81
240.728	137.81
240.961	157.81
241.195	141.81
241.429	138.81
241.662	125.81
241.896	121.81
242.13	128.81
242.363	127.81
242.597	132.81
242.83	135.81
243.064	131.81
243.298	154.81
243.531	124.81
243.765	132.81
243.998	136.81
244.232	145.81
244.465	129.81
244.699	132.81
244.932	149.81
245.166	125.81
245.399	138.81
245.633	135.81
245.866	144.81
246.099	143.81
246.333	142.81
246.566	143.81
246.8	155.81
247.033	139.81
247.266	158.81
247.5	139.81
247.733	149.81
247.966	154.81
248.2	170.81
248.433	158.81
248.666	174.81
248.899	190.81
249.133	194.81
249.366	194.81
249.599	164.81
249.832	182.81
250.066	185.81
250.299	183.81
250.532	195.81
250.765	211.81
250.998	209.81
251.231	214.81
251.465	204.81
251.698	197.81
251.931	191.81
252.164	195.81
252.397	198.81
252.63	201.81
252.863	192.81
253.096	218.81
253.329	218.81
253.562	205.81
253.795	205.81
254.028	207.81
254.261	197.81
254.494	219.81
254.727	265.81
254.96	269.81
255.193	258.81
255.426	242.81
255.659	216.81
255.892	229.81
256.124	251.81
256.357	254.81
256.59	234.81
256.823	227.81
257.056	212.81
257.289	214.81
257.521	207.81
257.754	204.81
257.987	197.81
258.22	191.81
258.452	206.81
258.685	204.81
258.918	193.81
259.151	206.81
259.383	214.81
259.616	206.81
259.849	218.81
260.081	220.81
260.314	238.81
260.547	238.81
260.779	252.81
261.012	232.81
261.244	211.81
261.477	199.81
261.71	200.81
261.942	231.81
262.175	223.81
262.407	229.81
262.64	216.81
262.872	212.81
263.105	201.81
263.337	208.81
263.57	197.81
263.802	208.81
264.035	193.81
264.267	190.81
264.499	203.81
264.732	200.81
264.964	199.81
265.197	189.81
265.429	205.81
265.661	212.81
265.894	201.81
266.126	208.81
266.358	205.81
266.591	214.81
266.823	200.81
267.055	211.81
267.287	194.81
267.52	211.81
267.752	216.81
267.984	205.81
268.216	210.81
268.448	218.81
268.681	213.81
268.913	235.81
269.145	258.81
269.377	259.81
269.609	244.81
269.841	259.81
270.073	254.81
270.306	268.81
270.538	297.81
270.77	297.81
271.002	278.81
271.234	283.81
271.466	283.81
271.698	282.81
271.93	298.81
272.162	293.81
272.394	284.81
272.626	281.81
272.858	260.81
273.09	265.81
273.322	265.81
273.553	241.81
273.785	253.81
274.017	260.81
274.249	251.81
274.481	248.81
274.713	253.81
274.945	236.81
275.176	248.81
275.408	238.81
275.64	256.81
275.872	256.81
276.104	241.81
276.335	262.81
276.567	271.81
276.799	271.81
277.031	295.81
277.262	315.81
277.494	309.81
277.726	290.81
277.957	272.81
278.189	248.81
278.421	249.81
278.652	255.81
278.884	255.81
279.115	250.81
279.347	269.81
279.579	255.81
279.81	249.81
280.042	255.81
280.273	269.81
280.505	240.81
280.736	242.81
280.968	257.81
281.199	258.81
281.431	243.81
281.662	260.81
281.894	237.81
282.125	252.81
282.356	282.81
282.588	300.81
282.819	288.81
283.051	254.81
283.282	247.81
283.513	254.81
283.745	254.81
283.976	276.81
284.207	249.81
284.439	258.81
284.67	269.81
284.901	272.81
285.132	267.81
285.364	273.81
285.595	258.81
285.826	254.81
286.057	286.81
286.288	279.81
286.52	281.81
286.751	273.81
286.982	265.81
287.213	270.81
287.444	283.81
287.675	282.81
287.906	294.81
288.138	303.81
288.369	287.81
288.6	292.81
288.831	297.81
289.062	275.81
289.293	279.81
289.524	265.81
289.755	265.81
289.986	261.81
290.217	255.81
290.448	263.81
290.679	270.81
290.91	271.81
291.141	278.81
291.371	281.81
291.602	292.81
291.833	288.81
292.064	262.81
292.295	278.81
292.526	282.81
292.757	272.81
292.987	272.81
293.218	274.81
293.449	257.81
293.68	291.81
293.91	283.81
294.141	268.81
294.372	242.81
294.603	273.81
294.833	277.81
295.064	290.81
295.295	279.81
295.525	280.81
295.756	284.81
295.987	286.81
296.217	313.81
296.448	309.81
296.679	281.81
296.909	292.81
297.14	301.81
297.37	269.81
297.601	277.81
297.831	289.81
298.062	282.81
298.292	281.81
298.523	284.81
298.753	277.81
298.984	288.81
299.214	295.81
299.445	281.81
299.675	294.81
299.905	277.81
300.136	288.81
300.366	291.81
300.597	306.81
300.827	305.81
301.057	311.81
301.288	305.81
301.518	318.81
301.748	301.81
301.979	298.81
302.209	309.81
302.439	317.81
302.669	308.81
302.9	289.81
303.13	303.81
303.36	298.81
303.59	309.81
303.82	325.81
304.051	325.81
304.281	306.81
304.511	301.81
304.741	293.81
304.971	295.81
305.201	294.81
305.431	311.81
305.661	302.81
305.891	308.81
306.121	302.81
306.352	303.81
306.582	323.81
306.812	315.81
307.042	296.81
307.272	298.81
307.502	312.81
307.731	323.81
307.961	314.81
308.191	303.81
308.421	311.81
308.651	317.81
308.881	321.81
309.111	318.81
309.341	324.81
309.571	326.81
309.8	331.81
310.03	367.81
310.26	349.81
310.49	364.81
310.72	368.81
310.949	383.81
311.179	380.81
311.409	367.81
311.639	347.81
311.868	356.81
312.098	348.81
312.328	366.81
312.557	391.81
312.787	383.81
313.017	383.81
313.246	387.81
313.476	334.81
313.706	363.81
313.935	359.81
314.165	360.81
314.394	398.81
314.624	363.81
314.853	378.81
315.083	361.81
315.312	356.81
315.542	369.81
315.771	337.81
316.001	339.81
316.23	347.81
316.46	342.81
316.689	357.81
316.919	359.81
317.148	358.81
317.377	359.81
317.607	370.81
317.836	366.81
318.065	363.81
318.295	365.81
318.524	353.81
318.753	360.81
318.983	342.81
319.212	356.81
319.441	366.81
319.67	373.81
319.9	343.81
320.129	379.81
320.358	371.81
320.587	374.81
320.816	373.81
321.046	381.81
321.275	372.81
321.504	359.81
321.733	391.81
321.962	397.81
322.191	405.81
322.42	403.81
322.649	427.81
322.878	435.81
323.108	454.81
323.337	479.81
323.566	482.81
323.795	536.81
324.024	612.81
324.253	750.81
324.482	1037.81
324.71	1609.81
324.939	2157.81
325.168	1767.81
325.397	926.81
325.626	622.81
325.855	537.81
326.084	509.81
326.313	481.81
326.542	490.81
326.77	534.81
326.999	682.81
327.228	912.81
327.457	1349.81
327.686	1603.81
327.914	1081.81
328.143	701.81
328.372	655.81
328.6	632.81
328.829	586.81
329.058	586.81
329.287	586.81
329.515	555.81
329.744	510.81
329.972	521.81
330.201	582.81
330.43	611.81
330.658	623.81
330.887	636.81
331.115	603.81
331.344	512.81
331.572	491.81
331.801	471.81
332.03	475.81
332.258	462.81
332.486	444.81
332.715	425.81
332.943	433.81
333.172	439.81
333.4	441.81
333.629	474.81
333.857	455.81
334.085	496.81
334.314	531.81
334.542	582.81
334.771	613.81
334.999	527.81
335.227	461.81
335.455	457.81
335.684	442.81
335.912	407.81
336.14	412.81
336.369	435.81
336.597	436.81
336.825	434.81
337.053	428.81
337.281	405.81
337.51	412.81
337.738	417.81
337.966	415.81
338.194	427.81
338.422	415.81
338.65	417.81
338.878	417.81
339.106	411.81
339.334	413.81
339.562	403.81
339.79	387.81
340.018	421.81
340.246	415.81
340.474	394.81
340.702	405.81
340.93	413.81
341.158	394.81
341.386	375.81
341.614	410.81
341.842	401.81
342.07	396.81
342.298	385.81
342.526	395.81
342.754	376.81
342.981	385.81
343.209	376.81
343.437	386.81
343.665	398.81
343.893	424.81
344.12	425.81
344.348	400.81
344.576	409.81
344.804	430.81
345.031	396.81
345.259	435.81
345.487	413.81
345.714	401.81
345.942	414.81
346.17	401.81
346.397	394.81
346.625	372.81
346.853	383.81
347.08	367.81
347.308	393.81
347.535	396.81
347.763	387.81
347.99	397.81
348.218	417.81
348.445	410.81
348.673	389.81
348.9	399.81
349.128	386.81
349.355	385.81
349.583	380.81
349.81	371.81
350.037	383.81
350.265	366.81
350.492	371.81
350.72	365.81
350.947	373.81
351.174	397.81
351.402	405.81
351.629	377.81
351.856	407.81
352.083	404.81
352.311	390.81
352.538	416.81
352.765	398.81
352.992	406.81
353.22	396.81
353.447	386.81
353.674	390.81
353.901	373.81
354.128	363.81
354.355	345.81
354.583	358.81
354.81	396.81
355.037	360.81
355.264	371.81
355.491	345.81
355.718	369.81
355.945	337.81
356.172	363.81
356.399	365.81
356.626	349.81
356.853	365.81
357.08	349.81
357.307	356.81
357.534	350.81
357.761	349.81
357.988	381.81
358.215	353.81
358.441	353.81
358.668	355.81
358.895	354.81
359.122	372.81
359.349	371.81
359.576	388.81
359.802	417.81
360.029	437.81
360.256	451.81
360.483	425.81
360.709	411.81
360.936	395.81
361.163	391.81
361.39	391.81
361.616	393.81
361.843	383.81
362.07	383.81
362.296	379.81
362.523	398.81
362.749	362.81
362.976	377.81
363.203	362.81
363.429	368.81
363.656	365.81
363.882	364.81
364.109	370.81
364.335	365.81
364.562	345.81
364.788	375.81
365.015	376.81
365.241	365.81
365.468	370.81
365.694	372.81
365.92	371.81
366.147	378.81
366.373	373.81
366.599	369.81
366.826	348.81
367.052	369.81
367.278	365.81
367.505	362.81
367.731	371.81
367.957	373.81
368.184	351.81
368.41	366.81
368.636	379.81
368.862	381.81
369.089	374.81
369.315	383.81
369.541	371.81
369.767	365.81
369.993	364.81
370.219	361.81
370.445	356.81
370.672	360.81
370.898	350.81
371.124	347.81
371.35	351.81
371.576	379.81
371.802	373.81
372.028	346.81
372.254	336.81
372.48	369.81
372.706	363.81
372.932	331.81
373.158	348.81
373.384	378.81
373.61	363.81
373.835	354.81
374.061	347.81
374.287	357.81
374.513	369.81
374.739	357.81
374.965	377.81
375.191	375.81
375.416	372.81
375.642	366.81
375.868	372.81
376.094	366.81
376.319	325.81
376.545	356.81
376.771	366.81
376.997	371.81
377.222	353.81
377.448	359.81
377.674	351.81
377.899	343.81
378.125	354.81
378.35	369.81
378.576	364.81
378.802	329.81
379.027	348.81
379.253	367.81
379.478	335.81
379.704	353.81
379.929	346.81
380.155	341.81
380.38	343.81
380.606	363.81
380.831	336.81
381.057	364.81
381.282	365.81
381.507	378.81
381.733	360.81
381.958	359.81
382.184	380.81
382.409	367.81
382.634	336.81
382.86	353.81
383.085	363.81
383.31	363.81
383.535	378.81
383.761	358.81
383.986	375.81
384.211	381.81
384.436	364.81
384.662	360.81
384.887	382.81
385.112	383.81
385.337	380.81
385.562	375.81
385.787	383.81
386.013	377.81
386.238	395.81
386.463	395.81
386.688	370.81
386.913	380.81
387.138	379.81
387.363	376.81
387.588	390.81
387.813	381.81
388.038	393.81
388.263	380.81
388.488	363.81
388.713	381.81
388.938	377.81
389.163	378.81
389.387	369.81
389.612	376.81
389.837	394.81
390.062	391.81
390.287	376.81
390.512	370.81
390.736	378.81
390.961	397.81
391.186	405.81
391.411	383.81
391.636	395.81
391.86	379.81
392.085	408.81
392.31	395.81
392.534	408.81
392.759	397.81
392.984	373.81
393.208	395.81
393.433	381.81
393.658	383.81
393.882	366.81
394.107	383.81
394.331	389.81
394.556	385.81
394.78	393.81
395.005	379.81
395.229	380.81
395.454	393.81
395.678	388.81
395.903	401.81
396.127	408.81
396.352	407.81
396.576	407.81
396.801	395.81
397.025	388.81
397.249	399.81
397.474	399.81
397.698	410.81
397.922	413.81
398.147	402.81
398.371	427.81
398.595	413.81
398.82	421.81
399.044	443.81
399.268	453.81
399.492	468.81
399.717	483.81
399.941	486.81
400.165	517.81
400.389	515.81
400.613	476.81
400.837	458.81
401.062	451.81
401.286	437.81
401.51	435.81
401.734	458.81
401.958	437.81
402.182	426.81
402.406	441.81
402.63	455.81
402.854	423.81
403.078	452.81
403.302	439.81
403.526	427.81
403.75	449.81
403.974	457.81
404.198	467.81
404.422	457.81
404.645	478.81
404.869	482.81
405.093	503.81
405.317	531.81
405.541	574.81
405.765	525.81
405.988	484.81
406.212	475.81
406.436	497.81
406.66	501.81
406.883	510.81
407.107	502.81
407.331	534.81
407.555	595.81
407.778	569.81
408.002	539.81
408.226	525.81
408.449	507.81
408.673	481.81
408.896	505.81
409.12	536.81
409.344	517.81
409.567	465.81
409.791	459.81
410.014	434.81
410.238	462.81
410.461	444.81
410.685	452.81
410.908	469.81
411.132	509.81
411.355	490.81
411.578	485.81
411.802	466.81
412.025	437.81
412.249	446.81
412.472	481.81
412.695	509.81
412.919	502.81
413.142	455.81
413.365	470.81
413.589	456.81
413.812	429.81
414.035	439.81
414.258	418.81
414.482	421.81
414.705	446.81
414.928	428.81
415.151	425.81
415.374	432.81
415.597	417.81
415.821	441.81
416.044	440.81
416.267	417.81
416.49	412.81
416.713	397.81
416.936	436.81
417.159	430.81
417.382	430.81
417.605	426.81
417.828	428.81
418.051	431.81
418.274	431.81
418.497	421.81
418.72	442.81
418.943	433.81
419.166	436.81
419.389	454.81
419.611	439.81
419.834	463.81
420.057	428.81
420.28	477.81
420.503	443.81
420.726	454.81
420.948	470.81
421.171	476.81
421.394	482.81
421.617	444.81
421.839	428.81
422.062	453.81
422.285	473.81
422.507	507.81
422.73	568.81
422.953	537.81
423.175	469.81
423.398	478.81
423.621	462.81
423.843	473.81
424.066	477.81
424.288	463.81
424.511	485.81
424.733	522.81
424.956	578.81
425.178	579.81
425.401	558.81
425.623	567.81
425.846	499.81
426.068	474.81
426.291	471.81
426.513	484.81
426.735	499.81
426.958	506.81
427.18	599.81
427.402	681.81
427.625	763.81
427.847	706.81
428.069	615.81
428.292	513.81
428.514	510.81
428.736	467.81
428.958	485.81
429.181	450.81
429.403	466.81
429.625	461.81
429.847	458.81
430.069	555.81
430.292	545.81
430.514	456.81
430.736	444.81
430.958	426.81
431.18	435.81
431.402	413.81
431.624	410.81
431.846	405.81
432.068	399.81
432.29	400.81
432.512	407.81
432.734	425.81
432.956	415.81
433.178	455.81
433.4	439.81
433.622	444.81
433.844	414.81
434.066	404.81
434.287	401.81
434.509	424.81
434.731	403.81
434.953	443.81
435.175	472.81
435.397	487.81
435.618	465.81
435.84	524.81
436.062	591.81
436.284	624.81
436.505	519.81
436.727	486.81
436.949	458.81
437.17	432.81
437.392	435.81
437.614	471.81
437.835	474.81
438.057	605.81
438.278	644.81
438.5	645.81
438.721	679.81
438.943	651.81
439.165	537.81
439.386	487.81
439.608	491.81
439.829	483.81
440.05	528.81
440.272	549.81
440.493	497.81
440.715	469.81
440.936	454.81
441.158	451.81
441.379	459.81
441.6	484.81
441.822	494.81
442.043	515.81
442.264	573.81
442.486	599.81
442.707	522.81
442.928	484.81
443.149	505.81
443.371	519.81
443.592	545.81
443.813	627.81
444.034	658.81
444.255	548.81
444.476	505.81
444.698	475.81
444.919	469.81
445.14	565.81
445.361	528.81
445.582	518.81
445.803	609.81
446.024	661.81
446.245	641.81
446.466	595.81
446.687	520.81
446.908	474.81
447.129	456.81
447.35	457.81
447.571	423.81
447.792	450.81
448.013	460.81
448.234	470.81
448.455	518.81
448.675	599.81
448.896	682.81
449.117	587.81
449.338	565.81
449.559	639.81
449.779	681.81
450	581.81
450.221	482.81
450.442	461.81
450.662	429.81
450.883	440.81
451.104	476.81
451.324	430.81
451.545	433.81
451.766	422.81
451.986	400.81
452.207	389.81
452.428	403.81
452.648	420.81
452.869	434.81
453.089	416.81
453.31	427.81
453.53	413.81
453.751	399.81
453.971	411.81
454.192	423.81
454.412	402.81
454.633	411.81
454.853	403.81
455.073	389.81
455.294	442.81
455.514	471.81
455.734	464.81
455.955	425.81
456.175	395.81
456.395	380.81
456.616	353.81
456.836	383.81
457.056	355.81
457.276	373.81
457.497	369.81
457.717	359.81
457.937	391.81
458.157	392.81
458.377	403.81
458.598	407.81
458.818	454.81
459.038	541.81
459.258	551.81
459.478	445.81
459.698	432.81
459.918	417.81
460.138	417.81
460.358	410.81
460.578	408.81
460.798	428.81
461.018	427.81
461.238	426.81
461.458	411.81
461.678	427.81
461.898	426.81
462.118	427.81
462.338	430.81
462.558	423.81
462.777	434.81
462.997	428.81
463.217	439.81
463.437	456.81
463.657	451.81
463.876	465.81
464.096	430.81
464.316	461.81
464.536	439.81
464.755	478.81
464.975	487.81
465.195	518.81
465.414	596.81
465.634	494.81
465.854	458.81
466.073	421.81
466.293	438.81
466.512	412.81
466.732	408.81
466.951	403.81
467.171	403.81
467.391	403.81
467.61	421.81
467.829	426.81
468.049	433.81
468.268	439.81
468.488	412.81
468.707	411.81
468.927	397.81
469.146	413.81
469.365	394.81
469.585	411.81
469.804	409.81
470.023	405.81
470.243	429.81
470.462	426.81
470.681	430.81
470.901	452.81
471.12	437.81
471.339	436.81
471.558	424.81
471.777	446.81
471.997	411.81
472.216	433.81
472.435	509.81
472.654	482.81
472.873	426.81
473.092	414.81
473.311	407.81
473.53	427.81
473.749	425.81
473.968	461.81
474.187	579.81
474.406	566.81
474.625	461.81
474.844	451.81
475.063	402.81
475.282	421.81
475.501	418.81
475.72	414.81
475.939	410.81
476.158	410.81
476.377	416.81
476.596	420.81
476.814	458.81
477.033	433.81
477.252	433.81
477.471	437.81
477.69	442.81
477.908	459.81
478.127	467.81
478.346	456.81
478.564	464.81
478.783	449.81
479.002	465.81
479.22	473.81
479.439	478.81
479.658	476.81
479.876	521.81
480.095	489.81
480.313	528.81
480.532	527.81
480.751	515.81
480.969	538.81
481.188	635.81
481.406	726.81
481.624	604.81
481.843	554.81
482.061	516.81
482.28	526.81
482.498	507.81
482.717	513.81
482.935	494.81
483.153	487.81
483.372	493.81
483.59	487.81
483.808	474.81
484.027	502.81
484.245	476.81
484.463	491.81
484.681	504.81
484.9	505.81
485.118	513.81
485.336	498.81
485.554	487.81
485.772	494.81
485.99	512.81
486.209	528.81
486.427	498.81
486.645	534.81
486.863	540.81
487.081	509.81
487.299	524.81
487.517	525.81
487.735	509.81
487.953	547.81
488.171	543.81
488.389	531.81
488.607	545.81
488.825	541.81
489.043	544.81
489.261	533.81
489.479	554.81
489.696	531.81
489.914	542.81
490.132	547.81
490.35	551.81
490.568	573.81
490.786	561.81
491.003	590.81
491.221	585.81
491.439	599.81
491.657	616.81
491.874	618.81
492.092	616.81
492.31	627.81
492.527	627.81
492.745	641.81
492.963	619.81
493.18	639.81
493.398	625.81
493.615	626.81
493.833	625.81
494.05	630.81
494.268	618.81
494.485	635.81
494.703	604.81
494.92	631.81
495.138	623.81
495.355	621.81
495.573	628.81
495.79	620.81
496.008	608.81
496.225	616.81
496.442	602.81
496.66	608.81
496.877	631.81
497.094	620.81
497.312	634.81
497.529	636.81
497.746	648.81
497.963	672.81
498.181	677.81
498.398	655.81
498.615	670.81
498.832	686.81
499.049	690.81
499.267	699.81
499.484	725.81
499.701	749.81
499.918	754.81
500.135	777.81
500.352	810.81
500.569	793.81
500.786	819.81
501.003	821.81
501.22	796.81
501.437	787.81
501.654	763.81
501.871	750.81
