Data from 1983.PennyLincolnUp.Lamp.En5.5.200Scan.071819.P1_HRD10591_16-53-40-966.txt Node
Date: Thu Jul 18 16:53:40 EDT 2019
User: cochatt
Spectrometer: HR+D1059
Trigger mode: 1
Integration Time (sec): 1.000000E-1
Scans to average: 1
Electric dark correction enabled: true
Nonlinearity correction enabled: false
Boxcar width: 0
XAxis mode: Wavelengths
Number of Pixels in Spectrum: 2048
>>>>>Begin Spectral Data<<<<<
223.165	-6.69
223.4	-6.69
223.635	-6.69
223.869	-12.69
224.104	-23.69
224.338	-7.69
224.573	-0.69
224.808	-6.69
225.042	-18.69
225.277	-5.69
225.511	-15.69
225.746	5.31
225.98	-5.69
226.215	18.31
226.449	9.31
226.683	7.31
226.918	26.31
227.152	37.31
227.387	25.31
227.621	34.31
227.856	39.31
228.09	46.31
228.324	59.31
228.559	62.31
228.793	75.31
229.027	92.31
229.262	107.31
229.496	118.31
229.73	121.31
229.964	136.31
230.199	128.31
230.433	116.31
230.667	102.31
230.901	103.31
231.136	108.31
231.37	106.31
231.604	102.31
231.838	114.31
232.072	107.31
232.306	106.31
232.541	102.31
232.775	112.31
233.009	107.31
233.243	101.31
233.477	106.31
233.711	101.31
233.945	120.31
234.179	122.31
234.413	113.31
234.647	96.31
234.881	114.31
235.115	101.31
235.349	109.31
235.583	112.31
235.817	114.31
236.051	105.31
236.285	107.31
236.519	129.31
236.753	119.31
236.987	129.31
237.221	158.31
237.455	193.31
237.689	159.31
237.922	131.31
238.156	146.31
238.39	123.31
238.624	97.31
238.858	121.31
239.091	118.31
239.325	115.31
239.559	112.31
239.793	131.31
240.027	128.31
240.26	139.31
240.494	141.31
240.728	141.31
240.961	126.31
241.195	121.31
241.429	123.31
241.662	131.31
241.896	124.31
242.13	119.31
242.363	121.31
242.597	120.31
242.83	132.31
243.064	144.31
243.298	129.31
243.531	135.31
243.765	139.31
243.998	119.31
244.232	120.31
244.465	136.31
244.699	120.31
244.932	117.31
245.166	130.31
245.399	135.31
245.633	134.31
245.866	117.31
246.099	119.31
246.333	130.31
246.566	131.31
246.8	137.31
247.033	149.31
247.266	134.31
247.5	145.31
247.733	150.31
247.966	167.31
248.2	144.31
248.433	156.31
248.666	161.31
248.899	168.31
249.133	188.31
249.366	194.31
249.599	191.31
249.832	172.31
250.066	168.31
250.299	153.31
250.532	164.31
250.765	181.31
250.998	190.31
251.231	201.31
251.465	184.31
251.698	188.31
251.931	176.31
252.164	180.31
252.397	166.31
252.63	161.31
252.863	179.31
253.096	190.31
253.329	203.31
253.562	211.31
253.795	196.31
254.028	188.31
254.261	189.31
254.494	205.31
254.727	228.31
254.96	248.31
255.193	234.31
255.426	219.31
255.659	207.31
255.892	201.31
256.124	188.31
256.357	189.31
256.59	202.31
256.823	195.31
257.056	195.31
257.289	209.31
257.521	192.31
257.754	180.31
257.987	193.31
258.22	181.31
258.452	186.31
258.685	194.31
258.918	192.31
259.151	193.31
259.383	212.31
259.616	212.31
259.849	217.31
260.081	210.31
260.314	218.31
260.547	228.31
260.779	216.31
261.012	225.31
261.244	205.31
261.477	214.31
261.71	200.31
261.942	223.31
262.175	227.31
262.407	215.31
262.64	209.31
262.872	201.31
263.105	188.31
263.337	184.31
263.57	199.31
263.802	203.31
264.035	211.31
264.267	198.31
264.499	199.31
264.732	199.31
264.964	185.31
265.197	196.31
265.429	189.31
265.661	194.31
265.894	201.31
266.126	203.31
266.358	193.31
266.591	192.31
266.823	213.31
267.055	188.31
267.287	210.31
267.52	200.31
267.752	200.31
267.984	208.31
268.216	200.31
268.448	215.31
268.681	206.31
268.913	227.31
269.145	233.31
269.377	253.31
269.609	242.31
269.841	242.31
270.073	247.31
270.306	259.31
270.538	292.31
270.77	281.31
271.002	270.31
271.234	264.31
271.466	259.31
271.698	293.31
271.93	291.31
272.162	281.31
272.394	283.31
272.626	275.31
272.858	275.31
273.09	246.31
273.322	251.31
273.553	251.31
273.785	240.31
274.017	234.31
274.249	257.31
274.481	244.31
274.713	247.31
274.945	261.31
275.176	225.31
275.408	247.31
275.64	221.31
275.872	257.31
276.104	237.31
276.335	243.31
276.567	255.31
276.799	241.31
277.031	266.31
277.262	279.31
277.494	292.31
277.726	276.31
277.957	255.31
278.189	251.31
278.421	246.31
278.652	245.31
278.884	242.31
279.115	246.31
279.347	248.31
279.579	251.31
279.81	251.31
280.042	258.31
280.273	235.31
280.505	228.31
280.736	235.31
280.968	223.31
281.199	232.31
281.431	256.31
281.662	239.31
281.894	244.31
282.125	253.31
282.356	244.31
282.588	272.31
282.819	289.31
283.051	264.31
283.282	250.31
283.513	241.31
283.745	239.31
283.976	246.31
284.207	252.31
284.439	254.31
284.67	255.31
284.901	255.31
285.132	232.31
285.364	248.31
285.595	257.31
285.826	256.31
286.057	261.31
286.288	254.31
286.52	244.31
286.751	259.31
286.982	257.31
287.213	268.31
287.444	248.31
287.675	251.31
287.906	264.31
288.138	279.31
288.369	279.31
288.6	267.31
288.831	257.31
289.062	274.31
289.293	257.31
289.524	262.31
289.755	266.31
289.986	239.31
290.217	260.31
290.448	258.31
290.679	244.31
290.91	268.31
291.141	251.31
291.371	264.31
291.602	270.31
291.833	260.31
292.064	250.31
292.295	260.31
292.526	243.31
292.757	275.31
292.987	254.31
293.218	257.31
293.449	266.31
293.68	281.31
293.91	266.31
294.141	259.31
294.372	261.31
294.603	252.31
294.833	259.31
295.064	278.31
295.295	257.31
295.525	263.31
295.756	265.31
295.987	282.31
296.217	287.31
296.448	316.31
296.679	277.31
296.909	273.31
297.14	278.31
297.37	275.31
297.601	259.31
297.831	284.31
298.062	261.31
298.292	265.31
298.523	271.31
298.753	272.31
298.984	273.31
299.214	278.31
299.445	273.31
299.675	277.31
299.905	283.31
300.136	279.31
300.366	285.31
300.597	293.31
300.827	299.31
301.057	295.31
301.288	294.31
301.518	305.31
301.748	282.31
301.979	291.31
302.209	303.31
302.439	296.31
302.669	305.31
302.9	278.31
303.13	283.31
303.36	284.31
303.59	311.31
303.82	305.31
304.051	315.31
304.281	297.31
304.511	293.31
304.741	291.31
304.971	306.31
305.201	297.31
305.431	285.31
305.661	288.31
305.891	289.31
306.121	297.31
306.352	298.31
306.582	329.31
306.812	291.31
307.042	285.31
307.272	307.31
307.502	295.31
307.731	304.31
307.961	315.31
308.191	289.31
308.421	297.31
308.651	297.31
308.881	299.31
309.111	308.31
309.341	320.31
309.571	337.31
309.8	355.31
310.03	359.31
310.26	337.31
310.49	349.31
310.72	357.31
310.949	350.31
311.179	354.31
311.409	341.31
311.639	347.31
311.868	319.31
312.098	349.31
312.328	364.31
312.557	357.31
312.787	386.31
313.017	377.31
313.246	365.31
313.476	354.31
313.706	339.31
313.935	336.31
314.165	355.31
314.394	376.31
314.624	357.31
314.853	350.31
315.083	342.31
315.312	324.31
315.542	342.31
315.771	346.31
316.001	337.31
316.23	338.31
316.46	324.31
316.689	348.31
316.919	351.31
317.148	337.31
317.377	352.31
317.607	347.31
317.836	331.31
318.065	352.31
318.295	331.31
318.524	359.31
318.753	343.31
318.983	350.31
319.212	348.31
319.441	354.31
319.67	342.31
319.9	343.31
320.129	361.31
320.358	360.31
320.587	367.31
320.816	345.31
321.046	376.31
321.275	389.31
321.504	373.31
321.733	363.31
321.962	375.31
322.191	383.31
322.42	405.31
322.649	422.31
322.878	403.31
323.108	424.31
323.337	427.31
323.566	465.31
323.795	483.31
324.024	556.31
324.253	663.31
324.482	977.31
324.71	1474.31
324.939	1976.31
325.168	1626.31
325.397	896.31
325.626	595.31
325.855	504.31
326.084	463.31
326.313	494.31
326.542	492.31
326.77	512.31
326.999	633.31
327.228	845.31
327.457	1252.31
327.686	1474.31
327.914	998.31
328.143	680.31
328.372	600.31
328.6	554.31
328.829	518.31
329.058	530.31
329.287	540.31
329.515	495.31
329.744	475.31
329.972	439.31
330.201	457.31
330.43	497.31
330.658	497.31
330.887	564.31
331.115	535.31
331.344	467.31
331.572	453.31
331.801	455.31
332.03	456.31
332.258	429.31
332.486	413.31
332.715	428.31
332.943	407.31
333.172	405.31
333.4	383.31
333.629	406.31
333.857	431.31
334.085	446.31
334.314	423.31
334.542	453.31
334.771	449.31
334.999	435.31
335.227	412.31
335.455	416.31
335.684	388.31
335.912	414.31
336.14	398.31
336.369	404.31
336.597	409.31
336.825	419.31
337.053	396.31
337.281	384.31
337.51	393.31
337.738	389.31
337.966	400.31
338.194	410.31
338.422	393.31
338.65	388.31
338.878	375.31
339.106	372.31
339.334	380.31
339.562	374.31
339.79	378.31
340.018	380.31
340.246	372.31
340.474	388.31
340.702	386.31
340.93	389.31
341.158	400.31
341.386	388.31
341.614	387.31
341.842	408.31
342.07	377.31
342.298	391.31
342.526	373.31
342.754	377.31
342.981	377.31
343.209	378.31
343.437	398.31
343.665	372.31
343.893	390.31
344.12	377.31
344.348	378.31
344.576	383.31
344.804	404.31
345.031	422.31
345.259	416.31
345.487	404.31
345.714	380.31
345.942	383.31
346.17	367.31
346.397	379.31
346.625	381.31
346.853	375.31
347.08	374.31
347.308	370.31
347.535	389.31
347.763	378.31
347.99	398.31
348.218	390.31
348.445	388.31
348.673	385.31
348.9	372.31
349.128	378.31
349.355	368.31
349.583	367.31
349.81	359.31
350.037	360.31
350.265	375.31
350.492	377.31
350.72	381.31
350.947	392.31
351.174	400.31
351.402	405.31
351.629	380.31
351.856	366.31
352.083	387.31
352.311	369.31
352.538	401.31
352.765	379.31
352.992	383.31
353.22	372.31
353.447	389.31
353.674	360.31
353.901	343.31
354.128	355.31
354.355	349.31
354.583	355.31
354.81	357.31
355.037	348.31
355.264	342.31
355.491	326.31
355.718	347.31
355.945	354.31
356.172	345.31
356.399	324.31
356.626	321.31
356.853	351.31
357.08	327.31
357.307	353.31
357.534	325.31
357.761	340.31
357.988	343.31
358.215	346.31
358.441	354.31
358.668	324.31
358.895	335.31
359.122	358.31
359.349	359.31
359.576	388.31
359.802	399.31
360.029	394.31
360.256	426.31
360.483	417.31
360.709	372.31
360.936	383.31
361.163	379.31
361.39	382.31
361.616	381.31
361.843	370.31
362.07	371.31
362.296	363.31
362.523	383.31
362.749	363.31
362.976	360.31
363.203	349.31
363.429	364.31
363.656	372.31
363.882	367.31
364.109	354.31
364.335	339.31
364.562	356.31
364.788	355.31
365.015	370.31
365.241	345.31
365.468	336.31
365.694	372.31
365.92	362.31
366.147	364.31
366.373	356.31
366.599	354.31
366.826	360.31
367.052	335.31
367.278	355.31
367.505	359.31
367.731	368.31
367.957	354.31
368.184	353.31
368.41	353.31
368.636	363.31
368.862	377.31
369.089	367.31
369.315	347.31
369.541	360.31
369.767	341.31
369.993	345.31
370.219	326.31
370.445	336.31
370.672	348.31
370.898	341.31
371.124	338.31
371.35	333.31
371.576	361.31
371.802	345.31
372.028	330.31
372.254	337.31
372.48	356.31
372.706	331.31
372.932	343.31
373.158	347.31
373.384	362.31
373.61	352.31
373.835	350.31
374.061	349.31
374.287	367.31
374.513	357.31
374.739	340.31
374.965	357.31
375.191	361.31
375.416	330.31
375.642	352.31
375.868	342.31
376.094	356.31
376.319	338.31
376.545	351.31
376.771	352.31
376.997	333.31
377.222	361.31
377.448	331.31
377.674	341.31
377.899	341.31
378.125	348.31
378.35	355.31
378.576	356.31
378.802	352.31
379.027	358.31
379.253	346.31
379.478	335.31
379.704	337.31
379.929	346.31
380.155	343.31
380.38	368.31
380.606	350.31
380.831	344.31
381.057	342.31
381.282	353.31
381.507	355.31
381.733	360.31
381.958	343.31
382.184	344.31
382.409	359.31
382.634	349.31
382.86	342.31
383.085	371.31
383.31	358.31
383.535	353.31
383.761	368.31
383.986	368.31
384.211	358.31
384.436	355.31
384.662	350.31
384.887	361.31
385.112	364.31
385.337	384.31
385.562	380.31
385.787	367.31
386.013	370.31
386.238	371.31
386.463	377.31
386.688	374.31
386.913	376.31
387.138	350.31
387.363	364.31
387.588	369.31
387.813	361.31
388.038	381.31
388.263	389.31
388.488	386.31
388.713	385.31
388.938	363.31
389.163	361.31
389.387	384.31
389.612	375.31
389.837	371.31
390.062	388.31
390.287	386.31
390.512	372.31
390.736	371.31
390.961	365.31
391.186	381.31
391.411	383.31
391.636	389.31
391.86	380.31
392.085	394.31
392.31	377.31
392.534	403.31
392.759	373.31
392.984	384.31
393.208	368.31
393.433	370.31
393.658	375.31
393.882	372.31
394.107	375.31
394.331	369.31
394.556	380.31
394.78	369.31
395.005	376.31
395.229	379.31
395.454	376.31
395.678	390.31
395.903	383.31
396.127	400.31
396.352	411.31
396.576	380.31
396.801	402.31
397.025	382.31
397.249	377.31
397.474	381.31
397.698	394.31
397.922	402.31
398.147	413.31
398.371	423.31
398.595	421.31
398.82	405.31
399.044	434.31
399.268	445.31
399.492	476.31
399.717	482.31
399.941	488.31
400.165	499.31
400.389	517.31
400.613	441.31
400.837	468.31
401.062	439.31
401.286	415.31
401.51	420.31
401.734	432.31
401.958	428.31
402.182	444.31
402.406	421.31
402.63	433.31
402.854	431.31
403.078	435.31
403.302	439.31
403.526	435.31
403.75	413.31
403.974	423.31
404.198	436.31
404.422	429.31
404.645	443.31
404.869	433.31
405.093	474.31
405.317	490.31
405.541	515.31
405.765	459.31
405.988	479.31
406.212	470.31
406.436	491.31
406.66	496.31
406.883	482.31
407.107	499.31
407.331	515.31
407.555	551.31
407.778	571.31
408.002	514.31
408.226	480.31
408.449	469.31
408.673	470.31
408.896	497.31
409.12	515.31
409.344	498.31
409.567	450.31
409.791	434.31
410.014	429.31
410.238	440.31
410.461	437.31
410.685	434.31
410.908	453.31
411.132	478.31
411.355	518.31
411.578	480.31
411.802	462.31
412.025	419.31
412.249	444.31
412.472	443.31
412.695	458.31
412.919	452.31
413.142	427.31
413.365	409.31
413.589	426.31
413.812	409.31
414.035	405.31
414.258	396.31
414.482	409.31
414.705	411.31
414.928	416.31
415.151	400.31
415.374	416.31
415.597	402.31
415.821	425.31
416.044	395.31
416.267	428.31
416.49	389.31
416.713	401.31
416.936	413.31
417.159	392.31
417.382	401.31
417.605	419.31
417.828	429.31
418.051	426.31
418.274	427.31
418.497	417.31
418.72	421.31
418.943	412.31
419.166	436.31
419.389	443.31
419.611	433.31
419.834	428.31
420.057	433.31
420.28	420.31
420.503	404.31
420.726	441.31
420.948	460.31
421.171	476.31
421.394	484.31
421.617	465.31
421.839	441.31
422.062	435.31
422.285	453.31
422.507	509.31
422.73	547.31
422.953	495.31
423.175	451.31
423.398	450.31
423.621	448.31
423.843	470.31
424.066	462.31
424.288	442.31
424.511	466.31
424.733	541.31
424.956	575.31
425.178	547.31
425.401	538.31
425.623	571.31
425.846	495.31
426.068	466.31
426.291	453.31
426.513	459.31
426.735	470.31
426.958	501.31
427.18	569.31
427.402	660.31
427.625	732.31
427.847	642.31
428.069	567.31
428.292	502.31
428.514	464.31
428.736	460.31
428.958	457.31
429.181	445.31
429.403	448.31
429.625	421.31
429.847	468.31
430.069	500.31
430.292	510.31
430.514	433.31
430.736	429.31
430.958	426.31
431.18	401.31
431.402	419.31
431.624	392.31
431.846	401.31
432.068	398.31
432.29	405.31
432.512	410.31
432.734	422.31
432.956	392.31
433.178	432.31
433.4	415.31
433.622	407.31
433.844	394.31
434.066	415.31
434.287	404.31
434.509	408.31
434.731	435.31
434.953	413.31
435.175	427.31
435.397	460.31
435.618	477.31
435.84	484.31
436.062	576.31
436.284	603.31
436.505	499.31
436.727	463.31
436.949	445.31
437.17	446.31
437.392	442.31
437.614	441.31
437.835	478.31
438.057	567.31
438.278	639.31
438.5	619.31
438.721	651.31
438.943	631.31
439.165	534.31
439.386	489.31
439.608	467.31
439.829	481.31
440.05	518.31
440.272	531.31
440.493	502.31
440.715	475.31
440.936	419.31
441.158	443.31
441.379	433.31
441.6	454.31
441.822	451.31
442.043	526.31
442.264	557.31
442.486	588.31
442.707	500.31
442.928	492.31
443.149	513.31
443.371	519.31
443.592	553.31
443.813	612.31
444.034	641.31
444.255	531.31
444.476	459.31
444.698	482.31
444.919	473.31
445.14	560.31
445.361	535.31
445.582	511.31
445.803	568.31
446.024	625.31
446.245	642.31
446.466	571.31
446.687	517.31
446.908	465.31
447.129	435.31
447.35	419.31
447.571	417.31
447.792	443.31
448.013	437.31
448.234	476.31
448.455	491.31
448.675	566.31
448.896	619.31
449.117	557.31
449.338	530.31
449.559	613.31
449.779	685.31
450	556.31
450.221	465.31
450.442	447.31
450.662	427.31
450.883	440.31
451.104	459.31
451.324	446.31
451.545	396.31
451.766	403.31
451.986	388.31
452.207	398.31
452.428	396.31
452.648	401.31
452.869	375.31
453.089	380.31
453.31	413.31
453.53	416.31
453.751	395.31
453.971	395.31
454.192	415.31
454.412	409.31
454.633	389.31
454.853	387.31
455.073	388.31
455.294	412.31
455.514	442.31
455.734	458.31
455.955	392.31
456.175	377.31
456.395	360.31
456.616	359.31
456.836	348.31
457.056	370.31
457.276	356.31
457.497	360.31
457.717	372.31
457.937	361.31
458.157	398.31
458.377	381.31
458.598	401.31
458.818	460.31
459.038	531.31
459.258	522.31
459.478	456.31
459.698	425.31
459.918	405.31
460.138	405.31
460.358	391.31
460.578	431.31
460.798	397.31
461.018	414.31
461.238	431.31
461.458	411.31
461.678	433.31
461.898	429.31
462.118	408.31
462.338	425.31
462.558	413.31
462.777	409.31
462.997	426.31
463.217	415.31
463.437	435.31
463.657	435.31
463.876	437.31
464.096	449.31
464.316	436.31
464.536	458.31
464.755	434.31
464.975	466.31
465.195	497.31
465.414	561.31
465.634	465.31
465.854	457.31
466.073	436.31
466.293	408.31
466.512	403.31
466.732	378.31
466.951	397.31
467.171	396.31
467.391	395.31
467.61	409.31
467.829	410.31
468.049	414.31
468.268	387.31
468.488	385.31
468.707	375.31
468.927	397.31
469.146	375.31
469.365	404.31
469.585	378.31
469.804	409.31
470.023	413.31
470.243	418.31
470.462	415.31
470.681	417.31
470.901	440.31
471.12	430.31
471.339	391.31
471.558	409.31
471.777	388.31
471.997	386.31
472.216	393.31
472.435	407.31
472.654	416.31
472.873	393.31
473.092	398.31
473.311	401.31
473.53	391.31
473.749	407.31
473.968	455.31
474.187	538.31
474.406	524.31
474.625	440.31
474.844	413.31
475.063	415.31
475.282	411.31
475.501	405.31
475.72	414.31
475.939	401.31
476.158	387.31
476.377	407.31
476.596	392.31
476.814	433.31
477.033	420.31
477.252	433.31
477.471	403.31
477.69	423.31
477.908	437.31
478.127	442.31
478.346	445.31
478.564	432.31
478.783	435.31
479.002	432.31
479.22	437.31
479.439	460.31
479.658	490.31
479.876	472.31
480.095	473.31
480.313	509.31
480.532	496.31
480.751	482.31
480.969	483.31
481.188	512.31
481.406	502.31
481.624	502.31
481.843	481.31
482.061	479.31
482.28	469.31
482.498	439.31
482.717	456.31
482.935	473.31
483.153	460.31
483.372	475.31
483.59	490.31
483.808	489.31
484.027	445.31
484.245	466.31
484.463	467.31
484.681	483.31
484.9	457.31
485.118	488.31
485.336	468.31
485.554	481.31
485.772	479.31
485.99	472.31
486.209	476.31
486.427	490.31
486.645	504.31
486.863	511.31
487.081	526.31
487.299	508.31
487.517	524.31
487.735	518.31
487.953	493.31
488.171	477.31
488.389	511.31
488.607	505.31
488.825	519.31
489.043	512.31
489.261	528.31
489.479	496.31
489.696	514.31
489.914	489.31
490.132	517.31
490.35	503.31
490.568	550.31
490.786	540.31
491.003	542.31
491.221	553.31
491.439	568.31
491.657	555.31
491.874	561.31
492.092	550.31
492.31	561.31
492.527	581.31
492.745	580.31
492.963	588.31
493.18	575.31
493.398	591.31
493.615	609.31
493.833	602.31
494.05	613.31
494.268	575.31
494.485	585.31
494.703	586.31
494.92	590.31
495.138	607.31
495.355	597.31
495.573	591.31
495.79	590.31
496.008	586.31
496.225	599.31
496.442	615.31
496.66	604.31
496.877	601.31
497.094	593.31
497.312	590.31
497.529	604.31
497.746	627.31
497.963	633.31
498.181	631.31
498.398	638.31
498.615	651.31
498.832	643.31
499.049	679.31
499.267	657.31
499.484	693.31
499.701	708.31
499.918	738.31
500.135	747.31
500.352	795.31
500.569	791.31
500.786	792.31
501.003	802.31
501.22	768.31
501.437	770.31
501.654	763.31
501.871	724.31
502.088	707.31
