Data from 1983.PennyLincolnUp.Lamp.En5.5.200Scan.071819.P1_HRD10591_16-52-43-965.txt Node
Date: Thu Jul 18 16:52:43 EDT 2019
User: cochatt
Spectrometer: HR+D1059
Trigger mode: 1
Integration Time (sec): 1.000000E-1
Scans to average: 1
Electric dark correction enabled: true
Nonlinearity correction enabled: false
Boxcar width: 0
XAxis mode: Wavelengths
Number of Pixels in Spectrum: 2048
>>>>>Begin Spectral Data<<<<<
223.165	-4.19
223.4	-4.19
223.635	-4.19
223.869	-13.19
224.104	-20.19
224.338	-15.19
224.573	-9.19
224.808	-27.19
225.042	-13.19
225.277	0.81
225.511	0.81
225.746	2.81
225.98	-1.19
226.215	13.81
226.449	22.81
226.683	20.81
226.918	12.81
227.152	28.81
227.387	32.81
227.621	32.81
227.856	37.81
228.09	54.81
228.324	61.81
228.559	69.81
228.793	57.81
229.027	77.81
229.262	97.81
229.496	113.81
229.73	121.81
229.964	150.81
230.199	123.81
230.433	98.81
230.667	100.81
230.901	94.81
231.136	102.81
231.37	98.81
231.604	87.81
231.838	110.81
232.072	119.81
232.306	106.81
232.541	113.81
232.775	104.81
233.009	96.81
233.243	94.81
233.477	97.81
233.711	107.81
233.945	101.81
234.179	107.81
234.413	105.81
234.647	123.81
234.881	108.81
235.115	123.81
235.349	114.81
235.583	109.81
235.817	107.81
236.051	113.81
236.285	116.81
236.519	105.81
236.753	131.81
236.987	132.81
237.221	162.81
237.455	198.81
237.689	150.81
237.922	128.81
238.156	129.81
238.39	124.81
238.624	100.81
238.858	116.81
239.091	112.81
239.325	118.81
239.559	121.81
239.793	108.81
240.027	123.81
240.26	134.81
240.494	137.81
240.728	129.81
240.961	131.81
241.195	125.81
241.429	125.81
241.662	110.81
241.896	134.81
242.13	122.81
242.363	104.81
242.597	112.81
242.83	125.81
243.064	120.81
243.298	132.81
243.531	115.81
243.765	132.81
243.998	122.81
244.232	130.81
244.465	128.81
244.699	126.81
244.932	138.81
245.166	115.81
245.399	138.81
245.633	130.81
245.866	117.81
246.099	130.81
246.333	136.81
246.566	138.81
246.8	133.81
247.033	139.81
247.266	137.81
247.5	139.81
247.733	147.81
247.966	128.81
248.2	152.81
248.433	154.81
248.666	150.81
248.899	168.81
249.133	171.81
249.366	168.81
249.599	193.81
249.832	164.81
250.066	172.81
250.299	149.81
250.532	178.81
250.765	174.81
250.998	203.81
251.231	193.81
251.465	193.81
251.698	162.81
251.931	174.81
252.164	172.81
252.397	168.81
252.63	190.81
252.863	193.81
253.096	172.81
253.329	201.81
253.562	194.81
253.795	193.81
254.028	189.81
254.261	195.81
254.494	189.81
254.727	220.81
254.96	236.81
255.193	223.81
255.426	217.81
255.659	196.81
255.892	184.81
256.124	187.81
256.357	178.81
256.59	174.81
256.823	183.81
257.056	192.81
257.289	184.81
257.521	182.81
257.754	192.81
257.987	194.81
258.22	185.81
258.452	190.81
258.685	195.81
258.918	193.81
259.151	196.81
259.383	205.81
259.616	211.81
259.849	195.81
260.081	196.81
260.314	220.81
260.547	228.81
260.779	213.81
261.012	195.81
261.244	203.81
261.477	199.81
261.71	182.81
261.942	192.81
262.175	211.81
262.407	197.81
262.64	184.81
262.872	188.81
263.105	172.81
263.337	185.81
263.57	192.81
263.802	186.81
264.035	174.81
264.267	183.81
264.499	177.81
264.732	202.81
264.964	194.81
265.197	195.81
265.429	181.81
265.661	197.81
265.894	199.81
266.126	192.81
266.358	199.81
266.591	192.81
266.823	193.81
267.055	194.81
267.287	190.81
267.52	192.81
267.752	204.81
267.984	197.81
268.216	203.81
268.448	205.81
268.681	220.81
268.913	224.81
269.145	232.81
269.377	226.81
269.609	247.81
269.841	234.81
270.073	236.81
270.306	259.81
270.538	252.81
270.77	261.81
271.002	266.81
271.234	264.81
271.466	269.81
271.698	277.81
271.93	283.81
272.162	287.81
272.394	272.81
272.626	255.81
272.858	272.81
273.09	252.81
273.322	247.81
273.553	233.81
273.785	235.81
274.017	221.81
274.249	233.81
274.481	235.81
274.713	242.81
274.945	237.81
275.176	238.81
275.408	233.81
275.64	226.81
275.872	242.81
276.104	231.81
276.335	222.81
276.567	233.81
276.799	263.81
277.031	263.81
277.262	281.81
277.494	267.81
277.726	267.81
277.957	267.81
278.189	266.81
278.421	250.81
278.652	241.81
278.884	212.81
279.115	226.81
279.347	242.81
279.579	230.81
279.81	230.81
280.042	216.81
280.273	228.81
280.505	225.81
280.736	249.81
280.968	225.81
281.199	217.81
281.431	238.81
281.662	230.81
281.894	243.81
282.125	245.81
282.356	262.81
282.588	267.81
282.819	235.81
283.051	253.81
283.282	236.81
283.513	249.81
283.745	234.81
283.976	238.81
284.207	247.81
284.439	249.81
284.67	246.81
284.901	246.81
285.132	243.81
285.364	235.81
285.595	240.81
285.826	229.81
286.057	240.81
286.288	234.81
286.52	257.81
286.751	244.81
286.982	234.81
287.213	244.81
287.444	246.81
287.675	244.81
287.906	250.81
288.138	260.81
288.369	275.81
288.6	253.81
288.831	270.81
289.062	255.81
289.293	258.81
289.524	264.81
289.755	256.81
289.986	244.81
290.217	233.81
290.448	247.81
290.679	249.81
290.91	250.81
291.141	275.81
291.371	262.81
291.602	258.81
291.833	242.81
292.064	254.81
292.295	259.81
292.526	258.81
292.757	241.81
292.987	242.81
293.218	259.81
293.449	256.81
293.68	260.81
293.91	244.81
294.141	253.81
294.372	251.81
294.603	246.81
294.833	249.81
295.064	274.81
295.295	262.81
295.525	245.81
295.756	252.81
295.987	273.81
296.217	274.81
296.448	278.81
296.679	273.81
296.909	256.81
297.14	277.81
297.37	277.81
297.601	268.81
297.831	270.81
298.062	262.81
298.292	233.81
298.523	276.81
298.753	273.81
298.984	260.81
299.214	274.81
299.445	273.81
299.675	276.81
299.905	286.81
300.136	281.81
300.366	262.81
300.597	275.81
300.827	288.81
301.057	280.81
301.288	286.81
301.518	293.81
301.748	289.81
301.979	268.81
302.209	278.81
302.439	272.81
302.669	282.81
302.9	286.81
303.13	305.81
303.36	277.81
303.59	286.81
303.82	308.81
304.051	303.81
304.281	291.81
304.511	288.81
304.741	284.81
304.971	281.81
305.201	292.81
305.431	294.81
305.661	289.81
305.891	294.81
306.121	283.81
306.352	291.81
306.582	295.81
306.812	297.81
307.042	287.81
307.272	284.81
307.502	284.81
307.731	292.81
307.961	288.81
308.191	290.81
308.421	304.81
308.651	280.81
308.881	292.81
309.111	312.81
309.341	297.81
309.571	311.81
309.8	323.81
310.03	309.81
310.26	320.81
310.49	314.81
310.72	324.81
310.949	332.81
311.179	366.81
311.409	332.81
311.639	328.81
311.868	338.81
312.098	331.81
312.328	347.81
312.557	349.81
312.787	357.81
313.017	338.81
313.246	336.81
313.476	335.81
313.706	338.81
313.935	340.81
314.165	344.81
314.394	354.81
314.624	342.81
314.853	334.81
315.083	333.81
315.312	334.81
315.542	328.81
315.771	318.81
316.001	333.81
316.23	317.81
316.46	326.81
316.689	334.81
316.919	323.81
317.148	331.81
317.377	337.81
317.607	355.81
317.836	338.81
318.065	342.81
318.295	332.81
318.524	329.81
318.753	322.81
318.983	335.81
319.212	322.81
319.441	338.81
319.67	343.81
319.9	336.81
320.129	335.81
320.358	339.81
320.587	352.81
320.816	318.81
321.046	327.81
321.275	363.81
321.504	352.81
321.733	345.81
321.962	339.81
322.191	346.81
322.42	375.81
322.649	386.81
322.878	404.81
323.108	376.81
323.337	410.81
323.566	433.81
323.795	450.81
324.024	512.81
324.253	605.81
324.482	860.81
324.71	1280.81
324.939	1747.81
325.168	1440.81
325.397	796.81
325.626	551.81
325.855	446.81
326.084	454.81
326.313	436.81
326.542	423.81
326.77	469.81
326.999	540.81
327.228	782.81
327.457	1111.81
327.686	1284.81
327.914	864.81
328.143	592.81
328.372	509.81
328.6	486.81
328.829	449.81
329.058	508.81
329.287	500.81
329.515	457.81
329.744	421.81
329.972	411.81
330.201	436.81
330.43	454.81
330.658	461.81
330.887	516.81
331.115	520.81
331.344	458.81
331.572	413.81
331.801	430.81
332.03	423.81
332.258	413.81
332.486	379.81
332.715	364.81
332.943	373.81
333.172	386.81
333.4	388.81
333.629	412.81
333.857	406.81
334.085	384.81
334.314	400.81
334.542	382.81
334.771	402.81
334.999	384.81
335.227	399.81
335.455	378.81
335.684	389.81
335.912	388.81
336.14	381.81
336.369	388.81
336.597	388.81
336.825	391.81
337.053	380.81
337.281	387.81
337.51	384.81
337.738	370.81
337.966	374.81
338.194	383.81
338.422	380.81
338.65	366.81
338.878	370.81
339.106	367.81
339.334	381.81
339.562	368.81
339.79	357.81
340.018	369.81
340.246	368.81
340.474	371.81
340.702	372.81
340.93	390.81
341.158	352.81
341.386	365.81
341.614	365.81
341.842	365.81
342.07	364.81
342.298	368.81
342.526	357.81
342.754	348.81
342.981	355.81
343.209	365.81
343.437	362.81
343.665	362.81
343.893	390.81
344.12	380.81
344.348	380.81
344.576	358.81
344.804	373.81
345.031	377.81
345.259	371.81
345.487	391.81
345.714	380.81
345.942	362.81
346.17	362.81
346.397	356.81
346.625	350.81
346.853	339.81
347.08	368.81
347.308	363.81
347.535	366.81
347.763	362.81
347.99	369.81
348.218	347.81
348.445	403.81
348.673	369.81
348.9	345.81
349.128	372.81
349.355	363.81
349.583	335.81
349.81	345.81
350.037	349.81
350.265	336.81
350.492	340.81
350.72	353.81
350.947	336.81
351.174	338.81
351.402	354.81
351.629	364.81
351.856	361.81
352.083	377.81
352.311	377.81
352.538	364.81
352.765	380.81
352.992	365.81
353.22	363.81
353.447	354.81
353.674	353.81
353.901	352.81
354.128	344.81
354.355	347.81
354.583	338.81
354.81	330.81
355.037	348.81
355.264	338.81
355.491	336.81
355.718	343.81
355.945	326.81
356.172	328.81
356.399	349.81
356.626	335.81
356.853	331.81
357.08	323.81
357.307	329.81
357.534	320.81
357.761	326.81
357.988	355.81
358.215	346.81
358.441	341.81
358.668	325.81
358.895	342.81
359.122	338.81
359.349	345.81
359.576	353.81
359.802	375.81
360.029	396.81
360.256	410.81
360.483	382.81
360.709	368.81
360.936	362.81
361.163	346.81
361.39	360.81
361.616	356.81
361.843	353.81
362.07	378.81
362.296	345.81
362.523	363.81
362.749	346.81
362.976	354.81
363.203	356.81
363.429	339.81
363.656	350.81
363.882	333.81
364.109	349.81
364.335	347.81
364.562	349.81
364.788	345.81
365.015	353.81
365.241	345.81
365.468	355.81
365.694	339.81
365.92	361.81
366.147	332.81
366.373	346.81
366.599	330.81
366.826	320.81
367.052	351.81
367.278	330.81
367.505	353.81
367.731	341.81
367.957	346.81
368.184	335.81
368.41	333.81
368.636	359.81
368.862	358.81
369.089	342.81
369.315	339.81
369.541	336.81
369.767	349.81
369.993	348.81
370.219	350.81
370.445	333.81
370.672	335.81
370.898	340.81
371.124	338.81
371.35	321.81
371.576	334.81
371.802	332.81
372.028	321.81
372.254	330.81
372.48	339.81
372.706	346.81
372.932	343.81
373.158	329.81
373.384	344.81
373.61	341.81
373.835	348.81
374.061	340.81
374.287	330.81
374.513	357.81
374.739	358.81
374.965	321.81
375.191	347.81
375.416	349.81
375.642	332.81
375.868	347.81
376.094	338.81
376.319	324.81
376.545	356.81
376.771	342.81
376.997	338.81
377.222	328.81
377.448	345.81
377.674	331.81
377.899	320.81
378.125	337.81
378.35	336.81
378.576	374.81
378.802	330.81
379.027	337.81
379.253	325.81
379.478	339.81
379.704	341.81
379.929	342.81
380.155	345.81
380.38	328.81
380.606	344.81
380.831	334.81
381.057	350.81
381.282	331.81
381.507	362.81
381.733	347.81
381.958	347.81
382.184	333.81
382.409	357.81
382.634	342.81
382.86	340.81
383.085	335.81
383.31	334.81
383.535	364.81
383.761	341.81
383.986	346.81
384.211	342.81
384.436	332.81
384.662	352.81
384.887	351.81
385.112	350.81
385.337	348.81
385.562	372.81
385.787	352.81
386.013	368.81
386.238	374.81
386.463	366.81
386.688	376.81
386.913	368.81
387.138	368.81
387.363	370.81
387.588	370.81
387.813	362.81
388.038	356.81
388.263	361.81
388.488	368.81
388.713	365.81
388.938	366.81
389.163	383.81
389.387	378.81
389.612	363.81
389.837	340.81
390.062	376.81
390.287	353.81
390.512	358.81
390.736	371.81
390.961	359.81
391.186	362.81
391.411	363.81
391.636	362.81
391.86	364.81
392.085	374.81
392.31	372.81
392.534	369.81
392.759	361.81
392.984	376.81
393.208	362.81
393.433	380.81
393.658	376.81
393.882	366.81
394.107	364.81
394.331	379.81
394.556	372.81
394.78	393.81
395.005	377.81
395.229	375.81
395.454	370.81
395.678	365.81
395.903	377.81
396.127	406.81
396.352	399.81
396.576	395.81
396.801	366.81
397.025	360.81
397.249	385.81
397.474	357.81
397.698	392.81
397.922	395.81
398.147	392.81
398.371	402.81
398.595	419.81
398.82	388.81
399.044	411.81
399.268	424.81
399.492	451.81
399.717	460.81
399.941	460.81
400.165	484.81
400.389	509.81
400.613	458.81
400.837	427.81
401.062	414.81
401.286	410.81
401.51	421.81
401.734	412.81
401.958	416.81
402.182	420.81
402.406	434.81
402.63	420.81
402.854	415.81
403.078	419.81
403.302	445.81
403.526	445.81
403.75	438.81
403.974	427.81
404.198	417.81
404.422	423.81
404.645	444.81
404.869	406.81
405.093	459.81
405.317	470.81
405.541	470.81
405.765	468.81
405.988	444.81
406.212	466.81
406.436	473.81
406.66	510.81
406.883	463.81
407.107	472.81
407.331	517.81
407.555	554.81
407.778	554.81
408.002	508.81
408.226	477.81
408.449	470.81
408.673	456.81
408.896	466.81
409.12	496.81
409.344	479.81
409.567	459.81
409.791	434.81
410.014	425.81
410.238	445.81
410.461	427.81
410.685	428.81
410.908	443.81
411.132	444.81
411.355	464.81
411.578	447.81
411.802	414.81
412.025	441.81
412.249	405.81
412.472	441.81
412.695	437.81
412.919	437.81
413.142	414.81
413.365	412.81
413.589	398.81
413.812	396.81
414.035	407.81
414.258	422.81
414.482	417.81
414.705	398.81
414.928	394.81
415.151	387.81
415.374	403.81
415.597	397.81
415.821	384.81
416.044	392.81
416.267	399.81
416.49	409.81
416.713	387.81
416.936	394.81
417.159	380.81
417.382	393.81
417.605	416.81
417.828	409.81
418.051	433.81
418.274	403.81
418.497	393.81
418.72	394.81
418.943	403.81
419.166	438.81
419.389	440.81
419.611	418.81
419.834	432.81
420.057	403.81
420.28	407.81
420.503	413.81
420.726	403.81
420.948	442.81
421.171	456.81
421.394	475.81
421.617	429.81
421.839	414.81
422.062	444.81
422.285	440.81
422.507	468.81
422.73	533.81
422.953	503.81
423.175	453.81
423.398	435.81
423.621	425.81
423.843	458.81
424.066	439.81
424.288	430.81
424.511	466.81
424.733	522.81
424.956	545.81
425.178	514.81
425.401	529.81
425.623	530.81
425.846	463.81
426.068	444.81
426.291	443.81
426.513	456.81
426.735	447.81
426.958	530.81
427.18	558.81
427.402	630.81
427.625	716.81
427.847	616.81
428.069	532.81
428.292	464.81
428.514	452.81
428.736	431.81
428.958	411.81
429.181	436.81
429.403	420.81
429.625	432.81
429.847	464.81
430.069	490.81
430.292	496.81
430.514	440.81
430.736	395.81
430.958	408.81
431.18	395.81
431.402	397.81
431.624	379.81
431.846	419.81
432.068	397.81
432.29	403.81
432.512	397.81
432.734	410.81
432.956	401.81
433.178	418.81
433.4	432.81
433.622	396.81
433.844	404.81
434.066	392.81
434.287	394.81
434.509	396.81
434.731	410.81
434.953	413.81
435.175	449.81
435.397	455.81
435.618	446.81
435.84	506.81
436.062	540.81
436.284	596.81
436.505	525.81
436.727	458.81
436.949	440.81
437.17	420.81
437.392	407.81
437.614	425.81
437.835	464.81
438.057	547.81
438.278	608.81
438.5	597.81
438.721	676.81
438.943	614.81
439.165	498.81
439.386	467.81
439.608	462.81
439.829	454.81
440.05	479.81
440.272	502.81
440.493	491.81
440.715	442.81
440.936	416.81
441.158	439.81
441.379	433.81
441.6	395.81
441.822	448.81
442.043	499.81
442.264	540.81
442.486	582.81
442.707	480.81
442.928	491.81
443.149	477.81
443.371	496.81
443.592	526.81
443.813	594.81
444.034	642.81
444.255	536.81
444.476	466.81
444.698	468.81
444.919	482.81
445.14	556.81
445.361	482.81
445.582	471.81
445.803	544.81
446.024	588.81
446.245	605.81
446.466	549.81
446.687	497.81
446.908	464.81
447.129	428.81
447.35	414.81
447.571	435.81
447.792	434.81
448.013	429.81
448.234	444.81
448.455	464.81
448.675	548.81
448.896	642.81
449.117	556.81
449.338	526.81
449.559	601.81
449.779	646.81
450	528.81
450.221	458.81
450.442	427.81
450.662	390.81
450.883	425.81
451.104	453.81
451.324	443.81
451.545	421.81
451.766	408.81
451.986	384.81
452.207	379.81
452.428	382.81
452.648	382.81
452.869	395.81
453.089	389.81
453.31	396.81
453.53	381.81
453.751	370.81
453.971	374.81
454.192	398.81
454.412	387.81
454.633	372.81
454.853	370.81
455.073	363.81
455.294	390.81
455.514	432.81
455.734	409.81
455.955	371.81
456.175	373.81
456.395	358.81
456.616	365.81
456.836	373.81
457.056	353.81
457.276	352.81
457.497	346.81
457.717	338.81
457.937	341.81
458.157	360.81
458.377	371.81
458.598	388.81
458.818	453.81
459.038	506.81
459.258	500.81
459.478	441.81
459.698	411.81
459.918	407.81
460.138	397.81
460.358	397.81
460.578	386.81
460.798	408.81
461.018	397.81
461.238	388.81
461.458	377.81
461.678	377.81
461.898	400.81
462.118	402.81
462.338	394.81
462.558	418.81
462.777	407.81
462.997	421.81
463.217	424.81
463.437	433.81
463.657	407.81
463.876	419.81
464.096	441.81
464.316	409.81
464.536	429.81
464.755	440.81
464.975	435.81
465.195	449.81
465.414	537.81
465.634	465.81
465.854	442.81
466.073	409.81
466.293	403.81
466.512	399.81
466.732	386.81
466.951	390.81
467.171	385.81
467.391	386.81
467.61	398.81
467.829	410.81
468.049	385.81
468.268	374.81
468.488	376.81
468.707	367.81
468.927	374.81
469.146	373.81
469.365	375.81
469.585	357.81
469.804	388.81
470.023	394.81
470.243	376.81
470.462	397.81
470.681	384.81
470.901	405.81
471.12	389.81
471.339	389.81
471.558	394.81
471.777	387.81
471.997	393.81
472.216	390.81
472.435	379.81
472.654	381.81
472.873	402.81
473.092	390.81
473.311	378.81
473.53	412.81
473.749	397.81
473.968	452.81
474.187	519.81
474.406	523.81
474.625	437.81
474.844	396.81
475.063	406.81
475.282	382.81
475.501	385.81
475.72	403.81
475.939	400.81
476.158	398.81
476.377	394.81
476.596	398.81
476.814	401.81
477.033	391.81
477.252	401.81
477.471	426.81
477.69	404.81
477.908	419.81
478.127	450.81
478.346	430.81
478.564	412.81
478.783	431.81
479.002	442.81
479.22	445.81
479.439	454.81
479.658	465.81
479.876	458.81
480.095	475.81
480.313	496.81
480.532	477.81
480.751	475.81
480.969	456.81
481.188	476.81
481.406	468.81
481.624	456.81
481.843	456.81
482.061	454.81
482.28	455.81
482.498	434.81
482.717	444.81
482.935	444.81
483.153	429.81
483.372	461.81
483.59	460.81
483.808	458.81
484.027	461.81
484.245	419.81
484.463	446.81
484.681	435.81
484.9	449.81
485.118	446.81
485.336	452.81
485.554	458.81
485.772	478.81
485.99	483.81
486.209	474.81
486.427	470.81
486.645	489.81
486.863	488.81
487.081	500.81
487.299	485.81
487.517	462.81
487.735	484.81
487.953	481.81
488.171	482.81
488.389	496.81
488.607	493.81
488.825	483.81
489.043	505.81
489.261	480.81
489.479	494.81
489.696	479.81
489.914	500.81
490.132	492.81
490.35	516.81
490.568	543.81
490.786	530.81
491.003	513.81
491.221	533.81
491.439	532.81
491.657	551.81
491.874	549.81
492.092	531.81
492.31	568.81
492.527	550.81
492.745	558.81
492.963	554.81
493.18	545.81
493.398	565.81
493.615	558.81
493.833	541.81
494.05	563.81
494.268	555.81
494.485	547.81
494.703	585.81
494.92	576.81
495.138	576.81
495.355	572.81
495.573	562.81
495.79	543.81
496.008	585.81
496.225	569.81
496.442	564.81
496.66	562.81
496.877	566.81
497.094	560.81
497.312	596.81
497.529	583.81
497.746	605.81
497.963	592.81
498.181	618.81
498.398	637.81
498.615	658.81
498.832	639.81
499.049	636.81
499.267	662.81
499.484	691.81
499.701	711.81
499.918	698.81
500.135	722.81
500.352	749.81
500.569	769.81
500.786	784.81
501.003	779.81
501.22	744.81
501.437	734.81
501.654	721.81
501.871	724.81
502.088	708.81
