Data from 1983.PennyLincolnUp.Lamp.En5.5.200Scan.071819.P1_HRD10591_16-52-12-965.txt Node
Date: Thu Jul 18 16:52:12 EDT 2019
User: cochatt
Spectrometer: HR+D1059
Trigger mode: 1
Integration Time (sec): 1.000000E-1
Scans to average: 1
Electric dark correction enabled: true
Nonlinearity correction enabled: false
Boxcar width: 0
XAxis mode: Wavelengths
Number of Pixels in Spectrum: 2048
>>>>>Begin Spectral Data<<<<<
223.165	-6.06
223.4	-6.06
223.635	-6.06
223.869	-26.06
224.104	-23.06
224.338	-18.06
224.573	-7.06
224.808	-14.06
225.042	-12.06
225.277	-3.06
225.511	-4.06
225.746	1.94
225.98	-0.06
226.215	15.94
226.449	18.94
226.683	23.94
226.918	21.94
227.152	30.94
227.387	21.94
227.621	32.94
227.856	35.94
228.09	25.94
228.324	53.94
228.559	66.94
228.793	60.94
229.027	83.94
229.262	85.94
229.496	90.94
229.73	97.94
229.964	106.94
230.199	85.94
230.433	91.94
230.667	92.94
230.901	87.94
231.136	85.94
231.37	112.94
231.604	93.94
231.838	83.94
232.072	80.94
232.306	102.94
232.541	82.94
232.775	102.94
233.009	98.94
233.243	86.94
233.477	101.94
233.711	89.94
233.945	94.94
234.179	103.94
234.413	103.94
234.647	101.94
234.881	82.94
235.115	91.94
235.349	107.94
235.583	86.94
235.817	78.94
236.051	80.94
236.285	111.94
236.519	105.94
236.753	119.94
236.987	116.94
237.221	138.94
237.455	157.94
237.689	138.94
237.922	108.94
238.156	90.94
238.39	115.94
238.624	95.94
238.858	110.94
239.091	102.94
239.325	96.94
239.559	98.94
239.793	106.94
240.027	104.94
240.26	107.94
240.494	110.94
240.728	116.94
240.961	107.94
241.195	109.94
241.429	111.94
241.662	113.94
241.896	111.94
242.13	109.94
242.363	107.94
242.597	109.94
242.83	109.94
243.064	115.94
243.298	115.94
243.531	107.94
243.765	95.94
243.998	115.94
244.232	101.94
244.465	111.94
244.699	111.94
244.932	117.94
245.166	111.94
245.399	127.94
245.633	135.94
245.866	123.94
246.099	114.94
246.333	126.94
246.566	113.94
246.8	120.94
247.033	125.94
247.266	122.94
247.5	123.94
247.733	143.94
247.966	118.94
248.2	123.94
248.433	128.94
248.666	143.94
248.899	133.94
249.133	148.94
249.366	137.94
249.599	129.94
249.832	123.94
250.066	155.94
250.299	145.94
250.532	147.94
250.765	141.94
250.998	161.94
251.231	166.94
251.465	149.94
251.698	162.94
251.931	139.94
252.164	142.94
252.397	136.94
252.63	159.94
252.863	139.94
253.096	155.94
253.329	148.94
253.562	159.94
253.795	180.94
254.028	165.94
254.261	156.94
254.494	161.94
254.727	189.94
254.96	174.94
255.193	165.94
255.426	166.94
255.659	158.94
255.892	162.94
256.124	161.94
256.357	150.94
256.59	150.94
256.823	165.94
257.056	156.94
257.289	158.94
257.521	145.94
257.754	143.94
257.987	150.94
258.22	149.94
258.452	150.94
258.685	150.94
258.918	182.94
259.151	155.94
259.383	155.94
259.616	150.94
259.849	168.94
260.081	178.94
260.314	193.94
260.547	191.94
260.779	177.94
261.012	178.94
261.244	171.94
261.477	162.94
261.71	174.94
261.942	158.94
262.175	186.94
262.407	173.94
262.64	164.94
262.872	166.94
263.105	173.94
263.337	171.94
263.57	171.94
263.802	173.94
264.035	148.94
264.267	158.94
264.499	182.94
264.732	177.94
264.964	165.94
265.197	161.94
265.429	180.94
265.661	181.94
265.894	167.94
266.126	160.94
266.358	171.94
266.591	154.94
266.823	153.94
267.055	178.94
267.287	177.94
267.52	167.94
267.752	168.94
267.984	153.94
268.216	162.94
268.448	173.94
268.681	169.94
268.913	185.94
269.145	196.94
269.377	196.94
269.609	196.94
269.841	194.94
270.073	194.94
270.306	199.94
270.538	217.94
270.77	225.94
271.002	209.94
271.234	223.94
271.466	203.94
271.698	208.94
271.93	206.94
272.162	210.94
272.394	220.94
272.626	204.94
272.858	209.94
273.09	211.94
273.322	207.94
273.553	186.94
273.785	190.94
274.017	191.94
274.249	188.94
274.481	195.94
274.713	174.94
274.945	184.94
275.176	203.94
275.408	197.94
275.64	180.94
275.872	202.94
276.104	188.94
276.335	193.94
276.567	204.94
276.799	203.94
277.031	198.94
277.262	223.94
277.494	219.94
277.726	217.94
277.957	216.94
278.189	211.94
278.421	201.94
278.652	182.94
278.884	193.94
279.115	192.94
279.347	184.94
279.579	190.94
279.81	185.94
280.042	196.94
280.273	201.94
280.505	185.94
280.736	197.94
280.968	191.94
281.199	202.94
281.431	197.94
281.662	210.94
281.894	206.94
282.125	207.94
282.356	218.94
282.588	218.94
282.819	213.94
283.051	198.94
283.282	177.94
283.513	207.94
283.745	207.94
283.976	194.94
284.207	190.94
284.439	206.94
284.67	222.94
284.901	206.94
285.132	213.94
285.364	193.94
285.595	200.94
285.826	195.94
286.057	203.94
286.288	196.94
286.52	204.94
286.751	203.94
286.982	211.94
287.213	200.94
287.444	213.94
287.675	212.94
287.906	202.94
288.138	225.94
288.369	226.94
288.6	211.94
288.831	225.94
289.062	234.94
289.293	218.94
289.524	200.94
289.755	223.94
289.986	205.94
290.217	230.94
290.448	205.94
290.679	203.94
290.91	205.94
291.141	194.94
291.371	209.94
291.602	212.94
291.833	191.94
292.064	216.94
292.295	210.94
292.526	215.94
292.757	233.94
292.987	224.94
293.218	217.94
293.449	215.94
293.68	213.94
293.91	220.94
294.141	225.94
294.372	204.94
294.603	205.94
294.833	233.94
295.064	212.94
295.295	207.94
295.525	205.94
295.756	222.94
295.987	217.94
296.217	236.94
296.448	251.94
296.679	228.94
296.909	234.94
297.14	206.94
297.37	217.94
297.601	214.94
297.831	215.94
298.062	227.94
298.292	224.94
298.523	238.94
298.753	220.94
298.984	223.94
299.214	222.94
299.445	216.94
299.675	221.94
299.905	234.94
300.136	238.94
300.366	205.94
300.597	221.94
300.827	243.94
301.057	238.94
301.288	233.94
301.518	225.94
301.748	222.94
301.979	240.94
302.209	252.94
302.439	224.94
302.669	236.94
302.9	227.94
303.13	231.94
303.36	237.94
303.59	257.94
303.82	254.94
304.051	243.94
304.281	241.94
304.511	236.94
304.741	262.94
304.971	249.94
305.201	230.94
305.431	242.94
305.661	241.94
305.891	212.94
306.121	230.94
306.352	254.94
306.582	253.94
306.812	257.94
307.042	239.94
307.272	229.94
307.502	238.94
307.731	243.94
307.961	241.94
308.191	251.94
308.421	236.94
308.651	236.94
308.881	245.94
309.111	253.94
309.341	230.94
309.571	242.94
309.8	259.94
310.03	267.94
310.26	261.94
310.49	268.94
310.72	279.94
310.949	289.94
311.179	283.94
311.409	275.94
311.639	258.94
311.868	256.94
312.098	257.94
312.328	266.94
312.557	289.94
312.787	271.94
313.017	290.94
313.246	286.94
313.476	286.94
313.706	262.94
313.935	273.94
314.165	288.94
314.394	271.94
314.624	257.94
314.853	263.94
315.083	271.94
315.312	280.94
315.542	274.94
315.771	261.94
316.001	281.94
316.23	262.94
316.46	278.94
316.689	293.94
316.919	275.94
317.148	272.94
317.377	282.94
317.607	286.94
317.836	276.94
318.065	277.94
318.295	273.94
318.524	259.94
318.753	288.94
318.983	273.94
319.212	266.94
319.441	267.94
319.67	275.94
319.9	260.94
320.129	271.94
320.358	275.94
320.587	283.94
320.816	281.94
321.046	286.94
321.275	278.94
321.504	276.94
321.733	286.94
321.962	274.94
322.191	283.94
322.42	297.94
322.649	309.94
322.878	298.94
323.108	298.94
323.337	321.94
323.566	323.94
323.795	321.94
324.024	351.94
324.253	423.94
324.482	567.94
324.71	880.94
324.939	1136.94
325.168	952.94
325.397	531.94
325.626	385.94
325.855	341.94
326.084	318.94
326.313	315.94
326.542	325.94
326.77	355.94
326.999	400.94
327.228	515.94
327.457	746.94
327.686	845.94
327.914	582.94
328.143	398.94
328.372	363.94
328.6	365.94
328.829	343.94
329.058	362.94
329.287	349.94
329.515	331.94
329.744	338.94
329.972	333.94
330.201	331.94
330.43	340.94
330.658	345.94
330.887	368.94
331.115	356.94
331.344	326.94
331.572	324.94
331.801	316.94
332.03	332.94
332.258	323.94
332.486	323.94
332.715	304.94
332.943	310.94
333.172	315.94
333.4	320.94
333.629	312.94
333.857	347.94
334.085	333.94
334.314	336.94
334.542	338.94
334.771	337.94
334.999	310.94
335.227	330.94
335.455	323.94
335.684	330.94
335.912	325.94
336.14	302.94
336.369	327.94
336.597	313.94
336.825	306.94
337.053	329.94
337.281	313.94
337.51	302.94
337.738	294.94
337.966	314.94
338.194	306.94
338.422	307.94
338.65	302.94
338.878	322.94
339.106	324.94
339.334	327.94
339.562	309.94
339.79	307.94
340.018	322.94
340.246	317.94
340.474	306.94
340.702	319.94
340.93	316.94
341.158	302.94
341.386	312.94
341.614	307.94
341.842	299.94
342.07	301.94
342.298	293.94
342.526	297.94
342.754	292.94
342.981	294.94
343.209	303.94
343.437	289.94
343.665	297.94
343.893	313.94
344.12	323.94
344.348	326.94
344.576	321.94
344.804	308.94
345.031	314.94
345.259	312.94
345.487	302.94
345.714	306.94
345.942	316.94
346.17	297.94
346.397	323.94
346.625	305.94
346.853	298.94
347.08	289.94
347.308	299.94
347.535	302.94
347.763	292.94
347.99	297.94
348.218	293.94
348.445	279.94
348.673	304.94
348.9	307.94
349.128	314.94
349.355	301.94
349.583	269.94
349.81	301.94
350.037	290.94
350.265	280.94
350.492	283.94
350.72	296.94
350.947	292.94
351.174	299.94
351.402	297.94
351.629	292.94
351.856	293.94
352.083	298.94
352.311	290.94
352.538	306.94
352.765	305.94
352.992	285.94
353.22	275.94
353.447	297.94
353.674	290.94
353.901	289.94
354.128	282.94
354.355	286.94
354.583	283.94
354.81	278.94
355.037	295.94
355.264	276.94
355.491	291.94
355.718	282.94
355.945	294.94
356.172	275.94
356.399	288.94
356.626	302.94
356.853	288.94
357.08	286.94
357.307	288.94
357.534	281.94
357.761	281.94
357.988	277.94
358.215	293.94
358.441	275.94
358.668	289.94
358.895	281.94
359.122	286.94
359.349	290.94
359.576	307.94
359.802	293.94
360.029	307.94
360.256	319.94
360.483	325.94
360.709	310.94
360.936	314.94
361.163	296.94
361.39	307.94
361.616	308.94
361.843	304.94
362.07	313.94
362.296	298.94
362.523	295.94
362.749	287.94
362.976	302.94
363.203	296.94
363.429	297.94
363.656	313.94
363.882	283.94
364.109	301.94
364.335	293.94
364.562	280.94
364.788	291.94
365.015	288.94
365.241	282.94
365.468	298.94
365.694	308.94
365.92	288.94
366.147	295.94
366.373	283.94
366.599	297.94
366.826	278.94
367.052	299.94
367.278	300.94
367.505	281.94
367.731	285.94
367.957	266.94
368.184	286.94
368.41	309.94
368.636	285.94
368.862	310.94
369.089	303.94
369.315	281.94
369.541	283.94
369.767	294.94
369.993	294.94
370.219	293.94
370.445	284.94
370.672	288.94
370.898	293.94
371.124	291.94
371.35	279.94
371.576	271.94
371.802	300.94
372.028	292.94
372.254	288.94
372.48	291.94
372.706	288.94
372.932	302.94
373.158	295.94
373.384	286.94
373.61	302.94
373.835	297.94
374.061	284.94
374.287	303.94
374.513	294.94
374.739	306.94
374.965	290.94
375.191	301.94
375.416	299.94
375.642	301.94
375.868	297.94
376.094	295.94
376.319	301.94
376.545	309.94
376.771	300.94
376.997	287.94
377.222	302.94
377.448	297.94
377.674	295.94
377.899	297.94
378.125	289.94
378.35	304.94
378.576	279.94
378.802	269.94
379.027	298.94
379.253	315.94
379.478	286.94
379.704	297.94
379.929	279.94
380.155	289.94
380.38	288.94
380.606	300.94
380.831	301.94
381.057	274.94
381.282	301.94
381.507	286.94
381.733	291.94
381.958	286.94
382.184	298.94
382.409	311.94
382.634	286.94
382.86	301.94
383.085	301.94
383.31	309.94
383.535	304.94
383.761	324.94
383.986	301.94
384.211	310.94
384.436	300.94
384.662	327.94
384.887	321.94
385.112	326.94
385.337	304.94
385.562	327.94
385.787	307.94
386.013	331.94
386.238	329.94
386.463	342.94
386.688	326.94
386.913	301.94
387.138	303.94
387.363	320.94
387.588	326.94
387.813	321.94
388.038	318.94
388.263	345.94
388.488	303.94
388.713	315.94
388.938	325.94
389.163	325.94
389.387	319.94
389.612	323.94
389.837	328.94
390.062	309.94
390.287	294.94
390.512	306.94
390.736	294.94
390.961	305.94
391.186	301.94
391.411	308.94
391.636	329.94
391.86	330.94
392.085	319.94
392.31	327.94
392.534	321.94
392.759	326.94
392.984	310.94
393.208	326.94
393.433	340.94
393.658	325.94
393.882	312.94
394.107	327.94
394.331	302.94
394.556	328.94
394.78	329.94
395.005	309.94
395.229	323.94
395.454	338.94
395.678	330.94
395.903	339.94
396.127	333.94
396.352	346.94
396.576	321.94
396.801	307.94
397.025	321.94
397.249	341.94
397.474	328.94
397.698	325.94
397.922	354.94
398.147	361.94
398.371	342.94
398.595	336.94
398.82	333.94
399.044	365.94
399.268	381.94
399.492	369.94
399.717	409.94
399.941	409.94
400.165	423.94
400.389	434.94
400.613	389.94
400.837	385.94
401.062	349.94
401.286	348.94
401.51	336.94
401.734	337.94
401.958	365.94
402.182	367.94
402.406	365.94
402.63	348.94
402.854	352.94
403.078	381.94
403.302	363.94
403.526	369.94
403.75	351.94
403.974	376.94
404.198	359.94
404.422	381.94
404.645	362.94
404.869	343.94
405.093	381.94
405.317	376.94
405.541	421.94
405.765	369.94
405.988	379.94
406.212	382.94
406.436	393.94
406.66	382.94
406.883	395.94
407.107	402.94
407.331	455.94
407.555	481.94
407.778	471.94
408.002	395.94
408.226	395.94
408.449	396.94
408.673	391.94
408.896	409.94
409.12	433.94
409.344	412.94
409.567	384.94
409.791	374.94
410.014	344.94
410.238	387.94
410.461	324.94
410.685	356.94
410.908	375.94
411.132	405.94
411.355	405.94
411.578	376.94
411.802	375.94
412.025	335.94
412.249	351.94
412.472	356.94
412.695	375.94
412.919	366.94
413.142	392.94
413.365	356.94
413.589	348.94
413.812	374.94
414.035	372.94
414.258	368.94
414.482	371.94
414.705	361.94
414.928	340.94
415.151	354.94
415.374	349.94
415.597	340.94
415.821	348.94
416.044	363.94
416.267	357.94
416.49	328.94
416.713	326.94
416.936	336.94
417.159	341.94
417.382	356.94
417.605	358.94
417.828	353.94
418.051	358.94
418.274	369.94
418.497	355.94
418.72	346.94
418.943	341.94
419.166	375.94
419.389	383.94
419.611	379.94
419.834	367.94
420.057	368.94
420.28	352.94
420.503	354.94
420.726	345.94
420.948	355.94
421.171	387.94
421.394	425.94
421.617	375.94
421.839	369.94
422.062	361.94
422.285	367.94
422.507	413.94
422.73	443.94
422.953	426.94
423.175	384.94
423.398	365.94
423.621	373.94
423.843	388.94
424.066	377.94
424.288	368.94
424.511	400.94
424.733	431.94
424.956	468.94
425.178	444.94
425.401	455.94
425.623	460.94
425.846	403.94
426.068	384.94
426.291	365.94
426.513	379.94
426.735	422.94
426.958	377.94
427.18	458.94
427.402	538.94
427.625	580.94
427.847	498.94
428.069	425.94
428.292	405.94
428.514	361.94
428.736	371.94
428.958	354.94
429.181	363.94
429.403	349.94
429.625	368.94
429.847	377.94
430.069	421.94
430.292	399.94
430.514	369.94
430.736	344.94
430.958	347.94
431.18	357.94
431.402	342.94
431.624	353.94
431.846	345.94
432.068	317.94
432.29	351.94
432.512	349.94
432.734	340.94
432.956	346.94
433.178	343.94
433.4	341.94
433.622	349.94
433.844	334.94
434.066	344.94
434.287	322.94
434.509	364.94
434.731	349.94
434.953	328.94
435.175	341.94
435.397	354.94
435.618	370.94
435.84	413.94
436.062	455.94
436.284	495.94
436.505	417.94
436.727	367.94
436.949	368.94
437.17	349.94
437.392	352.94
437.614	381.94
437.835	386.94
438.057	446.94
438.278	517.94
438.5	483.94
438.721	563.94
438.943	519.94
439.165	416.94
439.386	395.94
439.608	358.94
439.829	377.94
440.05	401.94
440.272	416.94
440.493	401.94
440.715	369.94
440.936	367.94
441.158	343.94
441.379	356.94
441.6	350.94
441.822	372.94
442.043	395.94
442.264	444.94
442.486	474.94
442.707	408.94
442.928	373.94
443.149	389.94
443.371	406.94
443.592	432.94
443.813	458.94
444.034	518.94
444.255	433.94
444.476	393.94
444.698	384.94
444.919	391.94
445.14	509.94
445.361	455.94
445.582	399.94
445.803	438.94
446.024	485.94
446.245	478.94
446.466	455.94
446.687	406.94
446.908	377.94
447.129	368.94
447.35	341.94
447.571	369.94
447.792	355.94
448.013	354.94
448.234	352.94
448.455	401.94
448.675	457.94
448.896	518.94
449.117	438.94
449.338	441.94
449.559	507.94
449.779	543.94
450	453.94
450.221	385.94
450.442	351.94
450.662	345.94
450.883	355.94
451.104	333.94
451.324	334.94
451.545	334.94
451.766	324.94
451.986	306.94
452.207	317.94
452.428	332.94
452.648	314.94
452.869	337.94
453.089	328.94
453.31	328.94
453.53	314.94
453.751	323.94
453.971	326.94
454.192	318.94
454.412	324.94
454.633	317.94
454.853	305.94
455.073	307.94
455.294	331.94
455.514	371.94
455.734	369.94
455.955	314.94
456.175	325.94
456.395	303.94
456.616	316.94
456.836	293.94
457.056	299.94
457.276	317.94
457.497	296.94
457.717	321.94
457.937	314.94
458.157	313.94
458.377	308.94
458.598	345.94
458.818	348.94
459.038	400.94
459.258	399.94
459.478	349.94
459.698	346.94
459.918	318.94
460.138	338.94
460.358	327.94
460.578	343.94
460.798	331.94
461.018	343.94
461.238	332.94
461.458	345.94
461.678	348.94
461.898	352.94
462.118	349.94
462.338	364.94
462.558	360.94
462.777	371.94
462.997	377.94
463.217	370.94
463.437	392.94
463.657	369.94
463.876	365.94
464.096	357.94
464.316	371.94
464.536	349.94
464.755	371.94
464.975	377.94
465.195	377.94
465.414	412.94
465.634	375.94
465.854	361.94
466.073	360.94
466.293	341.94
466.512	333.94
466.732	325.94
466.951	357.94
467.171	332.94
467.391	333.94
467.61	335.94
467.829	336.94
468.049	333.94
468.268	338.94
468.488	307.94
468.707	317.94
468.927	326.94
469.146	324.94
469.365	328.94
469.585	317.94
469.804	323.94
470.023	321.94
470.243	341.94
470.462	321.94
470.681	359.94
470.901	343.94
471.12	331.94
471.339	314.94
471.558	341.94
471.777	337.94
471.997	333.94
472.216	308.94
472.435	307.94
472.654	340.94
472.873	328.94
473.092	335.94
473.311	341.94
473.53	327.94
473.749	322.94
473.968	358.94
474.187	423.94
474.406	433.94
474.625	361.94
474.844	347.94
475.063	315.94
475.282	333.94
475.501	335.94
475.72	366.94
475.939	357.94
476.158	365.94
476.377	337.94
476.596	347.94
476.814	354.94
477.033	362.94
477.252	348.94
477.471	349.94
477.69	374.94
477.908	356.94
478.127	369.94
478.346	365.94
478.564	383.94
478.783	365.94
479.002	390.94
479.22	356.94
479.439	397.94
479.658	391.94
479.876	389.94
480.095	413.94
480.313	392.94
480.532	396.94
480.751	398.94
480.969	391.94
481.188	402.94
481.406	413.94
481.624	407.94
481.843	387.94
482.061	383.94
482.28	387.94
482.498	382.94
482.717	377.94
482.935	373.94
483.153	378.94
483.372	388.94
483.59	402.94
483.808	385.94
484.027	382.94
484.245	382.94
484.463	382.94
484.681	393.94
484.9	401.94
485.118	418.94
485.336	401.94
485.554	391.94
485.772	401.94
485.99	383.94
486.209	383.94
486.427	383.94
486.645	407.94
486.863	407.94
487.081	407.94
487.299	439.94
487.517	432.94
487.735	415.94
487.953	420.94
488.171	425.94
488.389	429.94
488.607	419.94
488.825	404.94
489.043	374.94
489.261	411.94
489.479	420.94
489.696	417.94
489.914	405.94
490.132	416.94
490.35	426.94
490.568	431.94
490.786	449.94
491.003	437.94
491.221	429.94
491.439	443.94
491.657	438.94
491.874	478.94
492.092	464.94
492.31	452.94
492.527	462.94
492.745	473.94
492.963	459.94
493.18	467.94
493.398	483.94
493.615	474.94
493.833	467.94
494.05	471.94
494.268	484.94
494.485	476.94
494.703	469.94
494.92	490.94
495.138	469.94
495.355	468.94
495.573	462.94
495.79	475.94
496.008	466.94
496.225	471.94
496.442	482.94
496.66	473.94
496.877	501.94
497.094	493.94
497.312	514.94
497.529	489.94
497.746	510.94
497.963	512.94
498.181	491.94
498.398	515.94
498.615	527.94
498.832	539.94
499.049	556.94
499.267	555.94
499.484	602.94
499.701	613.94
499.918	613.94
500.135	635.94
500.352	672.94
500.569	676.94
500.786	683.94
501.003	658.94
501.22	646.94
501.437	639.94
501.654	627.94
501.871	608.94
502.088	573.94
502.305	572.94
