Data from 1983.PennyLincolnUp.Lamp.En5.5.200Scan.071819.P1_HRD10591_16-54-38-965.txt Node
Date: Thu Jul 18 16:54:38 EDT 2019
User: cochatt
Spectrometer: HR+D1059
Trigger mode: 1
Integration Time (sec): 1.000000E-1
Scans to average: 1
Electric dark correction enabled: true
Nonlinearity correction enabled: false
Boxcar width: 0
XAxis mode: Wavelengths
Number of Pixels in Spectrum: 2048
>>>>>Begin Spectral Data<<<<<
223.165	3.25
223.4	3.25
223.635	3.25
223.869	-20.75
224.104	-11.75
224.338	-11.75
224.573	-25.75
224.808	-6.75
225.042	-3.75
225.277	-15.75
225.511	7.25
225.746	-5.75
225.98	5.25
226.215	21.25
226.449	9.25
226.683	12.25
226.918	15.25
227.152	28.25
227.387	36.25
227.621	26.25
227.856	39.25
228.09	44.25
228.324	52.25
228.559	46.25
228.793	72.25
229.027	97.25
229.262	104.25
229.496	116.25
229.73	120.25
229.964	144.25
230.199	115.25
230.433	106.25
230.667	99.25
230.901	112.25
231.136	98.25
231.37	110.25
231.604	105.25
231.838	105.25
232.072	112.25
232.306	114.25
232.541	113.25
232.775	105.25
233.009	110.25
233.243	106.25
233.477	115.25
233.711	115.25
233.945	105.25
234.179	127.25
234.413	107.25
234.647	102.25
234.881	105.25
235.115	133.25
235.349	98.25
235.583	111.25
235.817	106.25
236.051	124.25
236.285	114.25
236.519	118.25
236.753	124.25
236.987	114.25
237.221	166.25
237.455	207.25
237.689	176.25
237.922	126.25
238.156	136.25
238.39	100.25
238.624	115.25
238.858	118.25
239.091	117.25
239.325	128.25
239.559	119.25
239.793	117.25
240.027	122.25
240.26	128.25
240.494	149.25
240.728	132.25
240.961	152.25
241.195	123.25
241.429	142.25
241.662	142.25
241.896	124.25
242.13	116.25
242.363	119.25
242.597	124.25
242.83	150.25
243.064	125.25
243.298	131.25
243.531	140.25
243.765	136.25
243.998	134.25
244.232	129.25
244.465	146.25
244.699	123.25
244.932	135.25
245.166	135.25
245.399	135.25
245.633	129.25
245.866	133.25
246.099	131.25
246.333	135.25
246.566	142.25
246.8	139.25
247.033	148.25
247.266	154.25
247.5	164.25
247.733	161.25
247.966	146.25
248.2	142.25
248.433	150.25
248.666	170.25
248.899	166.25
249.133	171.25
249.366	176.25
249.599	179.25
249.832	173.25
250.066	167.25
250.299	185.25
250.532	194.25
250.765	187.25
250.998	217.25
251.231	224.25
251.465	198.25
251.698	204.25
251.931	180.25
252.164	169.25
252.397	180.25
252.63	195.25
252.863	189.25
253.096	196.25
253.329	196.25
253.562	213.25
253.795	202.25
254.028	197.25
254.261	179.25
254.494	211.25
254.727	240.25
254.96	258.25
255.193	253.25
255.426	220.25
255.659	230.25
255.892	210.25
256.124	231.25
256.357	237.25
256.59	210.25
256.823	206.25
257.056	205.25
257.289	189.25
257.521	203.25
257.754	211.25
257.987	209.25
258.22	184.25
258.452	190.25
258.685	187.25
258.918	195.25
259.151	203.25
259.383	190.25
259.616	193.25
259.849	209.25
260.081	208.25
260.314	240.25
260.547	241.25
260.779	226.25
261.012	224.25
261.244	200.25
261.477	202.25
261.71	203.25
261.942	217.25
262.175	198.25
262.407	224.25
262.64	204.25
262.872	219.25
263.105	194.25
263.337	198.25
263.57	188.25
263.802	213.25
264.035	180.25
264.267	198.25
264.499	197.25
264.732	204.25
264.964	200.25
265.197	198.25
265.429	188.25
265.661	189.25
265.894	196.25
266.126	191.25
266.358	205.25
266.591	204.25
266.823	193.25
267.055	214.25
267.287	196.25
267.52	201.25
267.752	226.25
267.984	211.25
268.216	218.25
268.448	213.25
268.681	214.25
268.913	225.25
269.145	233.25
269.377	276.25
269.609	279.25
269.841	242.25
270.073	267.25
270.306	289.25
270.538	280.25
270.77	305.25
271.002	247.25
271.234	258.25
271.466	301.25
271.698	285.25
271.93	283.25
272.162	300.25
272.394	275.25
272.626	282.25
272.858	251.25
273.09	255.25
273.322	245.25
273.553	233.25
273.785	248.25
274.017	259.25
274.249	258.25
274.481	241.25
274.713	230.25
274.945	241.25
275.176	244.25
275.408	232.25
275.64	241.25
275.872	247.25
276.104	245.25
276.335	255.25
276.567	260.25
276.799	284.25
277.031	290.25
277.262	315.25
277.494	289.25
277.726	270.25
277.957	269.25
278.189	269.25
278.421	254.25
278.652	249.25
278.884	248.25
279.115	258.25
279.347	263.25
279.579	256.25
279.81	251.25
280.042	226.25
280.273	242.25
280.505	231.25
280.736	246.25
280.968	250.25
281.199	257.25
281.431	235.25
281.662	243.25
281.894	268.25
282.125	242.25
282.356	279.25
282.588	279.25
282.819	280.25
283.051	245.25
283.282	254.25
283.513	264.25
283.745	252.25
283.976	248.25
284.207	237.25
284.439	277.25
284.67	270.25
284.901	260.25
285.132	260.25
285.364	257.25
285.595	265.25
285.826	261.25
286.057	265.25
286.288	266.25
286.52	264.25
286.751	258.25
286.982	264.25
287.213	246.25
287.444	267.25
287.675	266.25
287.906	271.25
288.138	274.25
288.369	271.25
288.6	263.25
288.831	274.25
289.062	272.25
289.293	255.25
289.524	290.25
289.755	263.25
289.986	252.25
290.217	256.25
290.448	269.25
290.679	268.25
290.91	261.25
291.141	262.25
291.371	265.25
291.602	254.25
291.833	256.25
292.064	260.25
292.295	256.25
292.526	276.25
292.757	272.25
292.987	275.25
293.218	279.25
293.449	264.25
293.68	255.25
293.91	266.25
294.141	267.25
294.372	266.25
294.603	280.25
294.833	278.25
295.064	282.25
295.295	258.25
295.525	270.25
295.756	284.25
295.987	287.25
296.217	300.25
296.448	305.25
296.679	284.25
296.909	287.25
297.14	288.25
297.37	279.25
297.601	268.25
297.831	270.25
298.062	270.25
298.292	282.25
298.523	270.25
298.753	284.25
298.984	301.25
299.214	281.25
299.445	274.25
299.675	288.25
299.905	288.25
300.136	288.25
300.366	285.25
300.597	301.25
300.827	289.25
301.057	282.25
301.288	320.25
301.518	309.25
301.748	298.25
301.979	291.25
302.209	301.25
302.439	296.25
302.669	303.25
302.9	275.25
303.13	291.25
303.36	293.25
303.59	305.25
303.82	325.25
304.051	306.25
304.281	300.25
304.511	305.25
304.741	302.25
304.971	298.25
305.201	288.25
305.431	299.25
305.661	305.25
305.891	319.25
306.121	303.25
306.352	303.25
306.582	300.25
306.812	312.25
307.042	314.25
307.272	306.25
307.502	323.25
307.731	310.25
307.961	292.25
308.191	309.25
308.421	336.25
308.651	304.25
308.881	317.25
309.111	308.25
309.341	314.25
309.571	327.25
309.8	322.25
310.03	341.25
310.26	353.25
310.49	348.25
310.72	352.25
310.949	365.25
311.179	384.25
311.409	349.25
311.639	335.25
311.868	342.25
312.098	348.25
312.328	354.25
312.557	373.25
312.787	391.25
313.017	393.25
313.246	362.25
313.476	344.25
313.706	359.25
313.935	340.25
314.165	367.25
314.394	371.25
314.624	371.25
314.853	364.25
315.083	351.25
315.312	352.25
315.542	356.25
315.771	326.25
316.001	349.25
316.23	347.25
316.46	338.25
316.689	341.25
316.919	361.25
317.148	361.25
317.377	358.25
317.607	333.25
317.836	347.25
318.065	349.25
318.295	341.25
318.524	344.25
318.753	358.25
318.983	346.25
319.212	337.25
319.441	347.25
319.67	362.25
319.9	353.25
320.129	342.25
320.358	351.25
320.587	361.25
320.816	364.25
321.046	382.25
321.275	380.25
321.504	369.25
321.733	384.25
321.962	372.25
322.191	421.25
322.42	393.25
322.649	414.25
322.878	412.25
323.108	450.25
323.337	470.25
323.566	476.25
323.795	520.25
324.024	568.25
324.253	701.25
324.482	1009.25
324.71	1520.25
324.939	2047.25
325.168	1702.25
325.397	903.25
325.626	636.25
325.855	540.25
326.084	488.25
326.313	477.25
326.542	476.25
326.77	551.25
326.999	638.25
327.228	882.25
327.457	1313.25
327.686	1497.25
327.914	1047.25
328.143	706.25
328.372	617.25
328.6	560.25
328.829	528.25
329.058	562.25
329.287	557.25
329.515	524.25
329.744	499.25
329.972	490.25
330.201	486.25
330.43	572.25
330.658	569.25
330.887	590.25
331.115	549.25
331.344	483.25
331.572	457.25
331.801	476.25
332.03	464.25
332.258	444.25
332.486	402.25
332.715	396.25
332.943	412.25
333.172	413.25
333.4	413.25
333.629	444.25
333.857	435.25
334.085	465.25
334.314	469.25
334.542	497.25
334.771	522.25
334.999	475.25
335.227	425.25
335.455	399.25
335.684	394.25
335.912	411.25
336.14	409.25
336.369	428.25
336.597	418.25
336.825	402.25
337.053	384.25
337.281	403.25
337.51	379.25
337.738	397.25
337.966	392.25
338.194	425.25
338.422	423.25
338.65	398.25
338.878	418.25
339.106	386.25
339.334	370.25
339.562	394.25
339.79	387.25
340.018	382.25
340.246	408.25
340.474	398.25
340.702	404.25
340.93	368.25
341.158	408.25
341.386	392.25
341.614	394.25
341.842	392.25
342.07	381.25
342.298	392.25
342.526	390.25
342.754	394.25
342.981	385.25
343.209	373.25
343.437	385.25
343.665	381.25
343.893	394.25
344.12	385.25
344.348	379.25
344.576	386.25
344.804	427.25
345.031	416.25
345.259	424.25
345.487	398.25
345.714	392.25
345.942	370.25
346.17	402.25
346.397	382.25
346.625	360.25
346.853	384.25
347.08	379.25
347.308	390.25
347.535	386.25
347.763	375.25
347.99	404.25
348.218	390.25
348.445	390.25
348.673	386.25
348.9	391.25
349.128	372.25
349.355	359.25
349.583	354.25
349.81	359.25
350.037	381.25
350.265	360.25
350.492	376.25
350.72	377.25
350.947	364.25
351.174	372.25
351.402	390.25
351.629	396.25
351.856	386.25
352.083	394.25
352.311	398.25
352.538	405.25
352.765	401.25
352.992	382.25
353.22	388.25
353.447	373.25
353.674	378.25
353.901	350.25
354.128	371.25
354.355	353.25
354.583	361.25
354.81	346.25
355.037	360.25
355.264	358.25
355.491	352.25
355.718	349.25
355.945	358.25
356.172	359.25
356.399	343.25
356.626	334.25
356.853	348.25
357.08	338.25
357.307	347.25
357.534	352.25
357.761	344.25
357.988	345.25
358.215	369.25
358.441	354.25
358.668	354.25
358.895	346.25
359.122	354.25
359.349	364.25
359.576	374.25
359.802	426.25
360.029	428.25
360.256	426.25
360.483	408.25
360.709	380.25
360.936	385.25
361.163	368.25
361.39	357.25
361.616	378.25
361.843	378.25
362.07	371.25
362.296	402.25
362.523	378.25
362.749	386.25
362.976	377.25
363.203	362.25
363.429	370.25
363.656	369.25
363.882	353.25
364.109	360.25
364.335	355.25
364.562	351.25
364.788	352.25
365.015	345.25
365.241	373.25
365.468	365.25
365.694	366.25
365.92	368.25
366.147	362.25
366.373	346.25
366.599	372.25
366.826	351.25
367.052	360.25
367.278	353.25
367.505	356.25
367.731	360.25
367.957	352.25
368.184	344.25
368.41	350.25
368.636	372.25
368.862	373.25
369.089	374.25
369.315	351.25
369.541	347.25
369.767	326.25
369.993	346.25
370.219	354.25
370.445	358.25
370.672	344.25
370.898	353.25
371.124	368.25
371.35	369.25
371.576	348.25
371.802	359.25
372.028	344.25
372.254	345.25
372.48	346.25
372.706	347.25
372.932	365.25
373.158	366.25
373.384	342.25
373.61	331.25
373.835	363.25
374.061	369.25
374.287	364.25
374.513	350.25
374.739	352.25
374.965	355.25
375.191	349.25
375.416	358.25
375.642	359.25
375.868	343.25
376.094	342.25
376.319	344.25
376.545	342.25
376.771	349.25
376.997	350.25
377.222	358.25
377.448	368.25
377.674	347.25
377.899	346.25
378.125	353.25
378.35	328.25
378.576	323.25
378.802	348.25
379.027	325.25
379.253	337.25
379.478	328.25
379.704	357.25
379.929	356.25
380.155	353.25
380.38	355.25
380.606	357.25
380.831	342.25
381.057	352.25
381.282	352.25
381.507	351.25
381.733	354.25
381.958	355.25
382.184	363.25
382.409	354.25
382.634	359.25
382.86	369.25
383.085	370.25
383.31	351.25
383.535	342.25
383.761	351.25
383.986	358.25
384.211	357.25
384.436	369.25
384.662	372.25
384.887	366.25
385.112	369.25
385.337	372.25
385.562	364.25
385.787	384.25
386.013	372.25
386.238	376.25
386.463	386.25
386.688	379.25
386.913	348.25
387.138	363.25
387.363	386.25
387.588	368.25
387.813	353.25
388.038	353.25
388.263	374.25
388.488	380.25
388.713	379.25
388.938	364.25
389.163	374.25
389.387	383.25
389.612	360.25
389.837	376.25
390.062	370.25
390.287	375.25
390.512	351.25
390.736	361.25
390.961	385.25
391.186	380.25
391.411	378.25
391.636	388.25
391.86	391.25
392.085	386.25
392.31	397.25
392.534	369.25
392.759	381.25
392.984	384.25
393.208	384.25
393.433	392.25
393.658	356.25
393.882	376.25
394.107	365.25
394.331	378.25
394.556	364.25
394.78	378.25
395.005	365.25
395.229	384.25
395.454	392.25
395.678	392.25
395.903	416.25
396.127	420.25
396.352	422.25
396.576	399.25
396.801	373.25
397.025	388.25
397.249	393.25
397.474	382.25
397.698	390.25
397.922	408.25
398.147	416.25
398.371	414.25
398.595	384.25
398.82	412.25
399.044	414.25
399.268	443.25
399.492	457.25
399.717	469.25
399.941	484.25
400.165	476.25
400.389	490.25
400.613	477.25
400.837	446.25
401.062	434.25
401.286	424.25
401.51	405.25
401.734	400.25
401.958	422.25
402.182	435.25
402.406	436.25
402.63	449.25
402.854	439.25
403.078	421.25
403.302	432.25
403.526	440.25
403.75	420.25
403.974	434.25
404.198	416.25
404.422	452.25
404.645	456.25
404.869	438.25
405.093	488.25
405.317	507.25
405.541	520.25
405.765	501.25
405.988	470.25
406.212	483.25
406.436	488.25
406.66	517.25
406.883	479.25
407.107	478.25
407.331	519.25
407.555	573.25
407.778	568.25
408.002	530.25
408.226	485.25
408.449	490.25
408.673	476.25
408.896	514.25
409.12	526.25
409.344	501.25
409.567	487.25
409.791	462.25
410.014	462.25
410.238	444.25
410.461	422.25
410.685	427.25
410.908	445.25
411.132	474.25
411.355	510.25
411.578	493.25
411.802	430.25
412.025	442.25
412.249	439.25
412.472	461.25
412.695	492.25
412.919	483.25
413.142	436.25
413.365	437.25
413.589	442.25
413.812	413.25
414.035	416.25
414.258	409.25
414.482	420.25
414.705	407.25
414.928	408.25
415.151	422.25
415.374	406.25
415.597	415.25
415.821	421.25
416.044	419.25
416.267	416.25
416.49	412.25
416.713	414.25
416.936	404.25
417.159	402.25
417.382	405.25
417.605	396.25
417.828	416.25
418.051	413.25
418.274	417.25
418.497	420.25
418.72	402.25
418.943	413.25
419.166	416.25
419.389	442.25
419.611	410.25
419.834	419.25
420.057	425.25
420.28	442.25
420.503	437.25
420.726	432.25
420.948	427.25
421.171	484.25
421.394	500.25
421.617	452.25
421.839	396.25
422.062	449.25
422.285	452.25
422.507	489.25
422.73	546.25
422.953	522.25
423.175	463.25
423.398	454.25
423.621	467.25
423.843	478.25
424.066	456.25
424.288	468.25
424.511	470.25
424.733	508.25
424.956	583.25
425.178	558.25
425.401	539.25
425.623	562.25
425.846	492.25
426.068	450.25
426.291	444.25
426.513	474.25
426.735	500.25
426.958	502.25
427.18	548.25
427.402	674.25
427.625	732.25
427.847	650.25
428.069	552.25
428.292	518.25
428.514	464.25
428.736	435.25
428.958	442.25
429.181	424.25
429.403	421.25
429.625	441.25
429.847	480.25
430.069	515.25
430.292	514.25
430.514	452.25
430.736	429.25
430.958	420.25
431.18	426.25
431.402	397.25
431.624	410.25
431.846	418.25
432.068	403.25
432.29	416.25
432.512	388.25
432.734	424.25
432.956	402.25
433.178	423.25
433.4	426.25
433.622	417.25
433.844	397.25
434.066	403.25
434.287	391.25
434.509	401.25
434.731	423.25
434.953	408.25
435.175	437.25
435.397	459.25
435.618	454.25
435.84	489.25
436.062	535.25
436.284	602.25
436.505	527.25
436.727	474.25
436.949	468.25
437.17	434.25
437.392	446.25
437.614	446.25
437.835	492.25
438.057	555.25
438.278	636.25
438.5	620.25
438.721	671.25
438.943	626.25
439.165	511.25
439.386	503.25
439.608	477.25
439.829	472.25
440.05	493.25
440.272	558.25
440.493	489.25
440.715	473.25
440.936	438.25
441.158	427.25
441.379	418.25
441.6	462.25
441.822	467.25
442.043	510.25
442.264	568.25
442.486	589.25
442.707	519.25
442.928	478.25
443.149	508.25
443.371	531.25
443.592	516.25
443.813	602.25
444.034	640.25
444.255	552.25
444.476	470.25
444.698	472.25
444.919	482.25
445.14	600.25
445.361	540.25
445.582	525.25
445.803	561.25
446.024	666.25
446.245	666.25
446.466	590.25
446.687	509.25
446.908	485.25
447.129	441.25
447.35	439.25
447.571	438.25
447.792	437.25
448.013	441.25
448.234	447.25
448.455	494.25
448.675	597.25
448.896	666.25
449.117	579.25
449.338	579.25
449.559	637.25
449.779	685.25
450	563.25
450.221	491.25
450.442	429.25
450.662	440.25
450.883	462.25
451.104	469.25
451.324	440.25
451.545	404.25
451.766	418.25
451.986	402.25
452.207	396.25
452.428	401.25
452.648	394.25
452.869	411.25
453.089	408.25
453.31	398.25
453.53	409.25
453.751	402.25
453.971	393.25
454.192	409.25
454.412	428.25
454.633	414.25
454.853	419.25
455.073	391.25
455.294	397.25
455.514	470.25
455.734	462.25
455.955	394.25
456.175	370.25
456.395	371.25
456.616	367.25
456.836	352.25
457.056	364.25
457.276	362.25
457.497	376.25
457.717	368.25
457.937	379.25
458.157	382.25
458.377	399.25
458.598	398.25
458.818	459.25
459.038	555.25
459.258	537.25
459.478	438.25
459.698	412.25
459.918	410.25
460.138	392.25
460.358	404.25
460.578	396.25
460.798	397.25
461.018	434.25
461.238	429.25
461.458	410.25
461.678	409.25
461.898	414.25
462.118	413.25
462.338	420.25
462.558	405.25
462.777	416.25
462.997	434.25
463.217	430.25
463.437	445.25
463.657	426.25
463.876	467.25
464.096	428.25
464.316	423.25
464.536	439.25
464.755	457.25
464.975	446.25
465.195	523.25
465.414	560.25
465.634	508.25
465.854	465.25
466.073	420.25
466.293	421.25
466.512	397.25
466.732	423.25
466.951	391.25
467.171	404.25
467.391	410.25
467.61	414.25
467.829	432.25
468.049	404.25
468.268	402.25
468.488	391.25
468.707	390.25
468.927	393.25
469.146	379.25
469.365	387.25
469.585	394.25
469.804	404.25
470.023	436.25
470.243	416.25
470.462	407.25
470.681	442.25
470.901	430.25
471.12	405.25
471.339	420.25
471.558	408.25
471.777	390.25
471.997	406.25
472.216	392.25
472.435	454.25
472.654	421.25
472.873	416.25
473.092	424.25
473.311	394.25
473.53	391.25
473.749	438.25
473.968	456.25
474.187	566.25
474.406	553.25
474.625	456.25
474.844	420.25
475.063	404.25
475.282	406.25
475.501	396.25
475.72	411.25
475.939	412.25
476.158	426.25
476.377	437.25
476.596	421.25
476.814	416.25
477.033	426.25
477.252	442.25
477.471	436.25
477.69	429.25
477.908	442.25
478.127	457.25
478.346	439.25
478.564	431.25
478.783	450.25
479.002	474.25
479.22	447.25
479.439	464.25
479.658	470.25
479.876	478.25
480.095	493.25
480.313	498.25
480.532	492.25
480.751	485.25
480.969	488.25
481.188	567.25
481.406	604.25
481.624	534.25
481.843	490.25
482.061	494.25
482.28	486.25
482.498	474.25
482.717	477.25
482.935	473.25
483.153	485.25
483.372	463.25
483.59	473.25
483.808	473.25
484.027	468.25
484.245	474.25
484.463	487.25
484.681	465.25
484.9	488.25
485.118	477.25
485.336	489.25
485.554	477.25
485.772	503.25
485.99	492.25
486.209	472.25
486.427	490.25
486.645	517.25
486.863	517.25
487.081	516.25
487.299	514.25
487.517	522.25
487.735	508.25
487.953	516.25
488.171	505.25
488.389	499.25
488.607	509.25
488.825	506.25
489.043	532.25
489.261	508.25
489.479	518.25
489.696	522.25
489.914	515.25
490.132	542.25
490.35	524.25
490.568	548.25
490.786	564.25
491.003	530.25
491.221	580.25
491.439	572.25
491.657	599.25
491.874	587.25
492.092	610.25
492.31	608.25
492.527	595.25
492.745	612.25
492.963	604.25
493.18	583.25
493.398	624.25
493.615	596.25
493.833	606.25
494.05	607.25
494.268	594.25
494.485	586.25
494.703	605.25
494.92	594.25
495.138	605.25
495.355	611.25
495.573	613.25
495.79	620.25
496.008	592.25
496.225	601.25
496.442	598.25
496.66	589.25
496.877	592.25
497.094	629.25
497.312	621.25
497.529	592.25
497.746	616.25
497.963	629.25
498.181	632.25
498.398	638.25
498.615	639.25
498.832	646.25
499.049	668.25
499.267	680.25
499.484	709.25
499.701	719.25
499.918	742.25
500.135	765.25
500.352	805.25
500.569	794.25
500.786	792.25
501.003	781.25
501.22	773.25
501.437	743.25
501.654	748.25
501.871	726.25
502.088	701.25
