Data from 1983.PennyLincolnUp.Lamp.En5.5.200Scan.071819.P1_HRD10591_16-53-38-965.txt Node
Date: Thu Jul 18 16:53:38 EDT 2019
User: cochatt
Spectrometer: HR+D1059
Trigger mode: 1
Integration Time (sec): 1.000000E-1
Scans to average: 1
Electric dark correction enabled: true
Nonlinearity correction enabled: false
Boxcar width: 0
XAxis mode: Wavelengths
Number of Pixels in Spectrum: 2048
>>>>>Begin Spectral Data<<<<<
223.165	-11.88
223.4	-11.88
223.635	-11.88
223.869	-25.88
224.104	-14.88
224.338	-10.88
224.573	-8.88
224.808	-11.88
225.042	-4.88
225.277	-8.88
225.511	-0.88
225.746	3.12
225.98	3.12
226.215	15.12
226.449	10.12
226.683	27.12
226.918	21.12
227.152	19.12
227.387	29.12
227.621	32.12
227.856	31.12
228.09	49.12
228.324	43.12
228.559	58.12
228.793	59.12
229.027	81.12
229.262	102.12
229.496	104.12
229.73	115.12
229.964	140.12
230.199	130.12
230.433	120.12
230.667	108.12
230.901	95.12
231.136	96.12
231.37	103.12
231.604	114.12
231.838	102.12
232.072	108.12
232.306	102.12
232.541	85.12
232.775	104.12
233.009	103.12
233.243	105.12
233.477	111.12
233.711	110.12
233.945	98.12
234.179	115.12
234.413	107.12
234.647	103.12
234.881	121.12
235.115	116.12
235.349	119.12
235.583	118.12
235.817	122.12
236.051	115.12
236.285	116.12
236.519	111.12
236.753	119.12
236.987	135.12
237.221	175.12
237.455	194.12
237.689	152.12
237.922	129.12
238.156	114.12
238.39	117.12
238.624	105.12
238.858	123.12
239.091	130.12
239.325	113.12
239.559	106.12
239.793	113.12
240.027	111.12
240.26	136.12
240.494	139.12
240.728	132.12
240.961	143.12
241.195	131.12
241.429	141.12
241.662	126.12
241.896	116.12
242.13	106.12
242.363	123.12
242.597	118.12
242.83	124.12
243.064	132.12
243.298	136.12
243.531	122.12
243.765	121.12
243.998	123.12
244.232	126.12
244.465	137.12
244.699	133.12
244.932	135.12
245.166	129.12
245.399	132.12
245.633	120.12
245.866	127.12
246.099	128.12
246.333	135.12
246.566	134.12
246.8	138.12
247.033	152.12
247.266	133.12
247.5	134.12
247.733	164.12
247.966	153.12
248.2	160.12
248.433	167.12
248.666	168.12
248.899	165.12
249.133	170.12
249.366	191.12
249.599	187.12
249.832	164.12
250.066	160.12
250.299	171.12
250.532	179.12
250.765	173.12
250.998	182.12
251.231	208.12
251.465	176.12
251.698	170.12
251.931	169.12
252.164	160.12
252.397	152.12
252.63	170.12
252.863	185.12
253.096	195.12
253.329	197.12
253.562	208.12
253.795	191.12
254.028	199.12
254.261	193.12
254.494	204.12
254.727	231.12
254.96	260.12
255.193	229.12
255.426	213.12
255.659	215.12
255.892	212.12
256.124	202.12
256.357	194.12
256.59	185.12
256.823	183.12
257.056	185.12
257.289	181.12
257.521	182.12
257.754	194.12
257.987	192.12
258.22	202.12
258.452	172.12
258.685	177.12
258.918	199.12
259.151	196.12
259.383	192.12
259.616	198.12
259.849	205.12
260.081	214.12
260.314	233.12
260.547	228.12
260.779	211.12
261.012	212.12
261.244	218.12
261.477	196.12
261.71	192.12
261.942	204.12
262.175	217.12
262.407	207.12
262.64	187.12
262.872	184.12
263.105	195.12
263.337	195.12
263.57	188.12
263.802	217.12
264.035	189.12
264.267	191.12
264.499	188.12
264.732	182.12
264.964	203.12
265.197	191.12
265.429	194.12
265.661	196.12
265.894	186.12
266.126	183.12
266.358	205.12
266.591	199.12
266.823	203.12
267.055	202.12
267.287	203.12
267.52	184.12
267.752	197.12
267.984	209.12
268.216	215.12
268.448	212.12
268.681	229.12
268.913	225.12
269.145	242.12
269.377	231.12
269.609	239.12
269.841	244.12
270.073	251.12
270.306	268.12
270.538	274.12
270.77	293.12
271.002	268.12
271.234	261.12
271.466	272.12
271.698	276.12
271.93	287.12
272.162	296.12
272.394	285.12
272.626	276.12
272.858	252.12
273.09	245.12
273.322	227.12
273.553	229.12
273.785	257.12
274.017	239.12
274.249	244.12
274.481	243.12
274.713	221.12
274.945	230.12
275.176	234.12
275.408	232.12
275.64	222.12
275.872	233.12
276.104	231.12
276.335	254.12
276.567	242.12
276.799	259.12
277.031	281.12
277.262	275.12
277.494	295.12
277.726	263.12
277.957	268.12
278.189	252.12
278.421	244.12
278.652	244.12
278.884	232.12
279.115	227.12
279.347	239.12
279.579	242.12
279.81	236.12
280.042	231.12
280.273	232.12
280.505	235.12
280.736	227.12
280.968	216.12
281.199	238.12
281.431	249.12
281.662	250.12
281.894	243.12
282.125	235.12
282.356	262.12
282.588	263.12
282.819	262.12
283.051	255.12
283.282	249.12
283.513	237.12
283.745	236.12
283.976	240.12
284.207	251.12
284.439	260.12
284.67	273.12
284.901	255.12
285.132	242.12
285.364	237.12
285.595	237.12
285.826	236.12
286.057	266.12
286.288	245.12
286.52	260.12
286.751	231.12
286.982	257.12
287.213	263.12
287.444	269.12
287.675	267.12
287.906	262.12
288.138	252.12
288.369	275.12
288.6	282.12
288.831	284.12
289.062	261.12
289.293	258.12
289.524	258.12
289.755	251.12
289.986	259.12
290.217	246.12
290.448	266.12
290.679	244.12
290.91	263.12
291.141	250.12
291.371	269.12
291.602	265.12
291.833	267.12
292.064	251.12
292.295	261.12
292.526	249.12
292.757	259.12
292.987	263.12
293.218	252.12
293.449	265.12
293.68	251.12
293.91	258.12
294.141	267.12
294.372	245.12
294.603	248.12
294.833	250.12
295.064	246.12
295.295	257.12
295.525	255.12
295.756	258.12
295.987	293.12
296.217	299.12
296.448	293.12
296.679	263.12
296.909	286.12
297.14	269.12
297.37	265.12
297.601	268.12
297.831	267.12
298.062	268.12
298.292	275.12
298.523	282.12
298.753	270.12
298.984	261.12
299.214	260.12
299.445	274.12
299.675	282.12
299.905	283.12
300.136	275.12
300.366	288.12
300.597	277.12
300.827	287.12
301.057	278.12
301.288	292.12
301.518	284.12
301.748	282.12
301.979	300.12
302.209	288.12
302.439	279.12
302.669	283.12
302.9	301.12
303.13	276.12
303.36	294.12
303.59	295.12
303.82	305.12
304.051	301.12
304.281	282.12
304.511	291.12
304.741	297.12
304.971	262.12
305.201	293.12
305.431	283.12
305.661	281.12
305.891	291.12
306.121	294.12
306.352	310.12
306.582	309.12
306.812	309.12
307.042	272.12
307.272	303.12
307.502	293.12
307.731	285.12
307.961	286.12
308.191	298.12
308.421	286.12
308.651	308.12
308.881	294.12
309.111	281.12
309.341	297.12
309.571	306.12
309.8	325.12
310.03	312.12
310.26	337.12
310.49	338.12
310.72	348.12
310.949	344.12
311.179	337.12
311.409	345.12
311.639	343.12
311.868	341.12
312.098	367.12
312.328	322.12
312.557	351.12
312.787	377.12
313.017	378.12
313.246	360.12
313.476	318.12
313.706	329.12
313.935	339.12
314.165	348.12
314.394	349.12
314.624	354.12
314.853	358.12
315.083	344.12
315.312	343.12
315.542	325.12
315.771	337.12
316.001	330.12
316.23	348.12
316.46	339.12
316.689	324.12
316.919	331.12
317.148	335.12
317.377	340.12
317.607	352.12
317.836	345.12
318.065	341.12
318.295	336.12
318.524	332.12
318.753	334.12
318.983	330.12
319.212	340.12
319.441	360.12
319.67	368.12
319.9	346.12
320.129	350.12
320.358	335.12
320.587	333.12
320.816	348.12
321.046	359.12
321.275	351.12
321.504	349.12
321.733	362.12
321.962	365.12
322.191	381.12
322.42	397.12
322.649	409.12
322.878	406.12
323.108	433.12
323.337	433.12
323.566	466.12
323.795	491.12
324.024	547.12
324.253	657.12
324.482	980.12
324.71	1451.12
324.939	1930.12
325.168	1616.12
325.397	871.12
325.626	589.12
325.855	506.12
326.084	453.12
326.313	417.12
326.542	468.12
326.77	515.12
326.999	611.12
327.228	869.12
327.457	1252.12
327.686	1450.12
327.914	963.12
328.143	639.12
328.372	570.12
328.6	532.12
328.829	506.12
329.058	533.12
329.287	531.12
329.515	500.12
329.744	458.12
329.972	431.12
330.201	453.12
330.43	487.12
330.658	539.12
330.887	536.12
331.115	524.12
331.344	453.12
331.572	447.12
331.801	432.12
332.03	416.12
332.258	413.12
332.486	399.12
332.715	404.12
332.943	397.12
333.172	409.12
333.4	421.12
333.629	422.12
333.857	407.12
334.085	431.12
334.314	415.12
334.542	418.12
334.771	444.12
334.999	422.12
335.227	399.12
335.455	384.12
335.684	375.12
335.912	389.12
336.14	386.12
336.369	386.12
336.597	400.12
336.825	408.12
337.053	383.12
337.281	385.12
337.51	385.12
337.738	387.12
337.966	385.12
338.194	360.12
338.422	392.12
338.65	385.12
338.878	392.12
339.106	390.12
339.334	365.12
339.562	371.12
339.79	371.12
340.018	386.12
340.246	385.12
340.474	379.12
340.702	383.12
340.93	386.12
341.158	377.12
341.386	387.12
341.614	387.12
341.842	361.12
342.07	371.12
342.298	385.12
342.526	376.12
342.754	341.12
342.981	362.12
343.209	357.12
343.437	359.12
343.665	364.12
343.893	364.12
344.12	403.12
344.348	367.12
344.576	359.12
344.804	387.12
345.031	384.12
345.259	393.12
345.487	398.12
345.714	379.12
345.942	378.12
346.17	365.12
346.397	371.12
346.625	358.12
346.853	362.12
347.08	374.12
347.308	365.12
347.535	375.12
347.763	385.12
347.99	357.12
348.218	362.12
348.445	375.12
348.673	383.12
348.9	391.12
349.128	364.12
349.355	348.12
349.583	356.12
349.81	344.12
350.037	347.12
350.265	353.12
350.492	351.12
350.72	335.12
350.947	352.12
351.174	366.12
351.402	378.12
351.629	388.12
351.856	392.12
352.083	367.12
352.311	402.12
352.538	378.12
352.765	372.12
352.992	376.12
353.22	373.12
353.447	374.12
353.674	355.12
353.901	345.12
354.128	346.12
354.355	360.12
354.583	329.12
354.81	341.12
355.037	307.12
355.264	325.12
355.491	351.12
355.718	348.12
355.945	320.12
356.172	328.12
356.399	327.12
356.626	342.12
356.853	335.12
357.08	346.12
357.307	337.12
357.534	340.12
357.761	322.12
357.988	338.12
358.215	346.12
358.441	356.12
358.668	342.12
358.895	352.12
359.122	361.12
359.349	356.12
359.576	373.12
359.802	412.12
360.029	404.12
360.256	432.12
360.483	401.12
360.709	367.12
360.936	379.12
361.163	358.12
361.39	361.12
361.616	367.12
361.843	361.12
362.07	362.12
362.296	364.12
362.523	381.12
362.749	364.12
362.976	340.12
363.203	343.12
363.429	346.12
363.656	347.12
363.882	355.12
364.109	332.12
364.335	334.12
364.562	350.12
364.788	347.12
365.015	341.12
365.241	356.12
365.468	339.12
365.694	348.12
365.92	330.12
366.147	351.12
366.373	351.12
366.599	332.12
366.826	357.12
367.052	329.12
367.278	330.12
367.505	348.12
367.731	339.12
367.957	356.12
368.184	358.12
368.41	353.12
368.636	362.12
368.862	351.12
369.089	358.12
369.315	344.12
369.541	348.12
369.767	344.12
369.993	357.12
370.219	355.12
370.445	348.12
370.672	341.12
370.898	340.12
371.124	342.12
371.35	344.12
371.576	356.12
371.802	324.12
372.028	337.12
372.254	346.12
372.48	351.12
372.706	351.12
372.932	336.12
373.158	332.12
373.384	340.12
373.61	338.12
373.835	340.12
374.061	352.12
374.287	343.12
374.513	349.12
374.739	337.12
374.965	343.12
375.191	366.12
375.416	348.12
375.642	330.12
375.868	343.12
376.094	338.12
376.319	334.12
376.545	341.12
376.771	333.12
376.997	330.12
377.222	337.12
377.448	343.12
377.674	344.12
377.899	344.12
378.125	324.12
378.35	365.12
378.576	338.12
378.802	335.12
379.027	332.12
379.253	337.12
379.478	327.12
379.704	339.12
379.929	346.12
380.155	343.12
380.38	350.12
380.606	326.12
380.831	346.12
381.057	333.12
381.282	347.12
381.507	317.12
381.733	357.12
381.958	342.12
382.184	333.12
382.409	350.12
382.634	347.12
382.86	348.12
383.085	353.12
383.31	344.12
383.535	371.12
383.761	343.12
383.986	367.12
384.211	356.12
384.436	350.12
384.662	336.12
384.887	347.12
385.112	364.12
385.337	357.12
385.562	363.12
385.787	370.12
386.013	391.12
386.238	369.12
386.463	379.12
386.688	375.12
386.913	349.12
387.138	344.12
387.363	346.12
387.588	352.12
387.813	358.12
388.038	353.12
388.263	362.12
388.488	365.12
388.713	352.12
388.938	368.12
389.163	386.12
389.387	358.12
389.612	364.12
389.837	371.12
390.062	352.12
390.287	356.12
390.512	359.12
390.736	361.12
390.961	348.12
391.186	355.12
391.411	371.12
391.636	354.12
391.86	347.12
392.085	362.12
392.31	355.12
392.534	362.12
392.759	375.12
392.984	381.12
393.208	375.12
393.433	372.12
393.658	372.12
393.882	362.12
394.107	354.12
394.331	346.12
394.556	368.12
394.78	363.12
395.005	351.12
395.229	367.12
395.454	388.12
395.678	389.12
395.903	376.12
396.127	375.12
396.352	390.12
396.576	385.12
396.801	389.12
397.025	383.12
397.249	392.12
397.474	379.12
397.698	377.12
397.922	383.12
398.147	392.12
398.371	415.12
398.595	397.12
398.82	407.12
399.044	385.12
399.268	415.12
399.492	442.12
399.717	487.12
399.941	486.12
400.165	478.12
400.389	504.12
400.613	441.12
400.837	444.12
401.062	437.12
401.286	421.12
401.51	409.12
401.734	391.12
401.958	408.12
402.182	405.12
402.406	437.12
402.63	430.12
402.854	418.12
403.078	420.12
403.302	416.12
403.526	452.12
403.75	425.12
403.974	422.12
404.198	419.12
404.422	417.12
404.645	427.12
404.869	435.12
405.093	455.12
405.317	474.12
405.541	483.12
405.765	470.12
405.988	460.12
406.212	443.12
406.436	489.12
406.66	475.12
406.883	477.12
407.107	497.12
407.331	520.12
407.555	556.12
407.778	534.12
408.002	520.12
408.226	474.12
408.449	441.12
408.673	474.12
408.896	485.12
409.12	539.12
409.344	486.12
409.567	431.12
409.791	440.12
410.014	404.12
410.238	414.12
410.461	435.12
410.685	409.12
410.908	465.12
411.132	479.12
411.355	508.12
411.578	466.12
411.802	431.12
412.025	428.12
412.249	422.12
412.472	465.12
412.695	456.12
412.919	437.12
413.142	409.12
413.365	427.12
413.589	404.12
413.812	394.12
414.035	396.12
414.258	402.12
414.482	385.12
414.705	409.12
414.928	397.12
415.151	404.12
415.374	391.12
415.597	391.12
415.821	381.12
416.044	402.12
416.267	417.12
416.49	398.12
416.713	392.12
416.936	395.12
417.159	401.12
417.382	402.12
417.605	399.12
417.828	416.12
418.051	423.12
418.274	413.12
418.497	407.12
418.72	407.12
418.943	400.12
419.166	417.12
419.389	436.12
419.611	449.12
419.834	420.12
420.057	408.12
420.28	413.12
420.503	433.12
420.726	405.12
420.948	423.12
421.171	453.12
421.394	487.12
421.617	433.12
421.839	405.12
422.062	420.12
422.285	465.12
422.507	495.12
422.73	522.12
422.953	511.12
423.175	456.12
423.398	441.12
423.621	440.12
423.843	459.12
424.066	470.12
424.288	447.12
424.511	460.12
424.733	512.12
424.956	554.12
425.178	551.12
425.401	535.12
425.623	538.12
425.846	492.12
426.068	471.12
426.291	455.12
426.513	477.12
426.735	464.12
426.958	475.12
427.18	556.12
427.402	635.12
427.625	703.12
427.847	635.12
428.069	526.12
428.292	492.12
428.514	443.12
428.736	452.12
428.958	448.12
429.181	417.12
429.403	417.12
429.625	418.12
429.847	446.12
430.069	507.12
430.292	484.12
430.514	444.12
430.736	434.12
430.958	397.12
431.18	405.12
431.402	409.12
431.624	394.12
431.846	396.12
432.068	387.12
432.29	416.12
432.512	378.12
432.734	393.12
432.956	409.12
433.178	414.12
433.4	437.12
433.622	424.12
433.844	401.12
434.066	405.12
434.287	393.12
434.509	399.12
434.731	394.12
434.953	413.12
435.175	416.12
435.397	453.12
435.618	460.12
435.84	483.12
436.062	541.12
436.284	604.12
436.505	508.12
436.727	458.12
436.949	450.12
437.17	422.12
437.392	427.12
437.614	430.12
437.835	456.12
438.057	566.12
438.278	612.12
438.5	635.12
438.721	679.12
438.943	612.12
439.165	518.12
439.386	484.12
439.608	456.12
439.829	480.12
440.05	492.12
440.272	506.12
440.493	492.12
440.715	446.12
440.936	433.12
441.158	448.12
441.379	450.12
441.6	422.12
441.822	457.12
442.043	478.12
442.264	554.12
442.486	571.12
442.707	497.12
442.928	472.12
443.149	496.12
443.371	492.12
443.592	518.12
443.813	598.12
444.034	619.12
444.255	529.12
444.476	469.12
444.698	471.12
444.919	447.12
445.14	548.12
445.361	499.12
445.582	493.12
445.803	548.12
446.024	606.12
446.245	612.12
446.466	583.12
446.687	502.12
446.908	459.12
447.129	444.12
447.35	434.12
447.571	411.12
447.792	411.12
448.013	428.12
448.234	435.12
448.455	486.12
448.675	549.12
448.896	630.12
449.117	575.12
449.338	531.12
449.559	627.12
449.779	674.12
450	565.12
450.221	470.12
450.442	422.12
450.662	416.12
450.883	420.12
451.104	453.12
451.324	447.12
451.545	408.12
451.766	392.12
451.986	393.12
452.207	353.12
452.428	383.12
452.648	386.12
452.869	388.12
453.089	402.12
453.31	417.12
453.53	388.12
453.751	364.12
453.971	375.12
454.192	415.12
454.412	393.12
454.633	404.12
454.853	373.12
455.073	380.12
455.294	406.12
455.514	427.12
455.734	418.12
455.955	377.12
456.175	356.12
456.395	362.12
456.616	347.12
456.836	352.12
457.056	360.12
457.276	356.12
457.497	371.12
457.717	364.12
457.937	374.12
458.157	375.12
458.377	376.12
458.598	393.12
458.818	437.12
459.038	531.12
459.258	519.12
459.478	437.12
459.698	419.12
459.918	381.12
460.138	390.12
460.358	409.12
460.578	386.12
460.798	432.12
461.018	396.12
461.238	397.12
461.458	407.12
461.678	413.12
461.898	402.12
462.118	406.12
462.338	413.12
462.558	390.12
462.777	410.12
462.997	435.12
463.217	448.12
463.437	426.12
463.657	413.12
463.876	436.12
464.096	431.12
464.316	406.12
464.536	416.12
464.755	435.12
464.975	442.12
465.195	497.12
465.414	559.12
465.634	471.12
465.854	420.12
466.073	411.12
466.293	400.12
466.512	372.12
466.732	398.12
466.951	385.12
467.171	383.12
467.391	394.12
467.61	390.12
467.829	410.12
468.049	422.12
468.268	406.12
468.488	384.12
468.707	378.12
468.927	377.12
469.146	385.12
469.365	377.12
469.585	395.12
469.804	363.12
470.023	378.12
470.243	391.12
470.462	415.12
470.681	416.12
470.901	416.12
471.12	397.12
471.339	389.12
471.558	385.12
471.777	384.12
471.997	386.12
472.216	400.12
472.435	412.12
472.654	380.12
472.873	393.12
473.092	380.12
473.311	392.12
473.53	382.12
473.749	382.12
473.968	438.12
474.187	515.12
474.406	534.12
474.625	438.12
474.844	405.12
475.063	378.12
475.282	375.12
475.501	381.12
475.72	394.12
475.939	398.12
476.158	404.12
476.377	379.12
476.596	407.12
476.814	411.12
477.033	430.12
477.252	411.12
477.471	416.12
477.69	401.12
477.908	415.12
478.127	414.12
478.346	425.12
478.564	444.12
478.783	442.12
479.002	431.12
479.22	417.12
479.439	466.12
479.658	451.12
479.876	477.12
480.095	471.12
480.313	491.12
480.532	478.12
480.751	480.12
480.969	472.12
481.188	511.12
481.406	541.12
481.624	477.12
481.843	463.12
482.061	456.12
482.28	463.12
482.498	419.12
482.717	439.12
482.935	452.12
483.153	464.12
483.372	453.12
483.59	449.12
483.808	443.12
484.027	445.12
484.245	459.12
484.463	467.12
484.681	459.12
484.9	475.12
485.118	469.12
485.336	480.12
485.554	429.12
485.772	466.12
485.99	480.12
486.209	479.12
486.427	461.12
486.645	485.12
486.863	512.12
487.081	496.12
487.299	503.12
487.517	500.12
487.735	507.12
487.953	490.12
488.171	489.12
488.389	492.12
488.607	475.12
488.825	497.12
489.043	485.12
489.261	487.12
489.479	497.12
489.696	485.12
489.914	489.12
490.132	482.12
490.35	512.12
490.568	507.12
490.786	526.12
491.003	516.12
491.221	550.12
491.439	562.12
491.657	531.12
491.874	556.12
492.092	533.12
492.31	579.12
492.527	554.12
492.745	574.12
492.963	588.12
493.18	566.12
493.398	585.12
493.615	566.12
493.833	575.12
494.05	602.12
494.268	599.12
494.485	573.12
494.703	571.12
494.92	604.12
495.138	573.12
495.355	575.12
495.573	580.12
495.79	582.12
496.008	579.12
496.225	576.12
496.442	571.12
496.66	559.12
496.877	573.12
497.094	582.12
497.312	588.12
497.529	597.12
497.746	601.12
497.963	600.12
498.181	626.12
498.398	595.12
498.615	645.12
498.832	647.12
499.049	616.12
499.267	662.12
499.484	679.12
499.701	684.12
499.918	739.12
500.135	738.12
500.352	765.12
500.569	764.12
500.786	785.12
501.003	755.12
501.22	752.12
501.437	702.12
501.654	716.12
501.871	728.12
502.088	703.12
