Data from 1983.PennyLincolnUp.Lamp.En5.5.200Scan.071819.P1_HRD10591_16-54-35-966.txt Node
Date: Thu Jul 18 16:54:35 EDT 2019
User: cochatt
Spectrometer: HR+D1059
Trigger mode: 1
Integration Time (sec): 1.000000E-1
Scans to average: 1
Electric dark correction enabled: true
Nonlinearity correction enabled: false
Boxcar width: 0
XAxis mode: Wavelengths
Number of Pixels in Spectrum: 2048
>>>>>Begin Spectral Data<<<<<
223.165	-20.44
223.4	-20.44
223.635	-20.44
223.869	-11.44
224.104	-19.44
224.338	-20.44
224.573	-13.44
224.808	-0.44
225.042	3.56
225.277	-19.44
225.511	-15.44
225.746	2.56
225.98	-1.44
226.215	12.56
226.449	28.56
226.683	24.56
226.918	25.56
227.152	24.56
227.387	37.56
227.621	41.56
227.856	44.56
228.09	44.56
228.324	54.56
228.559	55.56
228.793	54.56
229.027	87.56
229.262	112.56
229.496	112.56
229.73	122.56
229.964	150.56
230.199	116.56
230.433	108.56
230.667	106.56
230.901	118.56
231.136	100.56
231.37	107.56
231.604	92.56
231.838	108.56
232.072	109.56
232.306	88.56
232.541	120.56
232.775	112.56
233.009	109.56
233.243	105.56
233.477	106.56
233.711	119.56
233.945	104.56
234.179	126.56
234.413	114.56
234.647	114.56
234.881	100.56
235.115	106.56
235.349	113.56
235.583	124.56
235.817	126.56
236.051	107.56
236.285	115.56
236.519	112.56
236.753	120.56
236.987	125.56
237.221	163.56
237.455	227.56
237.689	182.56
237.922	131.56
238.156	123.56
238.39	117.56
238.624	128.56
238.858	126.56
239.091	116.56
239.325	104.56
239.559	109.56
239.793	135.56
240.027	127.56
240.26	126.56
240.494	133.56
240.728	150.56
240.961	142.56
241.195	140.56
241.429	133.56
241.662	125.56
241.896	142.56
242.13	128.56
242.363	122.56
242.597	137.56
242.83	137.56
243.064	149.56
243.298	141.56
243.531	135.56
243.765	122.56
243.998	130.56
244.232	135.56
244.465	137.56
244.699	145.56
244.932	147.56
245.166	148.56
245.399	127.56
245.633	138.56
245.866	141.56
246.099	132.56
246.333	144.56
246.566	125.56
246.8	138.56
247.033	134.56
247.266	142.56
247.5	146.56
247.733	156.56
247.966	165.56
248.2	160.56
248.433	147.56
248.666	154.56
248.899	180.56
249.133	181.56
249.366	200.56
249.599	169.56
249.832	176.56
250.066	173.56
250.299	160.56
250.532	165.56
250.765	176.56
250.998	202.56
251.231	216.56
251.465	201.56
251.698	195.56
251.931	181.56
252.164	193.56
252.397	183.56
252.63	184.56
252.863	186.56
253.096	193.56
253.329	210.56
253.562	215.56
253.795	209.56
254.028	194.56
254.261	207.56
254.494	217.56
254.727	236.56
254.96	251.56
255.193	249.56
255.426	231.56
255.659	222.56
255.892	211.56
256.124	227.56
256.357	214.56
256.59	230.56
256.823	195.56
257.056	216.56
257.289	201.56
257.521	214.56
257.754	196.56
257.987	210.56
258.22	190.56
258.452	188.56
258.685	188.56
258.918	189.56
259.151	196.56
259.383	204.56
259.616	213.56
259.849	210.56
260.081	214.56
260.314	237.56
260.547	225.56
260.779	215.56
261.012	214.56
261.244	216.56
261.477	201.56
261.71	200.56
261.942	218.56
262.175	230.56
262.407	215.56
262.64	204.56
262.872	197.56
263.105	202.56
263.337	205.56
263.57	183.56
263.802	206.56
264.035	192.56
264.267	196.56
264.499	198.56
264.732	198.56
264.964	194.56
265.197	192.56
265.429	204.56
265.661	202.56
265.894	203.56
266.126	192.56
266.358	201.56
266.591	208.56
266.823	210.56
267.055	214.56
267.287	217.56
267.52	211.56
267.752	209.56
267.984	221.56
268.216	216.56
268.448	214.56
268.681	216.56
268.913	216.56
269.145	251.56
269.377	272.56
269.609	262.56
269.841	240.56
270.073	250.56
270.306	278.56
270.538	297.56
270.77	284.56
271.002	286.56
271.234	261.56
271.466	281.56
271.698	278.56
271.93	294.56
272.162	292.56
272.394	315.56
272.626	282.56
272.858	282.56
273.09	276.56
273.322	267.56
273.553	237.56
273.785	252.56
274.017	237.56
274.249	268.56
274.481	260.56
274.713	251.56
274.945	250.56
275.176	245.56
275.408	245.56
275.64	245.56
275.872	242.56
276.104	249.56
276.335	255.56
276.567	265.56
276.799	264.56
277.031	267.56
277.262	300.56
277.494	308.56
277.726	292.56
277.957	269.56
278.189	266.56
278.421	250.56
278.652	260.56
278.884	246.56
279.115	256.56
279.347	249.56
279.579	257.56
279.81	257.56
280.042	254.56
280.273	254.56
280.505	233.56
280.736	241.56
280.968	243.56
281.199	253.56
281.431	240.56
281.662	260.56
281.894	241.56
282.125	247.56
282.356	258.56
282.588	292.56
282.819	266.56
283.051	264.56
283.282	244.56
283.513	255.56
283.745	257.56
283.976	264.56
284.207	260.56
284.439	260.56
284.67	261.56
284.901	254.56
285.132	257.56
285.364	270.56
285.595	260.56
285.826	249.56
286.057	261.56
286.288	270.56
286.52	271.56
286.751	255.56
286.982	253.56
287.213	277.56
287.444	278.56
287.675	256.56
287.906	263.56
288.138	285.56
288.369	284.56
288.6	283.56
288.831	273.56
289.062	273.56
289.293	257.56
289.524	261.56
289.755	259.56
289.986	263.56
290.217	258.56
290.448	266.56
290.679	269.56
290.91	258.56
291.141	269.56
291.371	253.56
291.602	258.56
291.833	243.56
292.064	256.56
292.295	256.56
292.526	264.56
292.757	290.56
292.987	276.56
293.218	259.56
293.449	255.56
293.68	253.56
293.91	246.56
294.141	253.56
294.372	274.56
294.603	280.56
294.833	283.56
295.064	261.56
295.295	260.56
295.525	279.56
295.756	294.56
295.987	291.56
296.217	299.56
296.448	299.56
296.679	285.56
296.909	275.56
297.14	243.56
297.37	279.56
297.601	251.56
297.831	267.56
298.062	269.56
298.292	269.56
298.523	270.56
298.753	279.56
298.984	283.56
299.214	280.56
299.445	268.56
299.675	276.56
299.905	275.56
300.136	289.56
300.366	285.56
300.597	292.56
300.827	297.56
301.057	295.56
301.288	309.56
301.518	302.56
301.748	301.56
301.979	312.56
302.209	296.56
302.439	310.56
302.669	299.56
302.9	308.56
303.13	314.56
303.36	293.56
303.59	312.56
303.82	320.56
304.051	301.56
304.281	314.56
304.511	297.56
304.741	309.56
304.971	288.56
305.201	294.56
305.431	310.56
305.661	306.56
305.891	330.56
306.121	314.56
306.352	313.56
306.582	315.56
306.812	320.56
307.042	293.56
307.272	280.56
307.502	302.56
307.731	290.56
307.961	298.56
308.191	317.56
308.421	309.56
308.651	332.56
308.881	308.56
309.111	319.56
309.341	329.56
309.571	323.56
309.8	332.56
310.03	344.56
310.26	352.56
310.49	342.56
310.72	374.56
310.949	360.56
311.179	377.56
311.409	370.56
311.639	343.56
311.868	328.56
312.098	374.56
312.328	336.56
312.557	374.56
312.787	399.56
313.017	386.56
313.246	376.56
313.476	363.56
313.706	365.56
313.935	362.56
314.165	375.56
314.394	371.56
314.624	358.56
314.853	350.56
315.083	357.56
315.312	357.56
315.542	350.56
315.771	323.56
316.001	340.56
316.23	332.56
316.46	348.56
316.689	352.56
316.919	354.56
317.148	365.56
317.377	362.56
317.607	362.56
317.836	358.56
318.065	350.56
318.295	346.56
318.524	348.56
318.753	357.56
318.983	349.56
319.212	343.56
319.441	371.56
319.67	372.56
319.9	355.56
320.129	365.56
320.358	360.56
320.587	367.56
320.816	370.56
321.046	390.56
321.275	366.56
321.504	387.56
321.733	388.56
321.962	379.56
322.191	394.56
322.42	396.56
322.649	414.56
322.878	434.56
323.108	434.56
323.337	445.56
323.566	477.56
323.795	490.56
324.024	579.56
324.253	700.56
324.482	994.56
324.71	1531.56
324.939	2073.56
325.168	1730.56
325.397	930.56
325.626	635.56
325.855	526.56
326.084	490.56
326.313	488.56
326.542	491.56
326.77	524.56
326.999	654.56
327.228	884.56
327.457	1321.56
327.686	1517.56
327.914	1024.56
328.143	684.56
328.372	614.56
328.6	572.56
328.829	544.56
329.058	570.56
329.287	601.56
329.515	533.56
329.744	477.56
329.972	486.56
330.201	515.56
330.43	553.56
330.658	565.56
330.887	590.56
331.115	570.56
331.344	514.56
331.572	514.56
331.801	469.56
332.03	470.56
332.258	424.56
332.486	424.56
332.715	427.56
332.943	429.56
333.172	410.56
333.4	425.56
333.629	417.56
333.857	465.56
334.085	460.56
334.314	468.56
334.542	517.56
334.771	500.56
334.999	472.56
335.227	439.56
335.455	418.56
335.684	417.56
335.912	409.56
336.14	396.56
336.369	414.56
336.597	403.56
336.825	396.56
337.053	408.56
337.281	405.56
337.51	393.56
337.738	396.56
337.966	401.56
338.194	401.56
338.422	409.56
338.65	407.56
338.878	395.56
339.106	395.56
339.334	398.56
339.562	408.56
339.79	402.56
340.018	393.56
340.246	398.56
340.474	390.56
340.702	395.56
340.93	377.56
341.158	377.56
341.386	388.56
341.614	406.56
341.842	394.56
342.07	392.56
342.298	398.56
342.526	386.56
342.754	386.56
342.981	380.56
343.209	392.56
343.437	399.56
343.665	386.56
343.893	392.56
344.12	387.56
344.348	392.56
344.576	417.56
344.804	398.56
345.031	399.56
345.259	402.56
345.487	404.56
345.714	406.56
345.942	382.56
346.17	378.56
346.397	382.56
346.625	377.56
346.853	392.56
347.08	395.56
347.308	376.56
347.535	384.56
347.763	388.56
347.99	412.56
348.218	393.56
348.445	394.56
348.673	391.56
348.9	374.56
349.128	356.56
349.355	380.56
349.583	360.56
349.81	365.56
350.037	374.56
350.265	349.56
350.492	362.56
350.72	376.56
350.947	359.56
351.174	380.56
351.402	384.56
351.629	384.56
351.856	393.56
352.083	405.56
352.311	388.56
352.538	389.56
352.765	425.56
352.992	384.56
353.22	390.56
353.447	377.56
353.674	379.56
353.901	354.56
354.128	350.56
354.355	369.56
354.583	356.56
354.81	358.56
355.037	347.56
355.264	352.56
355.491	348.56
355.718	337.56
355.945	360.56
356.172	345.56
356.399	349.56
356.626	350.56
356.853	336.56
357.08	344.56
357.307	356.56
357.534	356.56
357.761	337.56
357.988	343.56
358.215	370.56
358.441	359.56
358.668	354.56
358.895	365.56
359.122	353.56
359.349	373.56
359.576	389.56
359.802	394.56
360.029	436.56
360.256	442.56
360.483	439.56
360.709	381.56
360.936	386.56
361.163	371.56
361.39	388.56
361.616	382.56
361.843	374.56
362.07	366.56
362.296	380.56
362.523	365.56
362.749	380.56
362.976	386.56
363.203	378.56
363.429	373.56
363.656	378.56
363.882	358.56
364.109	366.56
364.335	376.56
364.562	356.56
364.788	352.56
365.015	344.56
365.241	357.56
365.468	359.56
365.694	373.56
365.92	365.56
366.147	360.56
366.373	362.56
366.599	351.56
366.826	348.56
367.052	354.56
367.278	336.56
367.505	360.56
367.731	363.56
367.957	361.56
368.184	361.56
368.41	359.56
368.636	369.56
368.862	380.56
369.089	375.56
369.315	345.56
369.541	370.56
369.767	368.56
369.993	354.56
370.219	349.56
370.445	361.56
370.672	357.56
370.898	343.56
371.124	356.56
371.35	347.56
371.576	348.56
371.802	349.56
372.028	369.56
372.254	347.56
372.48	329.56
372.706	332.56
372.932	363.56
373.158	352.56
373.384	346.56
373.61	346.56
373.835	359.56
374.061	351.56
374.287	347.56
374.513	347.56
374.739	361.56
374.965	348.56
375.191	339.56
375.416	378.56
375.642	350.56
375.868	368.56
376.094	371.56
376.319	338.56
376.545	371.56
376.771	364.56
376.997	356.56
377.222	353.56
377.448	373.56
377.674	354.56
377.899	355.56
378.125	354.56
378.35	354.56
378.576	337.56
378.802	348.56
379.027	361.56
379.253	341.56
379.478	349.56
379.704	339.56
379.929	340.56
380.155	348.56
380.38	349.56
380.606	354.56
380.831	357.56
381.057	335.56
381.282	364.56
381.507	341.56
381.733	379.56
381.958	356.56
382.184	344.56
382.409	354.56
382.634	349.56
382.86	346.56
383.085	356.56
383.31	342.56
383.535	351.56
383.761	361.56
383.986	353.56
384.211	357.56
384.436	363.56
384.662	373.56
384.887	386.56
385.112	371.56
385.337	355.56
385.562	368.56
385.787	362.56
386.013	373.56
386.238	385.56
386.463	390.56
386.688	364.56
386.913	373.56
387.138	376.56
387.363	366.56
387.588	373.56
387.813	365.56
388.038	364.56
388.263	386.56
388.488	386.56
388.713	372.56
388.938	394.56
389.163	379.56
389.387	364.56
389.612	366.56
389.837	377.56
390.062	376.56
390.287	392.56
390.512	364.56
390.736	378.56
390.961	368.56
391.186	381.56
391.411	379.56
391.636	371.56
391.86	406.56
392.085	391.56
392.31	394.56
392.534	402.56
392.759	387.56
392.984	377.56
393.208	386.56
393.433	379.56
393.658	376.56
393.882	390.56
394.107	368.56
394.331	360.56
394.556	359.56
394.78	367.56
395.005	384.56
395.229	386.56
395.454	376.56
395.678	397.56
395.903	390.56
396.127	405.56
396.352	399.56
396.576	398.56
396.801	388.56
397.025	376.56
397.249	392.56
397.474	405.56
397.698	370.56
397.922	385.56
398.147	410.56
398.371	426.56
398.595	415.56
398.82	418.56
399.044	420.56
399.268	435.56
399.492	455.56
399.717	483.56
399.941	496.56
400.165	510.56
400.389	520.56
400.613	480.56
400.837	453.56
401.062	438.56
401.286	426.56
401.51	434.56
401.734	419.56
401.958	435.56
402.182	438.56
402.406	443.56
402.63	448.56
402.854	437.56
403.078	436.56
403.302	416.56
403.526	429.56
403.75	424.56
403.974	436.56
404.198	453.56
404.422	467.56
404.645	444.56
404.869	444.56
405.093	476.56
405.317	527.56
405.541	527.56
405.765	501.56
405.988	483.56
406.212	460.56
406.436	513.56
406.66	504.56
406.883	490.56
407.107	515.56
407.331	535.56
407.555	562.56
407.778	576.56
408.002	536.56
408.226	497.56
408.449	480.56
408.673	480.56
408.896	491.56
409.12	506.56
409.344	510.56
409.567	452.56
409.791	440.56
410.014	451.56
410.238	454.56
410.461	440.56
410.685	437.56
410.908	453.56
411.132	470.56
411.355	516.56
411.578	497.56
411.802	457.56
412.025	456.56
412.249	453.56
412.472	480.56
412.695	479.56
412.919	501.56
413.142	465.56
413.365	438.56
413.589	430.56
413.812	416.56
414.035	420.56
414.258	410.56
414.482	416.56
414.705	409.56
414.928	406.56
415.151	412.56
415.374	414.56
415.597	412.56
415.821	410.56
416.044	424.56
416.267	420.56
416.49	436.56
416.713	406.56
416.936	424.56
417.159	418.56
417.382	434.56
417.605	427.56
417.828	428.56
418.051	430.56
418.274	448.56
418.497	429.56
418.72	418.56
418.943	410.56
419.166	427.56
419.389	454.56
419.611	429.56
419.834	449.56
420.057	455.56
420.28	441.56
420.503	434.56
420.726	444.56
420.948	460.56
421.171	479.56
421.394	499.56
421.617	464.56
421.839	448.56
422.062	442.56
422.285	451.56
422.507	491.56
422.73	571.56
422.953	534.56
423.175	489.56
423.398	457.56
423.621	440.56
423.843	467.56
424.066	448.56
424.288	482.56
424.511	485.56
424.733	528.56
424.956	586.56
425.178	594.56
425.401	558.56
425.623	553.56
425.846	520.56
426.068	483.56
426.291	449.56
426.513	463.56
426.735	467.56
426.958	524.56
427.18	585.56
427.402	676.56
427.625	784.56
427.847	683.56
428.069	607.56
428.292	522.56
428.514	466.56
428.736	453.56
428.958	446.56
429.181	439.56
429.403	427.56
429.625	442.56
429.847	473.56
430.069	513.56
430.292	495.56
430.514	456.56
430.736	457.56
430.958	443.56
431.18	408.56
431.402	396.56
431.624	404.56
431.846	398.56
432.068	400.56
432.29	402.56
432.512	430.56
432.734	434.56
432.956	420.56
433.178	413.56
433.4	429.56
433.622	426.56
433.844	424.56
434.066	399.56
434.287	397.56
434.509	422.56
434.731	414.56
434.953	420.56
435.175	430.56
435.397	465.56
435.618	471.56
435.84	508.56
436.062	578.56
436.284	601.56
436.505	528.56
436.727	473.56
436.949	434.56
437.17	433.56
437.392	429.56
437.614	458.56
437.835	481.56
438.057	556.56
438.278	655.56
438.5	636.56
438.721	693.56
438.943	633.56
439.165	514.56
439.386	504.56
439.608	480.56
439.829	483.56
440.05	525.56
440.272	551.56
440.493	492.56
440.715	477.56
440.936	451.56
441.158	440.56
441.379	426.56
441.6	468.56
441.822	489.56
442.043	515.56
442.264	571.56
442.486	609.56
442.707	523.56
442.928	498.56
443.149	483.56
443.371	507.56
443.592	530.56
443.813	640.56
444.034	646.56
444.255	565.56
444.476	512.56
444.698	482.56
444.919	496.56
445.14	621.56
445.361	546.56
445.582	512.56
445.803	555.56
446.024	640.56
446.245	646.56
446.466	608.56
446.687	512.56
446.908	495.56
447.129	451.56
447.35	448.56
447.571	442.56
447.792	439.56
448.013	447.56
448.234	462.56
448.455	513.56
448.675	577.56
448.896	644.56
449.117	572.56
449.338	546.56
449.559	641.56
449.779	706.56
450	582.56
450.221	483.56
450.442	448.56
450.662	433.56
450.883	446.56
451.104	491.56
451.324	454.56
451.545	411.56
451.766	426.56
451.986	410.56
452.207	419.56
452.428	375.56
452.648	392.56
452.869	395.56
453.089	413.56
453.31	429.56
453.53	404.56
453.751	412.56
453.971	404.56
454.192	426.56
454.412	427.56
454.633	374.56
454.853	400.56
455.073	388.56
455.294	411.56
455.514	463.56
455.734	456.56
455.955	402.56
456.175	365.56
456.395	361.56
456.616	371.56
456.836	358.56
457.056	381.56
457.276	354.56
457.497	374.56
457.717	385.56
457.937	381.56
458.157	368.56
458.377	395.56
458.598	429.56
458.818	481.56
459.038	563.56
459.258	529.56
459.478	457.56
459.698	420.56
459.918	441.56
460.138	415.56
460.358	395.56
460.578	430.56
460.798	421.56
461.018	411.56
461.238	410.56
461.458	405.56
461.678	404.56
461.898	417.56
462.118	422.56
462.338	419.56
462.558	424.56
462.777	428.56
462.997	439.56
463.217	446.56
463.437	458.56
463.657	444.56
463.876	421.56
464.096	447.56
464.316	416.56
464.536	425.56
464.755	444.56
464.975	441.56
465.195	498.56
465.414	578.56
465.634	490.56
465.854	448.56
466.073	419.56
466.293	432.56
466.512	406.56
466.732	408.56
466.951	386.56
467.171	404.56
467.391	416.56
467.61	408.56
467.829	436.56
468.049	409.56
468.268	420.56
468.488	408.56
468.707	392.56
468.927	396.56
469.146	396.56
469.365	403.56
469.585	388.56
469.804	411.56
470.023	430.56
470.243	424.56
470.462	412.56
470.681	418.56
470.901	438.56
471.12	428.56
471.339	410.56
471.558	403.56
471.777	420.56
471.997	403.56
472.216	398.56
472.435	449.56
472.654	424.56
472.873	407.56
473.092	420.56
473.311	434.56
473.53	426.56
473.749	401.56
473.968	432.56
474.187	570.56
474.406	557.56
474.625	461.56
474.844	426.56
475.063	412.56
475.282	406.56
475.501	419.56
475.72	410.56
475.939	433.56
476.158	434.56
476.377	412.56
476.596	413.56
476.814	427.56
477.033	419.56
477.252	427.56
477.471	432.56
477.69	408.56
477.908	437.56
478.127	452.56
478.346	424.56
478.564	453.56
478.783	452.56
479.002	456.56
479.22	443.56
479.439	474.56
479.658	475.56
479.876	499.56
480.095	509.56
480.313	531.56
480.532	525.56
480.751	490.56
480.969	527.56
481.188	563.56
481.406	627.56
481.624	539.56
481.843	503.56
482.061	485.56
482.28	469.56
482.498	480.56
482.717	480.56
482.935	481.56
483.153	489.56
483.372	494.56
483.59	463.56
483.808	474.56
484.027	473.56
484.245	485.56
484.463	488.56
484.681	480.56
484.9	475.56
485.118	472.56
485.336	484.56
485.554	496.56
485.772	491.56
485.99	470.56
486.209	483.56
486.427	492.56
486.645	502.56
486.863	541.56
487.081	516.56
487.299	530.56
487.517	506.56
487.735	524.56
487.953	521.56
488.171	532.56
488.389	509.56
488.607	518.56
488.825	547.56
489.043	496.56
489.261	529.56
489.479	527.56
489.696	544.56
489.914	517.56
490.132	533.56
490.35	538.56
490.568	542.56
490.786	579.56
491.003	560.56
491.221	562.56
491.439	597.56
491.657	585.56
491.874	589.56
492.092	569.56
492.31	582.56
492.527	587.56
492.745	604.56
492.963	608.56
493.18	604.56
493.398	595.56
493.615	612.56
493.833	597.56
494.05	603.56
494.268	594.56
494.485	592.56
494.703	600.56
494.92	610.56
495.138	592.56
495.355	621.56
495.573	625.56
495.79	620.56
496.008	632.56
496.225	613.56
496.442	611.56
496.66	604.56
496.877	590.56
497.094	616.56
497.312	628.56
497.529	610.56
497.746	645.56
497.963	616.56
498.181	669.56
498.398	661.56
498.615	668.56
498.832	659.56
499.049	693.56
499.267	687.56
499.484	710.56
499.701	707.56
499.918	714.56
500.135	758.56
500.352	800.56
500.569	785.56
500.786	779.56
501.003	787.56
501.22	791.56
501.437	779.56
501.654	738.56
501.871	766.56
