Data from 1983.PennyLincolnUp.Lamp.En5.5.200Scan.071819.P1_HRD10591_16-54-10-966.txt Node
Date: Thu Jul 18 16:54:10 EDT 2019
User: cochatt
Spectrometer: HR+D1059
Trigger mode: 1
Integration Time (sec): 1.000000E-1
Scans to average: 1
Electric dark correction enabled: true
Nonlinearity correction enabled: false
Boxcar width: 0
XAxis mode: Wavelengths
Number of Pixels in Spectrum: 2048
>>>>>Begin Spectral Data<<<<<
223.165	-12.69
223.4	-12.69
223.635	-12.69
223.869	-15.69
224.104	-23.69
224.338	-16.69
224.573	-16.69
224.808	-17.69
225.042	-5.69
225.277	-4.69
225.511	2.31
225.746	-1.69
225.98	13.31
226.215	12.31
226.449	9.31
226.683	24.31
226.918	27.31
227.152	26.31
227.387	38.31
227.621	35.31
227.856	46.31
228.09	43.31
228.324	54.31
228.559	52.31
228.793	68.31
229.027	87.31
229.262	105.31
229.496	112.31
229.73	125.31
229.964	129.31
230.199	117.31
230.433	100.31
230.667	110.31
230.901	109.31
231.136	100.31
231.37	113.31
231.604	112.31
231.838	118.31
232.072	114.31
232.306	112.31
232.541	87.31
232.775	106.31
233.009	111.31
233.243	108.31
233.477	105.31
233.711	115.31
233.945	103.31
234.179	98.31
234.413	102.31
234.647	116.31
234.881	113.31
235.115	110.31
235.349	103.31
235.583	109.31
235.817	110.31
236.051	123.31
236.285	123.31
236.519	112.31
236.753	106.31
236.987	133.31
237.221	178.31
237.455	196.31
237.689	152.31
237.922	140.31
238.156	119.31
238.39	120.31
238.624	120.31
238.858	109.31
239.091	111.31
239.325	107.31
239.559	108.31
239.793	112.31
240.027	122.31
240.26	131.31
240.494	138.31
240.728	150.31
240.961	153.31
241.195	131.31
241.429	122.31
241.662	134.31
241.896	126.31
242.13	142.31
242.363	122.31
242.597	122.31
242.83	128.31
243.064	124.31
243.298	132.31
243.531	139.31
243.765	133.31
243.998	139.31
244.232	124.31
244.465	122.31
244.699	133.31
244.932	116.31
245.166	138.31
245.399	126.31
245.633	125.31
245.866	132.31
246.099	132.31
246.333	134.31
246.566	128.31
246.8	142.31
247.033	144.31
247.266	137.31
247.5	156.31
247.733	164.31
247.966	156.31
248.2	162.31
248.433	153.31
248.666	159.31
248.899	154.31
249.133	178.31
249.366	180.31
249.599	174.31
249.832	172.31
250.066	162.31
250.299	158.31
250.532	183.31
250.765	189.31
250.998	186.31
251.231	216.31
251.465	183.31
251.698	191.31
251.931	184.31
252.164	160.31
252.397	180.31
252.63	194.31
252.863	193.31
253.096	201.31
253.329	206.31
253.562	208.31
253.795	198.31
254.028	201.31
254.261	210.31
254.494	201.31
254.727	240.31
254.96	236.31
255.193	254.31
255.426	231.31
255.659	208.31
255.892	201.31
256.124	197.31
256.357	217.31
256.59	200.31
256.823	189.31
257.056	181.31
257.289	200.31
257.521	186.31
257.754	181.31
257.987	184.31
258.22	185.31
258.452	189.31
258.685	194.31
258.918	192.31
259.151	176.31
259.383	196.31
259.616	206.31
259.849	187.31
260.081	206.31
260.314	221.31
260.547	222.31
260.779	210.31
261.012	202.31
261.244	202.31
261.477	209.31
261.71	212.31
261.942	211.31
262.175	220.31
262.407	216.31
262.64	199.31
262.872	183.31
263.105	189.31
263.337	190.31
263.57	196.31
263.802	206.31
264.035	196.31
264.267	203.31
264.499	204.31
264.732	188.31
264.964	214.31
265.197	188.31
265.429	200.31
265.661	209.31
265.894	183.31
266.126	193.31
266.358	201.31
266.591	197.31
266.823	210.31
267.055	192.31
267.287	205.31
267.52	212.31
267.752	197.31
267.984	206.31
268.216	208.31
268.448	209.31
268.681	208.31
268.913	232.31
269.145	229.31
269.377	256.31
269.609	256.31
269.841	258.31
270.073	245.31
270.306	266.31
270.538	289.31
270.77	273.31
271.002	280.31
271.234	254.31
271.466	256.31
271.698	287.31
271.93	283.31
272.162	281.31
272.394	278.31
272.626	278.31
272.858	258.31
273.09	245.31
273.322	241.31
273.553	235.31
273.785	235.31
274.017	233.31
274.249	231.31
274.481	232.31
274.713	226.31
274.945	241.31
275.176	230.31
275.408	262.31
275.64	248.31
275.872	240.31
276.104	236.31
276.335	248.31
276.567	258.31
276.799	246.31
277.031	281.31
277.262	295.31
277.494	289.31
277.726	266.31
277.957	266.31
278.189	245.31
278.421	253.31
278.652	242.31
278.884	223.31
279.115	237.31
279.347	235.31
279.579	236.31
279.81	240.31
280.042	239.31
280.273	253.31
280.505	231.31
280.736	252.31
280.968	248.31
281.199	227.31
281.431	250.31
281.662	243.31
281.894	238.31
282.125	267.31
282.356	276.31
282.588	280.31
282.819	283.31
283.051	249.31
283.282	251.31
283.513	257.31
283.745	248.31
283.976	274.31
284.207	260.31
284.439	260.31
284.67	261.31
284.901	259.31
285.132	252.31
285.364	251.31
285.595	242.31
285.826	249.31
286.057	242.31
286.288	267.31
286.52	244.31
286.751	264.31
286.982	260.31
287.213	244.31
287.444	241.31
287.675	248.31
287.906	269.31
288.138	264.31
288.369	292.31
288.6	272.31
288.831	253.31
289.062	267.31
289.293	264.31
289.524	275.31
289.755	264.31
289.986	264.31
290.217	255.31
290.448	245.31
290.679	257.31
290.91	261.31
291.141	258.31
291.371	262.31
291.602	278.31
291.833	247.31
292.064	263.31
292.295	270.31
292.526	250.31
292.757	262.31
292.987	248.31
293.218	244.31
293.449	269.31
293.68	286.31
293.91	272.31
294.141	254.31
294.372	253.31
294.603	252.31
294.833	267.31
295.064	269.31
295.295	252.31
295.525	264.31
295.756	269.31
295.987	265.31
296.217	282.31
296.448	289.31
296.679	284.31
296.909	266.31
297.14	271.31
297.37	277.31
297.601	280.31
297.831	268.31
298.062	277.31
298.292	267.31
298.523	282.31
298.753	268.31
298.984	280.31
299.214	266.31
299.445	279.31
299.675	285.31
299.905	277.31
300.136	295.31
300.366	284.31
300.597	276.31
300.827	284.31
301.057	292.31
301.288	292.31
301.518	306.31
301.748	320.31
301.979	295.31
302.209	298.31
302.439	302.31
302.669	296.31
302.9	316.31
303.13	308.31
303.36	293.31
303.59	294.31
303.82	304.31
304.051	299.31
304.281	301.31
304.511	294.31
304.741	290.31
304.971	279.31
305.201	276.31
305.431	309.31
305.661	301.31
305.891	295.31
306.121	290.31
306.352	295.31
306.582	315.31
306.812	298.31
307.042	285.31
307.272	287.31
307.502	300.31
307.731	305.31
307.961	293.31
308.191	306.31
308.421	281.31
308.651	311.31
308.881	306.31
309.111	297.31
309.341	314.31
309.571	316.31
309.8	309.31
310.03	324.31
310.26	356.31
310.49	340.31
310.72	342.31
310.949	355.31
311.179	375.31
311.409	372.31
311.639	361.31
311.868	349.31
312.098	325.31
312.328	363.31
312.557	362.31
312.787	396.31
313.017	370.31
313.246	356.31
313.476	314.31
313.706	345.31
313.935	341.31
314.165	365.31
314.394	373.31
314.624	370.31
314.853	363.31
315.083	324.31
315.312	325.31
315.542	334.31
315.771	334.31
316.001	347.31
316.23	344.31
316.46	336.31
316.689	356.31
316.919	357.31
317.148	366.31
317.377	365.31
317.607	328.31
317.836	349.31
318.065	333.31
318.295	351.31
318.524	344.31
318.753	357.31
318.983	343.31
319.212	343.31
319.441	357.31
319.67	349.31
319.9	365.31
320.129	357.31
320.358	361.31
320.587	356.31
320.816	348.31
321.046	360.31
321.275	370.31
321.504	344.31
321.733	379.31
321.962	358.31
322.191	394.31
322.42	380.31
322.649	422.31
322.878	429.31
323.108	448.31
323.337	458.31
323.566	485.31
323.795	518.31
324.024	567.31
324.253	678.31
324.482	1015.31
324.71	1545.31
324.939	2054.31
325.168	1738.31
325.397	936.31
325.626	615.31
325.855	525.31
326.084	470.31
326.313	491.31
326.542	501.31
326.77	525.31
326.999	634.31
327.228	908.31
327.457	1333.31
327.686	1536.31
327.914	1010.31
328.143	666.31
328.372	605.31
328.6	574.31
328.829	518.31
329.058	548.31
329.287	558.31
329.515	545.31
329.744	492.31
329.972	479.31
330.201	477.31
330.43	555.31
330.658	569.31
330.887	568.31
331.115	558.31
331.344	485.31
331.572	451.31
331.801	452.31
332.03	434.31
332.258	433.31
332.486	411.31
332.715	426.31
332.943	409.31
333.172	402.31
333.4	418.31
333.629	407.31
333.857	434.31
334.085	437.31
334.314	433.31
334.542	464.31
334.771	486.31
334.999	443.31
335.227	420.31
335.455	400.31
335.684	397.31
335.912	402.31
336.14	412.31
336.369	413.31
336.597	395.31
336.825	402.31
337.053	395.31
337.281	388.31
337.51	378.31
337.738	396.31
337.966	397.31
338.194	392.31
338.422	392.31
338.65	387.31
338.878	383.31
339.106	394.31
339.334	392.31
339.562	364.31
339.79	376.31
340.018	386.31
340.246	403.31
340.474	396.31
340.702	401.31
340.93	390.31
341.158	373.31
341.386	364.31
341.614	389.31
341.842	380.31
342.07	383.31
342.298	382.31
342.526	372.31
342.754	361.31
342.981	362.31
343.209	373.31
343.437	387.31
343.665	378.31
343.893	376.31
344.12	378.31
344.348	394.31
344.576	404.31
344.804	381.31
345.031	410.31
345.259	387.31
345.487	390.31
345.714	385.31
345.942	402.31
346.17	385.31
346.397	372.31
346.625	371.31
346.853	375.31
347.08	374.31
347.308	363.31
347.535	377.31
347.763	382.31
347.99	391.31
348.218	409.31
348.445	378.31
348.673	393.31
348.9	381.31
349.128	373.31
349.355	372.31
349.583	357.31
349.81	363.31
350.037	348.31
350.265	356.31
350.492	344.31
350.72	366.31
350.947	368.31
351.174	378.31
351.402	380.31
351.629	359.31
351.856	380.31
352.083	398.31
352.311	384.31
352.538	400.31
352.765	386.31
352.992	370.31
353.22	391.31
353.447	374.31
353.674	378.31
353.901	373.31
354.128	371.31
354.355	326.31
354.583	360.31
354.81	368.31
355.037	347.31
355.264	350.31
355.491	342.31
355.718	346.31
355.945	343.31
356.172	338.31
356.399	333.31
356.626	356.31
356.853	342.31
357.08	333.31
357.307	335.31
357.534	339.31
357.761	350.31
357.988	347.31
358.215	334.31
358.441	354.31
358.668	348.31
358.895	336.31
359.122	361.31
359.349	356.31
359.576	391.31
359.802	397.31
360.029	436.31
360.256	429.31
360.483	424.31
360.709	378.31
360.936	379.31
361.163	375.31
361.39	379.31
361.616	397.31
361.843	388.31
362.07	382.31
362.296	392.31
362.523	363.31
362.749	371.31
362.976	384.31
363.203	368.31
363.429	345.31
363.656	365.31
363.882	369.31
364.109	342.31
364.335	359.31
364.562	356.31
364.788	348.31
365.015	341.31
365.241	362.31
365.468	386.31
365.694	380.31
365.92	351.31
366.147	344.31
366.373	348.31
366.599	344.31
366.826	358.31
367.052	359.31
367.278	363.31
367.505	347.31
367.731	355.31
367.957	347.31
368.184	366.31
368.41	342.31
368.636	354.31
368.862	389.31
369.089	344.31
369.315	346.31
369.541	351.31
369.767	353.31
369.993	349.31
370.219	347.31
370.445	360.31
370.672	348.31
370.898	347.31
371.124	353.31
371.35	314.31
371.576	350.31
371.802	327.31
372.028	344.31
372.254	350.31
372.48	347.31
372.706	365.31
372.932	348.31
373.158	323.31
373.384	333.31
373.61	349.31
373.835	353.31
374.061	335.31
374.287	353.31
374.513	358.31
374.739	363.31
374.965	350.31
375.191	353.31
375.416	338.31
375.642	338.31
375.868	344.31
376.094	330.31
376.319	329.31
376.545	329.31
376.771	337.31
376.997	336.31
377.222	342.31
377.448	347.31
377.674	341.31
377.899	328.31
378.125	331.31
378.35	331.31
378.576	340.31
378.802	335.31
379.027	321.31
379.253	334.31
379.478	328.31
379.704	331.31
379.929	340.31
380.155	346.31
380.38	343.31
380.606	351.31
380.831	360.31
381.057	362.31
381.282	348.31
381.507	334.31
381.733	358.31
381.958	349.31
382.184	348.31
382.409	349.31
382.634	361.31
382.86	350.31
383.085	347.31
383.31	358.31
383.535	355.31
383.761	339.31
383.986	357.31
384.211	347.31
384.436	368.31
384.662	352.31
384.887	378.31
385.112	370.31
385.337	372.31
385.562	366.31
385.787	373.31
386.013	390.31
386.238	390.31
386.463	383.31
386.688	393.31
386.913	363.31
387.138	370.31
387.363	376.31
387.588	347.31
387.813	353.31
388.038	352.31
388.263	357.31
388.488	366.31
388.713	352.31
388.938	372.31
389.163	358.31
389.387	378.31
389.612	366.31
389.837	339.31
390.062	371.31
390.287	364.31
390.512	374.31
390.736	365.31
390.961	360.31
391.186	359.31
391.411	381.31
391.636	349.31
391.86	348.31
392.085	368.31
392.31	386.31
392.534	362.31
392.759	365.31
392.984	376.31
393.208	365.31
393.433	374.31
393.658	360.31
393.882	366.31
394.107	380.31
394.331	374.31
394.556	372.31
394.78	385.31
395.005	374.31
395.229	365.31
395.454	360.31
395.678	363.31
395.903	389.31
396.127	394.31
396.352	404.31
396.576	382.31
396.801	377.31
397.025	390.31
397.249	376.31
397.474	375.31
397.698	382.31
397.922	408.31
398.147	406.31
398.371	418.31
398.595	404.31
398.82	402.31
399.044	413.31
399.268	426.31
399.492	458.31
399.717	468.31
399.941	487.31
400.165	468.31
400.389	509.31
400.613	468.31
400.837	436.31
401.062	424.31
401.286	420.31
401.51	432.31
401.734	398.31
401.958	433.31
402.182	403.31
402.406	433.31
402.63	440.31
402.854	434.31
403.078	430.31
403.302	428.31
403.526	439.31
403.75	448.31
403.974	434.31
404.198	434.31
404.422	436.31
404.645	450.31
404.869	440.31
405.093	441.31
405.317	476.31
405.541	509.31
405.765	486.31
405.988	460.31
406.212	471.31
406.436	501.31
406.66	512.31
406.883	474.31
407.107	488.31
407.331	509.31
407.555	550.31
407.778	524.31
408.002	505.31
408.226	489.31
408.449	476.31
408.673	475.31
408.896	488.31
409.12	517.31
409.344	498.31
409.567	434.31
409.791	463.31
410.014	418.31
410.238	430.31
410.461	430.31
410.685	435.31
410.908	450.31
411.132	470.31
411.355	478.31
411.578	469.31
411.802	442.31
412.025	415.31
412.249	444.31
412.472	469.31
412.695	476.31
412.919	455.31
413.142	434.31
413.365	435.31
413.589	411.31
413.812	414.31
414.035	436.31
414.258	384.31
414.482	408.31
414.705	405.31
414.928	410.31
415.151	410.31
415.374	393.31
415.597	410.31
415.821	404.31
416.044	393.31
416.267	401.31
416.49	406.31
416.713	416.31
416.936	411.31
417.159	421.31
417.382	426.31
417.605	412.31
417.828	416.31
418.051	408.31
418.274	412.31
418.497	406.31
418.72	416.31
418.943	409.31
419.166	425.31
419.389	430.31
419.611	436.31
419.834	445.31
420.057	430.31
420.28	432.31
420.503	418.31
420.726	439.31
420.948	442.31
421.171	453.31
421.394	490.31
421.617	454.31
421.839	432.31
422.062	445.31
422.285	460.31
422.507	482.31
422.73	555.31
422.953	522.31
423.175	462.31
423.398	437.31
423.621	442.31
423.843	459.31
424.066	448.31
424.288	444.31
424.511	485.31
424.733	526.31
424.956	586.31
425.178	556.31
425.401	572.31
425.623	573.31
425.846	488.31
426.068	474.31
426.291	461.31
426.513	444.31
426.735	468.31
426.958	501.31
427.18	554.31
427.402	659.31
427.625	720.31
427.847	658.31
428.069	562.31
428.292	498.31
428.514	461.31
428.736	444.31
428.958	445.31
429.181	435.31
429.403	411.31
429.625	409.31
429.847	454.31
430.069	517.31
430.292	538.31
430.514	440.31
430.736	423.31
430.958	416.31
431.18	406.31
431.402	422.31
431.624	404.31
431.846	402.31
432.068	408.31
432.29	395.31
432.512	420.31
432.734	425.31
432.956	406.31
433.178	432.31
433.4	424.31
433.622	410.31
433.844	429.31
434.066	407.31
434.287	405.31
434.509	424.31
434.731	394.31
434.953	427.31
435.175	449.31
435.397	455.31
435.618	479.31
435.84	480.31
436.062	553.31
436.284	601.31
436.505	544.31
436.727	474.31
436.949	451.31
437.17	442.31
437.392	429.31
437.614	441.31
437.835	461.31
438.057	553.31
438.278	625.31
438.5	632.31
438.721	675.31
438.943	634.31
439.165	520.31
439.386	467.31
439.608	489.31
439.829	459.31
440.05	488.31
440.272	509.31
440.493	508.31
440.715	455.31
440.936	454.31
441.158	441.31
441.379	450.31
441.6	462.31
441.822	469.31
442.043	504.31
442.264	564.31
442.486	569.31
442.707	507.31
442.928	481.31
443.149	500.31
443.371	513.31
443.592	558.31
443.813	604.31
444.034	653.31
444.255	536.31
444.476	482.31
444.698	462.31
444.919	472.31
445.14	551.31
445.361	516.31
445.582	505.31
445.803	549.31
446.024	622.31
446.245	659.31
446.466	583.31
446.687	480.31
446.908	450.31
447.129	434.31
447.35	444.31
447.571	422.31
447.792	446.31
448.013	429.31
448.234	468.31
448.455	492.31
448.675	581.31
448.896	660.31
449.117	591.31
449.338	548.31
449.559	616.31
449.779	688.31
450	552.31
450.221	473.31
450.442	444.31
450.662	415.31
450.883	441.31
451.104	465.31
451.324	449.31
451.545	420.31
451.766	400.31
451.986	398.31
452.207	389.31
452.428	394.31
452.648	396.31
452.869	402.31
453.089	417.31
453.31	409.31
453.53	373.31
453.751	402.31
453.971	389.31
454.192	399.31
454.412	424.31
454.633	377.31
454.853	388.31
455.073	388.31
455.294	400.31
455.514	441.31
455.734	451.31
455.955	405.31
456.175	385.31
456.395	379.31
456.616	355.31
456.836	358.31
457.056	360.31
457.276	346.31
457.497	366.31
457.717	364.31
457.937	366.31
458.157	366.31
458.377	369.31
458.598	410.31
458.818	481.31
459.038	532.31
459.258	516.31
459.478	449.31
459.698	415.31
459.918	403.31
460.138	401.31
460.358	406.31
460.578	389.31
460.798	389.31
461.018	405.31
461.238	413.31
461.458	407.31
461.678	394.31
461.898	408.31
462.118	394.31
462.338	416.31
462.558	409.31
462.777	420.31
462.997	420.31
463.217	430.31
463.437	432.31
463.657	426.31
463.876	427.31
464.096	437.31
464.316	440.31
464.536	455.31
464.755	442.31
464.975	444.31
465.195	506.31
465.414	570.31
465.634	483.31
465.854	442.31
466.073	404.31
466.293	416.31
466.512	385.31
466.732	389.31
466.951	398.31
467.171	377.31
467.391	396.31
467.61	390.31
467.829	410.31
468.049	413.31
468.268	395.31
468.488	382.31
468.707	384.31
468.927	363.31
469.146	390.31
469.365	388.31
469.585	389.31
469.804	398.31
470.023	405.31
470.243	386.31
470.462	415.31
470.681	445.31
470.901	412.31
471.12	409.31
471.339	406.31
471.558	402.31
471.777	412.31
471.997	408.31
472.216	400.31
472.435	416.31
472.654	401.31
472.873	381.31
473.092	398.31
473.311	380.31
473.53	395.31
473.749	409.31
473.968	447.31
474.187	529.31
474.406	544.31
474.625	434.31
474.844	419.31
475.063	396.31
475.282	397.31
475.501	397.31
475.72	419.31
475.939	405.31
476.158	387.31
476.377	408.31
476.596	399.31
476.814	419.31
477.033	416.31
477.252	411.31
477.471	419.31
477.69	423.31
477.908	437.31
478.127	427.31
478.346	427.31
478.564	415.31
478.783	431.31
479.002	446.31
479.22	432.31
479.439	483.31
479.658	481.31
479.876	483.31
480.095	477.31
480.313	492.31
480.532	480.31
480.751	494.31
480.969	487.31
481.188	524.31
481.406	562.31
481.624	507.31
481.843	494.31
482.061	468.31
482.28	467.31
482.498	478.31
482.717	470.31
482.935	474.31
483.153	458.31
483.372	466.31
483.59	468.31
483.808	470.31
484.027	449.31
484.245	468.31
484.463	452.31
484.681	469.31
484.9	475.31
485.118	453.31
485.336	468.31
485.554	490.31
485.772	486.31
485.99	466.31
486.209	491.31
486.427	477.31
486.645	508.31
486.863	514.31
487.081	498.31
487.299	498.31
487.517	502.31
487.735	492.31
487.953	509.31
488.171	508.31
488.389	501.31
488.607	518.31
488.825	498.31
489.043	492.31
489.261	484.31
489.479	506.31
489.696	508.31
489.914	519.31
490.132	505.31
490.35	527.31
490.568	507.31
490.786	547.31
491.003	531.31
491.221	557.31
491.439	570.31
491.657	566.31
491.874	569.31
492.092	576.31
492.31	589.31
492.527	579.31
492.745	565.31
492.963	579.31
493.18	579.31
493.398	595.31
493.615	596.31
493.833	582.31
494.05	595.31
494.268	576.31
494.485	597.31
494.703	580.31
494.92	601.31
495.138	587.31
495.355	601.31
495.573	588.31
495.79	606.31
496.008	598.31
496.225	577.31
496.442	607.31
496.66	588.31
496.877	569.31
497.094	580.31
497.312	631.31
497.529	617.31
497.746	615.31
497.963	610.31
498.181	651.31
498.398	618.31
498.615	646.31
498.832	650.31
499.049	645.31
499.267	651.31
499.484	679.31
499.701	699.31
499.918	721.31
500.135	759.31
500.352	763.31
500.569	793.31
500.786	796.31
501.003	764.31
501.22	756.31
501.437	737.31
501.654	713.31
501.871	737.31
