Data from 1983.PennyLincolnUp.Lamp.En5.5.200Scan.071819.P1_HRD10591_16-55-19-966.txt Node
Date: Thu Jul 18 16:55:19 EDT 2019
User: cochatt
Spectrometer: HR+D1059
Trigger mode: 1
Integration Time (sec): 1.000000E-1
Scans to average: 1
Electric dark correction enabled: true
Nonlinearity correction enabled: false
Boxcar width: 0
XAxis mode: Wavelengths
Number of Pixels in Spectrum: 2048
>>>>>Begin Spectral Data<<<<<
223.165	-16.69
223.4	-16.69
223.635	-16.69
223.869	-11.69
224.104	-10.69
224.338	0.31
224.573	-24.69
224.808	-8.69
225.042	-7.69
225.277	-12.69
225.511	-7.69
225.746	6.31
225.98	14.31
226.215	6.31
226.449	24.31
226.683	11.31
226.918	15.31
227.152	22.31
227.387	32.31
227.621	46.31
227.856	36.31
228.09	40.31
228.324	58.31
228.559	59.31
228.793	76.31
229.027	102.31
229.262	118.31
229.496	103.31
229.73	139.31
229.964	164.31
230.199	117.31
230.433	114.31
230.667	110.31
230.901	108.31
231.136	122.31
231.37	107.31
231.604	123.31
231.838	117.31
232.072	117.31
232.306	117.31
232.541	102.31
232.775	104.31
233.009	107.31
233.243	109.31
233.477	101.31
233.711	107.31
233.945	116.31
234.179	125.31
234.413	131.31
234.647	126.31
234.881	119.31
235.115	124.31
235.349	127.31
235.583	110.31
235.817	119.31
236.051	119.31
236.285	127.31
236.519	136.31
236.753	124.31
236.987	133.31
237.221	171.31
237.455	222.31
237.689	169.31
237.922	142.31
238.156	137.31
238.39	128.31
238.624	133.31
238.858	137.31
239.091	134.31
239.325	118.31
239.559	132.31
239.793	124.31
240.027	137.31
240.26	145.31
240.494	164.31
240.728	146.31
240.961	142.31
241.195	140.31
241.429	132.31
241.662	129.31
241.896	126.31
242.13	128.31
242.363	135.31
242.597	119.31
242.83	140.31
243.064	128.31
243.298	151.31
243.531	127.31
243.765	130.31
243.998	129.31
244.232	141.31
244.465	151.31
244.699	151.31
244.932	148.31
245.166	125.31
245.399	139.31
245.633	135.31
245.866	139.31
246.099	135.31
246.333	142.31
246.566	143.31
246.8	154.31
247.033	141.31
247.266	168.31
247.5	167.31
247.733	168.31
247.966	153.31
248.2	167.31
248.433	171.31
248.666	171.31
248.899	179.31
249.133	199.31
249.366	209.31
249.599	188.31
249.832	189.31
250.066	200.31
250.299	192.31
250.532	204.31
250.765	222.31
250.998	202.31
251.231	230.31
251.465	212.31
251.698	181.31
251.931	205.31
252.164	200.31
252.397	188.31
252.63	180.31
252.863	198.31
253.096	220.31
253.329	211.31
253.562	220.31
253.795	206.31
254.028	208.31
254.261	203.31
254.494	203.31
254.727	250.31
254.96	264.31
255.193	250.31
255.426	234.31
255.659	232.31
255.892	220.31
256.124	247.31
256.357	269.31
256.59	240.31
256.823	214.31
257.056	228.31
257.289	213.31
257.521	212.31
257.754	201.31
257.987	188.31
258.22	199.31
258.452	189.31
258.685	195.31
258.918	189.31
259.151	207.31
259.383	217.31
259.616	227.31
259.849	207.31
260.081	247.31
260.314	249.31
260.547	233.31
260.779	217.31
261.012	227.31
261.244	211.31
261.477	214.31
261.71	207.31
261.942	226.31
262.175	228.31
262.407	230.31
262.64	208.31
262.872	213.31
263.105	204.31
263.337	210.31
263.57	209.31
263.802	208.31
264.035	209.31
264.267	202.31
264.499	205.31
264.732	210.31
264.964	204.31
265.197	207.31
265.429	199.31
265.661	204.31
265.894	200.31
266.126	222.31
266.358	200.31
266.591	203.31
266.823	209.31
267.055	203.31
267.287	207.31
267.52	225.31
267.752	191.31
267.984	223.31
268.216	231.31
268.448	219.31
268.681	243.31
268.913	218.31
269.145	239.31
269.377	253.31
269.609	263.31
269.841	256.31
270.073	261.31
270.306	273.31
270.538	298.31
270.77	291.31
271.002	295.31
271.234	282.31
271.466	296.31
271.698	291.31
271.93	315.31
272.162	305.31
272.394	290.31
272.626	289.31
272.858	281.31
273.09	269.31
273.322	270.31
273.553	239.31
273.785	252.31
274.017	261.31
274.249	251.31
274.481	232.31
274.713	271.31
274.945	263.31
275.176	244.31
275.408	271.31
275.64	249.31
275.872	244.31
276.104	260.31
276.335	255.31
276.567	263.31
276.799	274.31
277.031	299.31
277.262	300.31
277.494	303.31
277.726	309.31
277.957	285.31
278.189	279.31
278.421	260.31
278.652	268.31
278.884	281.31
279.115	253.31
279.347	264.31
279.579	267.31
279.81	254.31
280.042	241.31
280.273	245.31
280.505	258.31
280.736	250.31
280.968	245.31
281.199	247.31
281.431	261.31
281.662	265.31
281.894	253.31
282.125	263.31
282.356	291.31
282.588	290.31
282.819	279.31
283.051	264.31
283.282	247.31
283.513	269.31
283.745	266.31
283.976	272.31
284.207	265.31
284.439	264.31
284.67	259.31
284.901	257.31
285.132	249.31
285.364	246.31
285.595	279.31
285.826	263.31
286.057	267.31
286.288	251.31
286.52	261.31
286.751	256.31
286.982	255.31
287.213	251.31
287.444	273.31
287.675	263.31
287.906	269.31
288.138	300.31
288.369	281.31
288.6	267.31
288.831	288.31
289.062	287.31
289.293	264.31
289.524	273.31
289.755	273.31
289.986	270.31
290.217	273.31
290.448	264.31
290.679	272.31
290.91	283.31
291.141	253.31
291.371	287.31
291.602	281.31
291.833	261.31
292.064	264.31
292.295	268.31
292.526	288.31
292.757	287.31
292.987	270.31
293.218	273.31
293.449	259.31
293.68	264.31
293.91	266.31
294.141	282.31
294.372	272.31
294.603	267.31
294.833	286.31
295.064	256.31
295.295	297.31
295.525	286.31
295.756	275.31
295.987	289.31
296.217	319.31
296.448	310.31
296.679	288.31
296.909	289.31
297.14	280.31
297.37	278.31
297.601	297.31
297.831	286.31
298.062	279.31
298.292	272.31
298.523	267.31
298.753	299.31
298.984	291.31
299.214	278.31
299.445	281.31
299.675	305.31
299.905	292.31
300.136	296.31
300.366	314.31
300.597	297.31
300.827	311.31
301.057	312.31
301.288	305.31
301.518	321.31
301.748	311.31
301.979	309.31
302.209	331.31
302.439	295.31
302.669	293.31
302.9	304.31
303.13	308.31
303.36	304.31
303.59	289.31
303.82	322.31
304.051	307.31
304.281	328.31
304.511	320.31
304.741	319.31
304.971	307.31
305.201	313.31
305.431	300.31
305.661	294.31
305.891	312.31
306.121	315.31
306.352	303.31
306.582	315.31
306.812	320.31
307.042	317.31
307.272	308.31
307.502	329.31
307.731	335.31
307.961	328.31
308.191	321.31
308.421	299.31
308.651	320.31
308.881	316.31
309.111	342.31
309.341	323.31
309.571	335.31
309.8	320.31
310.03	362.31
310.26	342.31
310.49	363.31
310.72	353.31
310.949	388.31
311.179	371.31
311.409	372.31
311.639	356.31
311.868	349.31
312.098	351.31
312.328	361.31
312.557	385.31
312.787	400.31
313.017	379.31
313.246	361.31
313.476	358.31
313.706	347.31
313.935	362.31
314.165	387.31
314.394	382.31
314.624	395.31
314.853	367.31
315.083	359.31
315.312	362.31
315.542	342.31
315.771	366.31
316.001	347.31
316.23	348.31
316.46	358.31
316.689	335.31
316.919	338.31
317.148	368.31
317.377	364.31
317.607	389.31
317.836	366.31
318.065	365.31
318.295	364.31
318.524	346.31
318.753	372.31
318.983	362.31
319.212	366.31
319.441	371.31
319.67	365.31
319.9	355.31
320.129	371.31
320.358	377.31
320.587	361.31
320.816	378.31
321.046	387.31
321.275	372.31
321.504	386.31
321.733	378.31
321.962	393.31
322.191	407.31
322.42	405.31
322.649	434.31
322.878	448.31
323.108	445.31
323.337	481.31
323.566	504.31
323.795	531.31
324.024	577.31
324.253	696.31
324.482	1048.31
324.71	1544.31
324.939	2141.31
325.168	1743.31
325.397	926.31
325.626	619.31
325.855	528.31
326.084	506.31
326.313	491.31
326.542	495.31
326.77	555.31
326.999	658.31
327.228	901.31
327.457	1321.31
327.686	1562.31
327.914	1070.31
328.143	725.31
328.372	663.31
328.6	611.31
328.829	555.31
329.058	588.31
329.287	584.31
329.515	544.31
329.744	528.31
329.972	524.31
330.201	568.31
330.43	631.31
330.658	643.31
330.887	617.31
331.115	601.31
331.344	489.31
331.572	505.31
331.801	476.31
332.03	477.31
332.258	475.31
332.486	440.31
332.715	440.31
332.943	436.31
333.172	438.31
333.4	447.31
333.629	443.31
333.857	487.31
334.085	487.31
334.314	523.31
334.542	597.31
334.771	643.31
334.999	529.31
335.227	498.31
335.455	452.31
335.684	445.31
335.912	436.31
336.14	413.31
336.369	409.31
336.597	424.31
336.825	423.31
337.053	430.31
337.281	416.31
337.51	387.31
337.738	425.31
337.966	420.31
338.194	431.31
338.422	403.31
338.65	395.31
338.878	402.31
339.106	412.31
339.334	414.31
339.562	412.31
339.79	385.31
340.018	401.31
340.246	392.31
340.474	408.31
340.702	389.31
340.93	397.31
341.158	405.31
341.386	387.31
341.614	403.31
341.842	391.31
342.07	397.31
342.298	411.31
342.526	393.31
342.754	377.31
342.981	380.31
343.209	374.31
343.437	393.31
343.665	382.31
343.893	396.31
344.12	417.31
344.348	421.31
344.576	399.31
344.804	413.31
345.031	425.31
345.259	416.31
345.487	411.31
345.714	408.31
345.942	409.31
346.17	392.31
346.397	374.31
346.625	403.31
346.853	392.31
347.08	379.31
347.308	387.31
347.535	408.31
347.763	403.31
347.99	394.31
348.218	398.31
348.445	410.31
348.673	394.31
348.9	389.31
349.128	379.31
349.355	384.31
349.583	394.31
349.81	389.31
350.037	376.31
350.265	367.31
350.492	389.31
350.72	383.31
350.947	385.31
351.174	401.31
351.402	399.31
351.629	404.31
351.856	397.31
352.083	391.31
352.311	413.31
352.538	416.31
352.765	405.31
352.992	401.31
353.22	388.31
353.447	391.31
353.674	371.31
353.901	351.31
354.128	369.31
354.355	361.31
354.583	367.31
354.81	367.31
355.037	368.31
355.264	361.31
355.491	361.31
355.718	340.31
355.945	341.31
356.172	358.31
356.399	360.31
356.626	332.31
356.853	345.31
357.08	359.31
357.307	368.31
357.534	345.31
357.761	350.31
357.988	382.31
358.215	375.31
358.441	354.31
358.668	352.31
358.895	341.31
359.122	353.31
359.349	377.31
359.576	391.31
359.802	411.31
360.029	433.31
360.256	449.31
360.483	420.31
360.709	402.31
360.936	374.31
361.163	381.31
361.39	392.31
361.616	406.31
361.843	380.31
362.07	387.31
362.296	380.31
362.523	384.31
362.749	380.31
362.976	387.31
363.203	355.31
363.429	353.31
363.656	381.31
363.882	356.31
364.109	356.31
364.335	360.31
364.562	356.31
364.788	377.31
365.015	375.31
365.241	379.31
365.468	367.31
365.694	384.31
365.92	367.31
366.147	375.31
366.373	379.31
366.599	381.31
366.826	366.31
367.052	383.31
367.278	353.31
367.505	362.31
367.731	392.31
367.957	345.31
368.184	361.31
368.41	376.31
368.636	371.31
368.862	390.31
369.089	369.31
369.315	367.31
369.541	366.31
369.767	355.31
369.993	375.31
370.219	373.31
370.445	374.31
370.672	348.31
370.898	369.31
371.124	346.31
371.35	355.31
371.576	357.31
371.802	359.31
372.028	336.31
372.254	367.31
372.48	348.31
372.706	360.31
372.932	373.31
373.158	344.31
373.384	351.31
373.61	358.31
373.835	345.31
374.061	355.31
374.287	365.31
374.513	359.31
374.739	379.31
374.965	373.31
375.191	366.31
375.416	362.31
375.642	343.31
375.868	346.31
376.094	347.31
376.319	354.31
376.545	336.31
376.771	352.31
376.997	354.31
377.222	359.31
377.448	368.31
377.674	362.31
377.899	363.31
378.125	366.31
378.35	347.31
378.576	363.31
378.802	338.31
379.027	340.31
379.253	355.31
379.478	347.31
379.704	343.31
379.929	370.31
380.155	363.31
380.38	360.31
380.606	357.31
380.831	345.31
381.057	358.31
381.282	357.31
381.507	361.31
381.733	367.31
381.958	360.31
382.184	359.31
382.409	365.31
382.634	381.31
382.86	359.31
383.085	375.31
383.31	363.31
383.535	358.31
383.761	354.31
383.986	357.31
384.211	375.31
384.436	378.31
384.662	366.31
384.887	361.31
385.112	376.31
385.337	385.31
385.562	367.31
385.787	364.31
386.013	377.31
386.238	374.31
386.463	395.31
386.688	378.31
386.913	381.31
387.138	373.31
387.363	381.31
387.588	364.31
387.813	383.31
388.038	377.31
388.263	390.31
388.488	373.31
388.713	396.31
388.938	396.31
389.163	375.31
389.387	371.31
389.612	380.31
389.837	379.31
390.062	349.31
390.287	351.31
390.512	367.31
390.736	368.31
390.961	383.31
391.186	377.31
391.411	384.31
391.636	398.31
391.86	383.31
392.085	385.31
392.31	381.31
392.534	381.31
392.759	398.31
392.984	383.31
393.208	374.31
393.433	377.31
393.658	377.31
393.882	392.31
394.107	383.31
394.331	378.31
394.556	381.31
394.78	376.31
395.005	383.31
395.229	376.31
395.454	379.31
395.678	391.31
395.903	402.31
396.127	389.31
396.352	411.31
396.576	404.31
396.801	381.31
397.025	386.31
397.249	404.31
397.474	400.31
397.698	387.31
397.922	417.31
398.147	434.31
398.371	432.31
398.595	419.31
398.82	404.31
399.044	438.31
399.268	435.31
399.492	450.31
399.717	478.31
399.941	504.31
400.165	524.31
400.389	518.31
400.613	487.31
400.837	447.31
401.062	465.31
401.286	445.31
401.51	436.31
401.734	420.31
401.958	438.31
402.182	438.31
402.406	460.31
402.63	454.31
402.854	456.31
403.078	427.31
403.302	459.31
403.526	445.31
403.75	455.31
403.974	427.31
404.198	432.31
404.422	471.31
404.645	446.31
404.869	473.31
405.093	501.31
405.317	541.31
405.541	529.31
405.765	503.31
405.988	492.31
406.212	489.31
406.436	518.31
406.66	515.31
406.883	473.31
407.107	504.31
407.331	524.31
407.555	572.31
407.778	583.31
408.002	523.31
408.226	488.31
408.449	469.31
408.673	496.31
408.896	515.31
409.12	552.31
409.344	505.31
409.567	465.31
409.791	462.31
410.014	439.31
410.238	435.31
410.461	450.31
410.685	438.31
410.908	470.31
411.132	480.31
411.355	501.31
411.578	486.31
411.802	469.31
412.025	458.31
412.249	462.31
412.472	500.31
412.695	525.31
412.919	507.31
413.142	473.31
413.365	453.31
413.589	439.31
413.812	456.31
414.035	427.31
414.258	434.31
414.482	400.31
414.705	417.31
414.928	434.31
415.151	427.31
415.374	432.31
415.597	426.31
415.821	419.31
416.044	422.31
416.267	428.31
416.49	423.31
416.713	419.31
416.936	413.31
417.159	427.31
417.382	436.31
417.605	425.31
417.828	455.31
418.051	442.31
418.274	435.31
418.497	427.31
418.72	432.31
418.943	416.31
419.166	424.31
419.389	439.31
419.611	446.31
419.834	445.31
420.057	465.31
420.28	461.31
420.503	472.31
420.726	454.31
420.948	465.31
421.171	497.31
421.394	501.31
421.617	458.31
421.839	459.31
422.062	437.31
422.285	446.31
422.507	500.31
422.73	549.31
422.953	531.31
423.175	480.31
423.398	488.31
423.621	451.31
423.843	468.31
424.066	465.31
424.288	496.31
424.511	487.31
424.733	542.31
424.956	609.31
425.178	563.31
425.401	539.31
425.623	587.31
425.846	520.31
426.068	498.31
426.291	475.31
426.513	494.31
426.735	490.31
426.958	537.31
427.18	584.31
427.402	663.31
427.625	750.31
427.847	686.31
428.069	589.31
428.292	519.31
428.514	481.31
428.736	477.31
428.958	445.31
429.181	432.31
429.403	426.31
429.625	439.31
429.847	465.31
430.069	548.31
430.292	533.31
430.514	455.31
430.736	443.31
430.958	437.31
431.18	425.31
431.402	421.31
431.624	413.31
431.846	398.31
432.068	409.31
432.29	395.31
432.512	404.31
432.734	426.31
432.956	425.31
433.178	419.31
433.4	417.31
433.622	423.31
433.844	415.31
434.066	411.31
434.287	415.31
434.509	420.31
434.731	431.31
434.953	426.31
435.175	455.31
435.397	461.31
435.618	487.31
435.84	511.31
436.062	578.31
436.284	614.31
436.505	533.31
436.727	490.31
436.949	464.31
437.17	440.31
437.392	442.31
437.614	457.31
437.835	480.31
438.057	593.31
438.278	654.31
438.5	626.31
438.721	665.31
438.943	616.31
439.165	523.31
439.386	502.31
439.608	480.31
439.829	485.31
440.05	499.31
440.272	539.31
440.493	505.31
440.715	474.31
440.936	459.31
441.158	453.31
441.379	449.31
441.6	458.31
441.822	493.31
442.043	513.31
442.264	606.31
442.486	604.31
442.707	521.31
442.928	487.31
443.149	504.31
443.371	505.31
443.592	534.31
443.813	613.31
444.034	651.31
444.255	555.31
444.476	499.31
444.698	489.31
444.919	480.31
445.14	557.31
445.361	524.31
445.582	515.31
445.803	597.31
446.024	629.31
446.245	656.31
446.466	609.31
446.687	507.31
446.908	479.31
447.129	471.31
447.35	439.31
447.571	445.31
447.792	457.31
448.013	455.31
448.234	479.31
448.455	510.31
448.675	587.31
448.896	656.31
449.117	576.31
449.338	538.31
449.559	612.31
449.779	708.31
450	584.31
450.221	473.31
450.442	467.31
450.662	459.31
450.883	452.31
451.104	456.31
451.324	435.31
451.545	419.31
451.766	405.31
451.986	404.31
452.207	403.31
452.428	394.31
452.648	391.31
452.869	419.31
453.089	418.31
453.31	424.31
453.53	413.31
453.751	399.31
453.971	417.31
454.192	407.31
454.412	397.31
454.633	393.31
454.853	400.31
455.073	419.31
455.294	445.31
455.514	491.31
455.734	443.31
455.955	394.31
456.175	393.31
456.395	409.31
456.616	395.31
456.836	400.31
457.056	377.31
457.276	373.31
457.497	382.31
457.717	385.31
457.937	376.31
458.157	396.31
458.377	402.31
458.598	421.31
458.818	475.31
459.038	555.31
459.258	552.31
459.478	456.31
459.698	442.31
459.918	427.31
460.138	423.31
460.358	417.31
460.578	428.31
460.798	412.31
461.018	425.31
461.238	402.31
461.458	409.31
461.678	415.31
461.898	424.31
462.118	431.31
462.338	433.31
462.558	448.31
462.777	432.31
462.997	447.31
463.217	444.31
463.437	464.31
463.657	455.31
463.876	439.31
464.096	433.31
464.316	451.31
464.536	448.31
464.755	464.31
464.975	457.31
465.195	504.31
465.414	589.31
465.634	492.31
465.854	455.31
466.073	454.31
466.293	432.31
466.512	409.31
466.732	408.31
466.951	426.31
467.171	405.31
467.391	396.31
467.61	418.31
467.829	419.31
468.049	414.31
468.268	447.31
468.488	411.31
468.707	402.31
468.927	400.31
469.146	405.31
469.365	393.31
469.585	394.31
469.804	404.31
470.023	430.31
470.243	437.31
470.462	432.31
470.681	453.31
470.901	441.31
471.12	428.31
471.339	421.31
471.558	421.31
471.777	413.31
471.997	402.31
472.216	429.31
472.435	516.31
472.654	502.31
472.873	444.31
473.092	427.31
473.311	438.31
473.53	400.31
473.749	428.31
473.968	455.31
474.187	562.31
474.406	557.31
474.625	469.31
474.844	406.31
475.063	420.31
475.282	416.31
475.501	409.31
475.72	414.31
475.939	420.31
476.158	425.31
476.377	425.31
476.596	420.31
476.814	421.31
477.033	442.31
477.252	432.31
477.471	451.31
477.69	435.31
477.908	453.31
478.127	457.31
478.346	437.31
478.564	438.31
478.783	465.31
479.002	449.31
479.22	474.31
479.439	492.31
479.658	508.31
479.876	500.31
480.095	511.31
480.313	515.31
480.532	518.31
480.751	532.31
480.969	551.31
481.188	664.31
481.406	755.31
481.624	581.31
481.843	521.31
482.061	512.31
482.28	499.31
482.498	508.31
482.717	482.31
482.935	491.31
483.153	464.31
483.372	491.31
483.59	495.31
483.808	476.31
484.027	468.31
484.245	477.31
484.463	473.31
484.681	488.31
484.9	500.31
485.118	495.31
485.336	496.31
485.554	505.31
485.772	487.31
485.99	517.31
486.209	519.31
486.427	502.31
486.645	528.31
486.863	534.31
487.081	548.31
487.299	518.31
487.517	535.31
487.735	535.31
487.953	503.31
488.171	551.31
488.389	536.31
488.607	524.31
488.825	538.31
489.043	526.31
489.261	535.31
489.479	532.31
489.696	520.31
489.914	517.31
490.132	560.31
490.35	564.31
490.568	557.31
490.786	585.31
491.003	581.31
491.221	591.31
491.439	584.31
491.657	592.31
491.874	623.31
492.092	616.31
492.31	612.31
492.527	614.31
492.745	609.31
492.963	640.31
493.18	620.31
493.398	647.31
493.615	630.31
493.833	642.31
494.05	633.31
494.268	634.31
494.485	623.31
494.703	647.31
494.92	656.31
495.138	608.31
495.355	651.31
495.573	635.31
495.79	643.31
496.008	634.31
496.225	638.31
496.442	637.31
496.66	640.31
496.877	612.31
497.094	622.31
497.312	627.31
497.529	611.31
497.746	632.31
497.963	637.31
498.181	661.31
498.398	651.31
498.615	716.31
498.832	675.31
499.049	672.31
499.267	656.31
499.484	719.31
499.701	750.31
499.918	741.31
500.135	783.31
500.352	798.31
500.569	824.31
500.786	805.31
501.003	821.31
501.22	790.31
501.437	760.31
501.654	769.31
501.871	761.31
