Data from 1983.PennyLincolnUp.Lamp.En5.5.200Scan.071819.P1_HRD10591_16-53-06-965.txt Node
Date: Thu Jul 18 16:53:06 EDT 2019
User: cochatt
Spectrometer: HR+D1059
Trigger mode: 1
Integration Time (sec): 1.000000E-1
Scans to average: 1
Electric dark correction enabled: true
Nonlinearity correction enabled: false
Boxcar width: 0
XAxis mode: Wavelengths
Number of Pixels in Spectrum: 2048
>>>>>Begin Spectral Data<<<<<
223.165	-15.81
223.4	-15.81
223.635	-15.81
223.869	-19.81
224.104	-14.81
224.338	-16.81
224.573	-16.81
224.808	-6.81
225.042	-8.81
225.277	-20.81
225.511	6.19
225.746	5.19
225.98	1.19
226.215	28.19
226.449	12.19
226.683	18.19
226.918	17.19
227.152	32.19
227.387	33.19
227.621	45.19
227.856	49.19
228.09	42.19
228.324	35.19
228.559	42.19
228.793	66.19
229.027	110.19
229.262	109.19
229.496	125.19
229.73	130.19
229.964	145.19
230.199	109.19
230.433	121.19
230.667	97.19
230.901	112.19
231.136	112.19
231.37	114.19
231.604	98.19
231.838	123.19
232.072	103.19
232.306	118.19
232.541	99.19
232.775	101.19
233.009	109.19
233.243	110.19
233.477	111.19
233.711	114.19
233.945	126.19
234.179	110.19
234.413	111.19
234.647	123.19
234.881	113.19
235.115	123.19
235.349	110.19
235.583	121.19
235.817	125.19
236.051	124.19
236.285	118.19
236.519	129.19
236.753	133.19
236.987	147.19
237.221	178.19
237.455	211.19
237.689	157.19
237.922	121.19
238.156	123.19
238.39	126.19
238.624	114.19
238.858	134.19
239.091	123.19
239.325	116.19
239.559	101.19
239.793	132.19
240.027	129.19
240.26	114.19
240.494	133.19
240.728	157.19
240.961	131.19
241.195	142.19
241.429	129.19
241.662	141.19
241.896	137.19
242.13	130.19
242.363	120.19
242.597	129.19
242.83	126.19
243.064	138.19
243.298	136.19
243.531	131.19
243.765	133.19
243.998	143.19
244.232	145.19
244.465	123.19
244.699	127.19
244.932	137.19
245.166	137.19
245.399	132.19
245.633	136.19
245.866	150.19
246.099	137.19
246.333	146.19
246.566	133.19
246.8	128.19
247.033	151.19
247.266	131.19
247.5	145.19
247.733	148.19
247.966	166.19
248.2	155.19
248.433	181.19
248.666	157.19
248.899	165.19
249.133	175.19
249.366	192.19
249.599	176.19
249.832	176.19
250.066	159.19
250.299	169.19
250.532	196.19
250.765	194.19
250.998	217.19
251.231	202.19
251.465	196.19
251.698	188.19
251.931	174.19
252.164	166.19
252.397	186.19
252.63	189.19
252.863	183.19
253.096	195.19
253.329	202.19
253.562	213.19
253.795	209.19
254.028	208.19
254.261	198.19
254.494	224.19
254.727	215.19
254.96	240.19
255.193	223.19
255.426	220.19
255.659	204.19
255.892	219.19
256.124	198.19
256.357	214.19
256.59	206.19
256.823	194.19
257.056	182.19
257.289	170.19
257.521	193.19
257.754	181.19
257.987	180.19
258.22	190.19
258.452	209.19
258.685	193.19
258.918	187.19
259.151	185.19
259.383	204.19
259.616	208.19
259.849	205.19
260.081	214.19
260.314	234.19
260.547	235.19
260.779	213.19
261.012	204.19
261.244	209.19
261.477	216.19
261.71	213.19
261.942	210.19
262.175	211.19
262.407	210.19
262.64	194.19
262.872	194.19
263.105	204.19
263.337	200.19
263.57	197.19
263.802	195.19
264.035	192.19
264.267	197.19
264.499	183.19
264.732	199.19
264.964	193.19
265.197	202.19
265.429	209.19
265.661	199.19
265.894	189.19
266.126	189.19
266.358	188.19
266.591	219.19
266.823	193.19
267.055	207.19
267.287	212.19
267.52	205.19
267.752	203.19
267.984	197.19
268.216	209.19
268.448	219.19
268.681	233.19
268.913	224.19
269.145	226.19
269.377	247.19
269.609	253.19
269.841	251.19
270.073	255.19
270.306	261.19
270.538	298.19
270.77	271.19
271.002	249.19
271.234	261.19
271.466	272.19
271.698	272.19
271.93	274.19
272.162	267.19
272.394	272.19
272.626	274.19
272.858	246.19
273.09	248.19
273.322	240.19
273.553	249.19
273.785	232.19
274.017	243.19
274.249	245.19
274.481	247.19
274.713	246.19
274.945	245.19
275.176	225.19
275.408	245.19
275.64	246.19
275.872	244.19
276.104	234.19
276.335	238.19
276.567	251.19
276.799	256.19
277.031	279.19
277.262	265.19
277.494	281.19
277.726	283.19
277.957	264.19
278.189	262.19
278.421	256.19
278.652	235.19
278.884	240.19
279.115	242.19
279.347	234.19
279.579	218.19
279.81	224.19
280.042	218.19
280.273	232.19
280.505	220.19
280.736	224.19
280.968	223.19
281.199	238.19
281.431	231.19
281.662	247.19
281.894	240.19
282.125	241.19
282.356	246.19
282.588	281.19
282.819	274.19
283.051	257.19
283.282	239.19
283.513	235.19
283.745	239.19
283.976	252.19
284.207	253.19
284.439	248.19
284.67	243.19
284.901	263.19
285.132	269.19
285.364	235.19
285.595	258.19
285.826	245.19
286.057	254.19
286.288	256.19
286.52	248.19
286.751	246.19
286.982	266.19
287.213	261.19
287.444	255.19
287.675	271.19
287.906	277.19
288.138	265.19
288.369	283.19
288.6	269.19
288.831	254.19
289.062	255.19
289.293	263.19
289.524	263.19
289.755	250.19
289.986	250.19
290.217	257.19
290.448	259.19
290.679	248.19
290.91	257.19
291.141	254.19
291.371	253.19
291.602	247.19
291.833	251.19
292.064	241.19
292.295	240.19
292.526	241.19
292.757	242.19
292.987	256.19
293.218	252.19
293.449	271.19
293.68	250.19
293.91	265.19
294.141	247.19
294.372	249.19
294.603	266.19
294.833	261.19
295.064	253.19
295.295	260.19
295.525	266.19
295.756	263.19
295.987	280.19
296.217	296.19
296.448	303.19
296.679	264.19
296.909	267.19
297.14	266.19
297.37	246.19
297.601	266.19
297.831	287.19
298.062	276.19
298.292	238.19
298.523	270.19
298.753	261.19
298.984	275.19
299.214	271.19
299.445	273.19
299.675	285.19
299.905	287.19
300.136	291.19
300.366	281.19
300.597	271.19
300.827	285.19
301.057	289.19
301.288	278.19
301.518	284.19
301.748	287.19
301.979	300.19
302.209	285.19
302.439	293.19
302.669	281.19
302.9	287.19
303.13	283.19
303.36	288.19
303.59	301.19
303.82	296.19
304.051	310.19
304.281	299.19
304.511	291.19
304.741	275.19
304.971	280.19
305.201	290.19
305.431	295.19
305.661	313.19
305.891	297.19
306.121	279.19
306.352	297.19
306.582	298.19
306.812	304.19
307.042	305.19
307.272	283.19
307.502	313.19
307.731	297.19
307.961	292.19
308.191	291.19
308.421	290.19
308.651	302.19
308.881	294.19
309.111	294.19
309.341	306.19
309.571	304.19
309.8	309.19
310.03	321.19
310.26	319.19
310.49	314.19
310.72	345.19
310.949	349.19
311.179	339.19
311.409	329.19
311.639	323.19
311.868	345.19
312.098	337.19
312.328	330.19
312.557	353.19
312.787	353.19
313.017	362.19
313.246	358.19
313.476	339.19
313.706	342.19
313.935	365.19
314.165	345.19
314.394	361.19
314.624	373.19
314.853	357.19
315.083	354.19
315.312	336.19
315.542	333.19
315.771	333.19
316.001	325.19
316.23	320.19
316.46	344.19
316.689	313.19
316.919	326.19
317.148	339.19
317.377	345.19
317.607	349.19
317.836	343.19
318.065	329.19
318.295	330.19
318.524	330.19
318.753	331.19
318.983	326.19
319.212	326.19
319.441	334.19
319.67	354.19
319.9	324.19
320.129	355.19
320.358	345.19
320.587	330.19
320.816	350.19
321.046	352.19
321.275	377.19
321.504	373.19
321.733	349.19
321.962	371.19
322.191	368.19
322.42	376.19
322.649	399.19
322.878	402.19
323.108	389.19
323.337	427.19
323.566	447.19
323.795	473.19
324.024	502.19
324.253	624.19
324.482	867.19
324.71	1315.19
324.939	1733.19
325.168	1467.19
325.397	838.19
325.626	586.19
325.855	476.19
326.084	426.19
326.313	457.19
326.542	464.19
326.77	492.19
326.999	592.19
327.228	785.19
327.457	1153.19
327.686	1317.19
327.914	894.19
328.143	591.19
328.372	526.19
328.6	505.19
328.829	487.19
329.058	521.19
329.287	509.19
329.515	494.19
329.744	437.19
329.972	445.19
330.201	437.19
330.43	455.19
330.658	487.19
330.887	504.19
331.115	528.19
331.344	447.19
331.572	421.19
331.801	448.19
332.03	434.19
332.258	408.19
332.486	390.19
332.715	381.19
332.943	403.19
333.172	391.19
333.4	388.19
333.629	399.19
333.857	404.19
334.085	395.19
334.314	412.19
334.542	413.19
334.771	405.19
334.999	401.19
335.227	394.19
335.455	395.19
335.684	385.19
335.912	392.19
336.14	393.19
336.369	382.19
336.597	398.19
336.825	389.19
337.053	400.19
337.281	389.19
337.51	383.19
337.738	369.19
337.966	377.19
338.194	384.19
338.422	360.19
338.65	385.19
338.878	371.19
339.106	383.19
339.334	392.19
339.562	376.19
339.79	366.19
340.018	369.19
340.246	378.19
340.474	373.19
340.702	374.19
340.93	395.19
341.158	378.19
341.386	366.19
341.614	391.19
341.842	381.19
342.07	380.19
342.298	384.19
342.526	377.19
342.754	376.19
342.981	363.19
343.209	383.19
343.437	385.19
343.665	381.19
343.893	389.19
344.12	395.19
344.348	377.19
344.576	385.19
344.804	391.19
345.031	379.19
345.259	382.19
345.487	377.19
345.714	376.19
345.942	378.19
346.17	377.19
346.397	370.19
346.625	373.19
346.853	367.19
347.08	368.19
347.308	379.19
347.535	381.19
347.763	393.19
347.99	385.19
348.218	377.19
348.445	385.19
348.673	384.19
348.9	365.19
349.128	371.19
349.355	343.19
349.583	350.19
349.81	362.19
350.037	363.19
350.265	353.19
350.492	357.19
350.72	351.19
350.947	380.19
351.174	383.19
351.402	375.19
351.629	370.19
351.856	375.19
352.083	377.19
352.311	394.19
352.538	383.19
352.765	385.19
352.992	365.19
353.22	362.19
353.447	359.19
353.674	365.19
353.901	338.19
354.128	346.19
354.355	352.19
354.583	346.19
354.81	336.19
355.037	349.19
355.264	350.19
355.491	338.19
355.718	340.19
355.945	350.19
356.172	340.19
356.399	342.19
356.626	339.19
356.853	346.19
357.08	349.19
357.307	343.19
357.534	341.19
357.761	342.19
357.988	344.19
358.215	333.19
358.441	353.19
358.668	335.19
358.895	346.19
359.122	370.19
359.349	359.19
359.576	355.19
359.802	393.19
360.029	396.19
360.256	425.19
360.483	388.19
360.709	366.19
360.936	381.19
361.163	366.19
361.39	353.19
361.616	365.19
361.843	362.19
362.07	364.19
362.296	361.19
362.523	353.19
362.749	365.19
362.976	353.19
363.203	359.19
363.429	353.19
363.656	366.19
363.882	350.19
364.109	351.19
364.335	344.19
364.562	339.19
364.788	350.19
365.015	356.19
365.241	350.19
365.468	369.19
365.694	354.19
365.92	349.19
366.147	332.19
366.373	336.19
366.599	336.19
366.826	351.19
367.052	348.19
367.278	346.19
367.505	344.19
367.731	359.19
367.957	347.19
368.184	347.19
368.41	358.19
368.636	348.19
368.862	367.19
369.089	363.19
369.315	345.19
369.541	354.19
369.767	335.19
369.993	354.19
370.219	341.19
370.445	343.19
370.672	362.19
370.898	336.19
371.124	348.19
371.35	331.19
371.576	365.19
371.802	334.19
372.028	335.19
372.254	331.19
372.48	348.19
372.706	362.19
372.932	359.19
373.158	353.19
373.384	359.19
373.61	346.19
373.835	329.19
374.061	352.19
374.287	346.19
374.513	353.19
374.739	358.19
374.965	335.19
375.191	358.19
375.416	339.19
375.642	352.19
375.868	343.19
376.094	337.19
376.319	341.19
376.545	347.19
376.771	363.19
376.997	325.19
377.222	365.19
377.448	341.19
377.674	343.19
377.899	331.19
378.125	328.19
378.35	337.19
378.576	338.19
378.802	333.19
379.027	342.19
379.253	346.19
379.478	339.19
379.704	337.19
379.929	337.19
380.155	329.19
380.38	339.19
380.606	355.19
380.831	361.19
381.057	343.19
381.282	341.19
381.507	345.19
381.733	342.19
381.958	360.19
382.184	351.19
382.409	352.19
382.634	354.19
382.86	329.19
383.085	342.19
383.31	366.19
383.535	357.19
383.761	359.19
383.986	354.19
384.211	362.19
384.436	358.19
384.662	362.19
384.887	353.19
385.112	361.19
385.337	363.19
385.562	366.19
385.787	350.19
386.013	389.19
386.238	358.19
386.463	373.19
386.688	375.19
386.913	363.19
387.138	354.19
387.363	376.19
387.588	345.19
387.813	381.19
388.038	352.19
388.263	350.19
388.488	362.19
388.713	375.19
388.938	364.19
389.163	371.19
389.387	373.19
389.612	370.19
389.837	357.19
390.062	350.19
390.287	356.19
390.512	358.19
390.736	380.19
390.961	363.19
391.186	357.19
391.411	381.19
391.636	375.19
391.86	381.19
392.085	382.19
392.31	376.19
392.534	387.19
392.759	374.19
392.984	359.19
393.208	385.19
393.433	349.19
393.658	387.19
393.882	362.19
394.107	365.19
394.331	366.19
394.556	355.19
394.78	371.19
395.005	388.19
395.229	383.19
395.454	403.19
395.678	390.19
395.903	393.19
396.127	420.19
396.352	394.19
396.576	379.19
396.801	362.19
397.025	382.19
397.249	402.19
397.474	387.19
397.698	383.19
397.922	385.19
398.147	416.19
398.371	425.19
398.595	413.19
398.82	421.19
399.044	415.19
399.268	434.19
399.492	465.19
399.717	449.19
399.941	497.19
400.165	519.19
400.389	492.19
400.613	474.19
400.837	459.19
401.062	421.19
401.286	418.19
401.51	438.19
401.734	413.19
401.958	392.19
402.182	427.19
402.406	422.19
402.63	421.19
402.854	439.19
403.078	411.19
403.302	424.19
403.526	413.19
403.75	407.19
403.974	430.19
404.198	421.19
404.422	422.19
404.645	429.19
404.869	450.19
405.093	441.19
405.317	459.19
405.541	477.19
405.765	456.19
405.988	448.19
406.212	448.19
406.436	470.19
406.66	493.19
406.883	462.19
407.107	508.19
407.331	503.19
407.555	537.19
407.778	530.19
408.002	527.19
408.226	476.19
408.449	470.19
408.673	467.19
408.896	474.19
409.12	511.19
409.344	486.19
409.567	443.19
409.791	439.19
410.014	446.19
410.238	446.19
410.461	427.19
410.685	444.19
410.908	450.19
411.132	453.19
411.355	494.19
411.578	475.19
411.802	455.19
412.025	437.19
412.249	448.19
412.472	443.19
412.695	431.19
412.919	419.19
413.142	426.19
413.365	405.19
413.589	390.19
413.812	409.19
414.035	407.19
414.258	401.19
414.482	421.19
414.705	413.19
414.928	401.19
415.151	394.19
415.374	383.19
415.597	400.19
415.821	380.19
416.044	409.19
416.267	435.19
416.49	384.19
416.713	393.19
416.936	424.19
417.159	384.19
417.382	413.19
417.605	413.19
417.828	426.19
418.051	420.19
418.274	443.19
418.497	418.19
418.72	398.19
418.943	409.19
419.166	406.19
419.389	431.19
419.611	413.19
419.834	417.19
420.057	427.19
420.28	447.19
420.503	429.19
420.726	419.19
420.948	431.19
421.171	445.19
421.394	488.19
421.617	430.19
421.839	423.19
422.062	440.19
422.285	441.19
422.507	480.19
422.73	515.19
422.953	527.19
423.175	456.19
423.398	437.19
423.621	454.19
423.843	462.19
424.066	460.19
424.288	454.19
424.511	459.19
424.733	494.19
424.956	569.19
425.178	537.19
425.401	533.19
425.623	536.19
425.846	480.19
426.068	450.19
426.291	466.19
426.513	431.19
426.735	465.19
426.958	507.19
427.18	569.19
427.402	633.19
427.625	705.19
427.847	639.19
428.069	566.19
428.292	478.19
428.514	448.19
428.736	434.19
428.958	426.19
429.181	419.19
429.403	395.19
429.625	435.19
429.847	458.19
430.069	511.19
430.292	487.19
430.514	456.19
430.736	429.19
430.958	407.19
431.18	426.19
431.402	405.19
431.624	419.19
431.846	406.19
432.068	413.19
432.29	404.19
432.512	408.19
432.734	416.19
432.956	402.19
433.178	429.19
433.4	407.19
433.622	410.19
433.844	393.19
434.066	418.19
434.287	402.19
434.509	408.19
434.731	394.19
434.953	421.19
435.175	431.19
435.397	463.19
435.618	482.19
435.84	475.19
436.062	549.19
436.284	578.19
436.505	510.19
436.727	457.19
436.949	459.19
437.17	430.19
437.392	417.19
437.614	441.19
437.835	471.19
438.057	533.19
438.278	598.19
438.5	607.19
438.721	643.19
438.943	613.19
439.165	501.19
439.386	464.19
439.608	472.19
439.829	467.19
440.05	504.19
440.272	517.19
440.493	476.19
440.715	441.19
440.936	426.19
441.158	425.19
441.379	424.19
441.6	418.19
441.822	433.19
442.043	485.19
442.264	562.19
442.486	578.19
442.707	496.19
442.928	460.19
443.149	479.19
443.371	494.19
443.592	543.19
443.813	599.19
444.034	623.19
444.255	540.19
444.476	485.19
444.698	429.19
444.919	459.19
445.14	573.19
445.361	509.19
445.582	509.19
445.803	533.19
446.024	609.19
446.245	585.19
446.466	582.19
446.687	488.19
446.908	469.19
447.129	415.19
447.35	422.19
447.571	426.19
447.792	432.19
448.013	437.19
448.234	445.19
448.455	488.19
448.675	593.19
448.896	661.19
449.117	560.19
449.338	544.19
449.559	601.19
449.779	678.19
450	554.19
450.221	482.19
450.442	443.19
450.662	428.19
450.883	427.19
451.104	442.19
451.324	429.19
451.545	415.19
451.766	426.19
451.986	385.19
452.207	378.19
452.428	374.19
452.648	395.19
452.869	400.19
453.089	404.19
453.31	413.19
453.53	390.19
453.751	387.19
453.971	373.19
454.192	401.19
454.412	401.19
454.633	374.19
454.853	377.19
455.073	370.19
455.294	407.19
455.514	453.19
455.734	426.19
455.955	409.19
456.175	367.19
456.395	335.19
456.616	349.19
456.836	354.19
457.056	357.19
457.276	366.19
457.497	353.19
457.717	362.19
457.937	371.19
458.157	363.19
458.377	353.19
458.598	400.19
458.818	449.19
459.038	532.19
459.258	507.19
459.478	437.19
459.698	409.19
459.918	407.19
460.138	399.19
460.358	413.19
460.578	387.19
460.798	400.19
461.018	425.19
461.238	412.19
461.458	393.19
461.678	395.19
461.898	414.19
462.118	393.19
462.338	404.19
462.558	428.19
462.777	418.19
462.997	437.19
463.217	446.19
463.437	423.19
463.657	426.19
463.876	427.19
464.096	432.19
464.316	406.19
464.536	435.19
464.755	440.19
464.975	423.19
465.195	480.19
465.414	526.19
465.634	467.19
465.854	444.19
466.073	414.19
466.293	409.19
466.512	388.19
466.732	378.19
466.951	402.19
467.171	385.19
467.391	407.19
467.61	425.19
467.829	397.19
468.049	396.19
468.268	358.19
468.488	397.19
468.707	357.19
468.927	378.19
469.146	371.19
469.365	363.19
469.585	364.19
469.804	375.19
470.023	391.19
470.243	398.19
470.462	409.19
470.681	418.19
470.901	423.19
471.12	398.19
471.339	402.19
471.558	397.19
471.777	386.19
471.997	377.19
472.216	389.19
472.435	388.19
472.654	386.19
472.873	387.19
473.092	383.19
473.311	388.19
473.53	387.19
473.749	400.19
473.968	421.19
474.187	509.19
474.406	517.19
474.625	432.19
474.844	409.19
475.063	378.19
475.282	379.19
475.501	410.19
475.72	383.19
475.939	423.19
476.158	398.19
476.377	404.19
476.596	407.19
476.814	411.19
477.033	416.19
477.252	404.19
477.471	422.19
477.69	423.19
477.908	431.19
478.127	437.19
478.346	426.19
478.564	427.19
478.783	451.19
479.002	451.19
479.22	461.19
479.439	440.19
479.658	454.19
479.876	471.19
480.095	479.19
480.313	490.19
480.532	497.19
480.751	464.19
480.969	482.19
481.188	481.19
481.406	477.19
481.624	484.19
481.843	469.19
482.061	449.19
482.28	442.19
482.498	446.19
482.717	445.19
482.935	456.19
483.153	463.19
483.372	470.19
483.59	450.19
483.808	457.19
484.027	463.19
484.245	462.19
484.463	459.19
484.681	471.19
484.9	458.19
485.118	467.19
485.336	473.19
485.554	483.19
485.772	486.19
485.99	466.19
486.209	484.19
486.427	479.19
486.645	462.19
486.863	501.19
487.081	496.19
487.299	495.19
487.517	492.19
487.735	491.19
487.953	492.19
488.171	496.19
488.389	494.19
488.607	473.19
488.825	498.19
489.043	493.19
489.261	502.19
489.479	485.19
489.696	521.19
489.914	513.19
490.132	480.19
490.35	517.19
490.568	529.19
490.786	533.19
491.003	544.19
491.221	521.19
491.439	565.19
491.657	553.19
491.874	571.19
492.092	558.19
492.31	553.19
492.527	574.19
492.745	569.19
492.963	553.19
493.18	581.19
493.398	587.19
493.615	592.19
493.833	563.19
494.05	590.19
494.268	575.19
494.485	552.19
494.703	569.19
494.92	591.19
495.138	595.19
495.355	574.19
495.573	580.19
495.79	579.19
496.008	562.19
496.225	574.19
496.442	574.19
496.66	579.19
496.877	600.19
497.094	584.19
497.312	591.19
497.529	595.19
497.746	611.19
497.963	631.19
498.181	621.19
498.398	635.19
498.615	638.19
498.832	645.19
499.049	647.19
499.267	674.19
499.484	663.19
499.701	701.19
499.918	728.19
500.135	718.19
500.352	768.19
500.569	765.19
500.786	775.19
501.003	750.19
501.22	750.19
501.437	751.19
501.654	737.19
501.871	695.19
502.088	673.19
