Data from 1983.PennyLincolnUp.Lamp.En5.5.200Scan.071819.P1_HRD10591_16-52-55-965.txt Node
Date: Thu Jul 18 16:52:55 EDT 2019
User: cochatt
Spectrometer: HR+D1059
Trigger mode: 1
Integration Time (sec): 1.000000E-1
Scans to average: 1
Electric dark correction enabled: true
Nonlinearity correction enabled: false
Boxcar width: 0
XAxis mode: Wavelengths
Number of Pixels in Spectrum: 2048
>>>>>Begin Spectral Data<<<<<
223.165	-8.19
223.4	-8.19
223.635	-8.19
223.869	-23.19
224.104	-23.19
224.338	-10.19
224.573	-6.19
224.808	-18.19
225.042	-13.19
225.277	-3.19
225.511	-19.19
225.746	13.81
225.98	12.81
226.215	18.81
226.449	10.81
226.683	23.81
226.918	22.81
227.152	21.81
227.387	33.81
227.621	34.81
227.856	40.81
228.09	40.81
228.324	49.81
228.559	51.81
228.793	80.81
229.027	93.81
229.262	92.81
229.496	99.81
229.73	132.81
229.964	150.81
230.199	124.81
230.433	107.81
230.667	116.81
230.901	128.81
231.136	108.81
231.37	91.81
231.604	114.81
231.838	109.81
232.072	92.81
232.306	106.81
232.541	109.81
232.775	97.81
233.009	105.81
233.243	103.81
233.477	116.81
233.711	119.81
233.945	100.81
234.179	114.81
234.413	105.81
234.647	90.81
234.881	101.81
235.115	123.81
235.349	107.81
235.583	108.81
235.817	107.81
236.051	107.81
236.285	101.81
236.519	117.81
236.753	116.81
236.987	121.81
237.221	167.81
237.455	208.81
237.689	168.81
237.922	134.81
238.156	121.81
238.39	123.81
238.624	98.81
238.858	101.81
239.091	112.81
239.325	132.81
239.559	126.81
239.793	114.81
240.027	125.81
240.26	125.81
240.494	134.81
240.728	128.81
240.961	117.81
241.195	134.81
241.429	120.81
241.662	123.81
241.896	113.81
242.13	121.81
242.363	116.81
242.597	122.81
242.83	114.81
243.064	122.81
243.298	121.81
243.531	126.81
243.765	118.81
243.998	140.81
244.232	133.81
244.465	129.81
244.699	132.81
244.932	121.81
245.166	125.81
245.399	140.81
245.633	133.81
245.866	132.81
246.099	122.81
246.333	129.81
246.566	135.81
246.8	153.81
247.033	137.81
247.266	154.81
247.5	139.81
247.733	147.81
247.966	139.81
248.2	158.81
248.433	154.81
248.666	160.81
248.899	157.81
249.133	170.81
249.366	184.81
249.599	168.81
249.832	156.81
250.066	149.81
250.299	173.81
250.532	160.81
250.765	176.81
250.998	186.81
251.231	202.81
251.465	192.81
251.698	183.81
251.931	196.81
252.164	178.81
252.397	186.81
252.63	182.81
252.863	189.81
253.096	182.81
253.329	192.81
253.562	202.81
253.795	185.81
254.028	181.81
254.261	191.81
254.494	210.81
254.727	219.81
254.96	245.81
255.193	240.81
255.426	207.81
255.659	185.81
255.892	192.81
256.124	181.81
256.357	195.81
256.59	195.81
256.823	198.81
257.056	178.81
257.289	164.81
257.521	189.81
257.754	176.81
257.987	178.81
258.22	188.81
258.452	176.81
258.685	193.81
258.918	175.81
259.151	183.81
259.383	200.81
259.616	187.81
259.849	197.81
260.081	218.81
260.314	224.81
260.547	222.81
260.779	205.81
261.012	198.81
261.244	203.81
261.477	201.81
261.71	188.81
261.942	201.81
262.175	206.81
262.407	204.81
262.64	201.81
262.872	170.81
263.105	200.81
263.337	179.81
263.57	177.81
263.802	197.81
264.035	185.81
264.267	197.81
264.499	198.81
264.732	186.81
264.964	197.81
265.197	180.81
265.429	181.81
265.661	174.81
265.894	178.81
266.126	191.81
266.358	185.81
266.591	195.81
266.823	186.81
267.055	192.81
267.287	220.81
267.52	187.81
267.752	192.81
267.984	196.81
268.216	217.81
268.448	201.81
268.681	204.81
268.913	217.81
269.145	228.81
269.377	236.81
269.609	212.81
269.841	242.81
270.073	235.81
270.306	246.81
270.538	286.81
270.77	261.81
271.002	253.81
271.234	262.81
271.466	236.81
271.698	266.81
271.93	258.81
272.162	275.81
272.394	293.81
272.626	253.81
272.858	242.81
273.09	256.81
273.322	228.81
273.553	233.81
273.785	233.81
274.017	234.81
274.249	227.81
274.481	233.81
274.713	235.81
274.945	263.81
275.176	229.81
275.408	225.81
275.64	243.81
275.872	235.81
276.104	230.81
276.335	232.81
276.567	225.81
276.799	257.81
277.031	258.81
277.262	272.81
277.494	262.81
277.726	272.81
277.957	246.81
278.189	246.81
278.421	225.81
278.652	236.81
278.884	229.81
279.115	234.81
279.347	250.81
279.579	227.81
279.81	220.81
280.042	219.81
280.273	228.81
280.505	218.81
280.736	220.81
280.968	227.81
281.199	237.81
281.431	241.81
281.662	232.81
281.894	231.81
282.125	235.81
282.356	259.81
282.588	269.81
282.819	268.81
283.051	242.81
283.282	220.81
283.513	232.81
283.745	242.81
283.976	225.81
284.207	229.81
284.439	245.81
284.67	246.81
284.901	232.81
285.132	253.81
285.364	246.81
285.595	250.81
285.826	237.81
286.057	251.81
286.288	232.81
286.52	236.81
286.751	250.81
286.982	246.81
287.213	242.81
287.444	248.81
287.675	242.81
287.906	260.81
288.138	250.81
288.369	268.81
288.6	258.81
288.831	246.81
289.062	252.81
289.293	262.81
289.524	256.81
289.755	242.81
289.986	238.81
290.217	228.81
290.448	237.81
290.679	257.81
290.91	257.81
291.141	244.81
291.371	247.81
291.602	253.81
291.833	253.81
292.064	238.81
292.295	250.81
292.526	254.81
292.757	257.81
292.987	263.81
293.218	250.81
293.449	237.81
293.68	238.81
293.91	242.81
294.141	248.81
294.372	254.81
294.603	263.81
294.833	252.81
295.064	242.81
295.295	264.81
295.525	254.81
295.756	252.81
295.987	262.81
296.217	285.81
296.448	290.81
296.679	255.81
296.909	268.81
297.14	258.81
297.37	264.81
297.601	254.81
297.831	259.81
298.062	256.81
298.292	259.81
298.523	264.81
298.753	267.81
298.984	262.81
299.214	277.81
299.445	271.81
299.675	248.81
299.905	279.81
300.136	285.81
300.366	269.81
300.597	270.81
300.827	276.81
301.057	280.81
301.288	277.81
301.518	277.81
301.748	268.81
301.979	270.81
302.209	278.81
302.439	281.81
302.669	290.81
302.9	292.81
303.13	284.81
303.36	271.81
303.59	289.81
303.82	298.81
304.051	294.81
304.281	286.81
304.511	299.81
304.741	268.81
304.971	259.81
305.201	281.81
305.431	277.81
305.661	265.81
305.891	276.81
306.121	301.81
306.352	300.81
306.582	288.81
306.812	275.81
307.042	293.81
307.272	270.81
307.502	275.81
307.731	291.81
307.961	287.81
308.191	309.81
308.421	284.81
308.651	286.81
308.881	273.81
309.111	287.81
309.341	298.81
309.571	323.81
309.8	308.81
310.03	332.81
310.26	337.81
310.49	340.81
310.72	334.81
310.949	341.81
311.179	354.81
311.409	322.81
311.639	313.81
311.868	311.81
312.098	326.81
312.328	338.81
312.557	340.81
312.787	376.81
313.017	350.81
313.246	341.81
313.476	325.81
313.706	330.81
313.935	334.81
314.165	347.81
314.394	323.81
314.624	337.81
314.853	344.81
315.083	344.81
315.312	327.81
315.542	318.81
315.771	328.81
316.001	314.81
316.23	311.81
316.46	320.81
316.689	323.81
316.919	333.81
317.148	337.81
317.377	336.81
317.607	353.81
317.836	330.81
318.065	337.81
318.295	328.81
318.524	333.81
318.753	314.81
318.983	341.81
319.212	334.81
319.441	330.81
319.67	346.81
319.9	327.81
320.129	345.81
320.358	323.81
320.587	333.81
320.816	331.81
321.046	350.81
321.275	348.81
321.504	349.81
321.733	340.81
321.962	351.81
322.191	378.81
322.42	358.81
322.649	387.81
322.878	402.81
323.108	387.81
323.337	420.81
323.566	436.81
323.795	469.81
324.024	525.81
324.253	624.81
324.482	848.81
324.71	1330.81
324.939	1765.81
325.168	1464.81
325.397	800.81
325.626	552.81
325.855	471.81
326.084	437.81
326.313	429.81
326.542	434.81
326.77	480.81
326.999	558.81
327.228	770.81
327.457	1144.81
327.686	1272.81
327.914	872.81
328.143	603.81
328.372	544.81
328.6	496.81
328.829	496.81
329.058	474.81
329.287	508.81
329.515	460.81
329.744	413.81
329.972	412.81
330.201	418.81
330.43	436.81
330.658	465.81
330.887	514.81
331.115	494.81
331.344	450.81
331.572	406.81
331.801	434.81
332.03	444.81
332.258	394.81
332.486	396.81
332.715	414.81
332.943	381.81
333.172	393.81
333.4	373.81
333.629	388.81
333.857	399.81
334.085	394.81
334.314	394.81
334.542	373.81
334.771	392.81
334.999	389.81
335.227	397.81
335.455	378.81
335.684	392.81
335.912	387.81
336.14	378.81
336.369	381.81
336.597	386.81
336.825	388.81
337.053	377.81
337.281	366.81
337.51	370.81
337.738	358.81
337.966	393.81
338.194	356.81
338.422	369.81
338.65	388.81
338.878	375.81
339.106	362.81
339.334	346.81
339.562	361.81
339.79	373.81
340.018	346.81
340.246	357.81
340.474	374.81
340.702	372.81
340.93	368.81
341.158	388.81
341.386	364.81
341.614	374.81
341.842	381.81
342.07	363.81
342.298	353.81
342.526	370.81
342.754	346.81
342.981	357.81
343.209	339.81
343.437	372.81
343.665	363.81
343.893	344.81
344.12	368.81
344.348	365.81
344.576	370.81
344.804	377.81
345.031	378.81
345.259	394.81
345.487	378.81
345.714	372.81
345.942	364.81
346.17	382.81
346.397	373.81
346.625	365.81
346.853	361.81
347.08	376.81
347.308	347.81
347.535	380.81
347.763	376.81
347.99	365.81
348.218	354.81
348.445	363.81
348.673	392.81
348.9	353.81
349.128	356.81
349.355	345.81
349.583	341.81
349.81	359.81
350.037	352.81
350.265	330.81
350.492	340.81
350.72	333.81
350.947	368.81
351.174	350.81
351.402	357.81
351.629	353.81
351.856	369.81
352.083	349.81
352.311	394.81
352.538	378.81
352.765	375.81
352.992	352.81
353.22	376.81
353.447	352.81
353.674	350.81
353.901	314.81
354.128	344.81
354.355	334.81
354.583	316.81
354.81	328.81
355.037	333.81
355.264	322.81
355.491	342.81
355.718	325.81
355.945	317.81
356.172	340.81
356.399	321.81
356.626	310.81
356.853	333.81
357.08	322.81
357.307	340.81
357.534	323.81
357.761	333.81
357.988	326.81
358.215	319.81
358.441	325.81
358.668	331.81
358.895	344.81
359.122	339.81
359.349	356.81
359.576	350.81
359.802	359.81
360.029	397.81
360.256	401.81
360.483	392.81
360.709	354.81
360.936	349.81
361.163	355.81
361.39	372.81
361.616	362.81
361.843	359.81
362.07	352.81
362.296	365.81
362.523	357.81
362.749	343.81
362.976	354.81
363.203	363.81
363.429	331.81
363.656	343.81
363.882	328.81
364.109	345.81
364.335	336.81
364.562	332.81
364.788	343.81
365.015	351.81
365.241	329.81
365.468	342.81
365.694	357.81
365.92	333.81
366.147	341.81
366.373	355.81
366.599	346.81
366.826	328.81
367.052	339.81
367.278	320.81
367.505	310.81
367.731	340.81
367.957	345.81
368.184	338.81
368.41	328.81
368.636	337.81
368.862	338.81
369.089	344.81
369.315	325.81
369.541	326.81
369.767	333.81
369.993	341.81
370.219	342.81
370.445	329.81
370.672	358.81
370.898	337.81
371.124	327.81
371.35	335.81
371.576	320.81
371.802	330.81
372.028	342.81
372.254	320.81
372.48	318.81
372.706	338.81
372.932	326.81
373.158	341.81
373.384	351.81
373.61	342.81
373.835	329.81
374.061	325.81
374.287	334.81
374.513	332.81
374.739	333.81
374.965	343.81
375.191	344.81
375.416	323.81
375.642	346.81
375.868	360.81
376.094	343.81
376.319	320.81
376.545	324.81
376.771	339.81
376.997	347.81
377.222	339.81
377.448	341.81
377.674	350.81
377.899	320.81
378.125	323.81
378.35	327.81
378.576	320.81
378.802	319.81
379.027	325.81
379.253	340.81
379.478	331.81
379.704	336.81
379.929	340.81
380.155	333.81
380.38	337.81
380.606	356.81
380.831	328.81
381.057	324.81
381.282	331.81
381.507	315.81
381.733	346.81
381.958	336.81
382.184	319.81
382.409	348.81
382.634	372.81
382.86	345.81
383.085	341.81
383.31	328.81
383.535	341.81
383.761	338.81
383.986	358.81
384.211	333.81
384.436	378.81
384.662	360.81
384.887	351.81
385.112	324.81
385.337	353.81
385.562	350.81
385.787	358.81
386.013	365.81
386.238	364.81
386.463	366.81
386.688	361.81
386.913	352.81
387.138	353.81
387.363	351.81
387.588	354.81
387.813	364.81
388.038	362.81
388.263	353.81
388.488	376.81
388.713	365.81
388.938	376.81
389.163	376.81
389.387	361.81
389.612	360.81
389.837	361.81
390.062	354.81
390.287	372.81
390.512	340.81
390.736	368.81
390.961	345.81
391.186	370.81
391.411	366.81
391.636	356.81
391.86	373.81
392.085	344.81
392.31	351.81
392.534	351.81
392.759	372.81
392.984	378.81
393.208	369.81
393.433	374.81
393.658	360.81
393.882	362.81
394.107	357.81
394.331	364.81
394.556	338.81
394.78	359.81
395.005	350.81
395.229	355.81
395.454	378.81
395.678	368.81
395.903	386.81
396.127	386.81
396.352	378.81
396.576	361.81
396.801	357.81
397.025	386.81
397.249	372.81
397.474	376.81
397.698	382.81
397.922	388.81
398.147	417.81
398.371	393.81
398.595	389.81
398.82	408.81
399.044	411.81
399.268	439.81
399.492	440.81
399.717	448.81
399.941	489.81
400.165	488.81
400.389	479.81
400.613	439.81
400.837	420.81
401.062	402.81
401.286	422.81
401.51	380.81
401.734	418.81
401.958	408.81
402.182	401.81
402.406	410.81
402.63	406.81
402.854	407.81
403.078	432.81
403.302	430.81
403.526	412.81
403.75	411.81
403.974	409.81
404.198	420.81
404.422	423.81
404.645	418.81
404.869	425.81
405.093	430.81
405.317	449.81
405.541	474.81
405.765	430.81
405.988	426.81
406.212	444.81
406.436	465.81
406.66	488.81
406.883	460.81
407.107	468.81
407.331	479.81
407.555	542.81
407.778	555.81
408.002	497.81
408.226	466.81
408.449	454.81
408.673	448.81
408.896	474.81
409.12	514.81
409.344	470.81
409.567	436.81
409.791	434.81
410.014	431.81
410.238	430.81
410.461	416.81
410.685	441.81
410.908	440.81
411.132	451.81
411.355	458.81
411.578	450.81
411.802	447.81
412.025	405.81
412.249	412.81
412.472	420.81
412.695	420.81
412.919	421.81
413.142	406.81
413.365	405.81
413.589	404.81
413.812	376.81
414.035	395.81
414.258	399.81
414.482	400.81
414.705	388.81
414.928	390.81
415.151	388.81
415.374	382.81
415.597	388.81
415.821	388.81
416.044	393.81
416.267	398.81
416.49	393.81
416.713	395.81
416.936	396.81
417.159	406.81
417.382	387.81
417.605	404.81
417.828	401.81
418.051	416.81
418.274	413.81
418.497	394.81
418.72	404.81
418.943	398.81
419.166	396.81
419.389	437.81
419.611	403.81
419.834	426.81
420.057	421.81
420.28	428.81
420.503	404.81
420.726	414.81
420.948	413.81
421.171	448.81
421.394	472.81
421.617	440.81
421.839	414.81
422.062	407.81
422.285	420.81
422.507	478.81
422.73	521.81
422.953	483.81
423.175	453.81
423.398	433.81
423.621	418.81
423.843	442.81
424.066	428.81
424.288	438.81
424.511	466.81
424.733	504.81
424.956	550.81
425.178	537.81
425.401	501.81
425.623	530.81
425.846	473.81
426.068	473.81
426.291	445.81
426.513	445.81
426.735	443.81
426.958	467.81
427.18	572.81
427.402	649.81
427.625	694.81
427.847	642.81
428.069	524.81
428.292	477.81
428.514	456.81
428.736	445.81
428.958	445.81
429.181	430.81
429.403	423.81
429.625	421.81
429.847	438.81
430.069	506.81
430.292	496.81
430.514	421.81
430.736	409.81
430.958	407.81
431.18	399.81
431.402	399.81
431.624	403.81
431.846	367.81
432.068	371.81
432.29	387.81
432.512	384.81
432.734	410.81
432.956	396.81
433.178	418.81
433.4	389.81
433.622	388.81
433.844	395.81
434.066	404.81
434.287	396.81
434.509	402.81
434.731	424.81
434.953	416.81
435.175	422.81
435.397	448.81
435.618	451.81
435.84	489.81
436.062	561.81
436.284	604.81
436.505	504.81
436.727	470.81
436.949	429.81
437.17	433.81
437.392	422.81
437.614	426.81
437.835	480.81
438.057	538.81
438.278	606.81
438.5	598.81
438.721	632.81
438.943	630.81
439.165	497.81
439.386	462.81
439.608	461.81
439.829	481.81
440.05	472.81
440.272	497.81
440.493	476.81
440.715	447.81
440.936	420.81
441.158	426.81
441.379	436.81
441.6	427.81
441.822	454.81
442.043	482.81
442.264	562.81
442.486	573.81
442.707	500.81
442.928	425.81
443.149	450.81
443.371	471.81
443.592	514.81
443.813	584.81
444.034	633.81
444.255	504.81
444.476	461.81
444.698	452.81
444.919	451.81
445.14	580.81
445.361	526.81
445.582	478.81
445.803	539.81
446.024	612.81
446.245	622.81
446.466	537.81
446.687	502.81
446.908	448.81
447.129	424.81
447.35	421.81
447.571	407.81
447.792	425.81
448.013	427.81
448.234	464.81
448.455	461.81
448.675	559.81
448.896	640.81
449.117	548.81
449.338	526.81
449.559	584.81
449.779	674.81
450	544.81
450.221	430.81
450.442	387.81
450.662	401.81
450.883	409.81
451.104	430.81
451.324	408.81
451.545	391.81
451.766	407.81
451.986	380.81
452.207	368.81
452.428	361.81
452.648	359.81
452.869	393.81
453.089	384.81
453.31	389.81
453.53	379.81
453.751	371.81
453.971	376.81
454.192	392.81
454.412	390.81
454.633	372.81
454.853	373.81
455.073	371.81
455.294	382.81
455.514	444.81
455.734	432.81
455.955	368.81
456.175	377.81
456.395	361.81
456.616	342.81
456.836	344.81
457.056	346.81
457.276	348.81
457.497	367.81
457.717	365.81
457.937	357.81
458.157	352.81
458.377	370.81
458.598	376.81
458.818	420.81
459.038	498.81
459.258	522.81
459.478	430.81
459.698	402.81
459.918	392.81
460.138	376.81
460.358	389.81
460.578	394.81
460.798	407.81
461.018	378.81
461.238	390.81
461.458	412.81
461.678	387.81
461.898	400.81
462.118	396.81
462.338	407.81
462.558	410.81
462.777	401.81
462.997	414.81
463.217	430.81
463.437	410.81
463.657	432.81
463.876	418.81
464.096	413.81
464.316	434.81
464.536	444.81
464.755	432.81
464.975	419.81
465.195	494.81
465.414	530.81
465.634	467.81
465.854	437.81
466.073	418.81
466.293	384.81
466.512	380.81
466.732	364.81
466.951	378.81
467.171	379.81
467.391	391.81
467.61	398.81
467.829	393.81
468.049	378.81
468.268	386.81
468.488	362.81
468.707	382.81
468.927	376.81
469.146	374.81
469.365	370.81
469.585	354.81
469.804	366.81
470.023	394.81
470.243	404.81
470.462	398.81
470.681	418.81
470.901	394.81
471.12	379.81
471.339	373.81
471.558	390.81
471.777	390.81
471.997	369.81
472.216	389.81
472.435	387.81
472.654	377.81
472.873	376.81
473.092	377.81
473.311	365.81
473.53	399.81
473.749	394.81
473.968	411.81
474.187	507.81
474.406	522.81
474.625	444.81
474.844	390.81
475.063	398.81
475.282	380.81
475.501	402.81
475.72	410.81
475.939	384.81
476.158	384.81
476.377	401.81
476.596	416.81
476.814	407.81
477.033	384.81
477.252	418.81
477.471	406.81
477.69	424.81
477.908	425.81
478.127	418.81
478.346	401.81
478.564	424.81
478.783	408.81
479.002	460.81
479.22	440.81
479.439	444.81
479.658	456.81
479.876	448.81
480.095	470.81
480.313	485.81
480.532	474.81
480.751	465.81
480.969	485.81
481.188	455.81
481.406	475.81
481.624	466.81
481.843	442.81
482.061	441.81
482.28	423.81
482.498	425.81
482.717	427.81
482.935	444.81
483.153	450.81
483.372	465.81
483.59	443.81
483.808	450.81
484.027	464.81
484.245	435.81
484.463	444.81
484.681	455.81
484.9	450.81
485.118	446.81
485.336	445.81
485.554	446.81
485.772	475.81
485.99	457.81
486.209	450.81
486.427	454.81
486.645	454.81
486.863	473.81
487.081	478.81
487.299	461.81
487.517	483.81
487.735	460.81
487.953	491.81
488.171	486.81
488.389	473.81
488.607	469.81
488.825	499.81
489.043	485.81
489.261	477.81
489.479	481.81
489.696	482.81
489.914	503.81
490.132	504.81
490.35	502.81
490.568	500.81
490.786	524.81
491.003	530.81
491.221	532.81
491.439	555.81
491.657	544.81
491.874	537.81
492.092	568.81
492.31	553.81
492.527	539.81
492.745	533.81
492.963	555.81
493.18	564.81
493.398	551.81
493.615	562.81
493.833	568.81
494.05	580.81
494.268	608.81
494.485	566.81
494.703	574.81
494.92	570.81
495.138	550.81
495.355	559.81
495.573	570.81
495.79	575.81
496.008	573.81
496.225	568.81
496.442	557.81
496.66	568.81
496.877	581.81
497.094	552.81
497.312	570.81
497.529	578.81
497.746	584.81
497.963	609.81
498.181	611.81
498.398	633.81
498.615	611.81
498.832	616.81
499.049	634.81
499.267	634.81
499.484	668.81
499.701	669.81
499.918	702.81
500.135	717.81
500.352	738.81
500.569	761.81
500.786	774.81
501.003	731.81
501.22	736.81
501.437	742.81
501.654	711.81
501.871	697.81
502.088	667.81
