Data from 1983.PennyLincolnUp.Lamp.En5.5.200Scan.071819.P1_HRD10591_16-52-34-965.txt Node
Date: Thu Jul 18 16:52:34 EDT 2019
User: cochatt
Spectrometer: HR+D1059
Trigger mode: 1
Integration Time (sec): 1.000000E-1
Scans to average: 1
Electric dark correction enabled: true
Nonlinearity correction enabled: false
Boxcar width: 0
XAxis mode: Wavelengths
Number of Pixels in Spectrum: 2048
>>>>>Begin Spectral Data<<<<<
223.165	-18.56
223.4	-18.56
223.635	-18.56
223.869	-10.56
224.104	-10.56
224.338	-15.56
224.573	-24.56
224.808	-7.56
225.042	-1.56
225.277	4.44
225.511	-7.56
225.746	2.44
225.98	10.44
226.215	0.44
226.449	5.44
226.683	24.44
226.918	23.44
227.152	25.44
227.387	36.44
227.621	41.44
227.856	43.44
228.09	47.44
228.324	48.44
228.559	51.44
228.793	46.44
229.027	94.44
229.262	110.44
229.496	85.44
229.73	102.44
229.964	130.44
230.199	113.44
230.433	112.44
230.667	101.44
230.901	93.44
231.136	93.44
231.37	106.44
231.604	100.44
231.838	104.44
232.072	106.44
232.306	103.44
232.541	112.44
232.775	101.44
233.009	111.44
233.243	98.44
233.477	92.44
233.711	78.44
233.945	105.44
234.179	105.44
234.413	94.44
234.647	105.44
234.881	118.44
235.115	107.44
235.349	105.44
235.583	89.44
235.817	121.44
236.051	98.44
236.285	114.44
236.519	114.44
236.753	131.44
236.987	133.44
237.221	165.44
237.455	207.44
237.689	154.44
237.922	121.44
238.156	116.44
238.39	118.44
238.624	115.44
238.858	124.44
239.091	124.44
239.325	105.44
239.559	118.44
239.793	122.44
240.027	105.44
240.26	120.44
240.494	118.44
240.728	127.44
240.961	132.44
241.195	116.44
241.429	128.44
241.662	119.44
241.896	124.44
242.13	103.44
242.363	119.44
242.597	121.44
242.83	114.44
243.064	115.44
243.298	119.44
243.531	121.44
243.765	132.44
243.998	138.44
244.232	144.44
244.465	136.44
244.699	139.44
244.932	139.44
245.166	133.44
245.399	138.44
245.633	110.44
245.866	136.44
246.099	152.44
246.333	132.44
246.566	143.44
246.8	146.44
247.033	131.44
247.266	136.44
247.5	124.44
247.733	133.44
247.966	156.44
248.2	171.44
248.433	157.44
248.666	162.44
248.899	157.44
249.133	190.44
249.366	180.44
249.599	173.44
249.832	163.44
250.066	173.44
250.299	166.44
250.532	168.44
250.765	169.44
250.998	185.44
251.231	200.44
251.465	177.44
251.698	152.44
251.931	169.44
252.164	179.44
252.397	167.44
252.63	184.44
252.863	188.44
253.096	189.44
253.329	189.44
253.562	216.44
253.795	194.44
254.028	185.44
254.261	188.44
254.494	212.44
254.727	218.44
254.96	212.44
255.193	233.44
255.426	211.44
255.659	204.44
255.892	206.44
256.124	184.44
256.357	169.44
256.59	166.44
256.823	180.44
257.056	173.44
257.289	181.44
257.521	187.44
257.754	189.44
257.987	181.44
258.22	196.44
258.452	180.44
258.685	185.44
258.918	188.44
259.151	174.44
259.383	195.44
259.616	192.44
259.849	203.44
260.081	205.44
260.314	224.44
260.547	206.44
260.779	221.44
261.012	198.44
261.244	205.44
261.477	189.44
261.71	208.44
261.942	189.44
262.175	203.44
262.407	199.44
262.64	186.44
262.872	189.44
263.105	182.44
263.337	197.44
263.57	169.44
263.802	194.44
264.035	199.44
264.267	192.44
264.499	170.44
264.732	201.44
264.964	190.44
265.197	187.44
265.429	177.44
265.661	196.44
265.894	195.44
266.126	187.44
266.358	200.44
266.591	197.44
266.823	195.44
267.055	194.44
267.287	222.44
267.52	185.44
267.752	188.44
267.984	199.44
268.216	201.44
268.448	204.44
268.681	220.44
268.913	219.44
269.145	234.44
269.377	223.44
269.609	234.44
269.841	249.44
270.073	217.44
270.306	258.44
270.538	268.44
270.77	256.44
271.002	266.44
271.234	238.44
271.466	267.44
271.698	278.44
271.93	256.44
272.162	279.44
272.394	272.44
272.626	254.44
272.858	242.44
273.09	236.44
273.322	230.44
273.553	230.44
273.785	228.44
274.017	222.44
274.249	246.44
274.481	238.44
274.713	228.44
274.945	228.44
275.176	232.44
275.408	222.44
275.64	233.44
275.872	228.44
276.104	204.44
276.335	243.44
276.567	229.44
276.799	267.44
277.031	269.44
277.262	279.44
277.494	266.44
277.726	262.44
277.957	269.44
278.189	262.44
278.421	242.44
278.652	237.44
278.884	228.44
279.115	238.44
279.347	225.44
279.579	227.44
279.81	229.44
280.042	219.44
280.273	230.44
280.505	227.44
280.736	233.44
280.968	214.44
281.199	236.44
281.431	226.44
281.662	236.44
281.894	243.44
282.125	230.44
282.356	251.44
282.588	252.44
282.819	273.44
283.051	254.44
283.282	223.44
283.513	261.44
283.745	247.44
283.976	244.44
284.207	249.44
284.439	246.44
284.67	251.44
284.901	229.44
285.132	256.44
285.364	249.44
285.595	247.44
285.826	241.44
286.057	244.44
286.288	229.44
286.52	260.44
286.751	246.44
286.982	248.44
287.213	235.44
287.444	250.44
287.675	270.44
287.906	268.44
288.138	261.44
288.369	251.44
288.6	262.44
288.831	268.44
289.062	251.44
289.293	244.44
289.524	247.44
289.755	263.44
289.986	262.44
290.217	238.44
290.448	261.44
290.679	250.44
290.91	224.44
291.141	246.44
291.371	256.44
291.602	247.44
291.833	249.44
292.064	252.44
292.295	257.44
292.526	238.44
292.757	241.44
292.987	259.44
293.218	264.44
293.449	267.44
293.68	249.44
293.91	260.44
294.141	261.44
294.372	268.44
294.603	252.44
294.833	254.44
295.064	264.44
295.295	255.44
295.525	264.44
295.756	262.44
295.987	274.44
296.217	278.44
296.448	284.44
296.679	259.44
296.909	276.44
297.14	244.44
297.37	259.44
297.601	264.44
297.831	265.44
298.062	270.44
298.292	277.44
298.523	281.44
298.753	261.44
298.984	269.44
299.214	264.44
299.445	271.44
299.675	271.44
299.905	267.44
300.136	269.44
300.366	252.44
300.597	279.44
300.827	289.44
301.057	270.44
301.288	282.44
301.518	274.44
301.748	265.44
301.979	278.44
302.209	294.44
302.439	295.44
302.669	305.44
302.9	287.44
303.13	283.44
303.36	277.44
303.59	290.44
303.82	306.44
304.051	325.44
304.281	293.44
304.511	285.44
304.741	285.44
304.971	282.44
305.201	286.44
305.431	282.44
305.661	291.44
305.891	288.44
306.121	288.44
306.352	291.44
306.582	284.44
306.812	309.44
307.042	286.44
307.272	300.44
307.502	283.44
307.731	285.44
307.961	291.44
308.191	301.44
308.421	281.44
308.651	291.44
308.881	298.44
309.111	314.44
309.341	314.44
309.571	302.44
309.8	299.44
310.03	319.44
310.26	305.44
310.49	315.44
310.72	312.44
310.949	352.44
311.179	359.44
311.409	331.44
311.639	324.44
311.868	337.44
312.098	335.44
312.328	339.44
312.557	347.44
312.787	360.44
313.017	340.44
313.246	337.44
313.476	320.44
313.706	320.44
313.935	324.44
314.165	348.44
314.394	359.44
314.624	348.44
314.853	330.44
315.083	345.44
315.312	320.44
315.542	338.44
315.771	340.44
316.001	321.44
316.23	305.44
316.46	325.44
316.689	333.44
316.919	338.44
317.148	313.44
317.377	342.44
317.607	327.44
317.836	330.44
318.065	331.44
318.295	327.44
318.524	320.44
318.753	311.44
318.983	330.44
319.212	314.44
319.441	329.44
319.67	357.44
319.9	343.44
320.129	321.44
320.358	334.44
320.587	338.44
320.816	350.44
321.046	344.44
321.275	359.44
321.504	327.44
321.733	326.44
321.962	354.44
322.191	373.44
322.42	380.44
322.649	393.44
322.878	374.44
323.108	395.44
323.337	396.44
323.566	421.44
323.795	468.44
324.024	496.44
324.253	596.44
324.482	843.44
324.71	1274.44
324.939	1643.44
325.168	1404.44
325.397	736.44
325.626	543.44
325.855	457.44
326.084	422.44
326.313	419.44
326.542	426.44
326.77	482.44
326.999	535.44
327.228	743.44
327.457	1094.44
327.686	1216.44
327.914	832.44
328.143	567.44
328.372	526.44
328.6	476.44
328.829	480.44
329.058	476.44
329.287	480.44
329.515	469.44
329.744	428.44
329.972	428.44
330.201	411.44
330.43	449.44
330.658	464.44
330.887	522.44
331.115	474.44
331.344	451.44
331.572	410.44
331.801	419.44
332.03	418.44
332.258	404.44
332.486	395.44
332.715	355.44
332.943	371.44
333.172	374.44
333.4	379.44
333.629	388.44
333.857	417.44
334.085	410.44
334.314	406.44
334.542	395.44
334.771	407.44
334.999	383.44
335.227	393.44
335.455	408.44
335.684	391.44
335.912	384.44
336.14	372.44
336.369	370.44
336.597	371.44
336.825	393.44
337.053	363.44
337.281	388.44
337.51	398.44
337.738	389.44
337.966	368.44
338.194	376.44
338.422	373.44
338.65	398.44
338.878	374.44
339.106	353.44
339.334	376.44
339.562	365.44
339.79	349.44
340.018	374.44
340.246	376.44
340.474	374.44
340.702	394.44
340.93	359.44
341.158	360.44
341.386	372.44
341.614	374.44
341.842	386.44
342.07	394.44
342.298	345.44
342.526	359.44
342.754	360.44
342.981	356.44
343.209	359.44
343.437	364.44
343.665	338.44
343.893	378.44
344.12	390.44
344.348	372.44
344.576	389.44
344.804	377.44
345.031	381.44
345.259	374.44
345.487	375.44
345.714	367.44
345.942	364.44
346.17	376.44
346.397	360.44
346.625	360.44
346.853	367.44
347.08	345.44
347.308	360.44
347.535	345.44
347.763	354.44
347.99	368.44
348.218	364.44
348.445	375.44
348.673	366.44
348.9	344.44
349.128	353.44
349.355	349.44
349.583	321.44
349.81	345.44
350.037	353.44
350.265	344.44
350.492	329.44
350.72	330.44
350.947	357.44
351.174	385.44
351.402	387.44
351.629	358.44
351.856	356.44
352.083	353.44
352.311	370.44
352.538	372.44
352.765	377.44
352.992	353.44
353.22	374.44
353.447	371.44
353.674	335.44
353.901	334.44
354.128	331.44
354.355	342.44
354.583	356.44
354.81	361.44
355.037	329.44
355.264	329.44
355.491	332.44
355.718	330.44
355.945	335.44
356.172	332.44
356.399	330.44
356.626	349.44
356.853	340.44
357.08	348.44
357.307	340.44
357.534	348.44
357.761	342.44
357.988	326.44
358.215	342.44
358.441	340.44
358.668	334.44
358.895	335.44
359.122	343.44
359.349	326.44
359.576	357.44
359.802	367.44
360.029	384.44
360.256	398.44
360.483	386.44
360.709	362.44
360.936	348.44
361.163	346.44
361.39	366.44
361.616	376.44
361.843	364.44
362.07	362.44
362.296	356.44
362.523	339.44
362.749	360.44
362.976	338.44
363.203	350.44
363.429	344.44
363.656	358.44
363.882	352.44
364.109	360.44
364.335	354.44
364.562	336.44
364.788	333.44
365.015	345.44
365.241	341.44
365.468	355.44
365.694	356.44
365.92	339.44
366.147	345.44
366.373	335.44
366.599	343.44
366.826	336.44
367.052	346.44
367.278	342.44
367.505	348.44
367.731	351.44
367.957	334.44
368.184	350.44
368.41	344.44
368.636	360.44
368.862	374.44
369.089	354.44
369.315	332.44
369.541	347.44
369.767	347.44
369.993	339.44
370.219	342.44
370.445	329.44
370.672	337.44
370.898	354.44
371.124	328.44
371.35	337.44
371.576	340.44
371.802	345.44
372.028	337.44
372.254	345.44
372.48	334.44
372.706	333.44
372.932	343.44
373.158	353.44
373.384	327.44
373.61	331.44
373.835	341.44
374.061	342.44
374.287	333.44
374.513	340.44
374.739	364.44
374.965	344.44
375.191	349.44
375.416	340.44
375.642	337.44
375.868	350.44
376.094	363.44
376.319	350.44
376.545	328.44
376.771	314.44
376.997	319.44
377.222	322.44
377.448	353.44
377.674	348.44
377.899	347.44
378.125	348.44
378.35	351.44
378.576	355.44
378.802	332.44
379.027	331.44
379.253	333.44
379.478	341.44
379.704	358.44
379.929	333.44
380.155	329.44
380.38	347.44
380.606	346.44
380.831	333.44
381.057	345.44
381.282	340.44
381.507	358.44
381.733	343.44
381.958	337.44
382.184	332.44
382.409	338.44
382.634	345.44
382.86	354.44
383.085	359.44
383.31	365.44
383.535	341.44
383.761	350.44
383.986	343.44
384.211	347.44
384.436	332.44
384.662	351.44
384.887	348.44
385.112	341.44
385.337	374.44
385.562	368.44
385.787	369.44
386.013	368.44
386.238	374.44
386.463	375.44
386.688	363.44
386.913	361.44
387.138	373.44
387.363	381.44
387.588	351.44
387.813	361.44
388.038	368.44
388.263	340.44
388.488	357.44
388.713	366.44
388.938	347.44
389.163	349.44
389.387	374.44
389.612	371.44
389.837	355.44
390.062	372.44
390.287	376.44
390.512	351.44
390.736	365.44
390.961	367.44
391.186	375.44
391.411	372.44
391.636	379.44
391.86	381.44
392.085	362.44
392.31	362.44
392.534	381.44
392.759	363.44
392.984	361.44
393.208	369.44
393.433	378.44
393.658	382.44
393.882	375.44
394.107	364.44
394.331	373.44
394.556	386.44
394.78	377.44
395.005	369.44
395.229	377.44
395.454	381.44
395.678	374.44
395.903	383.44
396.127	397.44
396.352	397.44
396.576	369.44
396.801	393.44
397.025	386.44
397.249	388.44
397.474	378.44
397.698	373.44
397.922	381.44
398.147	410.44
398.371	401.44
398.595	387.44
398.82	415.44
399.044	412.44
399.268	425.44
399.492	433.44
399.717	468.44
399.941	468.44
400.165	498.44
400.389	499.44
400.613	454.44
400.837	451.44
401.062	442.44
401.286	398.44
401.51	416.44
401.734	426.44
401.958	418.44
402.182	417.44
402.406	429.44
402.63	419.44
402.854	422.44
403.078	414.44
403.302	427.44
403.526	416.44
403.75	438.44
403.974	412.44
404.198	419.44
404.422	432.44
404.645	428.44
404.869	430.44
405.093	421.44
405.317	461.44
405.541	469.44
405.765	452.44
405.988	440.44
406.212	443.44
406.436	448.44
406.66	455.44
406.883	473.44
407.107	478.44
407.331	521.44
407.555	539.44
407.778	563.44
408.002	506.44
408.226	474.44
408.449	443.44
408.673	437.44
408.896	491.44
409.12	501.44
409.344	483.44
409.567	440.44
409.791	435.44
410.014	437.44
410.238	448.44
410.461	445.44
410.685	430.44
410.908	447.44
411.132	448.44
411.355	461.44
411.578	462.44
411.802	432.44
412.025	415.44
412.249	425.44
412.472	404.44
412.695	432.44
412.919	445.44
413.142	413.44
413.365	432.44
413.589	382.44
413.812	385.44
414.035	397.44
414.258	418.44
414.482	428.44
414.705	415.44
414.928	395.44
415.151	416.44
415.374	397.44
415.597	377.44
415.821	410.44
416.044	391.44
416.267	392.44
416.49	410.44
416.713	402.44
416.936	396.44
417.159	399.44
417.382	407.44
417.605	398.44
417.828	408.44
418.051	406.44
418.274	412.44
418.497	396.44
418.72	406.44
418.943	396.44
419.166	404.44
419.389	438.44
419.611	436.44
419.834	415.44
420.057	422.44
420.28	397.44
420.503	418.44
420.726	405.44
420.948	410.44
421.171	469.44
421.394	468.44
421.617	422.44
421.839	421.44
422.062	429.44
422.285	413.44
422.507	485.44
422.73	527.44
422.953	502.44
423.175	434.44
423.398	436.44
423.621	445.44
423.843	428.44
424.066	450.44
424.288	430.44
424.511	484.44
424.733	476.44
424.956	563.44
425.178	524.44
425.401	512.44
425.623	555.44
425.846	473.44
426.068	466.44
426.291	460.44
426.513	447.44
426.735	465.44
426.958	506.44
427.18	534.44
427.402	654.44
427.625	685.44
427.847	589.44
428.069	512.44
428.292	477.44
428.514	449.44
428.736	422.44
428.958	434.44
429.181	400.44
429.403	420.44
429.625	414.44
429.847	437.44
430.069	499.44
430.292	482.44
430.514	414.44
430.736	404.44
430.958	424.44
431.18	392.44
431.402	406.44
431.624	392.44
431.846	402.44
432.068	376.44
432.29	404.44
432.512	390.44
432.734	394.44
432.956	412.44
433.178	408.44
433.4	402.44
433.622	405.44
433.844	398.44
434.066	386.44
434.287	403.44
434.509	412.44
434.731	399.44
434.953	407.44
435.175	424.44
435.397	450.44
435.618	449.44
435.84	472.44
436.062	549.44
436.284	582.44
436.505	501.44
436.727	450.44
436.949	432.44
437.17	411.44
437.392	426.44
437.614	438.44
437.835	460.44
438.057	531.44
438.278	614.44
438.5	583.44
438.721	641.44
438.943	626.44
439.165	516.44
439.386	464.44
439.608	465.44
439.829	480.44
440.05	492.44
440.272	517.44
440.493	502.44
440.715	455.44
440.936	404.44
441.158	426.44
441.379	450.44
441.6	432.44
441.822	452.44
442.043	499.44
442.264	554.44
442.486	568.44
442.707	499.44
442.928	459.44
443.149	475.44
443.371	485.44
443.592	530.44
443.813	572.44
444.034	613.44
444.255	517.44
444.476	481.44
444.698	473.44
444.919	452.44
445.14	549.44
445.361	508.44
445.582	502.44
445.803	541.44
446.024	601.44
446.245	631.44
446.466	540.44
446.687	474.44
446.908	441.44
447.129	424.44
447.35	425.44
447.571	403.44
447.792	405.44
448.013	409.44
448.234	437.44
448.455	455.44
448.675	548.44
448.896	629.44
449.117	566.44
449.338	516.44
449.559	602.44
449.779	655.44
450	532.44
450.221	444.44
450.442	438.44
450.662	404.44
450.883	433.44
451.104	434.44
451.324	426.44
451.545	393.44
451.766	396.44
451.986	380.44
452.207	377.44
452.428	366.44
452.648	374.44
452.869	377.44
453.089	376.44
453.31	388.44
453.53	394.44
453.751	373.44
453.971	380.44
454.192	380.44
454.412	381.44
454.633	372.44
454.853	358.44
455.073	365.44
455.294	395.44
455.514	442.44
455.734	426.44
455.955	371.44
456.175	364.44
456.395	351.44
456.616	331.44
456.836	350.44
457.056	359.44
457.276	334.44
457.497	365.44
457.717	372.44
457.937	370.44
458.157	355.44
458.377	361.44
458.598	376.44
458.818	434.44
459.038	515.44
459.258	510.44
459.478	423.44
459.698	410.44
459.918	416.44
460.138	370.44
460.358	408.44
460.578	375.44
460.798	409.44
461.018	399.44
461.238	379.44
461.458	415.44
461.678	417.44
461.898	392.44
462.118	393.44
462.338	399.44
462.558	411.44
462.777	398.44
462.997	412.44
463.217	427.44
463.437	435.44
463.657	403.44
463.876	438.44
464.096	451.44
464.316	438.44
464.536	430.44
464.755	441.44
464.975	444.44
465.195	481.44
465.414	525.44
465.634	473.44
465.854	429.44
466.073	419.44
466.293	394.44
466.512	386.44
466.732	373.44
466.951	374.44
467.171	374.44
467.391	395.44
467.61	383.44
467.829	390.44
468.049	390.44
468.268	378.44
468.488	376.44
468.707	372.44
468.927	386.44
469.146	370.44
469.365	376.44
469.585	381.44
469.804	389.44
470.023	406.44
470.243	402.44
470.462	405.44
470.681	409.44
470.901	412.44
471.12	408.44
471.339	398.44
471.558	394.44
471.777	382.44
471.997	376.44
472.216	400.44
472.435	388.44
472.654	385.44
472.873	398.44
473.092	395.44
473.311	395.44
473.53	402.44
473.749	398.44
473.968	445.44
474.187	519.44
474.406	533.44
474.625	426.44
474.844	404.44
475.063	384.44
475.282	410.44
475.501	398.44
475.72	396.44
475.939	398.44
476.158	404.44
476.377	403.44
476.596	411.44
476.814	409.44
477.033	415.44
477.252	406.44
477.471	428.44
477.69	435.44
477.908	405.44
478.127	418.44
478.346	403.44
478.564	423.44
478.783	434.44
479.002	425.44
479.22	454.44
479.439	452.44
479.658	474.44
479.876	461.44
480.095	469.44
480.313	486.44
480.532	487.44
480.751	467.44
480.969	487.44
481.188	481.44
481.406	482.44
481.624	465.44
481.843	452.44
482.061	464.44
482.28	451.44
482.498	464.44
482.717	451.44
482.935	447.44
483.153	454.44
483.372	461.44
483.59	442.44
483.808	449.44
484.027	447.44
484.245	452.44
484.463	448.44
484.681	461.44
484.9	445.44
485.118	468.44
485.336	466.44
485.554	474.44
485.772	457.44
485.99	472.44
486.209	472.44
486.427	483.44
486.645	466.44
486.863	457.44
487.081	473.44
487.299	489.44
487.517	487.44
487.735	479.44
487.953	501.44
488.171	487.44
488.389	485.44
488.607	503.44
488.825	504.44
489.043	493.44
489.261	483.44
489.479	496.44
489.696	487.44
489.914	496.44
490.132	501.44
490.35	495.44
490.568	516.44
490.786	523.44
491.003	505.44
491.221	544.44
491.439	542.44
491.657	540.44
491.874	544.44
492.092	560.44
492.31	523.44
492.527	544.44
492.745	555.44
492.963	555.44
493.18	554.44
493.398	576.44
493.615	569.44
493.833	569.44
494.05	564.44
494.268	560.44
494.485	560.44
494.703	564.44
494.92	567.44
495.138	567.44
495.355	564.44
495.573	576.44
495.79	578.44
496.008	562.44
496.225	562.44
496.442	588.44
496.66	568.44
496.877	577.44
497.094	585.44
497.312	570.44
497.529	576.44
497.746	587.44
497.963	590.44
498.181	599.44
498.398	624.44
498.615	614.44
498.832	634.44
499.049	632.44
499.267	652.44
499.484	673.44
499.701	690.44
499.918	716.44
500.135	753.44
500.352	763.44
500.569	774.44
500.786	770.44
501.003	775.44
501.22	728.44
501.437	728.44
501.654	742.44
501.871	741.44
502.088	698.44
