Data from 1983.PennyLincolnUp.Lamp.En5.5.200Scan.071819.P1_HRD10591_16-52-59-965.txt Node
Date: Thu Jul 18 16:52:59 EDT 2019
User: cochatt
Spectrometer: HR+D1059
Trigger mode: 1
Integration Time (sec): 1.000000E-1
Scans to average: 1
Electric dark correction enabled: true
Nonlinearity correction enabled: false
Boxcar width: 0
XAxis mode: Wavelengths
Number of Pixels in Spectrum: 2048
>>>>>Begin Spectral Data<<<<<
223.165	-13.62
223.4	-13.62
223.635	-13.62
223.869	-13.62
224.104	-7.62
224.338	-8.62
224.573	-1.62
224.808	-12.62
225.042	-11.62
225.277	3.38
225.511	-3.62
225.746	7.38
225.98	0.38
226.215	-0.62
226.449	11.38
226.683	11.38
226.918	5.38
227.152	34.38
227.387	31.38
227.621	34.38
227.856	30.38
228.09	47.38
228.324	44.38
228.559	61.38
228.793	62.38
229.027	94.38
229.262	98.38
229.496	103.38
229.73	120.38
229.964	136.38
230.199	120.38
230.433	99.38
230.667	112.38
230.901	103.38
231.136	99.38
231.37	100.38
231.604	101.38
231.838	98.38
232.072	108.38
232.306	88.38
232.541	112.38
232.775	92.38
233.009	95.38
233.243	108.38
233.477	122.38
233.711	106.38
233.945	107.38
234.179	98.38
234.413	121.38
234.647	110.38
234.881	97.38
235.115	105.38
235.349	111.38
235.583	106.38
235.817	112.38
236.051	96.38
236.285	108.38
236.519	129.38
236.753	118.38
236.987	142.38
237.221	154.38
237.455	183.38
237.689	184.38
237.922	113.38
238.156	119.38
238.39	110.38
238.624	115.38
238.858	108.38
239.091	114.38
239.325	104.38
239.559	123.38
239.793	118.38
240.027	117.38
240.26	121.38
240.494	134.38
240.728	130.38
240.961	137.38
241.195	140.38
241.429	125.38
241.662	112.38
241.896	128.38
242.13	127.38
242.363	120.38
242.597	122.38
242.83	126.38
243.064	124.38
243.298	115.38
243.531	132.38
243.765	130.38
243.998	139.38
244.232	141.38
244.465	137.38
244.699	143.38
244.932	138.38
245.166	139.38
245.399	131.38
245.633	134.38
245.866	131.38
246.099	151.38
246.333	134.38
246.566	143.38
246.8	143.38
247.033	123.38
247.266	145.38
247.5	153.38
247.733	147.38
247.966	164.38
248.2	157.38
248.433	164.38
248.666	150.38
248.899	164.38
249.133	178.38
249.366	184.38
249.599	173.38
249.832	167.38
250.066	159.38
250.299	159.38
250.532	167.38
250.765	178.38
250.998	190.38
251.231	196.38
251.465	193.38
251.698	186.38
251.931	190.38
252.164	181.38
252.397	172.38
252.63	172.38
252.863	188.38
253.096	192.38
253.329	213.38
253.562	184.38
253.795	192.38
254.028	190.38
254.261	196.38
254.494	193.38
254.727	225.38
254.96	244.38
255.193	239.38
255.426	224.38
255.659	217.38
255.892	194.38
256.124	205.38
256.357	203.38
256.59	187.38
256.823	163.38
257.056	169.38
257.289	179.38
257.521	186.38
257.754	177.38
257.987	175.38
258.22	196.38
258.452	188.38
258.685	193.38
258.918	192.38
259.151	199.38
259.383	189.38
259.616	177.38
259.849	197.38
260.081	204.38
260.314	215.38
260.547	213.38
260.779	206.38
261.012	217.38
261.244	191.38
261.477	196.38
261.71	193.38
261.942	201.38
262.175	213.38
262.407	206.38
262.64	193.38
262.872	203.38
263.105	196.38
263.337	191.38
263.57	192.38
263.802	187.38
264.035	198.38
264.267	178.38
264.499	198.38
264.732	201.38
264.964	179.38
265.197	196.38
265.429	183.38
265.661	197.38
265.894	182.38
266.126	203.38
266.358	199.38
266.591	187.38
266.823	216.38
267.055	192.38
267.287	200.38
267.52	202.38
267.752	206.38
267.984	210.38
268.216	218.38
268.448	206.38
268.681	221.38
268.913	208.38
269.145	238.38
269.377	262.38
269.609	227.38
269.841	229.38
270.073	234.38
270.306	278.38
270.538	256.38
270.77	281.38
271.002	248.38
271.234	245.38
271.466	257.38
271.698	281.38
271.93	271.38
272.162	263.38
272.394	265.38
272.626	259.38
272.858	251.38
273.09	230.38
273.322	238.38
273.553	247.38
273.785	236.38
274.017	222.38
274.249	230.38
274.481	235.38
274.713	236.38
274.945	232.38
275.176	222.38
275.408	243.38
275.64	220.38
275.872	228.38
276.104	244.38
276.335	246.38
276.567	247.38
276.799	247.38
277.031	259.38
277.262	272.38
277.494	286.38
277.726	267.38
277.957	251.38
278.189	250.38
278.421	251.38
278.652	262.38
278.884	240.38
279.115	224.38
279.347	248.38
279.579	236.38
279.81	227.38
280.042	244.38
280.273	243.38
280.505	246.38
280.736	252.38
280.968	234.38
281.199	250.38
281.431	226.38
281.662	223.38
281.894	226.38
282.125	241.38
282.356	258.38
282.588	265.38
282.819	263.38
283.051	257.38
283.282	250.38
283.513	234.38
283.745	244.38
283.976	260.38
284.207	241.38
284.439	254.38
284.67	246.38
284.901	225.38
285.132	253.38
285.364	244.38
285.595	246.38
285.826	240.38
286.057	246.38
286.288	244.38
286.52	244.38
286.751	259.38
286.982	250.38
287.213	254.38
287.444	262.38
287.675	258.38
287.906	267.38
288.138	258.38
288.369	253.38
288.6	268.38
288.831	264.38
289.062	254.38
289.293	274.38
289.524	262.38
289.755	261.38
289.986	260.38
290.217	259.38
290.448	252.38
290.679	256.38
290.91	259.38
291.141	255.38
291.371	259.38
291.602	264.38
291.833	256.38
292.064	260.38
292.295	255.38
292.526	271.38
292.757	261.38
292.987	273.38
293.218	262.38
293.449	266.38
293.68	249.38
293.91	263.38
294.141	250.38
294.372	264.38
294.603	275.38
294.833	261.38
295.064	266.38
295.295	282.38
295.525	263.38
295.756	277.38
295.987	278.38
296.217	276.38
296.448	307.38
296.679	268.38
296.909	268.38
297.14	259.38
297.37	258.38
297.601	267.38
297.831	274.38
298.062	274.38
298.292	269.38
298.523	283.38
298.753	279.38
298.984	264.38
299.214	258.38
299.445	284.38
299.675	283.38
299.905	279.38
300.136	266.38
300.366	281.38
300.597	275.38
300.827	280.38
301.057	276.38
301.288	289.38
301.518	295.38
301.748	258.38
301.979	286.38
302.209	274.38
302.439	279.38
302.669	306.38
302.9	278.38
303.13	288.38
303.36	292.38
303.59	297.38
303.82	293.38
304.051	283.38
304.281	282.38
304.511	289.38
304.741	296.38
304.971	286.38
305.201	290.38
305.431	293.38
305.661	289.38
305.891	291.38
306.121	309.38
306.352	298.38
306.582	318.38
306.812	288.38
307.042	297.38
307.272	305.38
307.502	284.38
307.731	285.38
307.961	289.38
308.191	291.38
308.421	286.38
308.651	307.38
308.881	306.38
309.111	298.38
309.341	319.38
309.571	302.38
309.8	323.38
310.03	327.38
310.26	348.38
310.49	342.38
310.72	339.38
310.949	359.38
311.179	355.38
311.409	358.38
311.639	325.38
311.868	341.38
312.098	343.38
312.328	336.38
312.557	358.38
312.787	372.38
313.017	358.38
313.246	342.38
313.476	320.38
313.706	335.38
313.935	318.38
314.165	367.38
314.394	348.38
314.624	341.38
314.853	344.38
315.083	327.38
315.312	350.38
315.542	324.38
315.771	339.38
316.001	334.38
316.23	339.38
316.46	330.38
316.689	343.38
316.919	340.38
317.148	352.38
317.377	373.38
317.607	333.38
317.836	338.38
318.065	349.38
318.295	325.38
318.524	325.38
318.753	307.38
318.983	327.38
319.212	326.38
319.441	333.38
319.67	345.38
319.9	361.38
320.129	344.38
320.358	348.38
320.587	356.38
320.816	340.38
321.046	330.38
321.275	353.38
321.504	364.38
321.733	368.38
321.962	354.38
322.191	395.38
322.42	386.38
322.649	406.38
322.878	432.38
323.108	410.38
323.337	433.38
323.566	453.38
323.795	471.38
324.024	540.38
324.253	639.38
324.482	951.38
324.71	1360.38
324.939	1831.38
325.168	1529.38
325.397	799.38
325.626	589.38
325.855	504.38
326.084	462.38
326.313	448.38
326.542	469.38
326.77	489.38
326.999	588.38
327.228	817.38
327.457	1177.38
327.686	1345.38
327.914	920.38
328.143	629.38
328.372	547.38
328.6	528.38
328.829	481.38
329.058	518.38
329.287	493.38
329.515	491.38
329.744	440.38
329.972	447.38
330.201	444.38
330.43	456.38
330.658	496.38
330.887	559.38
331.115	515.38
331.344	449.38
331.572	440.38
331.801	421.38
332.03	424.38
332.258	397.38
332.486	394.38
332.715	395.38
332.943	422.38
333.172	404.38
333.4	402.38
333.629	408.38
333.857	412.38
334.085	390.38
334.314	403.38
334.542	422.38
334.771	408.38
334.999	416.38
335.227	411.38
335.455	373.38
335.684	381.38
335.912	392.38
336.14	407.38
336.369	400.38
336.597	377.38
336.825	381.38
337.053	385.38
337.281	367.38
337.51	402.38
337.738	403.38
337.966	394.38
338.194	379.38
338.422	374.38
338.65	386.38
338.878	385.38
339.106	379.38
339.334	377.38
339.562	376.38
339.79	373.38
340.018	390.38
340.246	368.38
340.474	391.38
340.702	376.38
340.93	385.38
341.158	373.38
341.386	377.38
341.614	396.38
341.842	384.38
342.07	400.38
342.298	384.38
342.526	373.38
342.754	367.38
342.981	360.38
343.209	357.38
343.437	366.38
343.665	388.38
343.893	385.38
344.12	378.38
344.348	388.38
344.576	387.38
344.804	392.38
345.031	382.38
345.259	394.38
345.487	375.38
345.714	382.38
345.942	372.38
346.17	377.38
346.397	351.38
346.625	361.38
346.853	361.38
347.08	367.38
347.308	375.38
347.535	389.38
347.763	390.38
347.99	377.38
348.218	383.38
348.445	372.38
348.673	382.38
348.9	383.38
349.128	378.38
349.355	334.38
349.583	363.38
349.81	384.38
350.037	355.38
350.265	348.38
350.492	378.38
350.72	348.38
350.947	356.38
351.174	366.38
351.402	377.38
351.629	379.38
351.856	367.38
352.083	380.38
352.311	389.38
352.538	364.38
352.765	363.38
352.992	363.38
353.22	369.38
353.447	378.38
353.674	353.38
353.901	342.38
354.128	346.38
354.355	353.38
354.583	352.38
354.81	342.38
355.037	327.38
355.264	339.38
355.491	338.38
355.718	339.38
355.945	344.38
356.172	343.38
356.399	331.38
356.626	326.38
356.853	345.38
357.08	320.38
357.307	331.38
357.534	346.38
357.761	342.38
357.988	338.38
358.215	335.38
358.441	347.38
358.668	340.38
358.895	359.38
359.122	350.38
359.349	368.38
359.576	377.38
359.802	396.38
360.029	411.38
360.256	405.38
360.483	408.38
360.709	367.38
360.936	374.38
361.163	368.38
361.39	356.38
361.616	386.38
361.843	358.38
362.07	364.38
362.296	351.38
362.523	362.38
362.749	364.38
362.976	363.38
363.203	355.38
363.429	351.38
363.656	359.38
363.882	355.38
364.109	345.38
364.335	336.38
364.562	348.38
364.788	351.38
365.015	369.38
365.241	355.38
365.468	354.38
365.694	352.38
365.92	362.38
366.147	345.38
366.373	347.38
366.599	346.38
366.826	343.38
367.052	338.38
367.278	347.38
367.505	350.38
367.731	364.38
367.957	354.38
368.184	355.38
368.41	360.38
368.636	375.38
368.862	392.38
369.089	368.38
369.315	345.38
369.541	358.38
369.767	366.38
369.993	349.38
370.219	354.38
370.445	342.38
370.672	336.38
370.898	320.38
371.124	323.38
371.35	343.38
371.576	344.38
371.802	327.38
372.028	339.38
372.254	350.38
372.48	354.38
372.706	357.38
372.932	354.38
373.158	354.38
373.384	342.38
373.61	331.38
373.835	344.38
374.061	359.38
374.287	331.38
374.513	352.38
374.739	350.38
374.965	371.38
375.191	353.38
375.416	345.38
375.642	354.38
375.868	365.38
376.094	339.38
376.319	351.38
376.545	328.38
376.771	351.38
376.997	361.38
377.222	368.38
377.448	331.38
377.674	344.38
377.899	347.38
378.125	337.38
378.35	331.38
378.576	343.38
378.802	344.38
379.027	340.38
379.253	344.38
379.478	323.38
379.704	352.38
379.929	348.38
380.155	332.38
380.38	342.38
380.606	338.38
380.831	339.38
381.057	340.38
381.282	338.38
381.507	352.38
381.733	358.38
381.958	346.38
382.184	352.38
382.409	362.38
382.634	345.38
382.86	351.38
383.085	359.38
383.31	349.38
383.535	330.38
383.761	358.38
383.986	338.38
384.211	361.38
384.436	352.38
384.662	352.38
384.887	390.38
385.112	357.38
385.337	356.38
385.562	370.38
385.787	362.38
386.013	369.38
386.238	374.38
386.463	394.38
386.688	369.38
386.913	371.38
387.138	371.38
387.363	379.38
387.588	358.38
387.813	398.38
388.038	376.38
388.263	374.38
388.488	371.38
388.713	375.38
388.938	383.38
389.163	361.38
389.387	361.38
389.612	373.38
389.837	363.38
390.062	375.38
390.287	377.38
390.512	367.38
390.736	362.38
390.961	373.38
391.186	366.38
391.411	392.38
391.636	376.38
391.86	377.38
392.085	393.38
392.31	377.38
392.534	367.38
392.759	386.38
392.984	355.38
393.208	369.38
393.433	386.38
393.658	378.38
393.882	383.38
394.107	375.38
394.331	378.38
394.556	374.38
394.78	372.38
395.005	373.38
395.229	360.38
395.454	358.38
395.678	379.38
395.903	372.38
396.127	405.38
396.352	401.38
396.576	397.38
396.801	384.38
397.025	380.38
397.249	380.38
397.474	386.38
397.698	413.38
397.922	386.38
398.147	393.38
398.371	419.38
398.595	381.38
398.82	403.38
399.044	430.38
399.268	440.38
399.492	459.38
399.717	477.38
399.941	502.38
400.165	514.38
400.389	512.38
400.613	472.38
400.837	456.38
401.062	434.38
401.286	423.38
401.51	424.38
401.734	422.38
401.958	415.38
402.182	426.38
402.406	412.38
402.63	438.38
402.854	413.38
403.078	425.38
403.302	442.38
403.526	433.38
403.75	446.38
403.974	433.38
404.198	428.38
404.422	434.38
404.645	438.38
404.869	451.38
405.093	439.38
405.317	444.38
405.541	482.38
405.765	445.38
405.988	458.38
406.212	477.38
406.436	486.38
406.66	503.38
406.883	472.38
407.107	501.38
407.331	520.38
407.555	577.38
407.778	566.38
408.002	508.38
408.226	491.38
408.449	489.38
408.673	503.38
408.896	514.38
409.12	538.38
409.344	485.38
409.567	455.38
409.791	441.38
410.014	438.38
410.238	411.38
410.461	453.38
410.685	437.38
410.908	438.38
411.132	457.38
411.355	497.38
411.578	491.38
411.802	434.38
412.025	434.38
412.249	417.38
412.472	437.38
412.695	446.38
412.919	415.38
413.142	416.38
413.365	416.38
413.589	412.38
413.812	417.38
414.035	421.38
414.258	423.38
414.482	415.38
414.705	404.38
414.928	424.38
415.151	407.38
415.374	403.38
415.597	425.38
415.821	382.38
416.044	438.38
416.267	440.38
416.49	395.38
416.713	410.38
416.936	411.38
417.159	411.38
417.382	392.38
417.605	405.38
417.828	425.38
418.051	458.38
418.274	440.38
418.497	422.38
418.72	417.38
418.943	408.38
419.166	427.38
419.389	423.38
419.611	439.38
419.834	441.38
420.057	418.38
420.28	423.38
420.503	426.38
420.726	407.38
420.948	413.38
421.171	456.38
421.394	489.38
421.617	452.38
421.839	440.38
422.062	414.38
422.285	420.38
422.507	487.38
422.73	540.38
422.953	502.38
423.175	465.38
423.398	464.38
423.621	460.38
423.843	471.38
424.066	467.38
424.288	463.38
424.511	482.38
424.733	523.38
424.956	572.38
425.178	561.38
425.401	550.38
425.623	581.38
425.846	511.38
426.068	457.38
426.291	450.38
426.513	471.38
426.735	458.38
426.958	496.38
427.18	567.38
427.402	668.38
427.625	694.38
427.847	645.38
428.069	542.38
428.292	486.38
428.514	459.38
428.736	453.38
428.958	442.38
429.181	403.38
429.403	430.38
429.625	427.38
429.847	468.38
430.069	501.38
430.292	521.38
430.514	447.38
430.736	450.38
430.958	410.38
431.18	407.38
431.402	404.38
431.624	403.38
431.846	405.38
432.068	401.38
432.29	404.38
432.512	425.38
432.734	414.38
432.956	407.38
433.178	426.38
433.4	435.38
433.622	414.38
433.844	416.38
434.066	399.38
434.287	391.38
434.509	414.38
434.731	427.38
434.953	417.38
435.175	432.38
435.397	452.38
435.618	456.38
435.84	492.38
436.062	568.38
436.284	620.38
436.505	532.38
436.727	469.38
436.949	449.38
437.17	444.38
437.392	437.38
437.614	454.38
437.835	480.38
438.057	550.38
438.278	606.38
438.5	635.38
438.721	670.38
438.943	628.38
439.165	504.38
439.386	482.38
439.608	481.38
439.829	473.38
440.05	483.38
440.272	520.38
440.493	503.38
440.715	471.38
440.936	434.38
441.158	435.38
441.379	446.38
441.6	447.38
441.822	491.38
442.043	512.38
442.264	570.38
442.486	619.38
442.707	514.38
442.928	485.38
443.149	470.38
443.371	490.38
443.592	532.38
443.813	571.38
444.034	617.38
444.255	547.38
444.476	502.38
444.698	466.38
444.919	458.38
445.14	576.38
445.361	536.38
445.582	509.38
445.803	550.38
446.024	616.38
446.245	642.38
446.466	590.38
446.687	502.38
446.908	458.38
447.129	449.38
447.35	434.38
447.571	422.38
447.792	410.38
448.013	430.38
448.234	443.38
448.455	497.38
448.675	583.38
448.896	656.38
449.117	572.38
449.338	522.38
449.559	629.38
449.779	677.38
450	568.38
450.221	471.38
450.442	436.38
450.662	422.38
450.883	432.38
451.104	446.38
451.324	423.38
451.545	399.38
451.766	412.38
451.986	377.38
452.207	389.38
452.428	399.38
452.648	385.38
452.869	393.38
453.089	394.38
453.31	393.38
453.53	393.38
453.751	393.38
453.971	387.38
454.192	407.38
454.412	406.38
454.633	392.38
454.853	392.38
455.073	411.38
455.294	408.38
455.514	461.38
455.734	422.38
455.955	395.38
456.175	368.38
456.395	362.38
456.616	364.38
456.836	371.38
457.056	372.38
457.276	356.38
457.497	360.38
457.717	379.38
457.937	377.38
458.157	378.38
458.377	396.38
458.598	378.38
458.818	455.38
459.038	504.38
459.258	512.38
459.478	445.38
459.698	408.38
459.918	397.38
460.138	422.38
460.358	380.38
460.578	397.38
460.798	405.38
461.018	401.38
461.238	399.38
461.458	412.38
461.678	419.38
461.898	421.38
462.118	415.38
462.338	414.38
462.558	434.38
462.777	430.38
462.997	428.38
463.217	438.38
463.437	415.38
463.657	432.38
463.876	437.38
464.096	425.38
464.316	425.38
464.536	445.38
464.755	455.38
464.975	444.38
465.195	514.38
465.414	548.38
465.634	490.38
465.854	440.38
466.073	442.38
466.293	416.38
466.512	398.38
466.732	385.38
466.951	395.38
467.171	388.38
467.391	387.38
467.61	411.38
467.829	413.38
468.049	408.38
468.268	376.38
468.488	392.38
468.707	399.38
468.927	377.38
469.146	366.38
469.365	376.38
469.585	383.38
469.804	414.38
470.023	403.38
470.243	411.38
470.462	406.38
470.681	420.38
470.901	422.38
471.12	402.38
471.339	395.38
471.558	410.38
471.777	403.38
471.997	400.38
472.216	401.38
472.435	391.38
472.654	382.38
472.873	391.38
473.092	386.38
473.311	390.38
473.53	392.38
473.749	418.38
473.968	444.38
474.187	503.38
474.406	535.38
474.625	441.38
474.844	414.38
475.063	403.38
475.282	387.38
475.501	397.38
475.72	408.38
475.939	405.38
476.158	402.38
476.377	414.38
476.596	409.38
476.814	414.38
477.033	423.38
477.252	420.38
477.471	419.38
477.69	404.38
477.908	417.38
478.127	452.38
478.346	450.38
478.564	433.38
478.783	440.38
479.002	436.38
479.22	471.38
479.439	458.38
479.658	457.38
479.876	464.38
480.095	489.38
480.313	509.38
480.532	463.38
480.751	487.38
480.969	473.38
481.188	482.38
481.406	487.38
481.624	467.38
481.843	459.38
482.061	466.38
482.28	460.38
482.498	452.38
482.717	463.38
482.935	457.38
483.153	464.38
483.372	484.38
483.59	470.38
483.808	462.38
484.027	466.38
484.245	445.38
484.463	450.38
484.681	470.38
484.9	481.38
485.118	496.38
485.336	473.38
485.554	477.38
485.772	476.38
485.99	464.38
486.209	469.38
486.427	479.38
486.645	474.38
486.863	490.38
487.081	512.38
487.299	520.38
487.517	497.38
487.735	502.38
487.953	489.38
488.171	483.38
488.389	511.38
488.607	502.38
488.825	478.38
489.043	502.38
489.261	512.38
489.479	493.38
489.696	495.38
489.914	500.38
490.132	514.38
490.35	529.38
490.568	521.38
490.786	528.38
491.003	549.38
491.221	543.38
491.439	530.38
491.657	568.38
491.874	559.38
492.092	569.38
492.31	558.38
492.527	564.38
492.745	563.38
492.963	571.38
493.18	548.38
493.398	608.38
493.615	585.38
493.833	567.38
494.05	571.38
494.268	590.38
494.485	553.38
494.703	563.38
494.92	551.38
495.138	586.38
495.355	589.38
495.573	584.38
495.79	599.38
496.008	579.38
496.225	584.38
496.442	586.38
496.66	585.38
496.877	583.38
497.094	578.38
497.312	584.38
497.529	575.38
497.746	612.38
497.963	637.38
498.181	618.38
498.398	618.38
498.615	642.38
498.832	650.38
499.049	659.38
499.267	674.38
499.484	687.38
499.701	706.38
499.918	713.38
500.135	770.38
500.352	773.38
500.569	775.38
500.786	786.38
501.003	795.38
501.22	760.38
501.437	744.38
501.654	731.38
501.871	753.38
502.088	681.38
