Data from 1983.PennyLincolnUp.Lamp.En5.5.200Scan.071819.P1_HRD10591_16-53-28-966.txt Node
Date: Thu Jul 18 16:53:28 EDT 2019
User: cochatt
Spectrometer: HR+D1059
Trigger mode: 1
Integration Time (sec): 1.000000E-1
Scans to average: 1
Electric dark correction enabled: true
Nonlinearity correction enabled: false
Boxcar width: 0
XAxis mode: Wavelengths
Number of Pixels in Spectrum: 2048
>>>>>Begin Spectral Data<<<<<
223.165	-12.5
223.4	-12.5
223.635	-12.5
223.869	-19.5
224.104	-27.5
224.338	-10.5
224.573	-18.5
224.808	-13.5
225.042	-6.5
225.277	-3.5
225.511	-8.5
225.746	2.5
225.98	12.5
226.215	20.5
226.449	13.5
226.683	24.5
226.918	27.5
227.152	19.5
227.387	42.5
227.621	35.5
227.856	32.5
228.09	48.5
228.324	56.5
228.559	53.5
228.793	67.5
229.027	83.5
229.262	102.5
229.496	131.5
229.73	127.5
229.964	154.5
230.199	123.5
230.433	107.5
230.667	103.5
230.901	119.5
231.136	109.5
231.37	125.5
231.604	99.5
231.838	105.5
232.072	112.5
232.306	89.5
232.541	109.5
232.775	109.5
233.009	117.5
233.243	93.5
233.477	109.5
233.711	102.5
233.945	112.5
234.179	124.5
234.413	111.5
234.647	117.5
234.881	112.5
235.115	124.5
235.349	110.5
235.583	124.5
235.817	105.5
236.051	123.5
236.285	124.5
236.519	132.5
236.753	106.5
236.987	133.5
237.221	174.5
237.455	196.5
237.689	181.5
237.922	134.5
238.156	129.5
238.39	120.5
238.624	110.5
238.858	141.5
239.091	126.5
239.325	118.5
239.559	104.5
239.793	125.5
240.027	152.5
240.26	129.5
240.494	154.5
240.728	143.5
240.961	126.5
241.195	154.5
241.429	130.5
241.662	144.5
241.896	132.5
242.13	127.5
242.363	131.5
242.597	119.5
242.83	133.5
243.064	127.5
243.298	153.5
243.531	135.5
243.765	134.5
243.998	136.5
244.232	141.5
244.465	135.5
244.699	140.5
244.932	143.5
245.166	137.5
245.399	146.5
245.633	131.5
245.866	136.5
246.099	125.5
246.333	142.5
246.566	153.5
246.8	133.5
247.033	142.5
247.266	153.5
247.5	154.5
247.733	145.5
247.966	160.5
248.2	153.5
248.433	151.5
248.666	161.5
248.899	157.5
249.133	183.5
249.366	188.5
249.599	190.5
249.832	175.5
250.066	176.5
250.299	159.5
250.532	176.5
250.765	169.5
250.998	196.5
251.231	196.5
251.465	188.5
251.698	192.5
251.931	180.5
252.164	172.5
252.397	171.5
252.63	194.5
252.863	179.5
253.096	193.5
253.329	210.5
253.562	199.5
253.795	204.5
254.028	205.5
254.261	192.5
254.494	210.5
254.727	233.5
254.96	233.5
255.193	238.5
255.426	219.5
255.659	215.5
255.892	183.5
256.124	205.5
256.357	201.5
256.59	209.5
256.823	198.5
257.056	210.5
257.289	188.5
257.521	193.5
257.754	184.5
257.987	183.5
258.22	177.5
258.452	187.5
258.685	187.5
258.918	183.5
259.151	200.5
259.383	194.5
259.616	207.5
259.849	205.5
260.081	217.5
260.314	217.5
260.547	242.5
260.779	229.5
261.012	201.5
261.244	218.5
261.477	203.5
261.71	200.5
261.942	217.5
262.175	207.5
262.407	208.5
262.64	208.5
262.872	225.5
263.105	191.5
263.337	186.5
263.57	185.5
263.802	192.5
264.035	189.5
264.267	194.5
264.499	208.5
264.732	188.5
264.964	205.5
265.197	193.5
265.429	203.5
265.661	195.5
265.894	188.5
266.126	193.5
266.358	191.5
266.591	213.5
266.823	212.5
267.055	204.5
267.287	209.5
267.52	205.5
267.752	216.5
267.984	214.5
268.216	222.5
268.448	223.5
268.681	218.5
268.913	223.5
269.145	222.5
269.377	258.5
269.609	244.5
269.841	259.5
270.073	258.5
270.306	259.5
270.538	267.5
270.77	277.5
271.002	263.5
271.234	272.5
271.466	265.5
271.698	283.5
271.93	286.5
272.162	289.5
272.394	304.5
272.626	268.5
272.858	275.5
273.09	262.5
273.322	249.5
273.553	230.5
273.785	231.5
274.017	232.5
274.249	212.5
274.481	225.5
274.713	231.5
274.945	240.5
275.176	238.5
275.408	238.5
275.64	239.5
275.872	224.5
276.104	235.5
276.335	253.5
276.567	267.5
276.799	265.5
277.031	272.5
277.262	286.5
277.494	282.5
277.726	272.5
277.957	253.5
278.189	262.5
278.421	246.5
278.652	233.5
278.884	248.5
279.115	231.5
279.347	227.5
279.579	237.5
279.81	244.5
280.042	247.5
280.273	245.5
280.505	252.5
280.736	250.5
280.968	252.5
281.199	254.5
281.431	239.5
281.662	227.5
281.894	252.5
282.125	263.5
282.356	254.5
282.588	275.5
282.819	267.5
283.051	255.5
283.282	251.5
283.513	245.5
283.745	245.5
283.976	253.5
284.207	260.5
284.439	269.5
284.67	239.5
284.901	237.5
285.132	247.5
285.364	248.5
285.595	239.5
285.826	259.5
286.057	264.5
286.288	248.5
286.52	253.5
286.751	260.5
286.982	273.5
287.213	261.5
287.444	252.5
287.675	267.5
287.906	277.5
288.138	256.5
288.369	269.5
288.6	263.5
288.831	268.5
289.062	263.5
289.293	271.5
289.524	250.5
289.755	244.5
289.986	238.5
290.217	267.5
290.448	245.5
290.679	264.5
290.91	267.5
291.141	272.5
291.371	253.5
291.602	248.5
291.833	251.5
292.064	259.5
292.295	237.5
292.526	267.5
292.757	259.5
292.987	264.5
293.218	272.5
293.449	275.5
293.68	267.5
293.91	265.5
294.141	273.5
294.372	259.5
294.603	272.5
294.833	248.5
295.064	259.5
295.295	275.5
295.525	271.5
295.756	275.5
295.987	263.5
296.217	298.5
296.448	310.5
296.679	271.5
296.909	266.5
297.14	249.5
297.37	269.5
297.601	280.5
297.831	293.5
298.062	268.5
298.292	265.5
298.523	261.5
298.753	263.5
298.984	278.5
299.214	261.5
299.445	278.5
299.675	281.5
299.905	257.5
300.136	281.5
300.366	288.5
300.597	282.5
300.827	282.5
301.057	291.5
301.288	295.5
301.518	289.5
301.748	294.5
301.979	313.5
302.209	282.5
302.439	292.5
302.669	297.5
302.9	270.5
303.13	296.5
303.36	296.5
303.59	295.5
303.82	307.5
304.051	317.5
304.281	293.5
304.511	302.5
304.741	283.5
304.971	291.5
305.201	295.5
305.431	291.5
305.661	301.5
305.891	314.5
306.121	290.5
306.352	309.5
306.582	296.5
306.812	291.5
307.042	301.5
307.272	303.5
307.502	290.5
307.731	300.5
307.961	301.5
308.191	320.5
308.421	314.5
308.651	304.5
308.881	310.5
309.111	307.5
309.341	297.5
309.571	321.5
309.8	323.5
310.03	322.5
310.26	329.5
310.49	356.5
310.72	364.5
310.949	362.5
311.179	356.5
311.409	360.5
311.639	351.5
311.868	337.5
312.098	353.5
312.328	355.5
312.557	361.5
312.787	375.5
313.017	371.5
313.246	345.5
313.476	351.5
313.706	364.5
313.935	354.5
314.165	350.5
314.394	376.5
314.624	361.5
314.853	358.5
315.083	359.5
315.312	345.5
315.542	347.5
315.771	345.5
316.001	352.5
316.23	327.5
316.46	328.5
316.689	348.5
316.919	341.5
317.148	357.5
317.377	335.5
317.607	345.5
317.836	332.5
318.065	349.5
318.295	331.5
318.524	327.5
318.753	343.5
318.983	327.5
319.212	315.5
319.441	335.5
319.67	361.5
319.9	358.5
320.129	337.5
320.358	339.5
320.587	355.5
320.816	349.5
321.046	355.5
321.275	366.5
321.504	358.5
321.733	365.5
321.962	378.5
322.191	379.5
322.42	390.5
322.649	424.5
322.878	421.5
323.108	418.5
323.337	428.5
323.566	462.5
323.795	502.5
324.024	522.5
324.253	644.5
324.482	923.5
324.71	1402.5
324.939	1877.5
325.168	1548.5
325.397	827.5
325.626	588.5
325.855	483.5
326.084	468.5
326.313	460.5
326.542	479.5
326.77	508.5
326.999	621.5
327.228	830.5
327.457	1201.5
327.686	1358.5
327.914	923.5
328.143	639.5
328.372	563.5
328.6	533.5
328.829	508.5
329.058	515.5
329.287	526.5
329.515	502.5
329.744	450.5
329.972	452.5
330.201	445.5
330.43	480.5
330.658	505.5
330.887	519.5
331.115	527.5
331.344	475.5
331.572	447.5
331.801	426.5
332.03	436.5
332.258	410.5
332.486	398.5
332.715	397.5
332.943	390.5
333.172	397.5
333.4	395.5
333.629	399.5
333.857	402.5
334.085	417.5
334.314	416.5
334.542	433.5
334.771	426.5
334.999	400.5
335.227	398.5
335.455	407.5
335.684	400.5
335.912	407.5
336.14	392.5
336.369	368.5
336.597	390.5
336.825	387.5
337.053	388.5
337.281	377.5
337.51	379.5
337.738	374.5
337.966	382.5
338.194	401.5
338.422	376.5
338.65	372.5
338.878	375.5
339.106	381.5
339.334	383.5
339.562	379.5
339.79	366.5
340.018	383.5
340.246	400.5
340.474	361.5
340.702	383.5
340.93	387.5
341.158	376.5
341.386	377.5
341.614	373.5
341.842	380.5
342.07	378.5
342.298	366.5
342.526	360.5
342.754	374.5
342.981	384.5
343.209	373.5
343.437	364.5
343.665	367.5
343.893	375.5
344.12	368.5
344.348	376.5
344.576	378.5
344.804	381.5
345.031	387.5
345.259	386.5
345.487	391.5
345.714	394.5
345.942	368.5
346.17	385.5
346.397	359.5
346.625	385.5
346.853	375.5
347.08	371.5
347.308	379.5
347.535	379.5
347.763	386.5
347.99	388.5
348.218	373.5
348.445	390.5
348.673	385.5
348.9	371.5
349.128	367.5
349.355	348.5
349.583	345.5
349.81	363.5
350.037	359.5
350.265	347.5
350.492	369.5
350.72	355.5
350.947	366.5
351.174	384.5
351.402	363.5
351.629	389.5
351.856	357.5
352.083	367.5
352.311	384.5
352.538	397.5
352.765	383.5
352.992	387.5
353.22	373.5
353.447	383.5
353.674	362.5
353.901	346.5
354.128	362.5
354.355	347.5
354.583	345.5
354.81	362.5
355.037	356.5
355.264	334.5
355.491	343.5
355.718	327.5
355.945	329.5
356.172	333.5
356.399	338.5
356.626	360.5
356.853	334.5
357.08	341.5
357.307	318.5
357.534	333.5
357.761	354.5
357.988	339.5
358.215	340.5
358.441	326.5
358.668	354.5
358.895	359.5
359.122	351.5
359.349	353.5
359.576	390.5
359.802	407.5
360.029	408.5
360.256	432.5
360.483	399.5
360.709	383.5
360.936	372.5
361.163	382.5
361.39	372.5
361.616	364.5
361.843	375.5
362.07	373.5
362.296	377.5
362.523	346.5
362.749	373.5
362.976	364.5
363.203	349.5
363.429	347.5
363.656	355.5
363.882	376.5
364.109	367.5
364.335	345.5
364.562	348.5
364.788	336.5
365.015	343.5
365.241	352.5
365.468	363.5
365.694	328.5
365.92	360.5
366.147	366.5
366.373	354.5
366.599	347.5
366.826	345.5
367.052	348.5
367.278	351.5
367.505	333.5
367.731	329.5
367.957	361.5
368.184	342.5
368.41	364.5
368.636	369.5
368.862	364.5
369.089	382.5
369.315	360.5
369.541	332.5
369.767	350.5
369.993	360.5
370.219	371.5
370.445	361.5
370.672	349.5
370.898	363.5
371.124	365.5
371.35	355.5
371.576	344.5
371.802	351.5
372.028	341.5
372.254	354.5
372.48	346.5
372.706	336.5
372.932	355.5
373.158	339.5
373.384	346.5
373.61	355.5
373.835	351.5
374.061	355.5
374.287	358.5
374.513	345.5
374.739	362.5
374.965	341.5
375.191	359.5
375.416	339.5
375.642	348.5
375.868	354.5
376.094	354.5
376.319	354.5
376.545	348.5
376.771	342.5
376.997	358.5
377.222	357.5
377.448	340.5
377.674	354.5
377.899	333.5
378.125	337.5
378.35	334.5
378.576	343.5
378.802	327.5
379.027	335.5
379.253	332.5
379.478	356.5
379.704	350.5
379.929	348.5
380.155	343.5
380.38	343.5
380.606	350.5
380.831	350.5
381.057	345.5
381.282	344.5
381.507	342.5
381.733	342.5
381.958	350.5
382.184	360.5
382.409	349.5
382.634	358.5
382.86	355.5
383.085	345.5
383.31	336.5
383.535	345.5
383.761	353.5
383.986	359.5
384.211	353.5
384.436	356.5
384.662	360.5
384.887	351.5
385.112	368.5
385.337	366.5
385.562	360.5
385.787	372.5
386.013	392.5
386.238	387.5
386.463	365.5
386.688	377.5
386.913	368.5
387.138	374.5
387.363	372.5
387.588	356.5
387.813	344.5
388.038	367.5
388.263	357.5
388.488	379.5
388.713	371.5
388.938	374.5
389.163	368.5
389.387	376.5
389.612	361.5
389.837	387.5
390.062	363.5
390.287	373.5
390.512	353.5
390.736	348.5
390.961	361.5
391.186	380.5
391.411	374.5
391.636	381.5
391.86	361.5
392.085	379.5
392.31	383.5
392.534	368.5
392.759	393.5
392.984	360.5
393.208	375.5
393.433	378.5
393.658	374.5
393.882	375.5
394.107	376.5
394.331	363.5
394.556	380.5
394.78	366.5
395.005	361.5
395.229	383.5
395.454	383.5
395.678	405.5
395.903	390.5
396.127	408.5
396.352	417.5
396.576	374.5
396.801	377.5
397.025	375.5
397.249	362.5
397.474	391.5
397.698	403.5
397.922	397.5
398.147	389.5
398.371	419.5
398.595	399.5
398.82	414.5
399.044	416.5
399.268	415.5
399.492	464.5
399.717	474.5
399.941	474.5
400.165	483.5
400.389	485.5
400.613	460.5
400.837	432.5
401.062	442.5
401.286	445.5
401.51	441.5
401.734	408.5
401.958	429.5
402.182	419.5
402.406	420.5
402.63	431.5
402.854	431.5
403.078	429.5
403.302	436.5
403.526	431.5
403.75	423.5
403.974	429.5
404.198	437.5
404.422	437.5
404.645	442.5
404.869	443.5
405.093	449.5
405.317	473.5
405.541	485.5
405.765	462.5
405.988	449.5
406.212	460.5
406.436	488.5
406.66	501.5
406.883	473.5
407.107	464.5
407.331	512.5
407.555	558.5
407.778	540.5
408.002	506.5
408.226	469.5
408.449	467.5
408.673	465.5
408.896	485.5
409.12	542.5
409.344	463.5
409.567	460.5
409.791	432.5
410.014	466.5
410.238	423.5
410.461	442.5
410.685	439.5
410.908	429.5
411.132	477.5
411.355	480.5
411.578	471.5
411.802	431.5
412.025	422.5
412.249	426.5
412.472	447.5
412.695	443.5
412.919	449.5
413.142	420.5
413.365	415.5
413.589	411.5
413.812	411.5
414.035	413.5
414.258	412.5
414.482	417.5
414.705	413.5
414.928	413.5
415.151	388.5
415.374	427.5
415.597	403.5
415.821	404.5
416.044	396.5
416.267	402.5
416.49	397.5
416.713	385.5
416.936	404.5
417.159	407.5
417.382	423.5
417.605	424.5
417.828	422.5
418.051	433.5
418.274	411.5
418.497	397.5
418.72	417.5
418.943	416.5
419.166	437.5
419.389	472.5
419.611	430.5
419.834	436.5
420.057	447.5
420.28	439.5
420.503	430.5
420.726	433.5
420.948	411.5
421.171	452.5
421.394	482.5
421.617	437.5
421.839	423.5
422.062	418.5
422.285	446.5
422.507	474.5
422.73	520.5
422.953	507.5
423.175	453.5
423.398	445.5
423.621	455.5
423.843	456.5
424.066	461.5
424.288	465.5
424.511	465.5
424.733	516.5
424.956	569.5
425.178	562.5
425.401	547.5
425.623	562.5
425.846	486.5
426.068	475.5
426.291	457.5
426.513	455.5
426.735	464.5
426.958	489.5
427.18	559.5
427.402	651.5
427.625	697.5
427.847	627.5
428.069	558.5
428.292	497.5
428.514	461.5
428.736	440.5
428.958	439.5
429.181	417.5
429.403	423.5
429.625	432.5
429.847	456.5
430.069	496.5
430.292	496.5
430.514	452.5
430.736	437.5
430.958	428.5
431.18	412.5
431.402	413.5
431.624	398.5
431.846	395.5
432.068	387.5
432.29	401.5
432.512	394.5
432.734	416.5
432.956	399.5
433.178	395.5
433.4	438.5
433.622	416.5
433.844	381.5
434.066	417.5
434.287	407.5
434.509	412.5
434.731	407.5
434.953	441.5
435.175	441.5
435.397	458.5
435.618	481.5
435.84	510.5
436.062	569.5
436.284	591.5
436.505	528.5
436.727	450.5
436.949	458.5
437.17	438.5
437.392	429.5
437.614	438.5
437.835	485.5
438.057	555.5
438.278	621.5
438.5	592.5
438.721	651.5
438.943	621.5
439.165	517.5
439.386	479.5
439.608	464.5
439.829	465.5
440.05	494.5
440.272	528.5
440.493	482.5
440.715	446.5
440.936	449.5
441.158	442.5
441.379	428.5
441.6	433.5
441.822	472.5
442.043	508.5
442.264	556.5
442.486	569.5
442.707	489.5
442.928	467.5
443.149	492.5
443.371	501.5
443.592	539.5
443.813	624.5
444.034	628.5
444.255	534.5
444.476	476.5
444.698	457.5
444.919	431.5
445.14	576.5
445.361	537.5
445.582	494.5
445.803	558.5
446.024	608.5
446.245	616.5
446.466	573.5
446.687	499.5
446.908	472.5
447.129	427.5
447.35	445.5
447.571	432.5
447.792	429.5
448.013	460.5
448.234	453.5
448.455	498.5
448.675	583.5
448.896	652.5
449.117	551.5
449.338	521.5
449.559	614.5
449.779	691.5
450	558.5
450.221	473.5
450.442	435.5
450.662	427.5
450.883	427.5
451.104	452.5
451.324	437.5
451.545	396.5
451.766	403.5
451.986	401.5
452.207	361.5
452.428	385.5
452.648	387.5
452.869	379.5
453.089	392.5
453.31	393.5
453.53	398.5
453.751	393.5
453.971	392.5
454.192	416.5
454.412	380.5
454.633	394.5
454.853	373.5
455.073	403.5
455.294	424.5
455.514	439.5
455.734	429.5
455.955	395.5
456.175	370.5
456.395	375.5
456.616	367.5
456.836	355.5
457.056	350.5
457.276	360.5
457.497	350.5
457.717	390.5
457.937	364.5
458.157	395.5
458.377	366.5
458.598	395.5
458.818	465.5
459.038	495.5
459.258	528.5
459.478	448.5
459.698	414.5
459.918	411.5
460.138	400.5
460.358	418.5
460.578	401.5
460.798	405.5
461.018	392.5
461.238	405.5
461.458	409.5
461.678	411.5
461.898	419.5
462.118	402.5
462.338	415.5
462.558	416.5
462.777	439.5
462.997	443.5
463.217	459.5
463.437	446.5
463.657	422.5
463.876	423.5
464.096	436.5
464.316	436.5
464.536	432.5
464.755	420.5
464.975	464.5
465.195	490.5
465.414	581.5
465.634	504.5
465.854	451.5
466.073	433.5
466.293	406.5
466.512	404.5
466.732	390.5
466.951	397.5
467.171	394.5
467.391	395.5
467.61	423.5
467.829	408.5
468.049	419.5
468.268	389.5
468.488	396.5
468.707	395.5
468.927	381.5
469.146	383.5
469.365	378.5
469.585	384.5
469.804	391.5
470.023	387.5
470.243	399.5
470.462	393.5
470.681	417.5
470.901	428.5
471.12	389.5
471.339	395.5
471.558	390.5
471.777	409.5
471.997	402.5
472.216	388.5
472.435	397.5
472.654	402.5
472.873	395.5
473.092	374.5
473.311	391.5
473.53	408.5
473.749	412.5
473.968	446.5
474.187	533.5
474.406	528.5
474.625	439.5
474.844	411.5
475.063	405.5
475.282	401.5
475.501	408.5
475.72	426.5
475.939	394.5
476.158	409.5
476.377	407.5
476.596	414.5
476.814	417.5
477.033	420.5
477.252	418.5
477.471	421.5
477.69	421.5
477.908	425.5
478.127	437.5
478.346	423.5
478.564	443.5
478.783	443.5
479.002	445.5
479.22	471.5
479.439	469.5
479.658	475.5
479.876	475.5
480.095	497.5
480.313	490.5
480.532	525.5
480.751	487.5
480.969	472.5
481.188	496.5
481.406	494.5
481.624	466.5
481.843	456.5
482.061	460.5
482.28	463.5
482.498	460.5
482.717	446.5
482.935	453.5
483.153	469.5
483.372	453.5
483.59	480.5
483.808	460.5
484.027	484.5
484.245	447.5
484.463	458.5
484.681	466.5
484.9	482.5
485.118	467.5
485.336	488.5
485.554	472.5
485.772	484.5
485.99	485.5
486.209	467.5
486.427	491.5
486.645	507.5
486.863	498.5
487.081	510.5
487.299	526.5
487.517	489.5
487.735	502.5
487.953	504.5
488.171	504.5
488.389	516.5
488.607	490.5
488.825	503.5
489.043	504.5
489.261	497.5
489.479	490.5
489.696	491.5
489.914	492.5
490.132	499.5
490.35	525.5
490.568	525.5
490.786	525.5
491.003	537.5
491.221	550.5
491.439	571.5
491.657	567.5
491.874	574.5
492.092	579.5
492.31	558.5
492.527	567.5
492.745	559.5
492.963	564.5
493.18	585.5
493.398	584.5
493.615	589.5
493.833	575.5
494.05	576.5
494.268	574.5
494.485	576.5
494.703	568.5
494.92	584.5
495.138	572.5
495.355	611.5
495.573	597.5
495.79	589.5
496.008	601.5
496.225	590.5
496.442	591.5
496.66	587.5
496.877	588.5
497.094	564.5
497.312	576.5
497.529	622.5
497.746	577.5
497.963	635.5
498.181	609.5
498.398	639.5
498.615	641.5
498.832	651.5
499.049	653.5
499.267	668.5
499.484	682.5
499.701	706.5
499.918	717.5
500.135	741.5
500.352	777.5
500.569	778.5
500.786	778.5
501.003	764.5
501.22	777.5
501.437	739.5
501.654	746.5
501.871	715.5
502.088	713.5
502.305	660.5
502.522	629.5
502.739	641.5
502.956	628.5
503.172	629.5
503.389	612.5
503.606	616.5
503.823	598.5
504.04	600.5
504.256	589.5
504.473	580.5
504.69	581.5
504.907	581.5
505.123	559.5
505.34	571.5
505.557	541.5
505.773	546.5
505.99	557.5
506.207	561.5
506.423	553.5
506.64	565.5
506.856	579.5
507.073	556.5
507.289	558.5
507.506	539.5
507.722	563.5
507.939	592.5
508.155	555.5
508.372	557.5
508.588	534.5
508.805	518.5
509.021	530.5
509.238	562.5
509.454	577.5
509.67	550.5
509.887	548.5
510.103	530.5
510.319	544.5
510.536	671.5
510.752	1120.5
510.968	875.5
511.184	565.5
511.401	532.5
511.617	527.5
511.833	517.5
512.049	526.5
512.265	489.5
512.481	516.5
512.698	513.5
512.914	498.5
513.13	513.5
513.346	494.5
513.562	521.5
513.778	508.5
513.994	521.5
514.21	557.5
514.426	553.5
514.642	603.5
514.858	619.5
515.074	655.5
515.29	801.5
515.506	1245.5
515.721	984.5
515.937	638.5
516.153	584.5
516.369	554.5
516.585	563.5
516.801	526.5
517.016	510.5
517.232	536.5
517.448	519.5
517.664	520.5
517.879	537.5
518.095	541.5
518.311	503.5
518.527	530.5
518.742	520.5
518.958	515.5
519.173	495.5
519.389	527.5
519.605	528.5
519.82	516.5
