Data from 1983.PennyLincolnUp.Lamp.En5.5.200Scan.071819.P1_HRD10591_16-52-19-966.txt Node
Date: Thu Jul 18 16:52:19 EDT 2019
User: cochatt
Spectrometer: HR+D1059
Trigger mode: 1
Integration Time (sec): 1.000000E-1
Scans to average: 1
Electric dark correction enabled: true
Nonlinearity correction enabled: false
Boxcar width: 0
XAxis mode: Wavelengths
Number of Pixels in Spectrum: 2048
>>>>>Begin Spectral Data<<<<<
223.165	-8.38
223.4	-8.38
223.635	-8.38
223.869	-16.38
224.104	-14.38
224.338	-22.38
224.573	-14.38
224.808	-14.38
225.042	-0.38
225.277	1.62
225.511	1.62
225.746	10.62
225.98	0.62
226.215	-9.38
226.449	11.62
226.683	21.62
226.918	20.62
227.152	31.62
227.387	42.62
227.621	34.62
227.856	38.62
228.09	34.62
228.324	48.62
228.559	61.62
228.793	62.62
229.027	93.62
229.262	94.62
229.496	119.62
229.73	116.62
229.964	141.62
230.199	110.62
230.433	103.62
230.667	98.62
230.901	94.62
231.136	96.62
231.37	88.62
231.604	111.62
231.838	110.62
232.072	92.62
232.306	107.62
232.541	106.62
232.775	107.62
233.009	106.62
233.243	105.62
233.477	113.62
233.711	100.62
233.945	113.62
234.179	120.62
234.413	93.62
234.647	100.62
234.881	111.62
235.115	105.62
235.349	118.62
235.583	115.62
235.817	110.62
236.051	116.62
236.285	114.62
236.519	110.62
236.753	113.62
236.987	125.62
237.221	147.62
237.455	180.62
237.689	133.62
237.922	115.62
238.156	114.62
238.39	110.62
238.624	109.62
238.858	110.62
239.091	109.62
239.325	103.62
239.559	120.62
239.793	124.62
240.027	121.62
240.26	122.62
240.494	132.62
240.728	135.62
240.961	140.62
241.195	122.62
241.429	123.62
241.662	102.62
241.896	105.62
242.13	114.62
242.363	123.62
242.597	127.62
242.83	141.62
243.064	114.62
243.298	117.62
243.531	115.62
243.765	128.62
243.998	121.62
244.232	123.62
244.465	120.62
244.699	127.62
244.932	144.62
245.166	133.62
245.399	130.62
245.633	132.62
245.866	134.62
246.099	116.62
246.333	121.62
246.566	129.62
246.8	130.62
247.033	133.62
247.266	123.62
247.5	148.62
247.733	144.62
247.966	148.62
248.2	149.62
248.433	147.62
248.666	151.62
248.899	155.62
249.133	157.62
249.366	189.62
249.599	154.62
249.832	151.62
250.066	163.62
250.299	157.62
250.532	162.62
250.765	166.62
250.998	175.62
251.231	178.62
251.465	169.62
251.698	172.62
251.931	167.62
252.164	180.62
252.397	159.62
252.63	167.62
252.863	179.62
253.096	182.62
253.329	181.62
253.562	205.62
253.795	190.62
254.028	168.62
254.261	159.62
254.494	185.62
254.727	201.62
254.96	217.62
255.193	214.62
255.426	202.62
255.659	194.62
255.892	180.62
256.124	171.62
256.357	161.62
256.59	180.62
256.823	195.62
257.056	175.62
257.289	176.62
257.521	183.62
257.754	171.62
257.987	177.62
258.22	180.62
258.452	188.62
258.685	165.62
258.918	179.62
259.151	158.62
259.383	169.62
259.616	183.62
259.849	166.62
260.081	187.62
260.314	204.62
260.547	205.62
260.779	202.62
261.012	203.62
261.244	194.62
261.477	192.62
261.71	183.62
261.942	199.62
262.175	176.62
262.407	180.62
262.64	180.62
262.872	173.62
263.105	145.62
263.337	182.62
263.57	158.62
263.802	171.62
264.035	184.62
264.267	171.62
264.499	185.62
264.732	188.62
264.964	172.62
265.197	180.62
265.429	175.62
265.661	165.62
265.894	185.62
266.126	182.62
266.358	186.62
266.591	177.62
266.823	193.62
267.055	190.62
267.287	185.62
267.52	183.62
267.752	188.62
267.984	190.62
268.216	188.62
268.448	187.62
268.681	199.62
268.913	194.62
269.145	197.62
269.377	211.62
269.609	228.62
269.841	213.62
270.073	209.62
270.306	241.62
270.538	243.62
270.77	235.62
271.002	234.62
271.234	230.62
271.466	231.62
271.698	220.62
271.93	233.62
272.162	257.62
272.394	246.62
272.626	216.62
272.858	209.62
273.09	206.62
273.322	213.62
273.553	216.62
273.785	202.62
274.017	207.62
274.249	216.62
274.481	219.62
274.713	200.62
274.945	218.62
275.176	204.62
275.408	218.62
275.64	202.62
275.872	202.62
276.104	215.62
276.335	217.62
276.567	215.62
276.799	236.62
277.031	247.62
277.262	249.62
277.494	257.62
277.726	228.62
277.957	221.62
278.189	235.62
278.421	218.62
278.652	211.62
278.884	220.62
279.115	198.62
279.347	233.62
279.579	207.62
279.81	232.62
280.042	229.62
280.273	215.62
280.505	215.62
280.736	223.62
280.968	236.62
281.199	221.62
281.431	202.62
281.662	230.62
281.894	221.62
282.125	207.62
282.356	224.62
282.588	232.62
282.819	229.62
283.051	233.62
283.282	231.62
283.513	230.62
283.745	238.62
283.976	231.62
284.207	231.62
284.439	229.62
284.67	233.62
284.901	231.62
285.132	227.62
285.364	220.62
285.595	229.62
285.826	230.62
286.057	232.62
286.288	222.62
286.52	241.62
286.751	230.62
286.982	227.62
287.213	230.62
287.444	237.62
287.675	236.62
287.906	231.62
288.138	236.62
288.369	236.62
288.6	239.62
288.831	238.62
289.062	220.62
289.293	225.62
289.524	236.62
289.755	227.62
289.986	228.62
290.217	238.62
290.448	231.62
290.679	237.62
290.91	245.62
291.141	219.62
291.371	241.62
291.602	227.62
291.833	244.62
292.064	241.62
292.295	222.62
292.526	221.62
292.757	229.62
292.987	249.62
293.218	236.62
293.449	247.62
293.68	230.62
293.91	235.62
294.141	236.62
294.372	230.62
294.603	247.62
294.833	254.62
295.064	227.62
295.295	236.62
295.525	234.62
295.756	241.62
295.987	255.62
296.217	247.62
296.448	259.62
296.679	244.62
296.909	245.62
297.14	243.62
297.37	269.62
297.601	235.62
297.831	247.62
298.062	241.62
298.292	253.62
298.523	254.62
298.753	255.62
298.984	250.62
299.214	230.62
299.445	245.62
299.675	246.62
299.905	258.62
300.136	243.62
300.366	241.62
300.597	253.62
300.827	262.62
301.057	279.62
301.288	269.62
301.518	262.62
301.748	246.62
301.979	259.62
302.209	253.62
302.439	276.62
302.669	279.62
302.9	262.62
303.13	249.62
303.36	264.62
303.59	262.62
303.82	270.62
304.051	257.62
304.281	268.62
304.511	271.62
304.741	260.62
304.971	257.62
305.201	269.62
305.431	255.62
305.661	251.62
305.891	263.62
306.121	279.62
306.352	267.62
306.582	278.62
306.812	261.62
307.042	280.62
307.272	266.62
307.502	278.62
307.731	262.62
307.961	267.62
308.191	275.62
308.421	278.62
308.651	279.62
308.881	273.62
309.111	286.62
309.341	262.62
309.571	284.62
309.8	305.62
310.03	292.62
310.26	316.62
310.49	287.62
310.72	279.62
310.949	318.62
311.179	307.62
311.409	291.62
311.639	300.62
311.868	281.62
312.098	299.62
312.328	293.62
312.557	300.62
312.787	313.62
313.017	316.62
313.246	310.62
313.476	286.62
313.706	304.62
313.935	292.62
314.165	309.62
314.394	313.62
314.624	318.62
314.853	300.62
315.083	292.62
315.312	310.62
315.542	299.62
315.771	278.62
316.001	300.62
316.23	284.62
316.46	293.62
316.689	308.62
316.919	302.62
317.148	302.62
317.377	302.62
317.607	296.62
317.836	310.62
318.065	295.62
318.295	302.62
318.524	296.62
318.753	304.62
318.983	296.62
319.212	295.62
319.441	303.62
319.67	306.62
319.9	300.62
320.129	305.62
320.358	312.62
320.587	316.62
320.816	305.62
321.046	318.62
321.275	311.62
321.504	317.62
321.733	293.62
321.962	317.62
322.191	319.62
322.42	335.62
322.649	315.62
322.878	360.62
323.108	340.62
323.337	364.62
323.566	367.62
323.795	387.62
324.024	417.62
324.253	495.62
324.482	670.62
324.71	1005.62
324.939	1419.62
325.168	1146.62
325.397	622.62
325.626	462.62
325.855	409.62
326.084	381.62
326.313	388.62
326.542	391.62
326.77	378.62
326.999	454.62
327.228	625.62
327.457	891.62
327.686	1019.62
327.914	670.62
328.143	483.62
328.372	430.62
328.6	417.62
328.829	413.62
329.058	425.62
329.287	408.62
329.515	387.62
329.744	402.62
329.972	377.62
330.201	401.62
330.43	405.62
330.658	386.62
330.887	445.62
331.115	407.62
331.344	378.62
331.572	364.62
331.801	375.62
332.03	371.62
332.258	364.62
332.486	360.62
332.715	340.62
332.943	357.62
333.172	343.62
333.4	354.62
333.629	349.62
333.857	361.62
334.085	359.62
334.314	367.62
334.542	391.62
334.771	370.62
334.999	371.62
335.227	353.62
335.455	348.62
335.684	361.62
335.912	333.62
336.14	338.62
336.369	327.62
336.597	357.62
336.825	365.62
337.053	348.62
337.281	346.62
337.51	344.62
337.738	336.62
337.966	354.62
338.194	349.62
338.422	331.62
338.65	346.62
338.878	332.62
339.106	339.62
339.334	343.62
339.562	329.62
339.79	340.62
340.018	350.62
340.246	343.62
340.474	335.62
340.702	352.62
340.93	349.62
341.158	331.62
341.386	344.62
341.614	354.62
341.842	351.62
342.07	330.62
342.298	325.62
342.526	338.62
342.754	332.62
342.981	325.62
343.209	330.62
343.437	325.62
343.665	342.62
343.893	347.62
344.12	354.62
344.348	342.62
344.576	344.62
344.804	349.62
345.031	366.62
345.259	352.62
345.487	335.62
345.714	339.62
345.942	358.62
346.17	325.62
346.397	325.62
346.625	336.62
346.853	338.62
347.08	332.62
347.308	335.62
347.535	315.62
347.763	323.62
347.99	335.62
348.218	321.62
348.445	347.62
348.673	356.62
348.9	324.62
349.128	315.62
349.355	306.62
349.583	332.62
349.81	330.62
350.037	330.62
350.265	327.62
350.492	328.62
350.72	299.62
350.947	327.62
351.174	331.62
351.402	331.62
351.629	330.62
351.856	326.62
352.083	310.62
352.311	325.62
352.538	331.62
352.765	336.62
352.992	337.62
353.22	320.62
353.447	339.62
353.674	324.62
353.901	315.62
354.128	300.62
354.355	309.62
354.583	312.62
354.81	318.62
355.037	313.62
355.264	311.62
355.491	299.62
355.718	283.62
355.945	316.62
356.172	316.62
356.399	310.62
356.626	291.62
356.853	301.62
357.08	306.62
357.307	305.62
357.534	329.62
357.761	311.62
357.988	313.62
358.215	325.62
358.441	311.62
358.668	317.62
358.895	300.62
359.122	316.62
359.349	323.62
359.576	335.62
359.802	345.62
360.029	343.62
360.256	377.62
360.483	350.62
360.709	344.62
360.936	325.62
361.163	312.62
361.39	334.62
361.616	330.62
361.843	306.62
362.07	322.62
362.296	317.62
362.523	311.62
362.749	336.62
362.976	327.62
363.203	317.62
363.429	309.62
363.656	331.62
363.882	323.62
364.109	314.62
364.335	308.62
364.562	296.62
364.788	309.62
365.015	310.62
365.241	306.62
365.468	315.62
365.694	319.62
365.92	313.62
366.147	340.62
366.373	319.62
366.599	314.62
366.826	334.62
367.052	312.62
367.278	315.62
367.505	314.62
367.731	328.62
367.957	313.62
368.184	309.62
368.41	339.62
368.636	339.62
368.862	330.62
369.089	319.62
369.315	295.62
369.541	323.62
369.767	305.62
369.993	313.62
370.219	301.62
370.445	297.62
370.672	313.62
370.898	298.62
371.124	315.62
371.35	321.62
371.576	318.62
371.802	325.62
372.028	310.62
372.254	312.62
372.48	319.62
372.706	311.62
372.932	336.62
373.158	331.62
373.384	321.62
373.61	315.62
373.835	324.62
374.061	309.62
374.287	322.62
374.513	342.62
374.739	340.62
374.965	325.62
375.191	317.62
375.416	336.62
375.642	316.62
375.868	330.62
376.094	334.62
376.319	331.62
376.545	315.62
376.771	303.62
376.997	316.62
377.222	325.62
377.448	323.62
377.674	332.62
377.899	302.62
378.125	305.62
378.35	302.62
378.576	300.62
378.802	309.62
379.027	317.62
379.253	320.62
379.478	323.62
379.704	324.62
379.929	313.62
380.155	322.62
380.38	313.62
380.606	331.62
380.831	297.62
381.057	323.62
381.282	295.62
381.507	309.62
381.733	340.62
381.958	326.62
382.184	322.62
382.409	318.62
382.634	318.62
382.86	320.62
383.085	316.62
383.31	329.62
383.535	323.62
383.761	324.62
383.986	325.62
384.211	330.62
384.436	330.62
384.662	357.62
384.887	328.62
385.112	334.62
385.337	317.62
385.562	331.62
385.787	338.62
386.013	362.62
386.238	361.62
386.463	340.62
386.688	361.62
386.913	347.62
387.138	337.62
387.363	346.62
387.588	333.62
387.813	343.62
388.038	337.62
388.263	342.62
388.488	329.62
388.713	339.62
388.938	337.62
389.163	351.62
389.387	358.62
389.612	330.62
389.837	339.62
390.062	342.62
390.287	332.62
390.512	335.62
390.736	342.62
390.961	343.62
391.186	349.62
391.411	355.62
391.636	353.62
391.86	351.62
392.085	365.62
392.31	355.62
392.534	349.62
392.759	359.62
392.984	330.62
393.208	333.62
393.433	350.62
393.658	334.62
393.882	338.62
394.107	345.62
394.331	352.62
394.556	347.62
394.78	322.62
395.005	349.62
395.229	342.62
395.454	363.62
395.678	350.62
395.903	359.62
396.127	375.62
396.352	385.62
396.576	356.62
396.801	363.62
397.025	353.62
397.249	355.62
397.474	367.62
397.698	364.62
397.922	381.62
398.147	364.62
398.371	379.62
398.595	366.62
398.82	363.62
399.044	381.62
399.268	394.62
399.492	397.62
399.717	405.62
399.941	444.62
400.165	438.62
400.389	466.62
400.613	422.62
400.837	397.62
401.062	395.62
401.286	371.62
401.51	387.62
401.734	389.62
401.958	381.62
402.182	391.62
402.406	389.62
402.63	396.62
402.854	395.62
403.078	392.62
403.302	390.62
403.526	411.62
403.75	391.62
403.974	392.62
404.198	387.62
404.422	391.62
404.645	376.62
404.869	401.62
405.093	389.62
405.317	426.62
405.541	433.62
405.765	401.62
405.988	422.62
406.212	405.62
406.436	418.62
406.66	441.62
406.883	423.62
407.107	442.62
407.331	465.62
407.555	503.62
407.778	504.62
408.002	453.62
408.226	434.62
408.449	416.62
408.673	419.62
408.896	439.62
409.12	467.62
409.344	441.62
409.567	391.62
409.791	410.62
410.014	391.62
410.238	399.62
410.461	389.62
410.685	397.62
410.908	397.62
411.132	425.62
411.355	447.62
411.578	417.62
411.802	396.62
412.025	399.62
412.249	395.62
412.472	404.62
412.695	404.62
412.919	399.62
413.142	401.62
413.365	387.62
413.589	370.62
413.812	379.62
414.035	378.62
414.258	373.62
414.482	384.62
414.705	386.62
414.928	372.62
415.151	381.62
415.374	379.62
415.597	373.62
415.821	365.62
416.044	367.62
416.267	377.62
416.49	386.62
416.713	371.62
416.936	366.62
417.159	377.62
417.382	379.62
417.605	376.62
417.828	394.62
418.051	398.62
418.274	385.62
418.497	361.62
418.72	389.62
418.943	377.62
419.166	369.62
419.389	397.62
419.611	391.62
419.834	403.62
420.057	382.62
420.28	389.62
420.503	400.62
420.726	393.62
420.948	389.62
421.171	409.62
421.394	425.62
421.617	410.62
421.839	365.62
422.062	401.62
422.285	395.62
422.507	436.62
422.73	483.62
422.953	459.62
423.175	416.62
423.398	408.62
423.621	414.62
423.843	380.62
424.066	411.62
424.288	423.62
424.511	431.62
424.733	463.62
424.956	515.62
425.178	495.62
425.401	478.62
425.623	514.62
425.846	455.62
426.068	406.62
426.291	409.62
426.513	412.62
426.735	425.62
426.958	451.62
427.18	493.62
427.402	582.62
427.625	638.62
427.847	544.62
428.069	475.62
428.292	426.62
428.514	413.62
428.736	390.62
428.958	399.62
429.181	382.62
429.403	379.62
429.625	392.62
429.847	422.62
430.069	439.62
430.292	463.62
430.514	401.62
430.736	377.62
430.958	375.62
431.18	377.62
431.402	361.62
431.624	366.62
431.846	333.62
432.068	359.62
432.29	366.62
432.512	375.62
432.734	369.62
432.956	370.62
433.178	377.62
433.4	377.62
433.622	356.62
433.844	359.62
434.066	364.62
434.287	335.62
434.509	386.62
434.731	385.62
434.953	377.62
435.175	383.62
435.397	399.62
435.618	422.62
435.84	452.62
436.062	505.62
436.284	544.62
436.505	474.62
436.727	413.62
436.949	393.62
437.17	366.62
437.392	374.62
437.614	403.62
437.835	408.62
438.057	485.62
438.278	542.62
438.5	549.62
438.721	574.62
438.943	566.62
439.165	484.62
439.386	427.62
439.608	417.62
439.829	414.62
440.05	442.62
440.272	481.62
440.493	457.62
440.715	405.62
440.936	397.62
441.158	395.62
441.379	389.62
441.6	390.62
441.822	411.62
442.043	446.62
442.264	496.62
442.486	533.62
442.707	457.62
442.928	441.62
443.149	427.62
443.371	455.62
443.592	471.62
443.813	521.62
444.034	565.62
444.255	482.62
444.476	423.62
444.698	403.62
444.919	412.62
445.14	535.62
445.361	477.62
445.582	448.62
445.803	475.62
446.024	558.62
446.245	552.62
446.466	497.62
446.687	429.62
446.908	410.62
447.129	408.62
447.35	399.62
447.571	393.62
447.792	382.62
448.013	377.62
448.234	393.62
448.455	432.62
448.675	521.62
448.896	592.62
449.117	497.62
449.338	474.62
449.559	555.62
449.779	605.62
450	494.62
450.221	407.62
450.442	395.62
450.662	377.62
450.883	402.62
451.104	387.62
451.324	365.62
451.545	365.62
451.766	350.62
451.986	347.62
452.207	346.62
452.428	343.62
452.648	352.62
452.869	353.62
453.089	370.62
453.31	355.62
453.53	348.62
453.751	371.62
453.971	353.62
454.192	377.62
454.412	341.62
454.633	353.62
454.853	344.62
455.073	350.62
455.294	366.62
455.514	408.62
455.734	403.62
455.955	358.62
456.175	325.62
456.395	320.62
456.616	333.62
456.836	311.62
457.056	320.62
457.276	319.62
457.497	331.62
457.717	310.62
457.937	335.62
458.157	335.62
458.377	335.62
458.598	355.62
458.818	399.62
459.038	443.62
459.258	446.62
459.478	396.62
459.698	369.62
459.918	371.62
460.138	353.62
460.358	362.62
460.578	361.62
460.798	364.62
461.018	366.62
461.238	380.62
461.458	378.62
461.678	352.62
461.898	363.62
462.118	392.62
462.338	379.62
462.558	373.62
462.777	405.62
462.997	397.62
463.217	406.62
463.437	403.62
463.657	380.62
463.876	396.62
464.096	395.62
464.316	399.62
464.536	403.62
464.755	393.62
464.975	400.62
465.195	424.62
465.414	459.62
465.634	399.62
465.854	397.62
466.073	373.62
466.293	382.62
466.512	356.62
466.732	358.62
466.951	338.62
467.171	340.62
467.391	347.62
467.61	360.62
467.829	377.62
468.049	371.62
468.268	348.62
468.488	339.62
468.707	352.62
468.927	337.62
469.146	365.62
469.365	328.62
469.585	357.62
469.804	345.62
470.023	370.62
470.243	363.62
470.462	387.62
470.681	383.62
470.901	386.62
471.12	373.62
471.339	356.62
471.558	360.62
471.777	342.62
471.997	369.62
472.216	363.62
472.435	354.62
472.654	361.62
472.873	369.62
473.092	355.62
473.311	353.62
473.53	371.62
473.749	350.62
473.968	375.62
474.187	461.62
474.406	483.62
474.625	421.62
474.844	391.62
475.063	367.62
475.282	382.62
475.501	363.62
475.72	390.62
475.939	373.62
476.158	373.62
476.377	363.62
476.596	364.62
476.814	373.62
477.033	384.62
477.252	390.62
477.471	376.62
477.69	387.62
477.908	364.62
478.127	397.62
478.346	391.62
478.564	403.62
478.783	395.62
479.002	406.62
479.22	417.62
479.439	397.62
479.658	436.62
479.876	427.62
480.095	420.62
480.313	445.62
480.532	429.62
480.751	414.62
480.969	423.62
481.188	436.62
481.406	451.62
481.624	435.62
481.843	418.62
482.061	419.62
482.28	409.62
482.498	409.62
482.717	405.62
482.935	452.62
483.153	411.62
483.372	422.62
483.59	435.62
483.808	405.62
484.027	404.62
484.245	406.62
484.463	399.62
484.681	433.62
484.9	425.62
485.118	422.62
485.336	433.62
485.554	439.62
485.772	426.62
485.99	429.62
486.209	419.62
486.427	423.62
486.645	426.62
486.863	420.62
487.081	451.62
487.299	448.62
487.517	426.62
487.735	456.62
487.953	451.62
488.171	455.62
488.389	446.62
488.607	444.62
488.825	450.62
489.043	447.62
489.261	451.62
489.479	452.62
489.696	451.62
489.914	452.62
490.132	478.62
490.35	482.62
490.568	468.62
490.786	460.62
491.003	459.62
491.221	480.62
491.439	501.62
491.657	482.62
491.874	496.62
492.092	513.62
492.31	522.62
492.527	510.62
492.745	501.62
492.963	493.62
493.18	515.62
493.398	512.62
493.615	517.62
493.833	534.62
494.05	502.62
494.268	545.62
494.485	502.62
494.703	477.62
494.92	530.62
495.138	517.62
495.355	511.62
495.573	527.62
495.79	517.62
496.008	518.62
496.225	543.62
496.442	516.62
496.66	497.62
496.877	527.62
497.094	534.62
497.312	543.62
497.529	530.62
497.746	541.62
497.963	551.62
498.181	555.62
498.398	570.62
498.615	592.62
498.832	578.62
499.049	597.62
499.267	614.62
499.484	605.62
499.701	640.62
499.918	650.62
500.135	673.62
500.352	692.62
500.569	697.62
500.786	709.62
501.003	712.62
501.22	675.62
501.437	665.62
501.654	671.62
501.871	665.62
502.088	617.62
