Data from 1983.PennyLincolnUp.Lamp.En5.5.200Scan.071819.P1_HRD10591_16-54-41-965.txt Node
Date: Thu Jul 18 16:54:41 EDT 2019
User: cochatt
Spectrometer: HR+D1059
Trigger mode: 1
Integration Time (sec): 1.000000E-1
Scans to average: 1
Electric dark correction enabled: true
Nonlinearity correction enabled: false
Boxcar width: 0
XAxis mode: Wavelengths
Number of Pixels in Spectrum: 2048
>>>>>Begin Spectral Data<<<<<
223.165	-14.38
223.4	-14.38
223.635	-14.38
223.869	-24.38
224.104	-17.38
224.338	-17.38
224.573	-15.38
224.808	-12.38
225.042	-14.38
225.277	4.62
225.511	-6.38
225.746	-9.38
225.98	14.62
226.215	12.62
226.449	15.62
226.683	20.62
226.918	25.62
227.152	37.62
227.387	25.62
227.621	44.62
227.856	34.62
228.09	39.62
228.324	49.62
228.559	54.62
228.793	77.62
229.027	79.62
229.262	98.62
229.496	107.62
229.73	118.62
229.964	132.62
230.199	127.62
230.433	108.62
230.667	112.62
230.901	92.62
231.136	115.62
231.37	105.62
231.604	115.62
231.838	114.62
232.072	114.62
232.306	106.62
232.541	103.62
232.775	119.62
233.009	126.62
233.243	110.62
233.477	109.62
233.711	115.62
233.945	106.62
234.179	117.62
234.413	111.62
234.647	119.62
234.881	120.62
235.115	127.62
235.349	114.62
235.583	123.62
235.817	123.62
236.051	112.62
236.285	109.62
236.519	113.62
236.753	137.62
236.987	146.62
237.221	168.62
237.455	206.62
237.689	154.62
237.922	136.62
238.156	137.62
238.39	114.62
238.624	128.62
238.858	105.62
239.091	125.62
239.325	111.62
239.559	132.62
239.793	120.62
240.027	116.62
240.26	136.62
240.494	141.62
240.728	152.62
240.961	153.62
241.195	141.62
241.429	137.62
241.662	130.62
241.896	134.62
242.13	117.62
242.363	141.62
242.597	128.62
242.83	120.62
243.064	139.62
243.298	135.62
243.531	130.62
243.765	141.62
243.998	124.62
244.232	137.62
244.465	133.62
244.699	151.62
244.932	144.62
245.166	123.62
245.399	118.62
245.633	138.62
245.866	133.62
246.099	140.62
246.333	148.62
246.566	130.62
246.8	132.62
247.033	142.62
247.266	156.62
247.5	150.62
247.733	152.62
247.966	154.62
248.2	160.62
248.433	165.62
248.666	143.62
248.899	188.62
249.133	194.62
249.366	195.62
249.599	186.62
249.832	169.62
250.066	174.62
250.299	160.62
250.532	181.62
250.765	201.62
250.998	194.62
251.231	192.62
251.465	206.62
251.698	193.62
251.931	198.62
252.164	188.62
252.397	171.62
252.63	188.62
252.863	204.62
253.096	188.62
253.329	213.62
253.562	212.62
253.795	202.62
254.028	196.62
254.261	207.62
254.494	221.62
254.727	237.62
254.96	245.62
255.193	260.62
255.426	233.62
255.659	222.62
255.892	226.62
256.124	223.62
256.357	229.62
256.59	228.62
256.823	224.62
257.056	208.62
257.289	210.62
257.521	193.62
257.754	190.62
257.987	196.62
258.22	210.62
258.452	206.62
258.685	207.62
258.918	198.62
259.151	179.62
259.383	208.62
259.616	205.62
259.849	212.62
260.081	224.62
260.314	219.62
260.547	244.62
260.779	227.62
261.012	217.62
261.244	202.62
261.477	220.62
261.71	208.62
261.942	208.62
262.175	225.62
262.407	212.62
262.64	213.62
262.872	214.62
263.105	194.62
263.337	192.62
263.57	194.62
263.802	204.62
264.035	198.62
264.267	200.62
264.499	203.62
264.732	221.62
264.964	203.62
265.197	196.62
265.429	204.62
265.661	204.62
265.894	196.62
266.126	202.62
266.358	196.62
266.591	224.62
266.823	203.62
267.055	212.62
267.287	212.62
267.52	215.62
267.752	226.62
267.984	212.62
268.216	214.62
268.448	229.62
268.681	222.62
268.913	243.62
269.145	242.62
269.377	254.62
269.609	272.62
269.841	264.62
270.073	276.62
270.306	267.62
270.538	295.62
270.77	269.62
271.002	271.62
271.234	280.62
271.466	282.62
271.698	294.62
271.93	305.62
272.162	295.62
272.394	295.62
272.626	282.62
272.858	266.62
273.09	252.62
273.322	274.62
273.553	251.62
273.785	254.62
274.017	232.62
274.249	243.62
274.481	248.62
274.713	246.62
274.945	245.62
275.176	255.62
275.408	242.62
275.64	240.62
275.872	244.62
276.104	254.62
276.335	243.62
276.567	252.62
276.799	276.62
277.031	284.62
277.262	294.62
277.494	299.62
277.726	296.62
277.957	242.62
278.189	252.62
278.421	244.62
278.652	257.62
278.884	264.62
279.115	242.62
279.347	250.62
279.579	262.62
279.81	237.62
280.042	244.62
280.273	242.62
280.505	249.62
280.736	257.62
280.968	263.62
281.199	249.62
281.431	248.62
281.662	250.62
281.894	240.62
282.125	262.62
282.356	269.62
282.588	294.62
282.819	277.62
283.051	264.62
283.282	263.62
283.513	260.62
283.745	252.62
283.976	267.62
284.207	257.62
284.439	256.62
284.67	246.62
284.901	261.62
285.132	264.62
285.364	248.62
285.595	251.62
285.826	247.62
286.057	256.62
286.288	252.62
286.52	256.62
286.751	246.62
286.982	239.62
287.213	253.62
287.444	271.62
287.675	273.62
287.906	281.62
288.138	289.62
288.369	281.62
288.6	282.62
288.831	281.62
289.062	281.62
289.293	276.62
289.524	273.62
289.755	265.62
289.986	270.62
290.217	280.62
290.448	281.62
290.679	265.62
290.91	261.62
291.141	264.62
291.371	268.62
291.602	255.62
291.833	253.62
292.064	270.62
292.295	252.62
292.526	262.62
292.757	267.62
292.987	269.62
293.218	262.62
293.449	261.62
293.68	274.62
293.91	266.62
294.141	256.62
294.372	262.62
294.603	290.62
294.833	269.62
295.064	266.62
295.295	261.62
295.525	282.62
295.756	288.62
295.987	276.62
296.217	297.62
296.448	335.62
296.679	292.62
296.909	295.62
297.14	283.62
297.37	289.62
297.601	278.62
297.831	261.62
298.062	269.62
298.292	276.62
298.523	288.62
298.753	293.62
298.984	295.62
299.214	300.62
299.445	295.62
299.675	305.62
299.905	299.62
300.136	276.62
300.366	267.62
300.597	293.62
300.827	297.62
301.057	292.62
301.288	315.62
301.518	314.62
301.748	295.62
301.979	296.62
302.209	306.62
302.439	325.62
302.669	301.62
302.9	291.62
303.13	291.62
303.36	315.62
303.59	314.62
303.82	333.62
304.051	300.62
304.281	298.62
304.511	304.62
304.741	304.62
304.971	294.62
305.201	306.62
305.431	277.62
305.661	296.62
305.891	296.62
306.121	315.62
306.352	315.62
306.582	299.62
306.812	301.62
307.042	299.62
307.272	308.62
307.502	310.62
307.731	297.62
307.961	320.62
308.191	301.62
308.421	323.62
308.651	308.62
308.881	320.62
309.111	329.62
309.341	317.62
309.571	331.62
309.8	332.62
310.03	346.62
310.26	350.62
310.49	350.62
310.72	349.62
310.949	389.62
311.179	375.62
311.409	339.62
311.639	376.62
311.868	346.62
312.098	335.62
312.328	372.62
312.557	374.62
312.787	370.62
313.017	375.62
313.246	364.62
313.476	368.62
313.706	358.62
313.935	353.62
314.165	378.62
314.394	384.62
314.624	368.62
314.853	385.62
315.083	354.62
315.312	362.62
315.542	349.62
315.771	349.62
316.001	360.62
316.23	345.62
316.46	363.62
316.689	340.62
316.919	356.62
317.148	362.62
317.377	352.62
317.607	355.62
317.836	353.62
318.065	363.62
318.295	339.62
318.524	329.62
318.753	356.62
318.983	368.62
319.212	364.62
319.441	352.62
319.67	349.62
319.9	354.62
320.129	336.62
320.358	350.62
320.587	358.62
320.816	369.62
321.046	367.62
321.275	391.62
321.504	347.62
321.733	355.62
321.962	398.62
322.191	417.62
322.42	406.62
322.649	425.62
322.878	423.62
323.108	439.62
323.337	462.62
323.566	485.62
323.795	524.62
324.024	580.62
324.253	718.62
324.482	1014.62
324.71	1539.62
324.939	2093.62
325.168	1717.62
325.397	934.62
325.626	630.62
325.855	521.62
326.084	484.62
326.313	506.62
326.542	499.62
326.77	566.62
326.999	696.62
327.228	918.62
327.457	1375.62
327.686	1558.62
327.914	1066.62
328.143	715.62
328.372	612.62
328.6	594.62
328.829	555.62
329.058	584.62
329.287	581.62
329.515	549.62
329.744	488.62
329.972	489.62
330.201	541.62
330.43	582.62
330.658	619.62
330.887	593.62
331.115	598.62
331.344	524.62
331.572	478.62
331.801	482.62
332.03	464.62
332.258	461.62
332.486	442.62
332.715	414.62
332.943	420.62
333.172	446.62
333.4	413.62
333.629	436.62
333.857	457.62
334.085	451.62
334.314	460.62
334.542	509.62
334.771	544.62
334.999	501.62
335.227	450.62
335.455	427.62
335.684	412.62
335.912	419.62
336.14	414.62
336.369	411.62
336.597	424.62
336.825	401.62
337.053	392.62
337.281	419.62
337.51	399.62
337.738	409.62
337.966	409.62
338.194	406.62
338.422	419.62
338.65	393.62
338.878	398.62
339.106	352.62
339.334	395.62
339.562	386.62
339.79	399.62
340.018	378.62
340.246	385.62
340.474	400.62
340.702	403.62
340.93	402.62
341.158	399.62
341.386	384.62
341.614	385.62
341.842	393.62
342.07	388.62
342.298	388.62
342.526	378.62
342.754	381.62
342.981	386.62
343.209	382.62
343.437	374.62
343.665	372.62
343.893	383.62
344.12	401.62
344.348	398.62
344.576	399.62
344.804	394.62
345.031	406.62
345.259	419.62
345.487	398.62
345.714	394.62
345.942	392.62
346.17	373.62
346.397	403.62
346.625	380.62
346.853	394.62
347.08	393.62
347.308	397.62
347.535	376.62
347.763	404.62
347.99	409.62
348.218	411.62
348.445	406.62
348.673	409.62
348.9	396.62
349.128	386.62
349.355	365.62
349.583	377.62
349.81	374.62
350.037	381.62
350.265	373.62
350.492	363.62
350.72	372.62
350.947	393.62
351.174	390.62
351.402	408.62
351.629	395.62
351.856	387.62
352.083	393.62
352.311	404.62
352.538	395.62
352.765	418.62
352.992	402.62
353.22	411.62
353.447	384.62
353.674	382.62
353.901	384.62
354.128	352.62
354.355	344.62
354.583	338.62
354.81	360.62
355.037	375.62
355.264	368.62
355.491	345.62
355.718	354.62
355.945	342.62
356.172	351.62
356.399	350.62
356.626	358.62
356.853	368.62
357.08	357.62
357.307	338.62
357.534	355.62
357.761	340.62
357.988	346.62
358.215	341.62
358.441	334.62
358.668	348.62
358.895	359.62
359.122	350.62
359.349	378.62
359.576	392.62
359.802	406.62
360.029	442.62
360.256	451.62
360.483	418.62
360.709	402.62
360.936	392.62
361.163	380.62
361.39	375.62
361.616	397.62
361.843	386.62
362.07	377.62
362.296	381.62
362.523	365.62
362.749	377.62
362.976	374.62
363.203	369.62
363.429	364.62
363.656	372.62
363.882	352.62
364.109	358.62
364.335	349.62
364.562	380.62
364.788	362.62
365.015	338.62
365.241	369.62
365.468	369.62
365.694	348.62
365.92	373.62
366.147	369.62
366.373	377.62
366.599	358.62
366.826	355.62
367.052	362.62
367.278	378.62
367.505	340.62
367.731	354.62
367.957	358.62
368.184	373.62
368.41	368.62
368.636	379.62
368.862	381.62
369.089	367.62
369.315	371.62
369.541	348.62
369.767	346.62
369.993	348.62
370.219	373.62
370.445	348.62
370.672	372.62
370.898	345.62
371.124	362.62
371.35	348.62
371.576	353.62
371.802	378.62
372.028	348.62
372.254	354.62
372.48	360.62
372.706	350.62
372.932	338.62
373.158	369.62
373.384	353.62
373.61	368.62
373.835	357.62
374.061	355.62
374.287	345.62
374.513	348.62
374.739	365.62
374.965	343.62
375.191	364.62
375.416	360.62
375.642	364.62
375.868	350.62
376.094	362.62
376.319	354.62
376.545	347.62
376.771	328.62
376.997	363.62
377.222	350.62
377.448	340.62
377.674	356.62
377.899	352.62
378.125	357.62
378.35	345.62
378.576	340.62
378.802	336.62
379.027	354.62
379.253	349.62
379.478	353.62
379.704	339.62
379.929	350.62
380.155	368.62
380.38	335.62
380.606	345.62
380.831	361.62
381.057	348.62
381.282	357.62
381.507	331.62
381.733	342.62
381.958	348.62
382.184	353.62
382.409	353.62
382.634	353.62
382.86	352.62
383.085	353.62
383.31	358.62
383.535	353.62
383.761	365.62
383.986	363.62
384.211	357.62
384.436	359.62
384.662	381.62
384.887	355.62
385.112	376.62
385.337	359.62
385.562	365.62
385.787	374.62
386.013	382.62
386.238	377.62
386.463	404.62
386.688	382.62
386.913	364.62
387.138	388.62
387.363	395.62
387.588	372.62
387.813	365.62
388.038	370.62
388.263	361.62
388.488	382.62
388.713	372.62
388.938	360.62
389.163	375.62
389.387	376.62
389.612	368.62
389.837	384.62
390.062	357.62
390.287	362.62
390.512	376.62
390.736	354.62
390.961	380.62
391.186	369.62
391.411	374.62
391.636	393.62
391.86	404.62
392.085	372.62
392.31	381.62
392.534	388.62
392.759	377.62
392.984	388.62
393.208	383.62
393.433	375.62
393.658	364.62
393.882	384.62
394.107	376.62
394.331	363.62
394.556	383.62
394.78	378.62
395.005	384.62
395.229	378.62
395.454	408.62
395.678	365.62
395.903	396.62
396.127	414.62
396.352	400.62
396.576	392.62
396.801	374.62
397.025	365.62
397.249	404.62
397.474	402.62
397.698	402.62
397.922	405.62
398.147	429.62
398.371	461.62
398.595	434.62
398.82	423.62
399.044	435.62
399.268	430.62
399.492	479.62
399.717	484.62
399.941	510.62
400.165	528.62
400.389	521.62
400.613	462.62
400.837	444.62
401.062	451.62
401.286	417.62
401.51	434.62
401.734	421.62
401.958	456.62
402.182	436.62
402.406	439.62
402.63	450.62
402.854	426.62
403.078	443.62
403.302	424.62
403.526	452.62
403.75	452.62
403.974	450.62
404.198	423.62
404.422	450.62
404.645	449.62
404.869	457.62
405.093	496.62
405.317	510.62
405.541	528.62
405.765	492.62
405.988	483.62
406.212	481.62
406.436	498.62
406.66	516.62
406.883	489.62
407.107	489.62
407.331	512.62
407.555	572.62
407.778	573.62
408.002	509.62
408.226	480.62
408.449	474.62
408.673	488.62
408.896	506.62
409.12	546.62
409.344	490.62
409.567	449.62
409.791	436.62
410.014	455.62
410.238	445.62
410.461	439.62
410.685	439.62
410.908	460.62
411.132	486.62
411.355	510.62
411.578	488.62
411.802	450.62
412.025	445.62
412.249	444.62
412.472	471.62
412.695	492.62
412.919	505.62
413.142	448.62
413.365	476.62
413.589	446.62
413.812	439.62
414.035	422.62
414.258	426.62
414.482	437.62
414.705	406.62
414.928	414.62
415.151	417.62
415.374	412.62
415.597	427.62
415.821	419.62
416.044	429.62
416.267	403.62
416.49	419.62
416.713	410.62
416.936	409.62
417.159	401.62
417.382	423.62
417.605	432.62
417.828	424.62
418.051	434.62
418.274	446.62
418.497	394.62
418.72	388.62
418.943	404.62
419.166	427.62
419.389	456.62
419.611	434.62
419.834	446.62
420.057	453.62
420.28	432.62
420.503	453.62
420.726	448.62
420.948	480.62
421.171	490.62
421.394	485.62
421.617	448.62
421.839	437.62
422.062	435.62
422.285	448.62
422.507	471.62
422.73	564.62
422.953	539.62
423.175	497.62
423.398	468.62
423.621	459.62
423.843	487.62
424.066	485.62
424.288	491.62
424.511	496.62
424.733	535.62
424.956	584.62
425.178	571.62
425.401	558.62
425.623	582.62
425.846	519.62
426.068	483.62
426.291	469.62
426.513	456.62
426.735	478.62
426.958	530.62
427.18	572.62
427.402	680.62
427.625	739.62
427.847	676.62
428.069	589.62
428.292	538.62
428.514	492.62
428.736	450.62
428.958	453.62
429.181	457.62
429.403	451.62
429.625	450.62
429.847	467.62
430.069	522.62
430.292	516.62
430.514	444.62
430.736	443.62
430.958	419.62
431.18	410.62
431.402	418.62
431.624	414.62
431.846	405.62
432.068	405.62
432.29	427.62
432.512	408.62
432.734	422.62
432.956	414.62
433.178	424.62
433.4	426.62
433.622	441.62
433.844	422.62
434.066	421.62
434.287	428.62
434.509	426.62
434.731	427.62
434.953	430.62
435.175	432.62
435.397	465.62
435.618	460.62
435.84	498.62
436.062	576.62
436.284	626.62
436.505	532.62
436.727	468.62
436.949	439.62
437.17	428.62
437.392	432.62
437.614	434.62
437.835	478.62
438.057	554.62
438.278	648.62
438.5	652.62
438.721	683.62
438.943	659.62
439.165	537.62
439.386	469.62
439.608	470.62
439.829	498.62
440.05	524.62
440.272	550.62
440.493	491.62
440.715	460.62
440.936	448.62
441.158	428.62
441.379	438.62
441.6	459.62
441.822	476.62
442.043	505.62
442.264	557.62
442.486	603.62
442.707	492.62
442.928	480.62
443.149	508.62
443.371	506.62
443.592	553.62
443.813	609.62
444.034	647.62
444.255	543.62
444.476	482.62
444.698	480.62
444.919	478.62
445.14	610.62
445.361	534.62
445.582	534.62
445.803	566.62
446.024	640.62
446.245	654.62
446.466	606.62
446.687	523.62
446.908	488.62
447.129	476.62
447.35	444.62
447.571	461.62
447.792	429.62
448.013	460.62
448.234	462.62
448.455	517.62
448.675	602.62
448.896	694.62
449.117	571.62
449.338	549.62
449.559	632.62
449.779	682.62
450	586.62
450.221	478.62
450.442	453.62
450.662	424.62
450.883	456.62
451.104	457.62
451.324	452.62
451.545	422.62
451.766	410.62
451.986	401.62
452.207	410.62
452.428	408.62
452.648	401.62
452.869	375.62
453.089	420.62
453.31	414.62
453.53	399.62
453.751	425.62
453.971	395.62
454.192	415.62
454.412	412.62
454.633	409.62
454.853	402.62
455.073	369.62
455.294	432.62
455.514	474.62
455.734	458.62
455.955	374.62
456.175	376.62
456.395	376.62
456.616	350.62
456.836	381.62
457.056	352.62
457.276	357.62
457.497	378.62
457.717	370.62
457.937	378.62
458.157	437.62
458.377	405.62
458.598	403.62
458.818	478.62
459.038	537.62
459.258	552.62
459.478	464.62
459.698	432.62
459.918	410.62
460.138	408.62
460.358	410.62
460.578	391.62
460.798	416.62
461.018	419.62
461.238	416.62
461.458	409.62
461.678	392.62
461.898	416.62
462.118	414.62
462.338	420.62
462.558	432.62
462.777	395.62
462.997	432.62
463.217	459.62
463.437	436.62
463.657	418.62
463.876	438.62
464.096	461.62
464.316	446.62
464.536	468.62
464.755	453.62
464.975	465.62
465.195	521.62
465.414	586.62
465.634	500.62
465.854	472.62
466.073	422.62
466.293	419.62
466.512	417.62
466.732	399.62
466.951	418.62
467.171	407.62
467.391	403.62
467.61	410.62
467.829	432.62
468.049	427.62
468.268	415.62
468.488	416.62
468.707	399.62
468.927	413.62
469.146	386.62
469.365	378.62
469.585	381.62
469.804	411.62
470.023	413.62
470.243	396.62
470.462	418.62
470.681	443.62
470.901	449.62
471.12	411.62
471.339	434.62
471.558	413.62
471.777	410.62
471.997	399.62
472.216	419.62
472.435	451.62
472.654	424.62
472.873	443.62
473.092	396.62
473.311	421.62
473.53	432.62
473.749	428.62
473.968	460.62
474.187	558.62
474.406	555.62
474.625	465.62
474.844	419.62
475.063	428.62
475.282	421.62
475.501	408.62
475.72	434.62
475.939	412.62
476.158	418.62
476.377	426.62
476.596	407.62
476.814	414.62
477.033	436.62
477.252	431.62
477.471	427.62
477.69	430.62
477.908	438.62
478.127	436.62
478.346	460.62
478.564	458.62
478.783	443.62
479.002	457.62
479.22	471.62
479.439	473.62
479.658	486.62
479.876	489.62
480.095	495.62
480.313	509.62
480.532	496.62
480.751	502.62
480.969	534.62
481.188	587.62
481.406	608.62
481.624	539.62
481.843	493.62
482.061	493.62
482.28	486.62
482.498	482.62
482.717	475.62
482.935	499.62
483.153	474.62
483.372	491.62
483.59	483.62
483.808	480.62
484.027	472.62
484.245	481.62
484.463	460.62
484.681	491.62
484.9	489.62
485.118	484.62
485.336	486.62
485.554	484.62
485.772	505.62
485.99	490.62
486.209	481.62
486.427	488.62
486.645	514.62
486.863	508.62
487.081	516.62
487.299	505.62
487.517	516.62
487.735	518.62
487.953	544.62
488.171	516.62
488.389	535.62
488.607	523.62
488.825	513.62
489.043	496.62
489.261	496.62
489.479	541.62
489.696	521.62
489.914	530.62
490.132	545.62
490.35	545.62
490.568	536.62
490.786	561.62
491.003	548.62
491.221	587.62
491.439	603.62
491.657	581.62
491.874	602.62
492.092	600.62
492.31	602.62
492.527	627.62
492.745	603.62
492.963	591.62
493.18	602.62
493.398	602.62
493.615	603.62
493.833	595.62
494.05	603.62
494.268	628.62
494.485	615.62
494.703	596.62
494.92	612.62
495.138	647.62
495.355	611.62
495.573	609.62
495.79	604.62
496.008	632.62
496.225	617.62
496.442	625.62
496.66	626.62
496.877	622.62
497.094	609.62
497.312	604.62
497.529	636.62
497.746	612.62
497.963	600.62
498.181	643.62
498.398	656.62
498.615	650.62
498.832	646.62
499.049	673.62
499.267	697.62
499.484	721.62
499.701	718.62
499.918	749.62
500.135	774.62
500.352	778.62
500.569	786.62
500.786	843.62
501.003	796.62
501.22	776.62
501.437	750.62
501.654	770.62
501.871	749.62
