Data from 1983.PennyLincolnUp.Lamp.En5.5.200Scan.071819.P1_HRD10591_16-53-18-966.txt Node
Date: Thu Jul 18 16:53:18 EDT 2019
User: cochatt
Spectrometer: HR+D1059
Trigger mode: 1
Integration Time (sec): 1.000000E-1
Scans to average: 1
Electric dark correction enabled: true
Nonlinearity correction enabled: false
Boxcar width: 0
XAxis mode: Wavelengths
Number of Pixels in Spectrum: 2048
>>>>>Begin Spectral Data<<<<<
223.165	-18.44
223.4	-18.44
223.635	-18.44
223.869	-22.44
224.104	-17.44
224.338	-9.44
224.573	-12.44
224.808	-19.44
225.042	-8.44
225.277	-6.44
225.511	9.56
225.746	7.56
225.98	1.56
226.215	12.56
226.449	11.56
226.683	20.56
226.918	24.56
227.152	26.56
227.387	32.56
227.621	33.56
227.856	40.56
228.09	54.56
228.324	61.56
228.559	68.56
228.793	72.56
229.027	79.56
229.262	92.56
229.496	109.56
229.73	117.56
229.964	143.56
230.199	122.56
230.433	108.56
230.667	115.56
230.901	125.56
231.136	99.56
231.37	94.56
231.604	102.56
231.838	117.56
232.072	99.56
232.306	108.56
232.541	99.56
232.775	104.56
233.009	106.56
233.243	114.56
233.477	113.56
233.711	115.56
233.945	97.56
234.179	110.56
234.413	111.56
234.647	120.56
234.881	122.56
235.115	125.56
235.349	105.56
235.583	115.56
235.817	125.56
236.051	116.56
236.285	120.56
236.519	120.56
236.753	128.56
236.987	138.56
237.221	173.56
237.455	190.56
237.689	168.56
237.922	141.56
238.156	119.56
238.39	110.56
238.624	121.56
238.858	128.56
239.091	127.56
239.325	120.56
239.559	122.56
239.793	130.56
240.027	130.56
240.26	127.56
240.494	149.56
240.728	140.56
240.961	139.56
241.195	132.56
241.429	127.56
241.662	123.56
241.896	132.56
242.13	125.56
242.363	113.56
242.597	130.56
242.83	127.56
243.064	129.56
243.298	124.56
243.531	116.56
243.765	123.56
243.998	127.56
244.232	118.56
244.465	119.56
244.699	118.56
244.932	143.56
245.166	138.56
245.399	118.56
245.633	135.56
245.866	133.56
246.099	142.56
246.333	144.56
246.566	151.56
246.8	132.56
247.033	145.56
247.266	159.56
247.5	153.56
247.733	165.56
247.966	154.56
248.2	144.56
248.433	150.56
248.666	156.56
248.899	173.56
249.133	162.56
249.366	186.56
249.599	184.56
249.832	169.56
250.066	172.56
250.299	165.56
250.532	164.56
250.765	171.56
250.998	204.56
251.231	191.56
251.465	187.56
251.698	196.56
251.931	192.56
252.164	180.56
252.397	190.56
252.63	170.56
252.863	165.56
253.096	196.56
253.329	208.56
253.562	210.56
253.795	203.56
254.028	189.56
254.261	207.56
254.494	209.56
254.727	220.56
254.96	252.56
255.193	229.56
255.426	222.56
255.659	201.56
255.892	204.56
256.124	206.56
256.357	213.56
256.59	197.56
256.823	203.56
257.056	186.56
257.289	205.56
257.521	213.56
257.754	190.56
257.987	202.56
258.22	183.56
258.452	187.56
258.685	189.56
258.918	190.56
259.151	184.56
259.383	191.56
259.616	207.56
259.849	202.56
260.081	220.56
260.314	217.56
260.547	239.56
260.779	213.56
261.012	218.56
261.244	216.56
261.477	211.56
261.71	201.56
261.942	213.56
262.175	223.56
262.407	208.56
262.64	210.56
262.872	191.56
263.105	200.56
263.337	196.56
263.57	196.56
263.802	196.56
264.035	195.56
264.267	188.56
264.499	191.56
264.732	200.56
264.964	202.56
265.197	189.56
265.429	201.56
265.661	188.56
265.894	200.56
266.126	198.56
266.358	200.56
266.591	201.56
266.823	209.56
267.055	211.56
267.287	219.56
267.52	213.56
267.752	203.56
267.984	203.56
268.216	208.56
268.448	216.56
268.681	222.56
268.913	241.56
269.145	245.56
269.377	269.56
269.609	256.56
269.841	260.56
270.073	257.56
270.306	275.56
270.538	291.56
270.77	278.56
271.002	262.56
271.234	265.56
271.466	264.56
271.698	296.56
271.93	298.56
272.162	293.56
272.394	287.56
272.626	267.56
272.858	240.56
273.09	270.56
273.322	252.56
273.553	243.56
273.785	245.56
274.017	255.56
274.249	244.56
274.481	228.56
274.713	224.56
274.945	239.56
275.176	241.56
275.408	237.56
275.64	240.56
275.872	263.56
276.104	245.56
276.335	246.56
276.567	241.56
276.799	259.56
277.031	275.56
277.262	292.56
277.494	289.56
277.726	259.56
277.957	260.56
278.189	244.56
278.421	255.56
278.652	251.56
278.884	240.56
279.115	250.56
279.347	232.56
279.579	245.56
279.81	223.56
280.042	232.56
280.273	225.56
280.505	241.56
280.736	241.56
280.968	247.56
281.199	235.56
281.431	233.56
281.662	263.56
281.894	243.56
282.125	252.56
282.356	265.56
282.588	274.56
282.819	288.56
283.051	252.56
283.282	247.56
283.513	251.56
283.745	245.56
283.976	253.56
284.207	273.56
284.439	263.56
284.67	251.56
284.901	245.56
285.132	272.56
285.364	247.56
285.595	266.56
285.826	261.56
286.057	250.56
286.288	259.56
286.52	243.56
286.751	237.56
286.982	255.56
287.213	267.56
287.444	268.56
287.675	283.56
287.906	273.56
288.138	277.56
288.369	276.56
288.6	288.56
288.831	269.56
289.062	263.56
289.293	241.56
289.524	257.56
289.755	263.56
289.986	248.56
290.217	264.56
290.448	248.56
290.679	261.56
290.91	259.56
291.141	266.56
291.371	252.56
291.602	271.56
291.833	259.56
292.064	253.56
292.295	249.56
292.526	275.56
292.757	277.56
292.987	265.56
293.218	271.56
293.449	255.56
293.68	254.56
293.91	280.56
294.141	261.56
294.372	266.56
294.603	270.56
294.833	265.56
295.064	270.56
295.295	251.56
295.525	288.56
295.756	278.56
295.987	283.56
296.217	295.56
296.448	303.56
296.679	295.56
296.909	283.56
297.14	264.56
297.37	277.56
297.601	270.56
297.831	257.56
298.062	289.56
298.292	268.56
298.523	269.56
298.753	282.56
298.984	289.56
299.214	290.56
299.445	301.56
299.675	296.56
299.905	297.56
300.136	285.56
300.366	295.56
300.597	275.56
300.827	287.56
301.057	278.56
301.288	286.56
301.518	316.56
301.748	317.56
301.979	300.56
302.209	296.56
302.439	292.56
302.669	297.56
302.9	312.56
303.13	286.56
303.36	295.56
303.59	288.56
303.82	313.56
304.051	314.56
304.281	288.56
304.511	288.56
304.741	328.56
304.971	296.56
305.201	298.56
305.431	296.56
305.661	307.56
305.891	287.56
306.121	323.56
306.352	300.56
306.582	303.56
306.812	310.56
307.042	301.56
307.272	312.56
307.502	305.56
307.731	299.56
307.961	296.56
308.191	313.56
308.421	296.56
308.651	311.56
308.881	309.56
309.111	300.56
309.341	319.56
309.571	322.56
309.8	339.56
310.03	337.56
310.26	352.56
310.49	337.56
310.72	345.56
310.949	368.56
311.179	357.56
311.409	337.56
311.639	358.56
311.868	339.56
312.098	368.56
312.328	351.56
312.557	349.56
312.787	376.56
313.017	387.56
313.246	369.56
313.476	335.56
313.706	334.56
313.935	337.56
314.165	352.56
314.394	363.56
314.624	378.56
314.853	351.56
315.083	333.56
315.312	335.56
315.542	334.56
315.771	346.56
316.001	347.56
316.23	359.56
316.46	337.56
316.689	334.56
316.919	351.56
317.148	355.56
317.377	348.56
317.607	344.56
317.836	334.56
318.065	358.56
318.295	339.56
318.524	351.56
318.753	360.56
318.983	333.56
319.212	344.56
319.441	365.56
319.67	351.56
319.9	362.56
320.129	317.56
320.358	336.56
320.587	359.56
320.816	364.56
321.046	375.56
321.275	383.56
321.504	358.56
321.733	367.56
321.962	380.56
322.191	379.56
322.42	391.56
322.649	400.56
322.878	407.56
323.108	417.56
323.337	446.56
323.566	451.56
323.795	485.56
324.024	543.56
324.253	671.56
324.482	977.56
324.71	1431.56
324.939	1929.56
325.168	1603.56
325.397	895.56
325.626	593.56
325.855	527.56
326.084	490.56
326.313	460.56
326.542	473.56
326.77	531.56
326.999	605.56
327.228	843.56
327.457	1246.56
327.686	1436.56
327.914	958.56
328.143	643.56
328.372	560.56
328.6	525.56
328.829	515.56
329.058	543.56
329.287	528.56
329.515	480.56
329.744	465.56
329.972	445.56
330.201	474.56
330.43	505.56
330.658	507.56
330.887	544.56
331.115	519.56
331.344	463.56
331.572	421.56
331.801	448.56
332.03	451.56
332.258	427.56
332.486	403.56
332.715	404.56
332.943	400.56
333.172	393.56
333.4	392.56
333.629	428.56
333.857	407.56
334.085	399.56
334.314	428.56
334.542	422.56
334.771	435.56
334.999	427.56
335.227	420.56
335.455	416.56
335.684	401.56
335.912	398.56
336.14	399.56
336.369	400.56
336.597	386.56
336.825	391.56
337.053	392.56
337.281	382.56
337.51	379.56
337.738	387.56
337.966	392.56
338.194	393.56
338.422	400.56
338.65	377.56
338.878	396.56
339.106	383.56
339.334	367.56
339.562	379.56
339.79	391.56
340.018	391.56
340.246	388.56
340.474	402.56
340.702	373.56
340.93	390.56
341.158	379.56
341.386	385.56
341.614	375.56
341.842	399.56
342.07	383.56
342.298	366.56
342.526	373.56
342.754	364.56
342.981	380.56
343.209	372.56
343.437	373.56
343.665	361.56
343.893	381.56
344.12	394.56
344.348	397.56
344.576	409.56
344.804	376.56
345.031	413.56
345.259	404.56
345.487	398.56
345.714	384.56
345.942	380.56
346.17	373.56
346.397	378.56
346.625	372.56
346.853	361.56
347.08	371.56
347.308	371.56
347.535	391.56
347.763	396.56
347.99	398.56
348.218	384.56
348.445	382.56
348.673	389.56
348.9	377.56
349.128	358.56
349.355	379.56
349.583	381.56
349.81	363.56
350.037	367.56
350.265	363.56
350.492	372.56
350.72	368.56
350.947	372.56
351.174	389.56
351.402	402.56
351.629	367.56
351.856	383.56
352.083	382.56
352.311	394.56
352.538	395.56
352.765	397.56
352.992	376.56
353.22	356.56
353.447	381.56
353.674	372.56
353.901	358.56
354.128	349.56
354.355	341.56
354.583	333.56
354.81	354.56
355.037	320.56
355.264	340.56
355.491	355.56
355.718	352.56
355.945	341.56
356.172	346.56
356.399	361.56
356.626	344.56
356.853	359.56
357.08	345.56
357.307	343.56
357.534	358.56
357.761	327.56
357.988	357.56
358.215	328.56
358.441	346.56
358.668	344.56
358.895	345.56
359.122	374.56
359.349	351.56
359.576	366.56
359.802	404.56
360.029	431.56
360.256	437.56
360.483	424.56
360.709	387.56
360.936	389.56
361.163	370.56
361.39	372.56
361.616	397.56
361.843	368.56
362.07	363.56
362.296	391.56
362.523	386.56
362.749	380.56
362.976	366.56
363.203	375.56
363.429	340.56
363.656	368.56
363.882	332.56
364.109	358.56
364.335	359.56
364.562	363.56
364.788	351.56
365.015	342.56
365.241	346.56
365.468	372.56
365.694	371.56
365.92	381.56
366.147	365.56
366.373	364.56
366.599	352.56
366.826	377.56
367.052	362.56
367.278	345.56
367.505	345.56
367.731	378.56
367.957	350.56
368.184	366.56
368.41	336.56
368.636	351.56
368.862	362.56
369.089	364.56
369.315	340.56
369.541	342.56
369.767	364.56
369.993	356.56
370.219	358.56
370.445	341.56
370.672	355.56
370.898	334.56
371.124	357.56
371.35	339.56
371.576	346.56
371.802	351.56
372.028	352.56
372.254	357.56
372.48	349.56
372.706	369.56
372.932	359.56
373.158	339.56
373.384	355.56
373.61	357.56
373.835	370.56
374.061	355.56
374.287	359.56
374.513	350.56
374.739	349.56
374.965	344.56
375.191	351.56
375.416	357.56
375.642	355.56
375.868	354.56
376.094	351.56
376.319	356.56
376.545	360.56
376.771	346.56
376.997	376.56
377.222	357.56
377.448	363.56
377.674	349.56
377.899	351.56
378.125	367.56
378.35	360.56
378.576	341.56
378.802	336.56
379.027	345.56
379.253	348.56
379.478	357.56
379.704	356.56
379.929	359.56
380.155	357.56
380.38	334.56
380.606	349.56
380.831	335.56
381.057	344.56
381.282	356.56
381.507	358.56
381.733	367.56
381.958	358.56
382.184	348.56
382.409	362.56
382.634	354.56
382.86	348.56
383.085	345.56
383.31	355.56
383.535	348.56
383.761	346.56
383.986	371.56
384.211	359.56
384.436	373.56
384.662	368.56
384.887	361.56
385.112	388.56
385.337	373.56
385.562	379.56
385.787	361.56
386.013	391.56
386.238	391.56
386.463	369.56
386.688	374.56
386.913	365.56
387.138	393.56
387.363	358.56
387.588	365.56
387.813	378.56
388.038	367.56
388.263	391.56
388.488	366.56
388.713	371.56
388.938	360.56
389.163	379.56
389.387	388.56
389.612	370.56
389.837	388.56
390.062	369.56
390.287	375.56
390.512	367.56
390.736	364.56
390.961	377.56
391.186	377.56
391.411	374.56
391.636	392.56
391.86	380.56
392.085	396.56
392.31	384.56
392.534	381.56
392.759	387.56
392.984	378.56
393.208	358.56
393.433	379.56
393.658	383.56
393.882	360.56
394.107	383.56
394.331	392.56
394.556	371.56
394.78	372.56
395.005	395.56
395.229	375.56
395.454	381.56
395.678	396.56
395.903	395.56
396.127	419.56
396.352	409.56
396.576	399.56
396.801	392.56
397.025	368.56
397.249	405.56
397.474	401.56
397.698	409.56
397.922	429.56
398.147	419.56
398.371	411.56
398.595	420.56
398.82	412.56
399.044	428.56
399.268	440.56
399.492	458.56
399.717	487.56
399.941	493.56
400.165	514.56
400.389	526.56
400.613	486.56
400.837	441.56
401.062	429.56
401.286	423.56
401.51	437.56
401.734	423.56
401.958	440.56
402.182	437.56
402.406	439.56
402.63	438.56
402.854	442.56
403.078	445.56
403.302	441.56
403.526	448.56
403.75	452.56
403.974	421.56
404.198	434.56
404.422	440.56
404.645	462.56
404.869	454.56
405.093	468.56
405.317	494.56
405.541	484.56
405.765	465.56
405.988	468.56
406.212	471.56
406.436	499.56
406.66	492.56
406.883	481.56
407.107	496.56
407.331	530.56
407.555	575.56
407.778	569.56
408.002	509.56
408.226	477.56
408.449	478.56
408.673	484.56
408.896	501.56
409.12	532.56
409.344	501.56
409.567	464.56
409.791	460.56
410.014	414.56
410.238	433.56
410.461	444.56
410.685	443.56
410.908	464.56
411.132	464.56
411.355	505.56
411.578	479.56
411.802	443.56
412.025	434.56
412.249	439.56
412.472	427.56
412.695	438.56
412.919	442.56
413.142	435.56
413.365	446.56
413.589	427.56
413.812	426.56
414.035	421.56
414.258	429.56
414.482	403.56
414.705	405.56
414.928	413.56
415.151	401.56
415.374	427.56
415.597	419.56
415.821	410.56
416.044	417.56
416.267	435.56
416.49	410.56
416.713	438.56
416.936	402.56
417.159	403.56
417.382	415.56
417.605	427.56
417.828	441.56
418.051	440.56
418.274	444.56
418.497	420.56
418.72	432.56
418.943	390.56
419.166	425.56
419.389	443.56
419.611	446.56
419.834	454.56
420.057	449.56
420.28	450.56
420.503	440.56
420.726	441.56
420.948	436.56
421.171	473.56
421.394	502.56
421.617	437.56
421.839	419.56
422.062	437.56
422.285	452.56
422.507	492.56
422.73	538.56
422.953	527.56
423.175	455.56
423.398	452.56
423.621	471.56
423.843	465.56
424.066	466.56
424.288	456.56
424.511	473.56
424.733	509.56
424.956	584.56
425.178	575.56
425.401	564.56
425.623	580.56
425.846	503.56
426.068	465.56
426.291	469.56
426.513	482.56
426.735	488.56
426.958	507.56
427.18	581.56
427.402	679.56
427.625	725.56
427.847	647.56
428.069	544.56
428.292	469.56
428.514	442.56
428.736	436.56
428.958	438.56
429.181	445.56
429.403	440.56
429.625	426.56
429.847	480.56
430.069	511.56
430.292	508.56
430.514	459.56
430.736	447.56
430.958	436.56
431.18	424.56
431.402	430.56
431.624	418.56
431.846	407.56
432.068	411.56
432.29	401.56
432.512	424.56
432.734	413.56
432.956	392.56
433.178	424.56
433.4	419.56
433.622	413.56
433.844	408.56
434.066	413.56
434.287	425.56
434.509	425.56
434.731	432.56
434.953	455.56
435.175	451.56
435.397	462.56
435.618	456.56
435.84	521.56
436.062	564.56
436.284	613.56
436.505	520.56
436.727	462.56
436.949	442.56
437.17	439.56
437.392	426.56
437.614	442.56
437.835	454.56
438.057	561.56
438.278	639.56
438.5	600.56
438.721	681.56
438.943	636.56
439.165	520.56
439.386	470.56
439.608	504.56
439.829	476.56
440.05	502.56
440.272	537.56
440.493	525.56
440.715	464.56
440.936	459.56
441.158	448.56
441.379	441.56
441.6	449.56
441.822	468.56
442.043	499.56
442.264	561.56
442.486	580.56
442.707	500.56
442.928	489.56
443.149	489.56
443.371	506.56
443.592	533.56
443.813	600.56
444.034	637.56
444.255	563.56
444.476	498.56
444.698	476.56
444.919	483.56
445.14	602.56
445.361	512.56
445.582	512.56
445.803	557.56
446.024	612.56
446.245	632.56
446.466	574.56
446.687	510.56
446.908	482.56
447.129	446.56
447.35	455.56
447.571	443.56
447.792	425.56
448.013	422.56
448.234	458.56
448.455	490.56
448.675	600.56
448.896	670.56
449.117	583.56
449.338	560.56
449.559	620.56
449.779	678.56
450	573.56
450.221	477.56
450.442	435.56
450.662	410.56
450.883	437.56
451.104	441.56
451.324	443.56
451.545	399.56
451.766	417.56
451.986	387.56
452.207	379.56
452.428	367.56
452.648	401.56
452.869	403.56
453.089	391.56
453.31	401.56
453.53	389.56
453.751	387.56
453.971	397.56
454.192	428.56
454.412	401.56
454.633	398.56
454.853	384.56
455.073	397.56
455.294	414.56
455.514	460.56
455.734	458.56
455.955	407.56
456.175	359.56
456.395	376.56
456.616	379.56
456.836	380.56
457.056	361.56
457.276	350.56
457.497	356.56
457.717	375.56
457.937	377.56
458.157	367.56
458.377	373.56
458.598	384.56
458.818	476.56
459.038	542.56
459.258	512.56
459.478	442.56
459.698	424.56
459.918	403.56
460.138	416.56
460.358	407.56
460.578	431.56
460.798	412.56
461.018	412.56
461.238	412.56
461.458	422.56
461.678	415.56
461.898	416.56
462.118	417.56
462.338	417.56
462.558	415.56
462.777	447.56
462.997	431.56
463.217	448.56
463.437	465.56
463.657	466.56
463.876	439.56
464.096	436.56
464.316	449.56
464.536	448.56
464.755	453.56
464.975	472.56
465.195	494.56
465.414	575.56
465.634	483.56
465.854	443.56
466.073	429.56
466.293	420.56
466.512	431.56
466.732	419.56
466.951	395.56
467.171	400.56
467.391	411.56
467.61	411.56
467.829	404.56
468.049	406.56
468.268	409.56
468.488	394.56
468.707	381.56
468.927	391.56
469.146	380.56
469.365	411.56
469.585	381.56
469.804	396.56
470.023	410.56
470.243	425.56
470.462	397.56
470.681	426.56
470.901	405.56
471.12	390.56
471.339	396.56
471.558	395.56
471.777	406.56
471.997	412.56
472.216	401.56
472.435	412.56
472.654	386.56
472.873	410.56
473.092	396.56
473.311	410.56
473.53	420.56
473.749	409.56
473.968	458.56
474.187	552.56
474.406	539.56
474.625	444.56
474.844	413.56
475.063	454.56
475.282	398.56
475.501	408.56
475.72	413.56
475.939	407.56
476.158	436.56
476.377	420.56
476.596	409.56
476.814	416.56
477.033	441.56
477.252	428.56
477.471	436.56
477.69	439.56
477.908	436.56
478.127	437.56
478.346	443.56
478.564	458.56
478.783	428.56
479.002	462.56
479.22	459.56
479.439	471.56
479.658	477.56
479.876	492.56
480.095	493.56
480.313	538.56
480.532	492.56
480.751	482.56
480.969	501.56
481.188	493.56
481.406	526.56
481.624	485.56
481.843	479.56
482.061	479.56
482.28	473.56
482.498	476.56
482.717	445.56
482.935	465.56
483.153	464.56
483.372	452.56
483.59	485.56
483.808	471.56
484.027	463.56
484.245	475.56
484.463	489.56
484.681	460.56
484.9	462.56
485.118	465.56
485.336	469.56
485.554	487.56
485.772	494.56
485.99	454.56
486.209	495.56
486.427	488.56
486.645	504.56
486.863	524.56
487.081	506.56
487.299	522.56
487.517	526.56
487.735	522.56
487.953	495.56
488.171	523.56
488.389	502.56
488.607	494.56
488.825	521.56
489.043	481.56
489.261	495.56
489.479	505.56
489.696	515.56
489.914	507.56
490.132	528.56
490.35	505.56
490.568	539.56
490.786	530.56
491.003	544.56
491.221	548.56
491.439	561.56
491.657	574.56
491.874	597.56
492.092	586.56
492.31	589.56
492.527	584.56
492.745	573.56
492.963	585.56
493.18	596.56
493.398	559.56
493.615	613.56
493.833	592.56
494.05	599.56
494.268	570.56
494.485	595.56
494.703	597.56
494.92	602.56
495.138	584.56
495.355	587.56
495.573	593.56
495.79	592.56
496.008	586.56
496.225	603.56
496.442	586.56
496.66	591.56
496.877	618.56
497.094	583.56
497.312	585.56
497.529	609.56
497.746	611.56
497.963	603.56
498.181	622.56
498.398	648.56
498.615	655.56
498.832	671.56
499.049	661.56
499.267	677.56
499.484	697.56
499.701	722.56
499.918	747.56
500.135	784.56
500.352	779.56
500.569	800.56
500.786	813.56
501.003	788.56
501.22	789.56
501.437	758.56
501.654	752.56
501.871	720.56
502.088	712.56
