Data from 1983.PennyLincolnUp.Lamp.En5.5.200Scan.071819.P1_HRD10591_16-52-16-965.txt Node
Date: Thu Jul 18 16:52:16 EDT 2019
User: cochatt
Spectrometer: HR+D1059
Trigger mode: 1
Integration Time (sec): 1.000000E-1
Scans to average: 1
Electric dark correction enabled: true
Nonlinearity correction enabled: false
Boxcar width: 0
XAxis mode: Wavelengths
Number of Pixels in Spectrum: 2048
>>>>>Begin Spectral Data<<<<<
223.165	-11.62
223.4	-11.62
223.635	-11.62
223.869	-8.62
224.104	-13.62
224.338	-5.62
224.573	-2.62
224.808	-15.62
225.042	1.38
225.277	-23.62
225.511	-4.62
225.746	0.38
225.98	-6.62
226.215	8.38
226.449	10.38
226.683	22.38
226.918	17.38
227.152	32.38
227.387	33.38
227.621	37.38
227.856	36.38
228.09	43.38
228.324	44.38
228.559	53.38
228.793	61.38
229.027	82.38
229.262	99.38
229.496	100.38
229.73	99.38
229.964	131.38
230.199	108.38
230.433	102.38
230.667	102.38
230.901	105.38
231.136	105.38
231.37	116.38
231.604	104.38
231.838	104.38
232.072	96.38
232.306	99.38
232.541	112.38
232.775	113.38
233.009	103.38
233.243	91.38
233.477	93.38
233.711	102.38
233.945	118.38
234.179	112.38
234.413	93.38
234.647	92.38
234.881	94.38
235.115	108.38
235.349	104.38
235.583	107.38
235.817	98.38
236.051	119.38
236.285	99.38
236.519	112.38
236.753	110.38
236.987	116.38
237.221	131.38
237.455	198.38
237.689	154.38
237.922	123.38
238.156	107.38
238.39	112.38
238.624	106.38
238.858	114.38
239.091	101.38
239.325	101.38
239.559	110.38
239.793	107.38
240.027	134.38
240.26	120.38
240.494	136.38
240.728	132.38
240.961	129.38
241.195	121.38
241.429	116.38
241.662	102.38
241.896	125.38
242.13	107.38
242.363	126.38
242.597	126.38
242.83	114.38
243.064	115.38
243.298	110.38
243.531	97.38
243.765	121.38
243.998	140.38
244.232	128.38
244.465	126.38
244.699	124.38
244.932	120.38
245.166	109.38
245.399	136.38
245.633	120.38
245.866	125.38
246.099	124.38
246.333	138.38
246.566	124.38
246.8	133.38
247.033	126.38
247.266	131.38
247.5	125.38
247.733	151.38
247.966	152.38
248.2	138.38
248.433	160.38
248.666	142.38
248.899	147.38
249.133	162.38
249.366	185.38
249.599	164.38
249.832	158.38
250.066	148.38
250.299	144.38
250.532	155.38
250.765	149.38
250.998	169.38
251.231	183.38
251.465	172.38
251.698	168.38
251.931	168.38
252.164	165.38
252.397	160.38
252.63	162.38
252.863	168.38
253.096	183.38
253.329	178.38
253.562	203.38
253.795	198.38
254.028	173.38
254.261	176.38
254.494	188.38
254.727	201.38
254.96	208.38
255.193	214.38
255.426	193.38
255.659	187.38
255.892	188.38
256.124	168.38
256.357	176.38
256.59	183.38
256.823	165.38
257.056	168.38
257.289	174.38
257.521	166.38
257.754	178.38
257.987	180.38
258.22	166.38
258.452	189.38
258.685	180.38
258.918	163.38
259.151	186.38
259.383	176.38
259.616	180.38
259.849	193.38
260.081	188.38
260.314	206.38
260.547	196.38
260.779	187.38
261.012	193.38
261.244	201.38
261.477	196.38
261.71	188.38
261.942	178.38
262.175	178.38
262.407	177.38
262.64	170.38
262.872	176.38
263.105	176.38
263.337	188.38
263.57	162.38
263.802	172.38
264.035	169.38
264.267	163.38
264.499	164.38
264.732	174.38
264.964	180.38
265.197	194.38
265.429	186.38
265.661	185.38
265.894	192.38
266.126	182.38
266.358	182.38
266.591	197.38
266.823	189.38
267.055	178.38
267.287	197.38
267.52	181.38
267.752	180.38
267.984	184.38
268.216	198.38
268.448	196.38
268.681	190.38
268.913	194.38
269.145	211.38
269.377	205.38
269.609	209.38
269.841	205.38
270.073	213.38
270.306	219.38
270.538	236.38
270.77	240.38
271.002	234.38
271.234	244.38
271.466	235.38
271.698	233.38
271.93	240.38
272.162	234.38
272.394	250.38
272.626	238.38
272.858	223.38
273.09	194.38
273.322	216.38
273.553	235.38
273.785	216.38
274.017	209.38
274.249	201.38
274.481	200.38
274.713	216.38
274.945	212.38
275.176	216.38
275.408	198.38
275.64	210.38
275.872	210.38
276.104	214.38
276.335	216.38
276.567	229.38
276.799	226.38
277.031	230.38
277.262	241.38
277.494	247.38
277.726	234.38
277.957	243.38
278.189	212.38
278.421	220.38
278.652	217.38
278.884	205.38
279.115	217.38
279.347	228.38
279.579	221.38
279.81	218.38
280.042	215.38
280.273	212.38
280.505	229.38
280.736	218.38
280.968	236.38
281.199	235.38
281.431	216.38
281.662	225.38
281.894	224.38
282.125	230.38
282.356	229.38
282.588	242.38
282.819	225.38
283.051	221.38
283.282	214.38
283.513	209.38
283.745	211.38
283.976	218.38
284.207	229.38
284.439	244.38
284.67	242.38
284.901	220.38
285.132	226.38
285.364	225.38
285.595	231.38
285.826	223.38
286.057	216.38
286.288	246.38
286.52	223.38
286.751	218.38
286.982	228.38
287.213	245.38
287.444	240.38
287.675	226.38
287.906	240.38
288.138	246.38
288.369	242.38
288.6	237.38
288.831	263.38
289.062	241.38
289.293	230.38
289.524	234.38
289.755	244.38
289.986	236.38
290.217	234.38
290.448	250.38
290.679	222.38
290.91	225.38
291.141	242.38
291.371	237.38
291.602	234.38
291.833	240.38
292.064	242.38
292.295	225.38
292.526	226.38
292.757	242.38
292.987	233.38
293.218	221.38
293.449	244.38
293.68	229.38
293.91	249.38
294.141	230.38
294.372	228.38
294.603	237.38
294.833	241.38
295.064	237.38
295.295	235.38
295.525	218.38
295.756	260.38
295.987	264.38
296.217	249.38
296.448	246.38
296.679	249.38
296.909	235.38
297.14	256.38
297.37	231.38
297.601	228.38
297.831	242.38
298.062	220.38
298.292	240.38
298.523	243.38
298.753	250.38
298.984	233.38
299.214	248.38
299.445	243.38
299.675	256.38
299.905	245.38
300.136	250.38
300.366	258.38
300.597	233.38
300.827	264.38
301.057	252.38
301.288	256.38
301.518	266.38
301.748	254.38
301.979	259.38
302.209	273.38
302.439	268.38
302.669	260.38
302.9	267.38
303.13	263.38
303.36	259.38
303.59	269.38
303.82	260.38
304.051	255.38
304.281	261.38
304.511	249.38
304.741	266.38
304.971	258.38
305.201	281.38
305.431	262.38
305.661	269.38
305.891	268.38
306.121	262.38
306.352	293.38
306.582	266.38
306.812	264.38
307.042	281.38
307.272	273.38
307.502	265.38
307.731	267.38
307.961	258.38
308.191	265.38
308.421	277.38
308.651	253.38
308.881	262.38
309.111	280.38
309.341	278.38
309.571	285.38
309.8	288.38
310.03	288.38
310.26	309.38
310.49	308.38
310.72	316.38
310.949	300.38
311.179	302.38
311.409	293.38
311.639	314.38
311.868	308.38
312.098	295.38
312.328	310.38
312.557	325.38
312.787	308.38
313.017	307.38
313.246	290.38
313.476	300.38
313.706	297.38
313.935	288.38
314.165	308.38
314.394	301.38
314.624	309.38
314.853	299.38
315.083	287.38
315.312	303.38
315.542	306.38
315.771	300.38
316.001	280.38
316.23	299.38
316.46	292.38
316.689	291.38
316.919	288.38
317.148	306.38
317.377	321.38
317.607	307.38
317.836	313.38
318.065	304.38
318.295	288.38
318.524	302.38
318.753	314.38
318.983	322.38
319.212	296.38
319.441	304.38
319.67	307.38
319.9	292.38
320.129	296.38
320.358	295.38
320.587	304.38
320.816	310.38
321.046	321.38
321.275	314.38
321.504	315.38
321.733	310.38
321.962	307.38
322.191	336.38
322.42	329.38
322.649	330.38
322.878	343.38
323.108	327.38
323.337	349.38
323.566	359.38
323.795	382.38
324.024	406.38
324.253	482.38
324.482	690.38
324.71	1000.38
324.939	1340.38
325.168	1120.38
325.397	621.38
325.626	445.38
325.855	386.38
326.084	387.38
326.313	376.38
326.542	393.38
326.77	396.38
326.999	464.38
327.228	615.38
327.457	892.38
327.686	999.38
327.914	687.38
328.143	469.38
328.372	428.38
328.6	413.38
328.829	398.38
329.058	404.38
329.287	419.38
329.515	383.38
329.744	352.38
329.972	358.38
330.201	374.38
330.43	390.38
330.658	409.38
330.887	433.38
331.115	436.38
331.344	386.38
331.572	368.38
331.801	367.38
332.03	355.38
332.258	356.38
332.486	343.38
332.715	359.38
332.943	368.38
333.172	348.38
333.4	353.38
333.629	367.38
333.857	352.38
334.085	347.38
334.314	368.38
334.542	360.38
334.771	384.38
334.999	332.38
335.227	357.38
335.455	348.38
335.684	346.38
335.912	350.38
336.14	343.38
336.369	352.38
336.597	361.38
336.825	338.38
337.053	347.38
337.281	321.38
337.51	349.38
337.738	340.38
337.966	321.38
338.194	340.38
338.422	359.38
338.65	355.38
338.878	360.38
339.106	335.38
339.334	331.38
339.562	347.38
339.79	327.38
340.018	339.38
340.246	332.38
340.474	329.38
340.702	335.38
340.93	339.38
341.158	352.38
341.386	342.38
341.614	333.38
341.842	326.38
342.07	328.38
342.298	338.38
342.526	315.38
342.754	334.38
342.981	339.38
343.209	332.38
343.437	322.38
343.665	344.38
343.893	345.38
344.12	341.38
344.348	353.38
344.576	338.38
344.804	357.38
345.031	358.38
345.259	360.38
345.487	342.38
345.714	328.38
345.942	326.38
346.17	313.38
346.397	320.38
346.625	334.38
346.853	311.38
347.08	303.38
347.308	317.38
347.535	341.38
347.763	349.38
347.99	342.38
348.218	321.38
348.445	353.38
348.673	344.38
348.9	335.38
349.128	315.38
349.355	337.38
349.583	302.38
349.81	340.38
350.037	348.38
350.265	328.38
350.492	326.38
350.72	326.38
350.947	326.38
351.174	322.38
351.402	337.38
351.629	315.38
351.856	334.38
352.083	340.38
352.311	340.38
352.538	328.38
352.765	324.38
352.992	330.38
353.22	315.38
353.447	324.38
353.674	334.38
353.901	323.38
354.128	318.38
354.355	310.38
354.583	325.38
354.81	320.38
355.037	317.38
355.264	308.38
355.491	316.38
355.718	291.38
355.945	320.38
356.172	304.38
356.399	294.38
356.626	309.38
356.853	304.38
357.08	319.38
357.307	312.38
357.534	302.38
357.761	310.38
357.988	317.38
358.215	324.38
358.441	299.38
358.668	314.38
358.895	322.38
359.122	312.38
359.349	315.38
359.576	332.38
359.802	305.38
360.029	352.38
360.256	348.38
360.483	339.38
360.709	326.38
360.936	325.38
361.163	316.38
361.39	332.38
361.616	331.38
361.843	332.38
362.07	334.38
362.296	334.38
362.523	313.38
362.749	316.38
362.976	332.38
363.203	317.38
363.429	325.38
363.656	316.38
363.882	309.38
364.109	315.38
364.335	334.38
364.562	312.38
364.788	347.38
365.015	323.38
365.241	311.38
365.468	337.38
365.694	323.38
365.92	315.38
366.147	314.38
366.373	329.38
366.599	309.38
366.826	316.38
367.052	317.38
367.278	316.38
367.505	309.38
367.731	338.38
367.957	334.38
368.184	312.38
368.41	328.38
368.636	325.38
368.862	321.38
369.089	329.38
369.315	322.38
369.541	326.38
369.767	320.38
369.993	330.38
370.219	324.38
370.445	308.38
370.672	324.38
370.898	326.38
371.124	310.38
371.35	305.38
371.576	308.38
371.802	317.38
372.028	297.38
372.254	316.38
372.48	314.38
372.706	321.38
372.932	311.38
373.158	296.38
373.384	300.38
373.61	338.38
373.835	307.38
374.061	317.38
374.287	347.38
374.513	331.38
374.739	337.38
374.965	319.38
375.191	310.38
375.416	323.38
375.642	330.38
375.868	329.38
376.094	322.38
376.319	318.38
376.545	325.38
376.771	320.38
376.997	320.38
377.222	324.38
377.448	309.38
377.674	333.38
377.899	313.38
378.125	324.38
378.35	331.38
378.576	314.38
378.802	315.38
379.027	311.38
379.253	312.38
379.478	302.38
379.704	304.38
379.929	333.38
380.155	316.38
380.38	317.38
380.606	326.38
380.831	330.38
381.057	317.38
381.282	330.38
381.507	306.38
381.733	321.38
381.958	326.38
382.184	326.38
382.409	314.38
382.634	332.38
382.86	311.38
383.085	331.38
383.31	308.38
383.535	330.38
383.761	336.38
383.986	345.38
384.211	334.38
384.436	325.38
384.662	331.38
384.887	332.38
385.112	341.38
385.337	339.38
385.562	348.38
385.787	337.38
386.013	353.38
386.238	360.38
386.463	351.38
386.688	360.38
386.913	340.38
387.138	342.38
387.363	337.38
387.588	359.38
387.813	343.38
388.038	343.38
388.263	349.38
388.488	342.38
388.713	357.38
388.938	333.38
389.163	338.38
389.387	363.38
389.612	353.38
389.837	339.38
390.062	328.38
390.287	339.38
390.512	338.38
390.736	330.38
390.961	366.38
391.186	363.38
391.411	353.38
391.636	348.38
391.86	338.38
392.085	345.38
392.31	375.38
392.534	344.38
392.759	340.38
392.984	345.38
393.208	344.38
393.433	347.38
393.658	349.38
393.882	340.38
394.107	339.38
394.331	333.38
394.556	328.38
394.78	344.38
395.005	330.38
395.229	349.38
395.454	354.38
395.678	373.38
395.903	361.38
396.127	366.38
396.352	377.38
396.576	385.38
396.801	354.38
397.025	349.38
397.249	361.38
397.474	371.38
397.698	372.38
397.922	377.38
398.147	368.38
398.371	375.38
398.595	379.38
398.82	385.38
399.044	398.38
399.268	413.38
399.492	443.38
399.717	433.38
399.941	472.38
400.165	470.38
400.389	481.38
400.613	434.38
400.837	426.38
401.062	390.38
401.286	413.38
401.51	385.38
401.734	380.38
401.958	386.38
402.182	372.38
402.406	372.38
402.63	394.38
402.854	381.38
403.078	394.38
403.302	397.38
403.526	383.38
403.75	391.38
403.974	381.38
404.198	392.38
404.422	397.38
404.645	393.38
404.869	390.38
405.093	418.38
405.317	422.38
405.541	433.38
405.765	419.38
405.988	412.38
406.212	423.38
406.436	445.38
406.66	429.38
406.883	430.38
407.107	434.38
407.331	482.38
407.555	504.38
407.778	517.38
408.002	476.38
408.226	436.38
408.449	424.38
408.673	424.38
408.896	444.38
409.12	469.38
409.344	448.38
409.567	421.38
409.791	408.38
410.014	394.38
410.238	396.38
410.461	406.38
410.685	392.38
410.908	407.38
411.132	436.38
411.355	422.38
411.578	440.38
411.802	414.38
412.025	397.38
412.249	408.38
412.472	404.38
412.695	407.38
412.919	402.38
413.142	402.38
413.365	398.38
413.589	392.38
413.812	380.38
414.035	381.38
414.258	385.38
414.482	388.38
414.705	368.38
414.928	359.38
415.151	365.38
415.374	402.38
415.597	375.38
415.821	362.38
416.044	372.38
416.267	360.38
416.49	361.38
416.713	377.38
416.936	384.38
417.159	376.38
417.382	363.38
417.605	380.38
417.828	390.38
418.051	390.38
418.274	387.38
418.497	386.38
418.72	380.38
418.943	382.38
419.166	382.38
419.389	392.38
419.611	402.38
419.834	385.38
420.057	378.38
420.28	390.38
420.503	385.38
420.726	399.38
420.948	389.38
421.171	444.38
421.394	443.38
421.617	412.38
421.839	394.38
422.062	388.38
422.285	408.38
422.507	456.38
422.73	498.38
422.953	457.38
423.175	412.38
423.398	418.38
423.621	400.38
423.843	398.38
424.066	436.38
424.288	421.38
424.511	417.38
424.733	477.38
424.956	516.38
425.178	500.38
425.401	485.38
425.623	523.38
425.846	442.38
426.068	410.38
426.291	425.38
426.513	439.38
426.735	408.38
426.958	447.38
427.18	504.38
427.402	590.38
427.625	638.38
427.847	548.38
428.069	462.38
428.292	421.38
428.514	394.38
428.736	388.38
428.958	378.38
429.181	392.38
429.403	352.38
429.625	380.38
429.847	410.38
430.069	449.38
430.292	460.38
430.514	409.38
430.736	368.38
430.958	384.38
431.18	377.38
431.402	365.38
431.624	364.38
431.846	363.38
432.068	384.38
432.29	386.38
432.512	374.38
432.734	379.38
432.956	384.38
433.178	388.38
433.4	382.38
433.622	369.38
433.844	381.38
434.066	388.38
434.287	368.38
434.509	362.38
434.731	375.38
434.953	379.38
435.175	386.38
435.397	413.38
435.618	414.38
435.84	460.38
436.062	496.38
436.284	541.38
436.505	495.38
436.727	414.38
436.949	405.38
437.17	377.38
437.392	393.38
437.614	392.38
437.835	411.38
438.057	470.38
438.278	540.38
438.5	548.38
438.721	603.38
438.943	552.38
439.165	420.38
439.386	408.38
439.608	420.38
439.829	405.38
440.05	440.38
440.272	458.38
440.493	421.38
440.715	389.38
440.936	395.38
441.158	385.38
441.379	387.38
441.6	413.38
441.822	412.38
442.043	443.38
442.264	496.38
442.486	521.38
442.707	449.38
442.928	453.38
443.149	441.38
443.371	448.38
443.592	477.38
443.813	515.38
444.034	586.38
444.255	483.38
444.476	432.38
444.698	427.38
444.919	430.38
445.14	544.38
445.361	468.38
445.582	435.38
445.803	472.38
446.024	554.38
446.245	536.38
446.466	511.38
446.687	469.38
446.908	412.38
447.129	402.38
447.35	384.38
447.571	372.38
447.792	381.38
448.013	395.38
448.234	405.38
448.455	429.38
448.675	504.38
448.896	587.38
449.117	508.38
449.338	475.38
449.559	566.38
449.779	611.38
450	473.38
450.221	419.38
450.442	394.38
450.662	380.38
450.883	404.38
451.104	401.38
451.324	376.38
451.545	358.38
451.766	376.38
451.986	368.38
452.207	354.38
452.428	356.38
452.648	342.38
452.869	360.38
453.089	356.38
453.31	361.38
453.53	349.38
453.751	365.38
453.971	371.38
454.192	362.38
454.412	355.38
454.633	358.38
454.853	352.38
455.073	347.38
455.294	351.38
455.514	432.38
455.734	376.38
455.955	346.38
456.175	332.38
456.395	322.38
456.616	333.38
456.836	337.38
457.056	343.38
457.276	335.38
457.497	334.38
457.717	341.38
457.937	333.38
458.157	328.38
458.377	353.38
458.598	369.38
458.818	385.38
459.038	428.38
459.258	450.38
459.478	397.38
459.698	369.38
459.918	373.38
460.138	355.38
460.358	356.38
460.578	377.38
460.798	378.38
461.018	364.38
461.238	380.38
461.458	379.38
461.678	387.38
461.898	376.38
462.118	385.38
462.338	379.38
462.558	384.38
462.777	398.38
462.997	406.38
463.217	419.38
463.437	402.38
463.657	391.38
463.876	384.38
464.096	373.38
464.316	402.38
464.536	401.38
464.755	415.38
464.975	397.38
465.195	411.38
465.414	463.38
465.634	429.38
465.854	404.38
466.073	364.38
466.293	359.38
466.512	358.38
466.732	351.38
466.951	365.38
467.171	336.38
467.391	346.38
467.61	378.38
467.829	374.38
468.049	366.38
468.268	352.38
468.488	362.38
468.707	362.38
468.927	356.38
469.146	352.38
469.365	349.38
469.585	365.38
469.804	363.38
470.023	351.38
470.243	357.38
470.462	349.38
470.681	378.38
470.901	388.38
471.12	384.38
471.339	375.38
471.558	382.38
471.777	361.38
471.997	342.38
472.216	354.38
472.435	370.38
472.654	355.38
472.873	352.38
473.092	352.38
473.311	361.38
473.53	377.38
473.749	363.38
473.968	398.38
474.187	466.38
474.406	469.38
474.625	414.38
474.844	371.38
475.063	384.38
475.282	386.38
475.501	360.38
475.72	357.38
475.939	356.38
476.158	379.38
476.377	382.38
476.596	379.38
476.814	389.38
477.033	381.38
477.252	370.38
477.471	381.38
477.69	391.38
477.908	404.38
478.127	398.38
478.346	401.38
478.564	394.38
478.783	406.38
479.002	418.38
479.22	411.38
479.439	424.38
479.658	435.38
479.876	418.38
480.095	458.38
480.313	454.38
480.532	440.38
480.751	440.38
480.969	440.38
481.188	436.38
481.406	454.38
481.624	444.38
481.843	422.38
482.061	424.38
482.28	415.38
482.498	437.38
482.717	433.38
482.935	423.38
483.153	421.38
483.372	417.38
483.59	426.38
483.808	432.38
484.027	419.38
484.245	426.38
484.463	417.38
484.681	430.38
484.9	419.38
485.118	435.38
485.336	420.38
485.554	428.38
485.772	442.38
485.99	426.38
486.209	421.38
486.427	427.38
486.645	452.38
486.863	457.38
487.081	464.38
487.299	444.38
487.517	434.38
487.735	454.38
487.953	466.38
488.171	450.38
488.389	475.38
488.607	446.38
488.825	461.38
489.043	449.38
489.261	448.38
489.479	461.38
489.696	460.38
489.914	452.38
490.132	458.38
490.35	446.38
490.568	484.38
490.786	485.38
491.003	472.38
491.221	480.38
491.439	512.38
491.657	481.38
491.874	490.38
492.092	508.38
492.31	506.38
492.527	528.38
492.745	523.38
492.963	512.38
493.18	501.38
493.398	507.38
493.615	527.38
493.833	510.38
494.05	516.38
494.268	523.38
494.485	534.38
494.703	534.38
494.92	502.38
495.138	536.38
495.355	525.38
495.573	518.38
495.79	539.38
496.008	539.38
496.225	508.38
496.442	515.38
496.66	541.38
496.877	526.38
497.094	563.38
497.312	541.38
497.529	538.38
497.746	545.38
497.963	536.38
498.181	540.38
498.398	576.38
498.615	602.38
498.832	592.38
499.049	598.38
499.267	633.38
499.484	602.38
499.701	656.38
499.918	670.38
500.135	694.38
500.352	706.38
500.569	743.38
500.786	705.38
501.003	730.38
501.22	696.38
501.437	709.38
501.654	670.38
501.871	654.38
502.088	621.38
