Data from 1983.PennyLincolnUp.Lamp.En5.5.200Scan.071819.P1_HRD10591_16-53-09-965.txt Node
Date: Thu Jul 18 16:53:09 EDT 2019
User: cochatt
Spectrometer: HR+D1059
Trigger mode: 1
Integration Time (sec): 1.000000E-1
Scans to average: 1
Electric dark correction enabled: true
Nonlinearity correction enabled: false
Boxcar width: 0
XAxis mode: Wavelengths
Number of Pixels in Spectrum: 2048
>>>>>Begin Spectral Data<<<<<
223.165	-13.19
223.4	-13.19
223.635	-13.19
223.869	-21.19
224.104	-25.19
224.338	-14.19
224.573	-16.19
224.808	-18.19
225.042	-17.19
225.277	11.81
225.511	-6.19
225.746	5.81
225.98	19.81
226.215	8.81
226.449	15.81
226.683	15.81
226.918	31.81
227.152	21.81
227.387	42.81
227.621	35.81
227.856	56.81
228.09	55.81
228.324	58.81
228.559	53.81
228.793	58.81
229.027	90.81
229.262	108.81
229.496	97.81
229.73	109.81
229.964	150.81
230.199	119.81
230.433	99.81
230.667	109.81
230.901	117.81
231.136	99.81
231.37	114.81
231.604	113.81
231.838	104.81
232.072	107.81
232.306	97.81
232.541	109.81
232.775	103.81
233.009	108.81
233.243	119.81
233.477	96.81
233.711	117.81
233.945	93.81
234.179	121.81
234.413	133.81
234.647	117.81
234.881	102.81
235.115	106.81
235.349	112.81
235.583	94.81
235.817	103.81
236.051	113.81
236.285	122.81
236.519	119.81
236.753	125.81
236.987	129.81
237.221	163.81
237.455	199.81
237.689	166.81
237.922	139.81
238.156	125.81
238.39	122.81
238.624	121.81
238.858	110.81
239.091	108.81
239.325	109.81
239.559	113.81
239.793	109.81
240.027	125.81
240.26	125.81
240.494	126.81
240.728	140.81
240.961	135.81
241.195	130.81
241.429	134.81
241.662	130.81
241.896	139.81
242.13	109.81
242.363	117.81
242.597	119.81
242.83	126.81
243.064	144.81
243.298	139.81
243.531	134.81
243.765	123.81
243.998	129.81
244.232	139.81
244.465	135.81
244.699	129.81
244.932	118.81
245.166	131.81
245.399	127.81
245.633	130.81
245.866	135.81
246.099	131.81
246.333	137.81
246.566	135.81
246.8	132.81
247.033	137.81
247.266	142.81
247.5	147.81
247.733	148.81
247.966	161.81
248.2	155.81
248.433	147.81
248.666	153.81
248.899	172.81
249.133	168.81
249.366	188.81
249.599	183.81
249.832	177.81
250.066	163.81
250.299	158.81
250.532	169.81
250.765	183.81
250.998	195.81
251.231	192.81
251.465	198.81
251.698	197.81
251.931	179.81
252.164	177.81
252.397	185.81
252.63	175.81
252.863	185.81
253.096	189.81
253.329	199.81
253.562	191.81
253.795	198.81
254.028	192.81
254.261	183.81
254.494	215.81
254.727	241.81
254.96	243.81
255.193	243.81
255.426	231.81
255.659	204.81
255.892	205.81
256.124	193.81
256.357	186.81
256.59	189.81
256.823	197.81
257.056	183.81
257.289	170.81
257.521	169.81
257.754	189.81
257.987	185.81
258.22	196.81
258.452	185.81
258.685	178.81
258.918	196.81
259.151	204.81
259.383	203.81
259.616	207.81
259.849	197.81
260.081	224.81
260.314	227.81
260.547	230.81
260.779	213.81
261.012	206.81
261.244	216.81
261.477	212.81
261.71	202.81
261.942	204.81
262.175	211.81
262.407	217.81
262.64	212.81
262.872	205.81
263.105	190.81
263.337	212.81
263.57	200.81
263.802	197.81
264.035	197.81
264.267	195.81
264.499	177.81
264.732	191.81
264.964	195.81
265.197	190.81
265.429	206.81
265.661	184.81
265.894	183.81
266.126	199.81
266.358	213.81
266.591	200.81
266.823	211.81
267.055	215.81
267.287	201.81
267.52	211.81
267.752	215.81
267.984	204.81
268.216	207.81
268.448	209.81
268.681	225.81
268.913	220.81
269.145	245.81
269.377	241.81
269.609	236.81
269.841	231.81
270.073	230.81
270.306	245.81
270.538	302.81
270.77	295.81
271.002	272.81
271.234	272.81
271.466	254.81
271.698	275.81
271.93	286.81
272.162	288.81
272.394	277.81
272.626	272.81
272.858	254.81
273.09	246.81
273.322	233.81
273.553	251.81
273.785	236.81
274.017	228.81
274.249	239.81
274.481	228.81
274.713	246.81
274.945	251.81
275.176	226.81
275.408	230.81
275.64	219.81
275.872	230.81
276.104	234.81
276.335	223.81
276.567	220.81
276.799	262.81
277.031	278.81
277.262	275.81
277.494	274.81
277.726	266.81
277.957	261.81
278.189	255.81
278.421	225.81
278.652	249.81
278.884	237.81
279.115	239.81
279.347	235.81
279.579	252.81
279.81	249.81
280.042	238.81
280.273	240.81
280.505	235.81
280.736	255.81
280.968	225.81
281.199	244.81
281.431	241.81
281.662	253.81
281.894	227.81
282.125	258.81
282.356	257.81
282.588	274.81
282.819	274.81
283.051	257.81
283.282	233.81
283.513	252.81
283.745	249.81
283.976	268.81
284.207	247.81
284.439	251.81
284.67	242.81
284.901	247.81
285.132	226.81
285.364	245.81
285.595	238.81
285.826	245.81
286.057	245.81
286.288	257.81
286.52	252.81
286.751	252.81
286.982	239.81
287.213	239.81
287.444	263.81
287.675	263.81
287.906	282.81
288.138	271.81
288.369	263.81
288.6	257.81
288.831	273.81
289.062	266.81
289.293	255.81
289.524	271.81
289.755	276.81
289.986	247.81
290.217	262.81
290.448	255.81
290.679	277.81
290.91	263.81
291.141	274.81
291.371	256.81
291.602	246.81
291.833	245.81
292.064	261.81
292.295	262.81
292.526	259.81
292.757	245.81
292.987	246.81
293.218	253.81
293.449	253.81
293.68	261.81
293.91	266.81
294.141	273.81
294.372	262.81
294.603	273.81
294.833	238.81
295.064	261.81
295.295	251.81
295.525	271.81
295.756	273.81
295.987	255.81
296.217	289.81
296.448	285.81
296.679	289.81
296.909	259.81
297.14	257.81
297.37	275.81
297.601	265.81
297.831	276.81
298.062	266.81
298.292	270.81
298.523	283.81
298.753	273.81
298.984	269.81
299.214	281.81
299.445	269.81
299.675	275.81
299.905	268.81
300.136	284.81
300.366	275.81
300.597	298.81
300.827	285.81
301.057	279.81
301.288	289.81
301.518	283.81
301.748	294.81
301.979	291.81
302.209	282.81
302.439	301.81
302.669	295.81
302.9	295.81
303.13	283.81
303.36	290.81
303.59	290.81
303.82	301.81
304.051	292.81
304.281	290.81
304.511	282.81
304.741	275.81
304.971	296.81
305.201	293.81
305.431	306.81
305.661	291.81
305.891	295.81
306.121	293.81
306.352	315.81
306.582	319.81
306.812	299.81
307.042	296.81
307.272	289.81
307.502	298.81
307.731	304.81
307.961	293.81
308.191	302.81
308.421	296.81
308.651	303.81
308.881	314.81
309.111	326.81
309.341	317.81
309.571	303.81
309.8	326.81
310.03	330.81
310.26	318.81
310.49	327.81
310.72	333.81
310.949	352.81
311.179	355.81
311.409	342.81
311.639	321.81
311.868	353.81
312.098	346.81
312.328	339.81
312.557	365.81
312.787	374.81
313.017	357.81
313.246	347.81
313.476	334.81
313.706	336.81
313.935	337.81
314.165	365.81
314.394	361.81
314.624	365.81
314.853	354.81
315.083	349.81
315.312	348.81
315.542	313.81
315.771	317.81
316.001	326.81
316.23	345.81
316.46	307.81
316.689	311.81
316.919	339.81
317.148	350.81
317.377	348.81
317.607	333.81
317.836	346.81
318.065	338.81
318.295	342.81
318.524	354.81
318.753	326.81
318.983	348.81
319.212	335.81
319.441	364.81
319.67	337.81
319.9	334.81
320.129	330.81
320.358	339.81
320.587	346.81
320.816	365.81
321.046	365.81
321.275	360.81
321.504	355.81
321.733	370.81
321.962	365.81
322.191	399.81
322.42	390.81
322.649	397.81
322.878	405.81
323.108	413.81
323.337	431.81
323.566	442.81
323.795	467.81
324.024	521.81
324.253	671.81
324.482	917.81
324.71	1372.81
324.939	1846.81
325.168	1595.81
325.397	830.81
325.626	583.81
325.855	491.81
326.084	481.81
326.313	434.81
326.542	475.81
326.77	493.81
326.999	612.81
327.228	841.81
327.457	1180.81
327.686	1387.81
327.914	955.81
328.143	638.81
328.372	559.81
328.6	520.81
328.829	484.81
329.058	523.81
329.287	526.81
329.515	483.81
329.744	456.81
329.972	436.81
330.201	455.81
330.43	457.81
330.658	501.81
330.887	531.81
331.115	500.81
331.344	442.81
331.572	426.81
331.801	441.81
332.03	434.81
332.258	418.81
332.486	392.81
332.715	395.81
332.943	381.81
333.172	394.81
333.4	399.81
333.629	407.81
333.857	407.81
334.085	404.81
334.314	402.81
334.542	422.81
334.771	426.81
334.999	407.81
335.227	391.81
335.455	402.81
335.684	389.81
335.912	375.81
336.14	380.81
336.369	385.81
336.597	397.81
336.825	393.81
337.053	389.81
337.281	375.81
337.51	390.81
337.738	383.81
337.966	375.81
338.194	414.81
338.422	379.81
338.65	379.81
338.878	383.81
339.106	383.81
339.334	392.81
339.562	388.81
339.79	372.81
340.018	376.81
340.246	381.81
340.474	373.81
340.702	383.81
340.93	375.81
341.158	369.81
341.386	384.81
341.614	390.81
341.842	381.81
342.07	379.81
342.298	377.81
342.526	357.81
342.754	377.81
342.981	371.81
343.209	374.81
343.437	375.81
343.665	372.81
343.893	361.81
344.12	377.81
344.348	371.81
344.576	379.81
344.804	390.81
345.031	393.81
345.259	398.81
345.487	386.81
345.714	385.81
345.942	389.81
346.17	358.81
346.397	366.81
346.625	387.81
346.853	363.81
347.08	351.81
347.308	373.81
347.535	347.81
347.763	377.81
347.99	378.81
348.218	373.81
348.445	385.81
348.673	377.81
348.9	370.81
349.128	363.81
349.355	352.81
349.583	351.81
349.81	350.81
350.037	346.81
350.265	342.81
350.492	379.81
350.72	353.81
350.947	352.81
351.174	387.81
351.402	373.81
351.629	365.81
351.856	380.81
352.083	387.81
352.311	386.81
352.538	383.81
352.765	395.81
352.992	376.81
353.22	377.81
353.447	362.81
353.674	379.81
353.901	349.81
354.128	357.81
354.355	331.81
354.583	362.81
354.81	347.81
355.037	328.81
355.264	331.81
355.491	348.81
355.718	337.81
355.945	353.81
356.172	351.81
356.399	361.81
356.626	329.81
356.853	344.81
357.08	338.81
357.307	323.81
357.534	329.81
357.761	345.81
357.988	335.81
358.215	343.81
358.441	342.81
358.668	342.81
358.895	346.81
359.122	356.81
359.349	351.81
359.576	375.81
359.802	405.81
360.029	410.81
360.256	405.81
360.483	403.81
360.709	371.81
360.936	373.81
361.163	339.81
361.39	366.81
361.616	375.81
361.843	375.81
362.07	373.81
362.296	385.81
362.523	378.81
362.749	350.81
362.976	367.81
363.203	360.81
363.429	354.81
363.656	346.81
363.882	346.81
364.109	351.81
364.335	348.81
364.562	361.81
364.788	344.81
365.015	347.81
365.241	358.81
365.468	369.81
365.694	355.81
365.92	371.81
366.147	358.81
366.373	354.81
366.599	357.81
366.826	341.81
367.052	335.81
367.278	355.81
367.505	328.81
367.731	347.81
367.957	345.81
368.184	363.81
368.41	360.81
368.636	350.81
368.862	361.81
369.089	346.81
369.315	331.81
369.541	337.81
369.767	322.81
369.993	338.81
370.219	342.81
370.445	343.81
370.672	351.81
370.898	342.81
371.124	362.81
371.35	333.81
371.576	353.81
371.802	346.81
372.028	349.81
372.254	342.81
372.48	342.81
372.706	354.81
372.932	353.81
373.158	346.81
373.384	340.81
373.61	361.81
373.835	350.81
374.061	328.81
374.287	357.81
374.513	351.81
374.739	369.81
374.965	345.81
375.191	357.81
375.416	342.81
375.642	364.81
375.868	366.81
376.094	360.81
376.319	351.81
376.545	351.81
376.771	330.81
376.997	328.81
377.222	353.81
377.448	323.81
377.674	345.81
377.899	341.81
378.125	353.81
378.35	359.81
378.576	362.81
378.802	348.81
379.027	341.81
379.253	345.81
379.478	338.81
379.704	359.81
379.929	344.81
380.155	337.81
380.38	341.81
380.606	343.81
380.831	344.81
381.057	345.81
381.282	341.81
381.507	368.81
381.733	343.81
381.958	358.81
382.184	344.81
382.409	351.81
382.634	342.81
382.86	363.81
383.085	360.81
383.31	338.81
383.535	350.81
383.761	361.81
383.986	351.81
384.211	360.81
384.436	374.81
384.662	374.81
384.887	355.81
385.112	358.81
385.337	362.81
385.562	365.81
385.787	359.81
386.013	359.81
386.238	391.81
386.463	390.81
386.688	379.81
386.913	374.81
387.138	381.81
387.363	366.81
387.588	367.81
387.813	365.81
388.038	361.81
388.263	369.81
388.488	371.81
388.713	377.81
388.938	389.81
389.163	372.81
389.387	354.81
389.612	362.81
389.837	371.81
390.062	365.81
390.287	374.81
390.512	361.81
390.736	370.81
390.961	367.81
391.186	380.81
391.411	374.81
391.636	392.81
391.86	396.81
392.085	391.81
392.31	390.81
392.534	371.81
392.759	378.81
392.984	358.81
393.208	383.81
393.433	365.81
393.658	381.81
393.882	378.81
394.107	366.81
394.331	389.81
394.556	385.81
394.78	360.81
395.005	359.81
395.229	385.81
395.454	373.81
395.678	371.81
395.903	389.81
396.127	382.81
396.352	387.81
396.576	382.81
396.801	387.81
397.025	379.81
397.249	378.81
397.474	390.81
397.698	405.81
397.922	399.81
398.147	395.81
398.371	405.81
398.595	400.81
398.82	402.81
399.044	447.81
399.268	439.81
399.492	427.81
399.717	471.81
399.941	494.81
400.165	515.81
400.389	490.81
400.613	453.81
400.837	443.81
401.062	453.81
401.286	426.81
401.51	429.81
401.734	426.81
401.958	418.81
402.182	428.81
402.406	441.81
402.63	438.81
402.854	419.81
403.078	424.81
403.302	408.81
403.526	428.81
403.75	422.81
403.974	451.81
404.198	442.81
404.422	433.81
404.645	437.81
404.869	440.81
405.093	441.81
405.317	460.81
405.541	476.81
405.765	473.81
405.988	437.81
406.212	462.81
406.436	476.81
406.66	501.81
406.883	469.81
407.107	467.81
407.331	519.81
407.555	571.81
407.778	559.81
408.002	513.81
408.226	468.81
408.449	475.81
408.673	456.81
408.896	497.81
409.12	517.81
409.344	503.81
409.567	448.81
409.791	467.81
410.014	431.81
410.238	409.81
410.461	415.81
410.685	427.81
410.908	441.81
411.132	487.81
411.355	497.81
411.578	477.81
411.802	435.81
412.025	427.81
412.249	421.81
412.472	448.81
412.695	449.81
412.919	447.81
413.142	447.81
413.365	396.81
413.589	422.81
413.812	409.81
414.035	400.81
414.258	411.81
414.482	389.81
414.705	407.81
414.928	414.81
415.151	425.81
415.374	409.81
415.597	424.81
415.821	398.81
416.044	411.81
416.267	422.81
416.49	406.81
416.713	411.81
416.936	418.81
417.159	405.81
417.382	391.81
417.605	423.81
417.828	421.81
418.051	443.81
418.274	415.81
418.497	408.81
418.72	400.81
418.943	391.81
419.166	406.81
419.389	429.81
419.611	441.81
419.834	435.81
420.057	441.81
420.28	435.81
420.503	415.81
420.726	437.81
420.948	428.81
421.171	461.81
421.394	504.81
421.617	451.81
421.839	434.81
422.062	452.81
422.285	443.81
422.507	486.81
422.73	514.81
422.953	497.81
423.175	448.81
423.398	447.81
423.621	442.81
423.843	456.81
424.066	451.81
424.288	450.81
424.511	471.81
424.733	495.81
424.956	591.81
425.178	559.81
425.401	553.81
425.623	546.81
425.846	493.81
426.068	480.81
426.291	451.81
426.513	453.81
426.735	473.81
426.958	482.81
427.18	563.81
427.402	658.81
427.625	713.81
427.847	626.81
428.069	540.81
428.292	505.81
428.514	462.81
428.736	437.81
428.958	422.81
429.181	453.81
429.403	422.81
429.625	441.81
429.847	463.81
430.069	511.81
430.292	499.81
430.514	452.81
430.736	433.81
430.958	422.81
431.18	420.81
431.402	409.81
431.624	407.81
431.846	384.81
432.068	405.81
432.29	413.81
432.512	427.81
432.734	418.81
432.956	405.81
433.178	430.81
433.4	413.81
433.622	418.81
433.844	415.81
434.066	398.81
434.287	415.81
434.509	405.81
434.731	427.81
434.953	399.81
435.175	439.81
435.397	477.81
435.618	453.81
435.84	488.81
436.062	573.81
436.284	603.81
436.505	504.81
436.727	461.81
436.949	425.81
437.17	440.81
437.392	437.81
437.614	439.81
437.835	458.81
438.057	570.81
438.278	613.81
438.5	619.81
438.721	675.81
438.943	633.81
439.165	525.81
439.386	473.81
439.608	466.81
439.829	478.81
440.05	493.81
440.272	509.81
440.493	476.81
440.715	447.81
440.936	461.81
441.158	417.81
441.379	435.81
441.6	444.81
441.822	457.81
442.043	505.81
442.264	543.81
442.486	562.81
442.707	505.81
442.928	464.81
443.149	490.81
443.371	502.81
443.592	525.81
443.813	577.81
444.034	615.81
444.255	521.81
444.476	490.81
444.698	454.81
444.919	471.81
445.14	582.81
445.361	513.81
445.582	498.81
445.803	539.81
446.024	620.81
446.245	619.81
446.466	577.81
446.687	498.81
446.908	471.81
447.129	465.81
447.35	419.81
447.571	426.81
447.792	410.81
448.013	456.81
448.234	468.81
448.455	487.81
448.675	592.81
448.896	645.81
449.117	558.81
449.338	539.81
449.559	599.81
449.779	671.81
450	542.81
450.221	460.81
450.442	416.81
450.662	431.81
450.883	452.81
451.104	450.81
451.324	437.81
451.545	425.81
451.766	405.81
451.986	390.81
452.207	389.81
452.428	382.81
452.648	383.81
452.869	390.81
453.089	385.81
453.31	408.81
453.53	394.81
453.751	395.81
453.971	417.81
454.192	412.81
454.412	402.81
454.633	380.81
454.853	377.81
455.073	387.81
455.294	399.81
455.514	458.81
455.734	435.81
455.955	386.81
456.175	382.81
456.395	389.81
456.616	371.81
456.836	357.81
457.056	355.81
457.276	374.81
457.497	357.81
457.717	366.81
457.937	370.81
458.157	353.81
458.377	379.81
458.598	393.81
458.818	442.81
459.038	522.81
459.258	518.81
459.478	428.81
459.698	424.81
459.918	407.81
460.138	413.81
460.358	403.81
460.578	410.81
460.798	406.81
461.018	396.81
461.238	416.81
461.458	413.81
461.678	403.81
461.898	424.81
462.118	412.81
462.338	402.81
462.558	438.81
462.777	421.81
462.997	419.81
463.217	424.81
463.437	451.81
463.657	445.81
463.876	443.81
464.096	436.81
464.316	422.81
464.536	429.81
464.755	423.81
464.975	441.81
465.195	493.81
465.414	527.81
465.634	486.81
465.854	433.81
466.073	408.81
466.293	415.81
466.512	379.81
466.732	392.81
466.951	398.81
467.171	387.81
467.391	386.81
467.61	388.81
467.829	421.81
468.049	404.81
468.268	387.81
468.488	387.81
468.707	406.81
468.927	380.81
469.146	380.81
469.365	385.81
469.585	396.81
469.804	392.81
470.023	384.81
470.243	391.81
470.462	414.81
470.681	414.81
470.901	428.81
471.12	390.81
471.339	407.81
471.558	392.81
471.777	407.81
471.997	388.81
472.216	403.81
472.435	387.81
472.654	412.81
472.873	395.81
473.092	388.81
473.311	384.81
473.53	412.81
473.749	421.81
473.968	446.81
474.187	522.81
474.406	528.81
474.625	439.81
474.844	435.81
475.063	388.81
475.282	404.81
475.501	389.81
475.72	425.81
475.939	414.81
476.158	407.81
476.377	408.81
476.596	423.81
476.814	411.81
477.033	423.81
477.252	427.81
477.471	435.81
477.69	437.81
477.908	440.81
478.127	439.81
478.346	429.81
478.564	450.81
478.783	454.81
479.002	446.81
479.22	455.81
479.439	472.81
479.658	479.81
479.876	474.81
480.095	470.81
480.313	496.81
480.532	505.81
480.751	484.81
480.969	465.81
481.188	463.81
481.406	502.81
481.624	463.81
481.843	450.81
482.061	459.81
482.28	468.81
482.498	473.81
482.717	457.81
482.935	440.81
483.153	434.81
483.372	473.81
483.59	450.81
483.808	444.81
484.027	449.81
484.245	446.81
484.463	460.81
484.681	466.81
484.9	451.81
485.118	455.81
485.336	474.81
485.554	476.81
485.772	469.81
485.99	461.81
486.209	502.81
486.427	472.81
486.645	499.81
486.863	512.81
487.081	509.81
487.299	487.81
487.517	511.81
487.735	491.81
487.953	491.81
488.171	489.81
488.389	485.81
488.607	487.81
488.825	497.81
489.043	486.81
489.261	490.81
489.479	509.81
489.696	503.81
489.914	490.81
490.132	501.81
490.35	523.81
490.568	516.81
490.786	527.81
491.003	537.81
491.221	548.81
491.439	535.81
491.657	547.81
491.874	572.81
492.092	564.81
492.31	568.81
492.527	565.81
492.745	569.81
492.963	579.81
493.18	571.81
493.398	569.81
493.615	602.81
493.833	580.81
494.05	590.81
494.268	591.81
494.485	575.81
494.703	573.81
494.92	586.81
495.138	580.81
495.355	573.81
495.573	593.81
495.79	541.81
496.008	595.81
496.225	584.81
496.442	581.81
496.66	603.81
496.877	583.81
497.094	590.81
497.312	600.81
497.529	603.81
497.746	600.81
497.963	622.81
498.181	632.81
498.398	639.81
498.615	650.81
498.832	653.81
499.049	652.81
499.267	691.81
499.484	679.81
499.701	698.81
499.918	734.81
500.135	739.81
500.352	775.81
500.569	790.81
500.786	794.81
501.003	775.81
501.22	786.81
501.437	755.81
501.654	719.81
501.871	727.81
502.088	688.81
