Data from 1983.PennyLincolnUp.Lamp.En5.5.200Scan.071819.P1_HRD10591_16-53-04-964.txt Node
Date: Thu Jul 18 16:53:04 EDT 2019
User: cochatt
Spectrometer: HR+D1059
Trigger mode: 1
Integration Time (sec): 1.000000E-1
Scans to average: 1
Electric dark correction enabled: true
Nonlinearity correction enabled: false
Boxcar width: 0
XAxis mode: Wavelengths
Number of Pixels in Spectrum: 2048
>>>>>Begin Spectral Data<<<<<
223.165	-18.38
223.4	-18.38
223.635	-18.38
223.869	-24.38
224.104	-13.38
224.338	-9.38
224.573	-0.38
224.808	-23.38
225.042	-12.38
225.277	-13.38
225.511	1.62
225.746	-6.38
225.98	5.62
226.215	-0.38
226.449	19.62
226.683	20.62
226.918	36.62
227.152	37.62
227.387	40.62
227.621	36.62
227.856	48.62
228.09	53.62
228.324	43.62
228.559	44.62
228.793	65.62
229.027	94.62
229.262	92.62
229.496	94.62
229.73	120.62
229.964	148.62
230.199	117.62
230.433	99.62
230.667	104.62
230.901	118.62
231.136	99.62
231.37	114.62
231.604	122.62
231.838	114.62
232.072	123.62
232.306	99.62
232.541	98.62
232.775	114.62
233.009	103.62
233.243	108.62
233.477	100.62
233.711	102.62
233.945	104.62
234.179	102.62
234.413	114.62
234.647	111.62
234.881	121.62
235.115	89.62
235.349	96.62
235.583	105.62
235.817	100.62
236.051	117.62
236.285	124.62
236.519	124.62
236.753	123.62
236.987	120.62
237.221	166.62
237.455	183.62
237.689	160.62
237.922	130.62
238.156	122.62
238.39	110.62
238.624	116.62
238.858	124.62
239.091	108.62
239.325	103.62
239.559	104.62
239.793	98.62
240.027	128.62
240.26	132.62
240.494	156.62
240.728	146.62
240.961	133.62
241.195	138.62
241.429	123.62
241.662	133.62
241.896	131.62
242.13	128.62
242.363	120.62
242.597	132.62
242.83	127.62
243.064	134.62
243.298	129.62
243.531	128.62
243.765	116.62
243.998	122.62
244.232	125.62
244.465	127.62
244.699	134.62
244.932	138.62
245.166	144.62
245.399	130.62
245.633	126.62
245.866	138.62
246.099	126.62
246.333	146.62
246.566	139.62
246.8	132.62
247.033	148.62
247.266	154.62
247.5	158.62
247.733	152.62
247.966	167.62
248.2	139.62
248.433	137.62
248.666	149.62
248.899	175.62
249.133	157.62
249.366	180.62
249.599	171.62
249.832	180.62
250.066	145.62
250.299	164.62
250.532	148.62
250.765	175.62
250.998	209.62
251.231	192.62
251.465	201.62
251.698	175.62
251.931	182.62
252.164	173.62
252.397	171.62
252.63	187.62
252.863	195.62
253.096	204.62
253.329	213.62
253.562	187.62
253.795	201.62
254.028	191.62
254.261	209.62
254.494	210.62
254.727	200.62
254.96	229.62
255.193	237.62
255.426	208.62
255.659	214.62
255.892	192.62
256.124	192.62
256.357	179.62
256.59	192.62
256.823	182.62
257.056	185.62
257.289	178.62
257.521	185.62
257.754	192.62
257.987	196.62
258.22	185.62
258.452	192.62
258.685	196.62
258.918	179.62
259.151	212.62
259.383	192.62
259.616	188.62
259.849	198.62
260.081	203.62
260.314	238.62
260.547	220.62
260.779	214.62
261.012	212.62
261.244	214.62
261.477	201.62
261.71	185.62
261.942	206.62
262.175	213.62
262.407	209.62
262.64	191.62
262.872	201.62
263.105	193.62
263.337	176.62
263.57	185.62
263.802	182.62
264.035	172.62
264.267	196.62
264.499	186.62
264.732	199.62
264.964	190.62
265.197	183.62
265.429	179.62
265.661	209.62
265.894	193.62
266.126	188.62
266.358	198.62
266.591	191.62
266.823	184.62
267.055	196.62
267.287	194.62
267.52	193.62
267.752	200.62
267.984	202.62
268.216	215.62
268.448	215.62
268.681	211.62
268.913	238.62
269.145	239.62
269.377	245.62
269.609	244.62
269.841	231.62
270.073	233.62
270.306	268.62
270.538	268.62
270.77	260.62
271.002	251.62
271.234	262.62
271.466	270.62
271.698	265.62
271.93	264.62
272.162	272.62
272.394	280.62
272.626	281.62
272.858	256.62
273.09	250.62
273.322	235.62
273.553	242.62
273.785	251.62
274.017	231.62
274.249	252.62
274.481	216.62
274.713	235.62
274.945	243.62
275.176	238.62
275.408	242.62
275.64	249.62
275.872	231.62
276.104	252.62
276.335	233.62
276.567	238.62
276.799	259.62
277.031	277.62
277.262	264.62
277.494	286.62
277.726	257.62
277.957	241.62
278.189	232.62
278.421	260.62
278.652	252.62
278.884	235.62
279.115	240.62
279.347	238.62
279.579	240.62
279.81	234.62
280.042	231.62
280.273	250.62
280.505	234.62
280.736	222.62
280.968	240.62
281.199	222.62
281.431	246.62
281.662	242.62
281.894	240.62
282.125	260.62
282.356	247.62
282.588	268.62
282.819	271.62
283.051	248.62
283.282	249.62
283.513	252.62
283.745	235.62
283.976	251.62
284.207	245.62
284.439	254.62
284.67	258.62
284.901	239.62
285.132	247.62
285.364	242.62
285.595	238.62
285.826	254.62
286.057	241.62
286.288	240.62
286.52	250.62
286.751	257.62
286.982	245.62
287.213	254.62
287.444	256.62
287.675	269.62
287.906	263.62
288.138	267.62
288.369	255.62
288.6	265.62
288.831	264.62
289.062	264.62
289.293	260.62
289.524	249.62
289.755	246.62
289.986	259.62
290.217	249.62
290.448	259.62
290.679	280.62
290.91	260.62
291.141	253.62
291.371	258.62
291.602	251.62
291.833	277.62
292.064	268.62
292.295	260.62
292.526	261.62
292.757	260.62
292.987	252.62
293.218	260.62
293.449	260.62
293.68	269.62
293.91	243.62
294.141	262.62
294.372	248.62
294.603	257.62
294.833	282.62
295.064	271.62
295.295	266.62
295.525	262.62
295.756	260.62
295.987	276.62
296.217	313.62
296.448	293.62
296.679	254.62
296.909	246.62
297.14	265.62
297.37	263.62
297.601	264.62
297.831	256.62
298.062	278.62
298.292	269.62
298.523	287.62
298.753	274.62
298.984	285.62
299.214	271.62
299.445	270.62
299.675	266.62
299.905	278.62
300.136	290.62
300.366	283.62
300.597	295.62
300.827	287.62
301.057	274.62
301.288	313.62
301.518	308.62
301.748	274.62
301.979	276.62
302.209	284.62
302.439	307.62
302.669	284.62
302.9	283.62
303.13	287.62
303.36	300.62
303.59	290.62
303.82	287.62
304.051	282.62
304.281	288.62
304.511	288.62
304.741	299.62
304.971	293.62
305.201	279.62
305.431	306.62
305.661	312.62
305.891	278.62
306.121	293.62
306.352	294.62
306.582	303.62
306.812	284.62
307.042	285.62
307.272	302.62
307.502	284.62
307.731	283.62
307.961	296.62
308.191	289.62
308.421	295.62
308.651	288.62
308.881	280.62
309.111	306.62
309.341	323.62
309.571	330.62
309.8	327.62
310.03	318.62
310.26	325.62
310.49	337.62
310.72	340.62
310.949	335.62
311.179	358.62
311.409	344.62
311.639	349.62
311.868	348.62
312.098	335.62
312.328	347.62
312.557	363.62
312.787	352.62
313.017	361.62
313.246	343.62
313.476	326.62
313.706	346.62
313.935	351.62
314.165	338.62
314.394	363.62
314.624	360.62
314.853	351.62
315.083	329.62
315.312	329.62
315.542	346.62
315.771	350.62
316.001	342.62
316.23	335.62
316.46	312.62
316.689	340.62
316.919	351.62
317.148	350.62
317.377	357.62
317.607	350.62
317.836	342.62
318.065	330.62
318.295	350.62
318.524	347.62
318.753	315.62
318.983	323.62
319.212	334.62
319.441	331.62
319.67	350.62
319.9	308.62
320.129	340.62
320.358	334.62
320.587	363.62
320.816	338.62
321.046	355.62
321.275	354.62
321.504	347.62
321.733	373.62
321.962	357.62
322.191	386.62
322.42	387.62
322.649	393.62
322.878	404.62
323.108	404.62
323.337	415.62
323.566	442.62
323.795	478.62
324.024	528.62
324.253	666.62
324.482	894.62
324.71	1340.62
324.939	1800.62
325.168	1494.62
325.397	816.62
325.626	576.62
325.855	470.62
326.084	440.62
326.313	459.62
326.542	452.62
326.77	480.62
326.999	593.62
327.228	794.62
327.457	1175.62
327.686	1352.62
327.914	910.62
328.143	630.62
328.372	553.62
328.6	498.62
328.829	491.62
329.058	487.62
329.287	504.62
329.515	496.62
329.744	446.62
329.972	437.62
330.201	421.62
330.43	470.62
330.658	460.62
330.887	522.62
331.115	539.62
331.344	443.62
331.572	451.62
331.801	429.62
332.03	425.62
332.258	403.62
332.486	392.62
332.715	385.62
332.943	376.62
333.172	378.62
333.4	387.62
333.629	396.62
333.857	407.62
334.085	394.62
334.314	406.62
334.542	406.62
334.771	392.62
334.999	399.62
335.227	402.62
335.455	393.62
335.684	380.62
335.912	395.62
336.14	383.62
336.369	392.62
336.597	397.62
336.825	403.62
337.053	385.62
337.281	379.62
337.51	384.62
337.738	389.62
337.966	376.62
338.194	415.62
338.422	389.62
338.65	382.62
338.878	374.62
339.106	366.62
339.334	367.62
339.562	378.62
339.79	366.62
340.018	380.62
340.246	386.62
340.474	371.62
340.702	381.62
340.93	384.62
341.158	375.62
341.386	379.62
341.614	371.62
341.842	368.62
342.07	372.62
342.298	361.62
342.526	363.62
342.754	375.62
342.981	355.62
343.209	362.62
343.437	376.62
343.665	386.62
343.893	374.62
344.12	393.62
344.348	364.62
344.576	384.62
344.804	395.62
345.031	378.62
345.259	420.62
345.487	394.62
345.714	366.62
345.942	366.62
346.17	385.62
346.397	357.62
346.625	368.62
346.853	361.62
347.08	349.62
347.308	371.62
347.535	392.62
347.763	405.62
347.99	401.62
348.218	382.62
348.445	368.62
348.673	358.62
348.9	355.62
349.128	375.62
349.355	368.62
349.583	357.62
349.81	363.62
350.037	358.62
350.265	354.62
350.492	353.62
350.72	351.62
350.947	372.62
351.174	362.62
351.402	378.62
351.629	369.62
351.856	371.62
352.083	366.62
352.311	384.62
352.538	392.62
352.765	401.62
352.992	358.62
353.22	367.62
353.447	368.62
353.674	359.62
353.901	350.62
354.128	332.62
354.355	332.62
354.583	357.62
354.81	356.62
355.037	348.62
355.264	359.62
355.491	331.62
355.718	334.62
355.945	334.62
356.172	319.62
356.399	345.62
356.626	338.62
356.853	353.62
357.08	348.62
357.307	345.62
357.534	347.62
357.761	353.62
357.988	335.62
358.215	342.62
358.441	332.62
358.668	336.62
358.895	344.62
359.122	353.62
359.349	347.62
359.576	378.62
359.802	384.62
360.029	408.62
360.256	406.62
360.483	397.62
360.709	354.62
360.936	350.62
361.163	362.62
361.39	378.62
361.616	353.62
361.843	368.62
362.07	353.62
362.296	353.62
362.523	353.62
362.749	355.62
362.976	342.62
363.203	354.62
363.429	363.62
363.656	352.62
363.882	337.62
364.109	359.62
364.335	340.62
364.562	350.62
364.788	363.62
365.015	361.62
365.241	358.62
365.468	359.62
365.694	346.62
365.92	345.62
366.147	337.62
366.373	353.62
366.599	355.62
366.826	331.62
367.052	343.62
367.278	354.62
367.505	348.62
367.731	343.62
367.957	358.62
368.184	342.62
368.41	351.62
368.636	371.62
368.862	363.62
369.089	370.62
369.315	340.62
369.541	332.62
369.767	330.62
369.993	352.62
370.219	349.62
370.445	332.62
370.672	347.62
370.898	346.62
371.124	355.62
371.35	356.62
371.576	325.62
371.802	337.62
372.028	341.62
372.254	346.62
372.48	361.62
372.706	364.62
372.932	331.62
373.158	368.62
373.384	332.62
373.61	338.62
373.835	334.62
374.061	344.62
374.287	352.62
374.513	360.62
374.739	368.62
374.965	342.62
375.191	351.62
375.416	353.62
375.642	352.62
375.868	375.62
376.094	348.62
376.319	347.62
376.545	349.62
376.771	314.62
376.997	333.62
377.222	341.62
377.448	371.62
377.674	336.62
377.899	318.62
378.125	317.62
378.35	331.62
378.576	347.62
378.802	345.62
379.027	358.62
379.253	350.62
379.478	350.62
379.704	351.62
379.929	371.62
380.155	354.62
380.38	320.62
380.606	342.62
380.831	345.62
381.057	340.62
381.282	343.62
381.507	340.62
381.733	338.62
381.958	345.62
382.184	332.62
382.409	344.62
382.634	357.62
382.86	346.62
383.085	359.62
383.31	337.62
383.535	336.62
383.761	344.62
383.986	359.62
384.211	370.62
384.436	358.62
384.662	351.62
384.887	375.62
385.112	340.62
385.337	373.62
385.562	369.62
385.787	352.62
386.013	371.62
386.238	357.62
386.463	393.62
386.688	370.62
386.913	353.62
387.138	359.62
387.363	382.62
387.588	371.62
387.813	364.62
388.038	353.62
388.263	361.62
388.488	351.62
388.713	372.62
388.938	361.62
389.163	377.62
389.387	375.62
389.612	375.62
389.837	374.62
390.062	364.62
390.287	374.62
390.512	366.62
390.736	361.62
390.961	365.62
391.186	360.62
391.411	370.62
391.636	378.62
391.86	378.62
392.085	384.62
392.31	360.62
392.534	372.62
392.759	382.62
392.984	376.62
393.208	375.62
393.433	383.62
393.658	357.62
393.882	354.62
394.107	351.62
394.331	364.62
394.556	374.62
394.78	378.62
395.005	360.62
395.229	366.62
395.454	384.62
395.678	383.62
395.903	389.62
396.127	406.62
396.352	416.62
396.576	364.62
396.801	362.62
397.025	362.62
397.249	390.62
397.474	379.62
397.698	384.62
397.922	407.62
398.147	420.62
398.371	430.62
398.595	403.62
398.82	393.62
399.044	433.62
399.268	446.62
399.492	466.62
399.717	474.62
399.941	486.62
400.165	489.62
400.389	476.62
400.613	475.62
400.837	454.62
401.062	443.62
401.286	426.62
401.51	422.62
401.734	416.62
401.958	430.62
402.182	438.62
402.406	480.62
402.63	432.62
402.854	417.62
403.078	428.62
403.302	423.62
403.526	439.62
403.75	420.62
403.974	395.62
404.198	433.62
404.422	446.62
404.645	440.62
404.869	450.62
405.093	432.62
405.317	459.62
405.541	510.62
405.765	443.62
405.988	451.62
406.212	478.62
406.436	476.62
406.66	476.62
406.883	483.62
407.107	476.62
407.331	527.62
407.555	569.62
407.778	558.62
408.002	496.62
408.226	476.62
408.449	470.62
408.673	471.62
408.896	498.62
409.12	516.62
409.344	495.62
409.567	451.62
409.791	451.62
410.014	432.62
410.238	427.62
410.461	441.62
410.685	442.62
410.908	458.62
411.132	469.62
411.355	504.62
411.578	470.62
411.802	423.62
412.025	423.62
412.249	425.62
412.472	432.62
412.695	436.62
412.919	423.62
413.142	418.62
413.365	433.62
413.589	411.62
413.812	431.62
414.035	387.62
414.258	400.62
414.482	407.62
414.705	402.62
414.928	408.62
415.151	410.62
415.374	414.62
415.597	414.62
415.821	402.62
416.044	407.62
416.267	410.62
416.49	422.62
416.713	383.62
416.936	400.62
417.159	406.62
417.382	403.62
417.605	407.62
417.828	417.62
418.051	420.62
418.274	418.62
418.497	394.62
418.72	392.62
418.943	402.62
419.166	409.62
419.389	425.62
419.611	431.62
419.834	422.62
420.057	426.62
420.28	441.62
420.503	428.62
420.726	424.62
420.948	429.62
421.171	453.62
421.394	505.62
421.617	451.62
421.839	436.62
422.062	410.62
422.285	446.62
422.507	506.62
422.73	523.62
422.953	512.62
423.175	454.62
423.398	426.62
423.621	438.62
423.843	478.62
424.066	450.62
424.288	460.62
424.511	478.62
424.733	506.62
424.956	561.62
425.178	547.62
425.401	549.62
425.623	574.62
425.846	477.62
426.068	474.62
426.291	459.62
426.513	447.62
426.735	462.62
426.958	498.62
427.18	568.62
427.402	643.62
427.625	720.62
427.847	620.62
428.069	550.62
428.292	483.62
428.514	452.62
428.736	419.62
428.958	450.62
429.181	420.62
429.403	416.62
429.625	431.62
429.847	464.62
430.069	497.62
430.292	487.62
430.514	424.62
430.736	431.62
430.958	404.62
431.18	414.62
431.402	411.62
431.624	391.62
431.846	386.62
432.068	376.62
432.29	393.62
432.512	387.62
432.734	420.62
432.956	395.62
433.178	430.62
433.4	419.62
433.622	417.62
433.844	413.62
434.066	403.62
434.287	408.62
434.509	386.62
434.731	405.62
434.953	428.62
435.175	434.62
435.397	453.62
435.618	454.62
435.84	471.62
436.062	554.62
436.284	611.62
436.505	523.62
436.727	476.62
436.949	441.62
437.17	424.62
437.392	413.62
437.614	439.62
437.835	480.62
438.057	559.62
438.278	626.62
438.5	608.62
438.721	659.62
438.943	634.62
439.165	525.62
439.386	458.62
439.608	472.62
439.829	479.62
440.05	466.62
440.272	512.62
440.493	486.62
440.715	466.62
440.936	418.62
441.158	437.62
441.379	423.62
441.6	437.62
441.822	463.62
442.043	496.62
442.264	563.62
442.486	593.62
442.707	519.62
442.928	471.62
443.149	467.62
443.371	491.62
443.592	516.62
443.813	591.62
444.034	643.62
444.255	531.62
444.476	484.62
444.698	487.62
444.919	479.62
445.14	594.62
445.361	523.62
445.582	487.62
445.803	545.62
446.024	618.62
446.245	634.62
446.466	579.62
446.687	478.62
446.908	434.62
447.129	438.62
447.35	402.62
447.571	419.62
447.792	420.62
448.013	445.62
448.234	438.62
448.455	484.62
448.675	574.62
448.896	644.62
449.117	550.62
449.338	521.62
449.559	614.62
449.779	659.62
450	563.62
450.221	469.62
450.442	435.62
450.662	420.62
450.883	424.62
451.104	433.62
451.324	430.62
451.545	401.62
451.766	405.62
451.986	375.62
452.207	378.62
452.428	379.62
452.648	375.62
452.869	390.62
453.089	394.62
453.31	411.62
453.53	385.62
453.751	390.62
453.971	388.62
454.192	403.62
454.412	407.62
454.633	385.62
454.853	368.62
455.073	387.62
455.294	414.62
455.514	453.62
455.734	448.62
455.955	384.62
456.175	353.62
456.395	358.62
456.616	370.62
456.836	344.62
457.056	346.62
457.276	332.62
457.497	368.62
457.717	356.62
457.937	371.62
458.157	381.62
458.377	375.62
458.598	401.62
458.818	443.62
459.038	487.62
459.258	516.62
459.478	427.62
459.698	395.62
459.918	392.62
460.138	392.62
460.358	411.62
460.578	419.62
460.798	401.62
461.018	413.62
461.238	410.62
461.458	408.62
461.678	408.62
461.898	399.62
462.118	416.62
462.338	396.62
462.558	402.62
462.777	429.62
462.997	434.62
463.217	414.62
463.437	452.62
463.657	440.62
463.876	432.62
464.096	426.62
464.316	411.62
464.536	444.62
464.755	439.62
464.975	456.62
465.195	484.62
465.414	546.62
465.634	477.62
465.854	447.62
466.073	416.62
466.293	410.62
466.512	385.62
466.732	407.62
466.951	375.62
467.171	400.62
467.391	392.62
467.61	414.62
467.829	416.62
468.049	389.62
468.268	383.62
468.488	383.62
468.707	386.62
468.927	378.62
469.146	375.62
469.365	372.62
469.585	363.62
469.804	378.62
470.023	412.62
470.243	412.62
470.462	404.62
470.681	450.62
470.901	431.62
471.12	392.62
471.339	385.62
471.558	415.62
471.777	397.62
471.997	376.62
472.216	388.62
472.435	387.62
472.654	383.62
472.873	376.62
473.092	376.62
473.311	403.62
473.53	404.62
473.749	394.62
473.968	442.62
474.187	520.62
474.406	531.62
474.625	436.62
474.844	421.62
475.063	387.62
475.282	416.62
475.501	396.62
475.72	427.62
475.939	395.62
476.158	395.62
476.377	417.62
476.596	422.62
476.814	419.62
477.033	430.62
477.252	423.62
477.471	415.62
477.69	433.62
477.908	439.62
478.127	439.62
478.346	441.62
478.564	430.62
478.783	459.62
479.002	462.62
479.22	458.62
479.439	465.62
479.658	472.62
479.876	445.62
480.095	478.62
480.313	505.62
480.532	488.62
480.751	485.62
480.969	475.62
481.188	487.62
481.406	488.62
481.624	481.62
481.843	463.62
482.061	447.62
482.28	472.62
482.498	449.62
482.717	454.62
482.935	464.62
483.153	454.62
483.372	460.62
483.59	458.62
483.808	450.62
484.027	439.62
484.245	459.62
484.463	460.62
484.681	469.62
484.9	451.62
485.118	477.62
485.336	456.62
485.554	470.62
485.772	464.62
485.99	491.62
486.209	466.62
486.427	477.62
486.645	476.62
486.863	497.62
487.081	494.62
487.299	471.62
487.517	482.62
487.735	483.62
487.953	501.62
488.171	504.62
488.389	494.62
488.607	508.62
488.825	484.62
489.043	494.62
489.261	487.62
489.479	492.62
489.696	503.62
489.914	511.62
490.132	496.62
490.35	525.62
490.568	520.62
490.786	533.62
491.003	532.62
491.221	554.62
491.439	546.62
491.657	553.62
491.874	562.62
492.092	546.62
492.31	567.62
492.527	555.62
492.745	574.62
492.963	574.62
493.18	551.62
493.398	588.62
493.615	595.62
493.833	562.62
494.05	585.62
494.268	611.62
494.485	569.62
494.703	566.62
494.92	569.62
495.138	598.62
495.355	582.62
495.573	619.62
495.79	574.62
496.008	584.62
496.225	567.62
496.442	575.62
496.66	579.62
496.877	595.62
497.094	593.62
497.312	579.62
497.529	588.62
497.746	618.62
497.963	640.62
498.181	634.62
498.398	662.62
498.615	652.62
498.832	660.62
499.049	666.62
499.267	655.62
499.484	662.62
499.701	737.62
499.918	697.62
500.135	739.62
500.352	786.62
500.569	784.62
500.786	775.62
501.003	795.62
501.22	782.62
501.437	769.62
501.654	726.62
501.871	715.62
502.088	694.62
