Data from 1983.PennyLincolnUp.Lamp.En5.5.200Scan.071819.P1_HRD10591_16-55-27-966.txt Node
Date: Thu Jul 18 16:55:27 EDT 2019
User: cochatt
Spectrometer: HR+D1059
Trigger mode: 1
Integration Time (sec): 1.000000E-1
Scans to average: 1
Electric dark correction enabled: true
Nonlinearity correction enabled: false
Boxcar width: 0
XAxis mode: Wavelengths
Number of Pixels in Spectrum: 2048
>>>>>Begin Spectral Data<<<<<
223.165	-12.25
223.4	-12.25
223.635	-12.25
223.869	-16.25
224.104	-15.25
224.338	-15.25
224.573	1.75
224.808	-29.25
225.042	-15.25
225.277	-5.25
225.511	6.75
225.746	-4.25
225.98	13.75
226.215	4.75
226.449	14.75
226.683	18.75
226.918	27.75
227.152	24.75
227.387	12.75
227.621	34.75
227.856	46.75
228.09	48.75
228.324	43.75
228.559	57.75
228.793	60.75
229.027	110.75
229.262	95.75
229.496	115.75
229.73	129.75
229.964	132.75
230.199	114.75
230.433	112.75
230.667	114.75
230.901	119.75
231.136	119.75
231.37	117.75
231.604	118.75
231.838	120.75
232.072	99.75
232.306	106.75
232.541	114.75
232.775	110.75
233.009	114.75
233.243	116.75
233.477	121.75
233.711	115.75
233.945	107.75
234.179	87.75
234.413	106.75
234.647	121.75
234.881	120.75
235.115	110.75
235.349	114.75
235.583	114.75
235.817	122.75
236.051	122.75
236.285	126.75
236.519	119.75
236.753	134.75
236.987	155.75
237.221	186.75
237.455	214.75
237.689	179.75
237.922	144.75
238.156	124.75
238.39	121.75
238.624	103.75
238.858	120.75
239.091	125.75
239.325	107.75
239.559	116.75
239.793	121.75
240.027	138.75
240.26	139.75
240.494	142.75
240.728	143.75
240.961	134.75
241.195	123.75
241.429	130.75
241.662	129.75
241.896	114.75
242.13	124.75
242.363	128.75
242.597	121.75
242.83	124.75
243.064	129.75
243.298	132.75
243.531	133.75
243.765	119.75
243.998	127.75
244.232	130.75
244.465	140.75
244.699	129.75
244.932	126.75
245.166	129.75
245.399	122.75
245.633	140.75
245.866	132.75
246.099	126.75
246.333	159.75
246.566	139.75
246.8	145.75
247.033	148.75
247.266	152.75
247.5	141.75
247.733	167.75
247.966	150.75
248.2	142.75
248.433	165.75
248.666	161.75
248.899	171.75
249.133	182.75
249.366	210.75
249.599	198.75
249.832	167.75
250.066	167.75
250.299	181.75
250.532	183.75
250.765	208.75
250.998	221.75
251.231	225.75
251.465	206.75
251.698	202.75
251.931	186.75
252.164	183.75
252.397	186.75
252.63	182.75
252.863	186.75
253.096	196.75
253.329	197.75
253.562	218.75
253.795	216.75
254.028	194.75
254.261	200.75
254.494	198.75
254.727	241.75
254.96	261.75
255.193	259.75
255.426	210.75
255.659	227.75
255.892	234.75
256.124	243.75
256.357	256.75
256.59	239.75
256.823	220.75
257.056	201.75
257.289	197.75
257.521	195.75
257.754	200.75
257.987	185.75
258.22	198.75
258.452	198.75
258.685	198.75
258.918	207.75
259.151	198.75
259.383	220.75
259.616	203.75
259.849	221.75
260.081	232.75
260.314	239.75
260.547	240.75
260.779	248.75
261.012	228.75
261.244	209.75
261.477	201.75
261.71	195.75
261.942	218.75
262.175	222.75
262.407	214.75
262.64	206.75
262.872	202.75
263.105	197.75
263.337	207.75
263.57	201.75
263.802	199.75
264.035	193.75
264.267	202.75
264.499	191.75
264.732	198.75
264.964	203.75
265.197	200.75
265.429	201.75
265.661	208.75
265.894	202.75
266.126	207.75
266.358	210.75
266.591	199.75
266.823	207.75
267.055	212.75
267.287	216.75
267.52	207.75
267.752	204.75
267.984	218.75
268.216	212.75
268.448	224.75
268.681	213.75
268.913	231.75
269.145	241.75
269.377	260.75
269.609	254.75
269.841	252.75
270.073	243.75
270.306	260.75
270.538	291.75
270.77	291.75
271.002	272.75
271.234	270.75
271.466	296.75
271.698	296.75
271.93	286.75
272.162	293.75
272.394	296.75
272.626	288.75
272.858	276.75
273.09	247.75
273.322	248.75
273.553	261.75
273.785	258.75
274.017	251.75
274.249	240.75
274.481	263.75
274.713	254.75
274.945	247.75
275.176	253.75
275.408	255.75
275.64	260.75
275.872	248.75
276.104	260.75
276.335	247.75
276.567	264.75
276.799	261.75
277.031	287.75
277.262	290.75
277.494	287.75
277.726	279.75
277.957	272.75
278.189	273.75
278.421	260.75
278.652	274.75
278.884	241.75
279.115	255.75
279.347	236.75
279.579	249.75
279.81	248.75
280.042	248.75
280.273	249.75
280.505	252.75
280.736	241.75
280.968	268.75
281.199	262.75
281.431	253.75
281.662	241.75
281.894	253.75
282.125	243.75
282.356	248.75
282.588	276.75
282.819	292.75
283.051	263.75
283.282	259.75
283.513	230.75
283.745	264.75
283.976	256.75
284.207	265.75
284.439	271.75
284.67	278.75
284.901	265.75
285.132	266.75
285.364	252.75
285.595	260.75
285.826	251.75
286.057	265.75
286.288	243.75
286.52	260.75
286.751	250.75
286.982	274.75
287.213	262.75
287.444	264.75
287.675	263.75
287.906	275.75
288.138	288.75
288.369	277.75
288.6	285.75
288.831	274.75
289.062	278.75
289.293	271.75
289.524	291.75
289.755	267.75
289.986	275.75
290.217	252.75
290.448	269.75
290.679	279.75
290.91	272.75
291.141	260.75
291.371	287.75
291.602	254.75
291.833	240.75
292.064	274.75
292.295	250.75
292.526	267.75
292.757	264.75
292.987	256.75
293.218	268.75
293.449	271.75
293.68	274.75
293.91	264.75
294.141	265.75
294.372	260.75
294.603	264.75
294.833	262.75
295.064	274.75
295.295	265.75
295.525	250.75
295.756	272.75
295.987	289.75
296.217	280.75
296.448	293.75
296.679	299.75
296.909	274.75
297.14	268.75
297.37	279.75
297.601	303.75
297.831	281.75
298.062	278.75
298.292	278.75
298.523	281.75
298.753	290.75
298.984	290.75
299.214	280.75
299.445	294.75
299.675	280.75
299.905	294.75
300.136	299.75
300.366	278.75
300.597	289.75
300.827	266.75
301.057	290.75
301.288	313.75
301.518	282.75
301.748	282.75
301.979	282.75
302.209	296.75
302.439	290.75
302.669	304.75
302.9	297.75
303.13	318.75
303.36	290.75
303.59	301.75
303.82	302.75
304.051	298.75
304.281	297.75
304.511	309.75
304.741	300.75
304.971	317.75
305.201	292.75
305.431	299.75
305.661	309.75
305.891	292.75
306.121	308.75
306.352	304.75
306.582	331.75
306.812	318.75
307.042	299.75
307.272	318.75
307.502	297.75
307.731	317.75
307.961	313.75
308.191	332.75
308.421	292.75
308.651	314.75
308.881	310.75
309.111	314.75
309.341	340.75
309.571	328.75
309.8	346.75
310.03	337.75
310.26	345.75
310.49	354.75
310.72	355.75
310.949	371.75
311.179	363.75
311.409	344.75
311.639	351.75
311.868	347.75
312.098	342.75
312.328	359.75
312.557	400.75
312.787	360.75
313.017	373.75
313.246	382.75
313.476	343.75
313.706	346.75
313.935	361.75
314.165	370.75
314.394	368.75
314.624	370.75
314.853	342.75
315.083	348.75
315.312	348.75
315.542	356.75
315.771	350.75
316.001	331.75
316.23	351.75
316.46	377.75
316.689	354.75
316.919	342.75
317.148	356.75
317.377	363.75
317.607	368.75
317.836	337.75
318.065	333.75
318.295	351.75
318.524	356.75
318.753	345.75
318.983	357.75
319.212	354.75
319.441	342.75
319.67	369.75
319.9	357.75
320.129	356.75
320.358	372.75
320.587	380.75
320.816	362.75
321.046	360.75
321.275	372.75
321.504	378.75
321.733	388.75
321.962	392.75
322.191	397.75
322.42	405.75
322.649	416.75
322.878	427.75
323.108	435.75
323.337	439.75
323.566	479.75
323.795	507.75
324.024	558.75
324.253	704.75
324.482	1003.75
324.71	1526.75
324.939	2053.75
325.168	1643.75
325.397	904.75
325.626	627.75
325.855	524.75
326.084	500.75
326.313	482.75
326.542	463.75
326.77	537.75
326.999	660.75
327.228	897.75
327.457	1308.75
327.686	1516.75
327.914	1031.75
328.143	724.75
328.372	662.75
328.6	594.75
328.829	583.75
329.058	573.75
329.287	601.75
329.515	538.75
329.744	530.75
329.972	519.75
330.201	548.75
330.43	623.75
330.658	633.75
330.887	617.75
331.115	554.75
331.344	502.75
331.572	482.75
331.801	481.75
332.03	472.75
332.258	447.75
332.486	438.75
332.715	444.75
332.943	433.75
333.172	453.75
333.4	451.75
333.629	472.75
333.857	488.75
334.085	501.75
334.314	522.75
334.542	587.75
334.771	625.75
334.999	525.75
335.227	442.75
335.455	435.75
335.684	444.75
335.912	424.75
336.14	419.75
336.369	413.75
336.597	426.75
336.825	416.75
337.053	408.75
337.281	406.75
337.51	409.75
337.738	410.75
337.966	395.75
338.194	415.75
338.422	403.75
338.65	404.75
338.878	410.75
339.106	385.75
339.334	395.75
339.562	386.75
339.79	384.75
340.018	398.75
340.246	389.75
340.474	406.75
340.702	406.75
340.93	403.75
341.158	393.75
341.386	387.75
341.614	410.75
341.842	388.75
342.07	388.75
342.298	385.75
342.526	386.75
342.754	383.75
342.981	385.75
343.209	386.75
343.437	367.75
343.665	369.75
343.893	380.75
344.12	392.75
344.348	395.75
344.576	387.75
344.804	414.75
345.031	396.75
345.259	418.75
345.487	401.75
345.714	389.75
345.942	374.75
346.17	360.75
346.397	368.75
346.625	379.75
346.853	380.75
347.08	368.75
347.308	395.75
347.535	404.75
347.763	390.75
347.99	385.75
348.218	392.75
348.445	396.75
348.673	409.75
348.9	391.75
349.128	378.75
349.355	372.75
349.583	367.75
349.81	372.75
350.037	378.75
350.265	370.75
350.492	359.75
350.72	365.75
350.947	382.75
351.174	378.75
351.402	406.75
351.629	384.75
351.856	390.75
352.083	393.75
352.311	383.75
352.538	384.75
352.765	411.75
352.992	410.75
353.22	391.75
353.447	361.75
353.674	371.75
353.901	386.75
354.128	379.75
354.355	375.75
354.583	356.75
354.81	376.75
355.037	350.75
355.264	349.75
355.491	354.75
355.718	340.75
355.945	344.75
356.172	328.75
356.399	356.75
356.626	346.75
356.853	342.75
357.08	344.75
357.307	341.75
357.534	344.75
357.761	360.75
357.988	362.75
358.215	346.75
358.441	344.75
358.668	362.75
358.895	367.75
359.122	363.75
359.349	368.75
359.576	374.75
359.802	417.75
360.029	436.75
360.256	460.75
360.483	424.75
360.709	377.75
360.936	394.75
361.163	384.75
361.39	374.75
361.616	383.75
361.843	388.75
362.07	378.75
362.296	374.75
362.523	368.75
362.749	395.75
362.976	376.75
363.203	383.75
363.429	375.75
363.656	350.75
363.882	356.75
364.109	358.75
364.335	361.75
364.562	366.75
364.788	376.75
365.015	367.75
365.241	362.75
365.468	368.75
365.694	372.75
365.92	369.75
366.147	361.75
366.373	362.75
366.599	340.75
366.826	348.75
367.052	348.75
367.278	335.75
367.505	354.75
367.731	361.75
367.957	366.75
368.184	373.75
368.41	351.75
368.636	371.75
368.862	375.75
369.089	344.75
369.315	376.75
369.541	379.75
369.767	374.75
369.993	345.75
370.219	354.75
370.445	351.75
370.672	347.75
370.898	361.75
371.124	343.75
371.35	339.75
371.576	359.75
371.802	354.75
372.028	351.75
372.254	348.75
372.48	355.75
372.706	359.75
372.932	358.75
373.158	347.75
373.384	358.75
373.61	368.75
373.835	346.75
374.061	352.75
374.287	376.75
374.513	360.75
374.739	348.75
374.965	362.75
375.191	352.75
375.416	362.75
375.642	355.75
375.868	372.75
376.094	372.75
376.319	352.75
376.545	348.75
376.771	343.75
376.997	343.75
377.222	344.75
377.448	354.75
377.674	340.75
377.899	332.75
378.125	330.75
378.35	340.75
378.576	339.75
378.802	329.75
379.027	337.75
379.253	349.75
379.478	349.75
379.704	339.75
379.929	346.75
380.155	347.75
380.38	348.75
380.606	357.75
380.831	358.75
381.057	343.75
381.282	342.75
381.507	369.75
381.733	362.75
381.958	359.75
382.184	343.75
382.409	342.75
382.634	360.75
382.86	343.75
383.085	353.75
383.31	347.75
383.535	344.75
383.761	363.75
383.986	366.75
384.211	371.75
384.436	377.75
384.662	356.75
384.887	378.75
385.112	372.75
385.337	366.75
385.562	379.75
385.787	351.75
386.013	392.75
386.238	385.75
386.463	391.75
386.688	398.75
386.913	352.75
387.138	373.75
387.363	362.75
387.588	371.75
387.813	378.75
388.038	363.75
388.263	374.75
388.488	360.75
388.713	347.75
388.938	372.75
389.163	370.75
389.387	379.75
389.612	382.75
389.837	378.75
390.062	377.75
390.287	372.75
390.512	379.75
390.736	371.75
390.961	372.75
391.186	354.75
391.411	372.75
391.636	374.75
391.86	382.75
392.085	393.75
392.31	390.75
392.534	382.75
392.759	367.75
392.984	384.75
393.208	388.75
393.433	378.75
393.658	366.75
393.882	372.75
394.107	388.75
394.331	362.75
394.556	379.75
394.78	378.75
395.005	378.75
395.229	370.75
395.454	375.75
395.678	394.75
395.903	408.75
396.127	406.75
396.352	407.75
396.576	396.75
396.801	386.75
397.025	390.75
397.249	399.75
397.474	406.75
397.698	407.75
397.922	414.75
398.147	414.75
398.371	430.75
398.595	435.75
398.82	404.75
399.044	417.75
399.268	450.75
399.492	459.75
399.717	461.75
399.941	499.75
400.165	496.75
400.389	518.75
400.613	473.75
400.837	442.75
401.062	419.75
401.286	426.75
401.51	438.75
401.734	430.75
401.958	410.75
402.182	439.75
402.406	445.75
402.63	420.75
402.854	446.75
403.078	438.75
403.302	436.75
403.526	416.75
403.75	428.75
403.974	439.75
404.198	435.75
404.422	461.75
404.645	459.75
404.869	466.75
405.093	478.75
405.317	535.75
405.541	549.75
405.765	524.75
405.988	479.75
406.212	486.75
406.436	503.75
406.66	518.75
406.883	486.75
407.107	507.75
407.331	525.75
407.555	571.75
407.778	560.75
408.002	541.75
408.226	494.75
408.449	468.75
408.673	480.75
408.896	497.75
409.12	530.75
409.344	512.75
409.567	480.75
409.791	451.75
410.014	457.75
410.238	449.75
410.461	457.75
410.685	461.75
410.908	458.75
411.132	496.75
411.355	514.75
411.578	483.75
411.802	440.75
412.025	449.75
412.249	472.75
412.472	501.75
412.695	528.75
412.919	502.75
413.142	494.75
413.365	462.75
413.589	476.75
413.812	433.75
414.035	436.75
414.258	428.75
414.482	418.75
414.705	439.75
414.928	420.75
415.151	414.75
415.374	418.75
415.597	416.75
415.821	411.75
416.044	415.75
416.267	422.75
416.49	422.75
416.713	414.75
416.936	433.75
417.159	411.75
417.382	418.75
417.605	418.75
417.828	423.75
418.051	438.75
418.274	435.75
418.497	424.75
418.72	425.75
418.943	413.75
419.166	432.75
419.389	427.75
419.611	445.75
419.834	451.75
420.057	463.75
420.28	482.75
420.503	428.75
420.726	465.75
420.948	477.75
421.171	490.75
421.394	508.75
421.617	467.75
421.839	440.75
422.062	422.75
422.285	424.75
422.507	503.75
422.73	527.75
422.953	514.75
423.175	477.75
423.398	466.75
423.621	448.75
423.843	458.75
424.066	466.75
424.288	484.75
424.511	488.75
424.733	539.75
424.956	591.75
425.178	570.75
425.401	570.75
425.623	587.75
425.846	515.75
426.068	471.75
426.291	454.75
426.513	461.75
426.735	455.75
426.958	520.75
427.18	587.75
427.402	704.75
427.625	759.75
427.847	680.75
428.069	589.75
428.292	533.75
428.514	482.75
428.736	464.75
428.958	458.75
429.181	443.75
429.403	434.75
429.625	441.75
429.847	470.75
430.069	535.75
430.292	519.75
430.514	440.75
430.736	437.75
430.958	445.75
431.18	422.75
431.402	436.75
431.624	396.75
431.846	400.75
432.068	394.75
432.29	419.75
432.512	427.75
432.734	420.75
432.956	425.75
433.178	432.75
433.4	425.75
433.622	424.75
433.844	415.75
434.066	400.75
434.287	409.75
434.509	427.75
434.731	425.75
434.953	434.75
435.175	439.75
435.397	473.75
435.618	466.75
435.84	525.75
436.062	570.75
436.284	608.75
436.505	532.75
436.727	480.75
436.949	462.75
437.17	432.75
437.392	438.75
437.614	449.75
437.835	508.75
438.057	586.75
438.278	623.75
438.5	656.75
438.721	671.75
438.943	640.75
439.165	530.75
439.386	484.75
439.608	458.75
439.829	471.75
440.05	502.75
440.272	547.75
440.493	512.75
440.715	487.75
440.936	447.75
441.158	440.75
441.379	451.75
441.6	474.75
441.822	480.75
442.043	490.75
442.264	579.75
442.486	609.75
442.707	505.75
442.928	496.75
443.149	495.75
443.371	503.75
443.592	540.75
443.813	635.75
444.034	644.75
444.255	562.75
444.476	481.75
444.698	466.75
444.919	453.75
445.14	567.75
445.361	528.75
445.582	520.75
445.803	587.75
446.024	659.75
446.245	652.75
446.466	577.75
446.687	502.75
446.908	478.75
447.129	445.75
447.35	459.75
447.571	454.75
447.792	441.75
448.013	447.75
448.234	471.75
448.455	510.75
448.675	574.75
448.896	668.75
449.117	588.75
449.338	524.75
449.559	640.75
449.779	680.75
450	567.75
450.221	485.75
450.442	446.75
450.662	434.75
450.883	451.75
451.104	465.75
451.324	430.75
451.545	426.75
451.766	426.75
451.986	387.75
452.207	392.75
452.428	382.75
452.648	400.75
452.869	405.75
453.089	423.75
453.31	397.75
453.53	408.75
453.751	407.75
453.971	387.75
454.192	397.75
454.412	418.75
454.633	400.75
454.853	416.75
455.073	397.75
455.294	435.75
455.514	488.75
455.734	475.75
455.955	386.75
456.175	366.75
456.395	368.75
456.616	376.75
456.836	351.75
457.056	364.75
457.276	371.75
457.497	361.75
457.717	368.75
457.937	374.75
458.157	367.75
458.377	389.75
458.598	422.75
458.818	469.75
459.038	528.75
459.258	541.75
459.478	446.75
459.698	410.75
459.918	418.75
460.138	394.75
460.358	398.75
460.578	394.75
460.798	400.75
461.018	420.75
461.238	411.75
461.458	410.75
461.678	409.75
461.898	449.75
462.118	424.75
462.338	447.75
462.558	412.75
462.777	436.75
462.997	414.75
463.217	446.75
463.437	451.75
463.657	440.75
463.876	436.75
464.096	436.75
464.316	425.75
464.536	440.75
464.755	438.75
464.975	467.75
465.195	505.75
465.414	597.75
465.634	499.75
465.854	441.75
466.073	439.75
466.293	400.75
466.512	410.75
466.732	398.75
466.951	419.75
467.171	395.75
467.391	417.75
467.61	402.75
467.829	416.75
468.049	421.75
468.268	441.75
468.488	428.75
468.707	411.75
468.927	396.75
469.146	386.75
469.365	408.75
469.585	407.75
469.804	416.75
470.023	401.75
470.243	414.75
470.462	422.75
470.681	448.75
470.901	443.75
471.12	419.75
471.339	396.75
471.558	390.75
471.777	444.75
471.997	401.75
472.216	445.75
472.435	523.75
472.654	499.75
472.873	436.75
473.092	422.75
473.311	420.75
473.53	407.75
473.749	424.75
473.968	451.75
474.187	558.75
474.406	585.75
474.625	496.75
474.844	423.75
475.063	410.75
475.282	400.75
475.501	438.75
475.72	425.75
475.939	411.75
476.158	434.75
476.377	419.75
476.596	419.75
476.814	440.75
477.033	436.75
477.252	441.75
477.471	432.75
477.69	431.75
477.908	455.75
478.127	435.75
478.346	465.75
478.564	445.75
478.783	450.75
479.002	454.75
479.22	474.75
479.439	496.75
479.658	520.75
479.876	495.75
480.095	499.75
480.313	516.75
480.532	510.75
480.751	524.75
480.969	528.75
481.188	643.75
481.406	746.75
481.624	595.75
481.843	548.75
482.061	525.75
482.28	515.75
482.498	520.75
482.717	465.75
482.935	472.75
483.153	503.75
483.372	501.75
483.59	492.75
483.808	484.75
484.027	479.75
484.245	474.75
484.463	499.75
484.681	486.75
484.9	487.75
485.118	498.75
485.336	496.75
485.554	490.75
485.772	498.75
485.99	482.75
486.209	502.75
486.427	485.75
486.645	497.75
486.863	531.75
487.081	538.75
487.299	546.75
487.517	507.75
487.735	498.75
487.953	519.75
488.171	526.75
488.389	521.75
488.607	508.75
488.825	528.75
489.043	491.75
489.261	540.75
489.479	554.75
489.696	533.75
489.914	530.75
490.132	548.75
490.35	548.75
490.568	559.75
490.786	568.75
491.003	562.75
491.221	613.75
491.439	580.75
491.657	579.75
491.874	596.75
492.092	606.75
492.31	610.75
492.527	619.75
492.745	639.75
492.963	602.75
493.18	642.75
493.398	634.75
493.615	643.75
493.833	628.75
494.05	617.75
494.268	632.75
494.485	636.75
494.703	603.75
494.92	628.75
495.138	617.75
495.355	642.75
495.573	638.75
495.79	636.75
496.008	607.75
496.225	626.75
496.442	619.75
496.66	614.75
496.877	610.75
497.094	633.75
497.312	609.75
497.529	657.75
497.746	617.75
497.963	648.75
498.181	693.75
498.398	642.75
498.615	682.75
498.832	694.75
499.049	697.75
499.267	690.75
499.484	703.75
499.701	721.75
499.918	743.75
500.135	743.75
500.352	805.75
500.569	790.75
500.786	820.75
501.003	790.75
501.22	792.75
501.437	761.75
501.654	760.75
501.871	766.75
