Data from 1983.PennyLincolnUp.Lamp.En5.5.200Scan.071819.P1_HRD10591_16-52-35-966.txt Node
Date: Thu Jul 18 16:52:35 EDT 2019
User: cochatt
Spectrometer: HR+D1059
Trigger mode: 1
Integration Time (sec): 1.000000E-1
Scans to average: 1
Electric dark correction enabled: true
Nonlinearity correction enabled: false
Boxcar width: 0
XAxis mode: Wavelengths
Number of Pixels in Spectrum: 2048
>>>>>Begin Spectral Data<<<<<
223.165	-9.81
223.4	-9.81
223.635	-9.81
223.869	-23.81
224.104	-12.81
224.338	-31.81
224.573	0.19
224.808	-25.81
225.042	-14.81
225.277	17.19
225.511	6.19
225.746	16.19
225.98	10.19
226.215	8.19
226.449	12.19
226.683	1.19
226.918	12.19
227.152	35.19
227.387	29.19
227.621	38.19
227.856	42.19
228.09	55.19
228.324	43.19
228.559	59.19
228.793	67.19
229.027	82.19
229.262	92.19
229.496	91.19
229.73	124.19
229.964	135.19
230.199	110.19
230.433	100.19
230.667	102.19
230.901	97.19
231.136	86.19
231.37	114.19
231.604	107.19
231.838	108.19
232.072	99.19
232.306	92.19
232.541	109.19
232.775	121.19
233.009	110.19
233.243	113.19
233.477	115.19
233.711	94.19
233.945	105.19
234.179	108.19
234.413	109.19
234.647	107.19
234.881	101.19
235.115	103.19
235.349	120.19
235.583	137.19
235.817	105.19
236.051	123.19
236.285	113.19
236.519	109.19
236.753	121.19
236.987	133.19
237.221	163.19
237.455	205.19
237.689	147.19
237.922	129.19
238.156	124.19
238.39	123.19
238.624	113.19
238.858	116.19
239.091	132.19
239.325	122.19
239.559	112.19
239.793	115.19
240.027	129.19
240.26	102.19
240.494	140.19
240.728	139.19
240.961	139.19
241.195	113.19
241.429	128.19
241.662	126.19
241.896	126.19
242.13	117.19
242.363	124.19
242.597	114.19
242.83	116.19
243.064	120.19
243.298	142.19
243.531	126.19
243.765	124.19
243.998	128.19
244.232	136.19
244.465	128.19
244.699	133.19
244.932	140.19
245.166	123.19
245.399	129.19
245.633	117.19
245.866	130.19
246.099	141.19
246.333	123.19
246.566	128.19
246.8	143.19
247.033	138.19
247.266	129.19
247.5	143.19
247.733	154.19
247.966	144.19
248.2	149.19
248.433	141.19
248.666	157.19
248.899	161.19
249.133	180.19
249.366	193.19
249.599	173.19
249.832	164.19
250.066	171.19
250.299	160.19
250.532	169.19
250.765	169.19
250.998	195.19
251.231	186.19
251.465	191.19
251.698	181.19
251.931	185.19
252.164	191.19
252.397	179.19
252.63	197.19
252.863	173.19
253.096	176.19
253.329	192.19
253.562	186.19
253.795	193.19
254.028	197.19
254.261	191.19
254.494	198.19
254.727	219.19
254.96	231.19
255.193	229.19
255.426	204.19
255.659	198.19
255.892	189.19
256.124	192.19
256.357	199.19
256.59	185.19
256.823	179.19
257.056	174.19
257.289	202.19
257.521	196.19
257.754	193.19
257.987	184.19
258.22	179.19
258.452	181.19
258.685	191.19
258.918	173.19
259.151	189.19
259.383	218.19
259.616	202.19
259.849	201.19
260.081	200.19
260.314	212.19
260.547	217.19
260.779	203.19
261.012	195.19
261.244	205.19
261.477	190.19
261.71	179.19
261.942	196.19
262.175	198.19
262.407	200.19
262.64	187.19
262.872	187.19
263.105	187.19
263.337	189.19
263.57	179.19
263.802	171.19
264.035	188.19
264.267	192.19
264.499	196.19
264.732	192.19
264.964	192.19
265.197	182.19
265.429	204.19
265.661	209.19
265.894	176.19
266.126	197.19
266.358	185.19
266.591	184.19
266.823	195.19
267.055	198.19
267.287	211.19
267.52	201.19
267.752	195.19
267.984	207.19
268.216	196.19
268.448	209.19
268.681	191.19
268.913	207.19
269.145	233.19
269.377	232.19
269.609	230.19
269.841	222.19
270.073	246.19
270.306	260.19
270.538	263.19
270.77	266.19
271.002	251.19
271.234	238.19
271.466	229.19
271.698	265.19
271.93	256.19
272.162	245.19
272.394	277.19
272.626	254.19
272.858	248.19
273.09	222.19
273.322	233.19
273.553	236.19
273.785	215.19
274.017	232.19
274.249	222.19
274.481	231.19
274.713	232.19
274.945	231.19
275.176	231.19
275.408	228.19
275.64	232.19
275.872	222.19
276.104	231.19
276.335	229.19
276.567	227.19
276.799	263.19
277.031	253.19
277.262	282.19
277.494	285.19
277.726	236.19
277.957	252.19
278.189	233.19
278.421	245.19
278.652	236.19
278.884	243.19
279.115	221.19
279.347	233.19
279.579	233.19
279.81	227.19
280.042	221.19
280.273	220.19
280.505	237.19
280.736	214.19
280.968	232.19
281.199	207.19
281.431	227.19
281.662	233.19
281.894	229.19
282.125	235.19
282.356	250.19
282.588	265.19
282.819	267.19
283.051	239.19
283.282	229.19
283.513	241.19
283.745	223.19
283.976	222.19
284.207	231.19
284.439	225.19
284.67	243.19
284.901	209.19
285.132	245.19
285.364	244.19
285.595	244.19
285.826	238.19
286.057	238.19
286.288	235.19
286.52	247.19
286.751	234.19
286.982	237.19
287.213	243.19
287.444	247.19
287.675	246.19
287.906	257.19
288.138	243.19
288.369	269.19
288.6	259.19
288.831	257.19
289.062	229.19
289.293	254.19
289.524	246.19
289.755	261.19
289.986	234.19
290.217	248.19
290.448	244.19
290.679	259.19
290.91	251.19
291.141	236.19
291.371	238.19
291.602	264.19
291.833	226.19
292.064	252.19
292.295	247.19
292.526	236.19
292.757	263.19
292.987	243.19
293.218	252.19
293.449	246.19
293.68	247.19
293.91	245.19
294.141	257.19
294.372	261.19
294.603	255.19
294.833	266.19
295.064	259.19
295.295	256.19
295.525	265.19
295.756	246.19
295.987	263.19
296.217	283.19
296.448	289.19
296.679	265.19
296.909	241.19
297.14	248.19
297.37	260.19
297.601	266.19
297.831	263.19
298.062	268.19
298.292	249.19
298.523	272.19
298.753	274.19
298.984	276.19
299.214	270.19
299.445	261.19
299.675	262.19
299.905	268.19
300.136	272.19
300.366	266.19
300.597	265.19
300.827	264.19
301.057	276.19
301.288	271.19
301.518	266.19
301.748	293.19
301.979	277.19
302.209	297.19
302.439	300.19
302.669	284.19
302.9	285.19
303.13	252.19
303.36	276.19
303.59	286.19
303.82	294.19
304.051	290.19
304.281	297.19
304.511	287.19
304.741	280.19
304.971	276.19
305.201	276.19
305.431	263.19
305.661	282.19
305.891	274.19
306.121	281.19
306.352	285.19
306.582	280.19
306.812	285.19
307.042	265.19
307.272	288.19
307.502	303.19
307.731	292.19
307.961	291.19
308.191	287.19
308.421	289.19
308.651	295.19
308.881	309.19
309.111	289.19
309.341	298.19
309.571	296.19
309.8	303.19
310.03	321.19
310.26	311.19
310.49	315.19
310.72	330.19
310.949	325.19
311.179	337.19
311.409	328.19
311.639	303.19
311.868	309.19
312.098	318.19
312.328	327.19
312.557	343.19
312.787	337.19
313.017	341.19
313.246	332.19
313.476	330.19
313.706	338.19
313.935	321.19
314.165	325.19
314.394	355.19
314.624	334.19
314.853	333.19
315.083	331.19
315.312	315.19
315.542	310.19
315.771	307.19
316.001	334.19
316.23	326.19
316.46	314.19
316.689	319.19
316.919	315.19
317.148	327.19
317.377	326.19
317.607	348.19
317.836	321.19
318.065	336.19
318.295	319.19
318.524	307.19
318.753	303.19
318.983	311.19
319.212	343.19
319.441	346.19
319.67	352.19
319.9	340.19
320.129	317.19
320.358	322.19
320.587	335.19
320.816	331.19
321.046	340.19
321.275	339.19
321.504	327.19
321.733	356.19
321.962	349.19
322.191	351.19
322.42	368.19
322.649	379.19
322.878	369.19
323.108	379.19
323.337	385.19
323.566	400.19
323.795	449.19
324.024	478.19
324.253	587.19
324.482	779.19
324.71	1215.19
324.939	1589.19
325.168	1328.19
325.397	743.19
325.626	540.19
325.855	432.19
326.084	426.19
326.313	403.19
326.542	437.19
326.77	468.19
326.999	540.19
327.228	731.19
327.457	1028.19
327.686	1213.19
327.914	810.19
328.143	565.19
328.372	485.19
328.6	470.19
328.829	437.19
329.058	453.19
329.287	487.19
329.515	431.19
329.744	407.19
329.972	395.19
330.201	410.19
330.43	426.19
330.658	454.19
330.887	464.19
331.115	477.19
331.344	405.19
331.572	402.19
331.801	397.19
332.03	388.19
332.258	392.19
332.486	365.19
332.715	363.19
332.943	362.19
333.172	383.19
333.4	385.19
333.629	379.19
333.857	385.19
334.085	380.19
334.314	391.19
334.542	397.19
334.771	396.19
334.999	389.19
335.227	374.19
335.455	414.19
335.684	369.19
335.912	379.19
336.14	371.19
336.369	376.19
336.597	391.19
336.825	377.19
337.053	385.19
337.281	378.19
337.51	372.19
337.738	361.19
337.966	381.19
338.194	369.19
338.422	373.19
338.65	343.19
338.878	369.19
339.106	359.19
339.334	356.19
339.562	352.19
339.79	381.19
340.018	382.19
340.246	367.19
340.474	365.19
340.702	387.19
340.93	364.19
341.158	343.19
341.386	381.19
341.614	359.19
341.842	359.19
342.07	347.19
342.298	366.19
342.526	357.19
342.754	347.19
342.981	360.19
343.209	342.19
343.437	364.19
343.665	360.19
343.893	381.19
344.12	364.19
344.348	366.19
344.576	358.19
344.804	369.19
345.031	379.19
345.259	379.19
345.487	384.19
345.714	358.19
345.942	361.19
346.17	325.19
346.397	366.19
346.625	365.19
346.853	347.19
347.08	352.19
347.308	366.19
347.535	375.19
347.763	361.19
347.99	362.19
348.218	355.19
348.445	339.19
348.673	363.19
348.9	362.19
349.128	364.19
349.355	350.19
349.583	323.19
349.81	336.19
350.037	352.19
350.265	329.19
350.492	345.19
350.72	336.19
350.947	345.19
351.174	361.19
351.402	346.19
351.629	347.19
351.856	346.19
352.083	349.19
352.311	380.19
352.538	366.19
352.765	355.19
352.992	341.19
353.22	361.19
353.447	350.19
353.674	351.19
353.901	331.19
354.128	347.19
354.355	347.19
354.583	321.19
354.81	328.19
355.037	341.19
355.264	331.19
355.491	313.19
355.718	350.19
355.945	325.19
356.172	328.19
356.399	319.19
356.626	335.19
356.853	323.19
357.08	324.19
357.307	331.19
357.534	322.19
357.761	339.19
357.988	343.19
358.215	338.19
358.441	332.19
358.668	342.19
358.895	322.19
359.122	331.19
359.349	342.19
359.576	358.19
359.802	349.19
360.029	374.19
360.256	407.19
360.483	370.19
360.709	366.19
360.936	349.19
361.163	337.19
361.39	344.19
361.616	333.19
361.843	345.19
362.07	348.19
362.296	366.19
362.523	333.19
362.749	350.19
362.976	355.19
363.203	349.19
363.429	328.19
363.656	347.19
363.882	332.19
364.109	341.19
364.335	334.19
364.562	332.19
364.788	333.19
365.015	336.19
365.241	350.19
365.468	341.19
365.694	346.19
365.92	352.19
366.147	366.19
366.373	343.19
366.599	345.19
366.826	327.19
367.052	350.19
367.278	341.19
367.505	346.19
367.731	360.19
367.957	333.19
368.184	325.19
368.41	341.19
368.636	349.19
368.862	353.19
369.089	350.19
369.315	339.19
369.541	331.19
369.767	330.19
369.993	350.19
370.219	334.19
370.445	343.19
370.672	350.19
370.898	319.19
371.124	331.19
371.35	348.19
371.576	313.19
371.802	327.19
372.028	313.19
372.254	337.19
372.48	344.19
372.706	333.19
372.932	343.19
373.158	348.19
373.384	344.19
373.61	334.19
373.835	354.19
374.061	356.19
374.287	322.19
374.513	341.19
374.739	334.19
374.965	324.19
375.191	341.19
375.416	335.19
375.642	326.19
375.868	346.19
376.094	337.19
376.319	355.19
376.545	345.19
376.771	340.19
376.997	351.19
377.222	333.19
377.448	329.19
377.674	334.19
377.899	343.19
378.125	345.19
378.35	327.19
378.576	332.19
378.802	313.19
379.027	331.19
379.253	325.19
379.478	332.19
379.704	344.19
379.929	325.19
380.155	357.19
380.38	338.19
380.606	331.19
380.831	339.19
381.057	335.19
381.282	349.19
381.507	335.19
381.733	326.19
381.958	336.19
382.184	346.19
382.409	321.19
382.634	342.19
382.86	334.19
383.085	342.19
383.31	334.19
383.535	348.19
383.761	343.19
383.986	338.19
384.211	349.19
384.436	345.19
384.662	329.19
384.887	340.19
385.112	377.19
385.337	356.19
385.562	356.19
385.787	368.19
386.013	365.19
386.238	372.19
386.463	377.19
386.688	357.19
386.913	355.19
387.138	342.19
387.363	354.19
387.588	359.19
387.813	356.19
388.038	374.19
388.263	375.19
388.488	364.19
388.713	371.19
388.938	345.19
389.163	369.19
389.387	375.19
389.612	343.19
389.837	343.19
390.062	360.19
390.287	342.19
390.512	352.19
390.736	362.19
390.961	373.19
391.186	371.19
391.411	352.19
391.636	363.19
391.86	365.19
392.085	359.19
392.31	373.19
392.534	361.19
392.759	361.19
392.984	353.19
393.208	359.19
393.433	371.19
393.658	362.19
393.882	364.19
394.107	369.19
394.331	362.19
394.556	366.19
394.78	374.19
395.005	353.19
395.229	351.19
395.454	357.19
395.678	379.19
395.903	387.19
396.127	383.19
396.352	407.19
396.576	391.19
396.801	379.19
397.025	371.19
397.249	376.19
397.474	365.19
397.698	379.19
397.922	380.19
398.147	404.19
398.371	400.19
398.595	392.19
398.82	405.19
399.044	383.19
399.268	422.19
399.492	435.19
399.717	459.19
399.941	472.19
400.165	494.19
400.389	491.19
400.613	451.19
400.837	411.19
401.062	424.19
401.286	420.19
401.51	398.19
401.734	393.19
401.958	416.19
402.182	426.19
402.406	406.19
402.63	423.19
402.854	419.19
403.078	429.19
403.302	420.19
403.526	425.19
403.75	397.19
403.974	396.19
404.198	417.19
404.422	420.19
404.645	410.19
404.869	404.19
405.093	430.19
405.317	455.19
405.541	459.19
405.765	451.19
405.988	443.19
406.212	425.19
406.436	477.19
406.66	472.19
406.883	454.19
407.107	451.19
407.331	511.19
407.555	513.19
407.778	518.19
408.002	460.19
408.226	471.19
408.449	447.19
408.673	448.19
408.896	480.19
409.12	509.19
409.344	459.19
409.567	423.19
409.791	433.19
410.014	427.19
410.238	413.19
410.461	403.19
410.685	423.19
410.908	432.19
411.132	456.19
411.355	484.19
411.578	461.19
411.802	416.19
412.025	411.19
412.249	410.19
412.472	422.19
412.695	416.19
412.919	401.19
413.142	390.19
413.365	395.19
413.589	409.19
413.812	422.19
414.035	383.19
414.258	398.19
414.482	394.19
414.705	395.19
414.928	400.19
415.151	408.19
415.374	404.19
415.597	387.19
415.821	373.19
416.044	402.19
416.267	394.19
416.49	377.19
416.713	397.19
416.936	402.19
417.159	380.19
417.382	381.19
417.605	400.19
417.828	388.19
418.051	442.19
418.274	423.19
418.497	383.19
418.72	391.19
418.943	398.19
419.166	403.19
419.389	410.19
419.611	424.19
419.834	417.19
420.057	412.19
420.28	415.19
420.503	414.19
420.726	407.19
420.948	421.19
421.171	449.19
421.394	470.19
421.617	447.19
421.839	412.19
422.062	398.19
422.285	417.19
422.507	479.19
422.73	518.19
422.953	488.19
423.175	446.19
423.398	439.19
423.621	441.19
423.843	439.19
424.066	473.19
424.288	470.19
424.511	465.19
424.733	495.19
424.956	557.19
425.178	520.19
425.401	523.19
425.623	529.19
425.846	451.19
426.068	459.19
426.291	423.19
426.513	409.19
426.735	456.19
426.958	462.19
427.18	525.19
427.402	625.19
427.625	681.19
427.847	582.19
428.069	502.19
428.292	483.19
428.514	447.19
428.736	401.19
428.958	395.19
429.181	414.19
429.403	408.19
429.625	411.19
429.847	443.19
430.069	475.19
430.292	474.19
430.514	421.19
430.736	409.19
430.958	407.19
431.18	419.19
431.402	385.19
431.624	398.19
431.846	381.19
432.068	386.19
432.29	416.19
432.512	399.19
432.734	386.19
432.956	395.19
433.178	407.19
433.4	414.19
433.622	388.19
433.844	383.19
434.066	399.19
434.287	404.19
434.509	384.19
434.731	404.19
434.953	414.19
435.175	412.19
435.397	439.19
435.618	446.19
435.84	483.19
436.062	541.19
436.284	573.19
436.505	501.19
436.727	456.19
436.949	416.19
437.17	407.19
437.392	418.19
437.614	425.19
437.835	446.19
438.057	501.19
438.278	583.19
438.5	583.19
438.721	643.19
438.943	591.19
439.165	491.19
439.386	461.19
439.608	446.19
439.829	431.19
440.05	470.19
440.272	493.19
440.493	487.19
440.715	439.19
440.936	413.19
441.158	397.19
441.379	402.19
441.6	414.19
441.822	449.19
442.043	459.19
442.264	533.19
442.486	554.19
442.707	479.19
442.928	473.19
443.149	468.19
443.371	472.19
443.592	510.19
443.813	581.19
444.034	605.19
444.255	507.19
444.476	469.19
444.698	441.19
444.919	455.19
445.14	574.19
445.361	511.19
445.582	479.19
445.803	545.19
446.024	586.19
446.245	569.19
446.466	548.19
446.687	469.19
446.908	446.19
447.129	419.19
447.35	409.19
447.571	415.19
447.792	410.19
448.013	421.19
448.234	426.19
448.455	473.19
448.675	570.19
448.896	623.19
449.117	538.19
449.338	485.19
449.559	587.19
449.779	641.19
450	519.19
450.221	437.19
450.442	430.19
450.662	415.19
450.883	413.19
451.104	431.19
451.324	399.19
451.545	392.19
451.766	363.19
451.986	374.19
452.207	359.19
452.428	371.19
452.648	378.19
452.869	368.19
453.089	364.19
453.31	368.19
453.53	390.19
453.751	375.19
453.971	376.19
454.192	399.19
454.412	383.19
454.633	368.19
454.853	376.19
455.073	379.19
455.294	392.19
455.514	451.19
455.734	423.19
455.955	375.19
456.175	352.19
456.395	337.19
456.616	369.19
456.836	356.19
457.056	360.19
457.276	351.19
457.497	347.19
457.717	329.19
457.937	331.19
458.157	337.19
458.377	387.19
458.598	364.19
458.818	426.19
459.038	485.19
459.258	490.19
459.478	407.19
459.698	381.19
459.918	382.19
460.138	395.19
460.358	405.19
460.578	383.19
460.798	405.19
461.018	405.19
461.238	387.19
461.458	397.19
461.678	399.19
461.898	400.19
462.118	386.19
462.338	406.19
462.558	409.19
462.777	419.19
462.997	423.19
463.217	424.19
463.437	419.19
463.657	408.19
463.876	437.19
464.096	416.19
464.316	411.19
464.536	425.19
464.755	421.19
464.975	424.19
465.195	439.19
465.414	484.19
465.634	459.19
465.854	414.19
466.073	422.19
466.293	405.19
466.512	381.19
466.732	396.19
466.951	379.19
467.171	389.19
467.391	369.19
467.61	370.19
467.829	392.19
468.049	387.19
468.268	372.19
468.488	350.19
468.707	365.19
468.927	365.19
469.146	385.19
469.365	353.19
469.585	356.19
469.804	387.19
470.023	378.19
470.243	367.19
470.462	378.19
470.681	397.19
470.901	389.19
471.12	366.19
471.339	395.19
471.558	387.19
471.777	375.19
471.997	368.19
472.216	383.19
472.435	368.19
472.654	373.19
472.873	368.19
473.092	362.19
473.311	371.19
473.53	363.19
473.749	391.19
473.968	439.19
474.187	510.19
474.406	505.19
474.625	423.19
474.844	391.19
475.063	378.19
475.282	374.19
475.501	374.19
475.72	399.19
475.939	387.19
476.158	415.19
476.377	383.19
476.596	378.19
476.814	400.19
477.033	399.19
477.252	387.19
477.471	395.19
477.69	395.19
477.908	411.19
478.127	419.19
478.346	398.19
478.564	409.19
478.783	407.19
479.002	445.19
479.22	445.19
479.439	437.19
479.658	441.19
479.876	456.19
480.095	444.19
480.313	482.19
480.532	459.19
480.751	446.19
480.969	455.19
481.188	461.19
481.406	449.19
481.624	448.19
481.843	455.19
482.061	442.19
482.28	451.19
482.498	449.19
482.717	443.19
482.935	423.19
483.153	447.19
483.372	426.19
483.59	447.19
483.808	443.19
484.027	436.19
484.245	448.19
484.463	419.19
484.681	441.19
484.9	451.19
485.118	461.19
485.336	427.19
485.554	456.19
485.772	470.19
485.99	432.19
486.209	465.19
486.427	463.19
486.645	443.19
486.863	476.19
487.081	485.19
487.299	470.19
487.517	480.19
487.735	445.19
487.953	439.19
488.171	496.19
488.389	467.19
488.607	473.19
488.825	486.19
489.043	467.19
489.261	476.19
489.479	481.19
489.696	491.19
489.914	493.19
490.132	482.19
490.35	481.19
490.568	509.19
490.786	501.19
491.003	527.19
491.221	508.19
491.439	517.19
491.657	517.19
491.874	548.19
492.092	528.19
492.31	536.19
492.527	557.19
492.745	549.19
492.963	545.19
493.18	548.19
493.398	533.19
493.615	554.19
493.833	545.19
494.05	563.19
494.268	574.19
494.485	553.19
494.703	546.19
494.92	547.19
495.138	557.19
495.355	568.19
495.573	539.19
495.79	571.19
496.008	567.19
496.225	539.19
496.442	553.19
496.66	569.19
496.877	571.19
497.094	577.19
497.312	574.19
497.529	580.19
497.746	572.19
497.963	577.19
498.181	604.19
498.398	605.19
498.615	611.19
498.832	611.19
499.049	617.19
499.267	654.19
499.484	675.19
499.701	683.19
499.918	695.19
500.135	720.19
500.352	727.19
500.569	763.19
500.786	763.19
501.003	732.19
501.22	714.19
501.437	695.19
501.654	725.19
501.871	716.19
502.088	663.19
