Data from 1983.PennyLincolnUp.Lamp.En5.5.200Scan.071819.P1_HRD10591_16-54-50-966.txt Node
Date: Thu Jul 18 16:54:50 EDT 2019
User: cochatt
Spectrometer: HR+D1059
Trigger mode: 1
Integration Time (sec): 1.000000E-1
Scans to average: 1
Electric dark correction enabled: true
Nonlinearity correction enabled: false
Boxcar width: 0
XAxis mode: Wavelengths
Number of Pixels in Spectrum: 2048
>>>>>Begin Spectral Data<<<<<
223.165	-25.69
223.4	-25.69
223.635	-25.69
223.869	-21.69
224.104	-30.69
224.338	-8.69
224.573	-10.69
224.808	-8.69
225.042	-2.69
225.277	-10.69
225.511	-5.69
225.746	6.31
225.98	24.31
226.215	12.31
226.449	27.31
226.683	22.31
226.918	10.31
227.152	22.31
227.387	34.31
227.621	38.31
227.856	46.31
228.09	37.31
228.324	52.31
228.559	66.31
228.793	76.31
229.027	107.31
229.262	112.31
229.496	122.31
229.73	120.31
229.964	156.31
230.199	135.31
230.433	91.31
230.667	107.31
230.901	97.31
231.136	107.31
231.37	116.31
231.604	96.31
231.838	94.31
232.072	98.31
232.306	112.31
232.541	120.31
232.775	102.31
233.009	115.31
233.243	95.31
233.477	106.31
233.711	108.31
233.945	92.31
234.179	102.31
234.413	122.31
234.647	123.31
234.881	109.31
235.115	127.31
235.349	112.31
235.583	109.31
235.817	112.31
236.051	112.31
236.285	128.31
236.519	134.31
236.753	133.31
236.987	142.31
237.221	195.31
237.455	216.31
237.689	172.31
237.922	133.31
238.156	116.31
238.39	128.31
238.624	114.31
238.858	125.31
239.091	118.31
239.325	119.31
239.559	122.31
239.793	117.31
240.027	131.31
240.26	131.31
240.494	158.31
240.728	142.31
240.961	141.31
241.195	133.31
241.429	143.31
241.662	133.31
241.896	135.31
242.13	121.31
242.363	116.31
242.597	128.31
242.83	124.31
243.064	119.31
243.298	142.31
243.531	129.31
243.765	133.31
243.998	131.31
244.232	133.31
244.465	127.31
244.699	136.31
244.932	118.31
245.166	142.31
245.399	152.31
245.633	125.31
245.866	135.31
246.099	149.31
246.333	126.31
246.566	138.31
246.8	137.31
247.033	147.31
247.266	142.31
247.5	144.31
247.733	178.31
247.966	170.31
248.2	153.31
248.433	149.31
248.666	160.31
248.899	177.31
249.133	174.31
249.366	194.31
249.599	172.31
249.832	166.31
250.066	148.31
250.299	173.31
250.532	199.31
250.765	198.31
250.998	224.31
251.231	204.31
251.465	216.31
251.698	193.31
251.931	172.31
252.164	196.31
252.397	195.31
252.63	187.31
252.863	183.31
253.096	204.31
253.329	207.31
253.562	204.31
253.795	206.31
254.028	217.31
254.261	202.31
254.494	202.31
254.727	235.31
254.96	267.31
255.193	240.31
255.426	248.31
255.659	221.31
255.892	234.31
256.124	233.31
256.357	224.31
256.59	207.31
256.823	207.31
257.056	189.31
257.289	196.31
257.521	194.31
257.754	213.31
257.987	193.31
258.22	192.31
258.452	202.31
258.685	200.31
258.918	209.31
259.151	202.31
259.383	222.31
259.616	209.31
259.849	216.31
260.081	231.31
260.314	232.31
260.547	230.31
260.779	226.31
261.012	226.31
261.244	205.31
261.477	216.31
261.71	216.31
261.942	198.31
262.175	216.31
262.407	209.31
262.64	200.31
262.872	204.31
263.105	193.31
263.337	207.31
263.57	201.31
263.802	194.31
264.035	206.31
264.267	192.31
264.499	198.31
264.732	179.31
264.964	184.31
265.197	214.31
265.429	201.31
265.661	198.31
265.894	209.31
266.126	190.31
266.358	207.31
266.591	196.31
266.823	215.31
267.055	227.31
267.287	216.31
267.52	225.31
267.752	214.31
267.984	217.31
268.216	217.31
268.448	209.31
268.681	226.31
268.913	228.31
269.145	259.31
269.377	267.31
269.609	267.31
269.841	223.31
270.073	256.31
270.306	288.31
270.538	296.31
270.77	304.31
271.002	284.31
271.234	259.31
271.466	277.31
271.698	283.31
271.93	300.31
272.162	316.31
272.394	280.31
272.626	283.31
272.858	277.31
273.09	274.31
273.322	261.31
273.553	249.31
273.785	244.31
274.017	250.31
274.249	248.31
274.481	242.31
274.713	255.31
274.945	234.31
275.176	254.31
275.408	239.31
275.64	258.31
275.872	268.31
276.104	281.31
276.335	252.31
276.567	238.31
276.799	265.31
277.031	294.31
277.262	305.31
277.494	301.31
277.726	275.31
277.957	248.31
278.189	248.31
278.421	249.31
278.652	276.31
278.884	272.31
279.115	249.31
279.347	252.31
279.579	245.31
279.81	241.31
280.042	238.31
280.273	242.31
280.505	242.31
280.736	252.31
280.968	245.31
281.199	252.31
281.431	247.31
281.662	232.31
281.894	237.31
282.125	273.31
282.356	250.31
282.588	281.31
282.819	296.31
283.051	258.31
283.282	252.31
283.513	258.31
283.745	246.31
283.976	262.31
284.207	249.31
284.439	260.31
284.67	262.31
284.901	269.31
285.132	266.31
285.364	254.31
285.595	264.31
285.826	283.31
286.057	265.31
286.288	265.31
286.52	266.31
286.751	260.31
286.982	262.31
287.213	281.31
287.444	268.31
287.675	288.31
287.906	281.31
288.138	270.31
288.369	270.31
288.6	293.31
288.831	260.31
289.062	300.31
289.293	282.31
289.524	278.31
289.755	274.31
289.986	275.31
290.217	276.31
290.448	263.31
290.679	267.31
290.91	267.31
291.141	269.31
291.371	272.31
291.602	254.31
291.833	270.31
292.064	270.31
292.295	253.31
292.526	262.31
292.757	247.31
292.987	250.31
293.218	259.31
293.449	266.31
293.68	273.31
293.91	275.31
294.141	261.31
294.372	258.31
294.603	270.31
294.833	272.31
295.064	276.31
295.295	288.31
295.525	281.31
295.756	280.31
295.987	284.31
296.217	296.31
296.448	313.31
296.679	287.31
296.909	289.31
297.14	281.31
297.37	275.31
297.601	281.31
297.831	278.31
298.062	277.31
298.292	287.31
298.523	292.31
298.753	284.31
298.984	278.31
299.214	280.31
299.445	281.31
299.675	281.31
299.905	280.31
300.136	274.31
300.366	291.31
300.597	285.31
300.827	312.31
301.057	301.31
301.288	319.31
301.518	317.31
301.748	309.31
301.979	285.31
302.209	323.31
302.439	295.31
302.669	304.31
302.9	291.31
303.13	281.31
303.36	293.31
303.59	316.31
303.82	308.31
304.051	317.31
304.281	307.31
304.511	304.31
304.741	301.31
304.971	290.31
305.201	309.31
305.431	310.31
305.661	300.31
305.891	297.31
306.121	315.31
306.352	290.31
306.582	317.31
306.812	296.31
307.042	299.31
307.272	311.31
307.502	305.31
307.731	308.31
307.961	308.31
308.191	310.31
308.421	305.31
308.651	306.31
308.881	317.31
309.111	348.31
309.341	334.31
309.571	321.31
309.8	338.31
310.03	356.31
310.26	362.31
310.49	347.31
310.72	357.31
310.949	348.31
311.179	366.31
311.409	365.31
311.639	358.31
311.868	361.31
312.098	353.31
312.328	359.31
312.557	381.31
312.787	393.31
313.017	397.31
313.246	373.31
313.476	355.31
313.706	348.31
313.935	362.31
314.165	365.31
314.394	369.31
314.624	366.31
314.853	368.31
315.083	366.31
315.312	354.31
315.542	354.31
315.771	341.31
316.001	356.31
316.23	349.31
316.46	334.31
316.689	360.31
316.919	370.31
317.148	363.31
317.377	366.31
317.607	350.31
317.836	374.31
318.065	354.31
318.295	338.31
318.524	338.31
318.753	352.31
318.983	342.31
319.212	373.31
319.441	341.31
319.67	361.31
319.9	371.31
320.129	362.31
320.358	349.31
320.587	353.31
320.816	376.31
321.046	363.31
321.275	375.31
321.504	374.31
321.733	364.31
321.962	374.31
322.191	379.31
322.42	393.31
322.649	426.31
322.878	452.31
323.108	444.31
323.337	468.31
323.566	498.31
323.795	536.31
324.024	571.31
324.253	730.31
324.482	1044.31
324.71	1589.31
324.939	2114.31
325.168	1730.31
325.397	941.31
325.626	616.31
325.855	542.31
326.084	480.31
326.313	512.31
326.542	529.31
326.77	544.31
326.999	659.31
327.228	907.31
327.457	1353.31
327.686	1536.31
327.914	1066.31
328.143	688.31
328.372	642.31
328.6	574.31
328.829	568.31
329.058	582.31
329.287	597.31
329.515	550.31
329.744	488.31
329.972	485.31
330.201	544.31
330.43	598.31
330.658	596.31
330.887	655.31
331.115	587.31
331.344	522.31
331.572	472.31
331.801	490.31
332.03	466.31
332.258	457.31
332.486	428.31
332.715	409.31
332.943	424.31
333.172	428.31
333.4	441.31
333.629	445.31
333.857	445.31
334.085	470.31
334.314	497.31
334.542	514.31
334.771	561.31
334.999	473.31
335.227	470.31
335.455	430.31
335.684	435.31
335.912	400.31
336.14	424.31
336.369	401.31
336.597	424.31
336.825	427.31
337.053	410.31
337.281	396.31
337.51	420.31
337.738	406.31
337.966	392.31
338.194	402.31
338.422	407.31
338.65	406.31
338.878	389.31
339.106	392.31
339.334	378.31
339.562	394.31
339.79	387.31
340.018	391.31
340.246	384.31
340.474	396.31
340.702	403.31
340.93	387.31
341.158	384.31
341.386	403.31
341.614	384.31
341.842	388.31
342.07	384.31
342.298	397.31
342.526	379.31
342.754	372.31
342.981	390.31
343.209	379.31
343.437	402.31
343.665	392.31
343.893	365.31
344.12	386.31
344.348	393.31
344.576	403.31
344.804	417.31
345.031	418.31
345.259	427.31
345.487	406.31
345.714	405.31
345.942	399.31
346.17	397.31
346.397	379.31
346.625	398.31
346.853	372.31
347.08	365.31
347.308	388.31
347.535	381.31
347.763	393.31
347.99	402.31
348.218	396.31
348.445	399.31
348.673	402.31
348.9	368.31
349.128	396.31
349.355	351.31
349.583	374.31
349.81	362.31
350.037	380.31
350.265	343.31
350.492	350.31
350.72	376.31
350.947	388.31
351.174	397.31
351.402	402.31
351.629	384.31
351.856	397.31
352.083	388.31
352.311	397.31
352.538	403.31
352.765	402.31
352.992	389.31
353.22	383.31
353.447	388.31
353.674	365.31
353.901	377.31
354.128	349.31
354.355	366.31
354.583	362.31
354.81	353.31
355.037	345.31
355.264	364.31
355.491	337.31
355.718	334.31
355.945	349.31
356.172	354.31
356.399	355.31
356.626	341.31
356.853	362.31
357.08	354.31
357.307	340.31
357.534	352.31
357.761	369.31
357.988	339.31
358.215	354.31
358.441	355.31
358.668	368.31
358.895	350.31
359.122	370.31
359.349	380.31
359.576	380.31
359.802	402.31
360.029	415.31
360.256	440.31
360.483	445.31
360.709	388.31
360.936	392.31
361.163	382.31
361.39	385.31
361.616	410.31
361.843	378.31
362.07	379.31
362.296	391.31
362.523	378.31
362.749	366.31
362.976	376.31
363.203	390.31
363.429	354.31
363.656	374.31
363.882	370.31
364.109	362.31
364.335	351.31
364.562	368.31
364.788	350.31
365.015	368.31
365.241	379.31
365.468	368.31
365.694	365.31
365.92	371.31
366.147	368.31
366.373	348.31
366.599	344.31
366.826	377.31
367.052	352.31
367.278	357.31
367.505	376.31
367.731	330.31
367.957	355.31
368.184	382.31
368.41	377.31
368.636	372.31
368.862	384.31
369.089	370.31
369.315	347.31
369.541	355.31
369.767	345.31
369.993	382.31
370.219	364.31
370.445	357.31
370.672	350.31
370.898	349.31
371.124	347.31
371.35	347.31
371.576	348.31
371.802	340.31
372.028	343.31
372.254	354.31
372.48	362.31
372.706	381.31
372.932	363.31
373.158	340.31
373.384	353.31
373.61	349.31
373.835	346.31
374.061	355.31
374.287	368.31
374.513	358.31
374.739	364.31
374.965	357.31
375.191	353.31
375.416	378.31
375.642	364.31
375.868	350.31
376.094	345.31
376.319	337.31
376.545	353.31
376.771	342.31
376.997	348.31
377.222	356.31
377.448	343.31
377.674	333.31
377.899	362.31
378.125	358.31
378.35	342.31
378.576	356.31
378.802	345.31
379.027	332.31
379.253	342.31
379.478	340.31
379.704	346.31
379.929	350.31
380.155	360.31
380.38	340.31
380.606	358.31
380.831	376.31
381.057	346.31
381.282	350.31
381.507	349.31
381.733	351.31
381.958	345.31
382.184	352.31
382.409	369.31
382.634	349.31
382.86	347.31
383.085	360.31
383.31	358.31
383.535	358.31
383.761	360.31
383.986	357.31
384.211	368.31
384.436	370.31
384.662	375.31
384.887	363.31
385.112	363.31
385.337	354.31
385.562	369.31
385.787	357.31
386.013	384.31
386.238	392.31
386.463	394.31
386.688	375.31
386.913	378.31
387.138	353.31
387.363	357.31
387.588	369.31
387.813	380.31
388.038	387.31
388.263	381.31
388.488	361.31
388.713	378.31
388.938	349.31
389.163	373.31
389.387	398.31
389.612	366.31
389.837	361.31
390.062	363.31
390.287	366.31
390.512	372.31
390.736	363.31
390.961	400.31
391.186	363.31
391.411	394.31
391.636	372.31
391.86	398.31
392.085	389.31
392.31	384.31
392.534	380.31
392.759	377.31
392.984	381.31
393.208	387.31
393.433	382.31
393.658	362.31
393.882	376.31
394.107	378.31
394.331	380.31
394.556	372.31
394.78	372.31
395.005	380.31
395.229	381.31
395.454	391.31
395.678	390.31
395.903	393.31
396.127	407.31
396.352	411.31
396.576	402.31
396.801	365.31
397.025	382.31
397.249	402.31
397.474	396.31
397.698	389.31
397.922	410.31
398.147	408.31
398.371	411.31
398.595	423.31
398.82	425.31
399.044	456.31
399.268	423.31
399.492	448.31
399.717	462.31
399.941	475.31
400.165	525.31
400.389	516.31
400.613	477.31
400.837	450.31
401.062	424.31
401.286	435.31
401.51	453.31
401.734	419.31
401.958	419.31
402.182	420.31
402.406	440.31
402.63	430.31
402.854	440.31
403.078	452.31
403.302	442.31
403.526	423.31
403.75	446.31
403.974	436.31
404.198	458.31
404.422	452.31
404.645	440.31
404.869	436.31
405.093	486.31
405.317	520.31
405.541	570.31
405.765	486.31
405.988	496.31
406.212	480.31
406.436	520.31
406.66	506.31
406.883	480.31
407.107	496.31
407.331	518.31
407.555	555.31
407.778	556.31
408.002	515.31
408.226	456.31
408.449	468.31
408.673	469.31
408.896	498.31
409.12	521.31
409.344	516.31
409.567	466.31
409.791	432.31
410.014	434.31
410.238	443.31
410.461	442.31
410.685	434.31
410.908	474.31
411.132	479.31
411.355	496.31
411.578	458.31
411.802	441.31
412.025	450.31
412.249	462.31
412.472	452.31
412.695	497.31
412.919	493.31
413.142	473.31
413.365	443.31
413.589	421.31
413.812	426.31
414.035	407.31
414.258	424.31
414.482	434.31
414.705	405.31
414.928	420.31
415.151	397.31
415.374	404.31
415.597	392.31
415.821	429.31
416.044	414.31
416.267	392.31
416.49	411.31
416.713	417.31
416.936	419.31
417.159	410.31
417.382	416.31
417.605	426.31
417.828	445.31
418.051	432.31
418.274	442.31
418.497	425.31
418.72	432.31
418.943	408.31
419.166	425.31
419.389	444.31
419.611	426.31
419.834	436.31
420.057	450.31
420.28	456.31
420.503	454.31
420.726	438.31
420.948	440.31
421.171	488.31
421.394	501.31
421.617	470.31
421.839	432.31
422.062	451.31
422.285	445.31
422.507	483.31
422.73	545.31
422.953	510.31
423.175	457.31
423.398	429.31
423.621	460.31
423.843	476.31
424.066	482.31
424.288	440.31
424.511	450.31
424.733	526.31
424.956	570.31
425.178	580.31
425.401	560.31
425.623	585.31
425.846	472.31
426.068	473.31
426.291	461.31
426.513	492.31
426.735	509.31
426.958	519.31
427.18	574.31
427.402	657.31
427.625	734.31
427.847	685.31
428.069	576.31
428.292	544.31
428.514	485.31
428.736	450.31
428.958	466.31
429.181	428.31
429.403	429.31
429.625	470.31
429.847	472.31
430.069	520.31
430.292	518.31
430.514	442.31
430.736	421.31
430.958	432.31
431.18	418.31
431.402	407.31
431.624	420.31
431.846	413.31
432.068	425.31
432.29	429.31
432.512	408.31
432.734	411.31
432.956	411.31
433.178	421.31
433.4	421.31
433.622	442.31
433.844	416.31
434.066	413.31
434.287	405.31
434.509	403.31
434.731	416.31
434.953	420.31
435.175	436.31
435.397	451.31
435.618	465.31
435.84	511.31
436.062	564.31
436.284	598.31
436.505	519.31
436.727	483.31
436.949	436.31
437.17	448.31
437.392	448.31
437.614	470.31
437.835	490.31
438.057	546.31
438.278	652.31
438.5	626.31
438.721	693.31
438.943	651.31
439.165	534.31
439.386	494.31
439.608	481.31
439.829	482.31
440.05	519.31
440.272	539.31
440.493	493.31
440.715	460.31
440.936	454.31
441.158	451.31
441.379	422.31
441.6	453.31
441.822	478.31
442.043	524.31
442.264	599.31
442.486	594.31
442.707	527.31
442.928	491.31
443.149	469.31
443.371	520.31
443.592	542.31
443.813	609.31
444.034	629.31
444.255	522.31
444.476	504.31
444.698	464.31
444.919	468.31
445.14	588.31
445.361	548.31
445.582	515.31
445.803	575.31
446.024	638.31
446.245	647.31
446.466	583.31
446.687	496.31
446.908	468.31
447.129	441.31
447.35	432.31
447.571	448.31
447.792	445.31
448.013	457.31
448.234	471.31
448.455	492.31
448.675	581.31
448.896	684.31
449.117	594.31
449.338	562.31
449.559	645.31
449.779	700.31
450	590.31
450.221	469.31
450.442	456.31
450.662	450.31
450.883	463.31
451.104	480.31
451.324	441.31
451.545	439.31
451.766	419.31
451.986	410.31
452.207	400.31
452.428	375.31
452.648	389.31
452.869	385.31
453.089	420.31
453.31	414.31
453.53	390.31
453.751	394.31
453.971	412.31
454.192	444.31
454.412	401.31
454.633	396.31
454.853	390.31
455.073	374.31
455.294	413.31
455.514	466.31
455.734	465.31
455.955	410.31
456.175	380.31
456.395	370.31
456.616	347.31
456.836	382.31
457.056	361.31
457.276	376.31
457.497	374.31
457.717	376.31
457.937	374.31
458.157	378.31
458.377	377.31
458.598	418.31
458.818	471.31
459.038	560.31
459.258	508.31
459.478	460.31
459.698	416.31
459.918	398.31
460.138	396.31
460.358	403.31
460.578	406.31
460.798	424.31
461.018	406.31
461.238	416.31
461.458	389.31
461.678	418.31
461.898	414.31
462.118	378.31
462.338	398.31
462.558	405.31
462.777	440.31
462.997	422.31
463.217	429.31
463.437	428.31
463.657	444.31
463.876	445.31
464.096	437.31
464.316	427.31
464.536	445.31
464.755	459.31
464.975	470.31
465.195	497.31
465.414	574.31
465.634	513.31
465.854	475.31
466.073	416.31
466.293	413.31
466.512	390.31
466.732	392.31
466.951	403.31
467.171	390.31
467.391	421.31
467.61	406.31
467.829	430.31
468.049	422.31
468.268	429.31
468.488	402.31
468.707	392.31
468.927	394.31
469.146	384.31
469.365	405.31
469.585	410.31
469.804	388.31
470.023	414.31
470.243	416.31
470.462	432.31
470.681	435.31
470.901	425.31
471.12	405.31
471.339	427.31
471.558	402.31
471.777	411.31
471.997	411.31
472.216	413.31
472.435	464.31
472.654	461.31
472.873	426.31
473.092	418.31
473.311	387.31
473.53	427.31
473.749	416.31
473.968	462.31
474.187	535.31
474.406	548.31
474.625	456.31
474.844	428.31
475.063	395.31
475.282	406.31
475.501	395.31
475.72	428.31
475.939	424.31
476.158	411.31
476.377	424.31
476.596	404.31
476.814	438.31
477.033	436.31
477.252	426.31
477.471	438.31
477.69	428.31
477.908	459.31
478.127	441.31
478.346	461.31
478.564	441.31
478.783	440.31
479.002	457.31
479.22	476.31
479.439	474.31
479.658	474.31
479.876	495.31
480.095	499.31
480.313	532.31
480.532	516.31
480.751	516.31
480.969	514.31
481.188	584.31
481.406	615.31
481.624	563.31
481.843	534.31
482.061	490.31
482.28	494.31
482.498	470.31
482.717	478.31
482.935	476.31
483.153	486.31
483.372	476.31
483.59	477.31
483.808	475.31
484.027	469.31
484.245	488.31
484.463	483.31
484.681	473.31
484.9	464.31
485.118	502.31
485.336	492.31
485.554	462.31
485.772	483.31
485.99	492.31
486.209	490.31
486.427	490.31
486.645	501.31
486.863	523.31
487.081	525.31
487.299	514.31
487.517	514.31
487.735	535.31
487.953	511.31
488.171	525.31
488.389	512.31
488.607	518.31
488.825	506.31
489.043	515.31
489.261	532.31
489.479	501.31
489.696	516.31
489.914	530.31
490.132	530.31
490.35	533.31
490.568	546.31
490.786	554.31
491.003	566.31
491.221	578.31
491.439	579.31
491.657	593.31
491.874	615.31
492.092	605.31
492.31	610.31
492.527	595.31
492.745	599.31
492.963	602.31
493.18	589.31
493.398	610.31
493.615	612.31
493.833	638.31
494.05	601.31
494.268	618.31
494.485	617.31
494.703	604.31
494.92	618.31
495.138	614.31
495.355	610.31
495.573	617.31
495.79	619.31
496.008	619.31
496.225	621.31
496.442	616.31
496.66	602.31
496.877	598.31
497.094	628.31
497.312	622.31
497.529	604.31
497.746	648.31
497.963	629.31
498.181	645.31
498.398	635.31
498.615	660.31
498.832	678.31
499.049	688.31
499.267	684.31
499.484	710.31
499.701	717.31
499.918	730.31
500.135	736.31
500.352	767.31
500.569	790.31
500.786	785.31
501.003	774.31
501.22	777.31
501.437	742.31
501.654	747.31
501.871	720.31
502.088	730.31
