Data from 1983.PennyLincolnUp.Lamp.En5.5.200Scan.071819.P1_HRD10591_16-55-21-967.txt Node
Date: Thu Jul 18 16:55:21 EDT 2019
User: cochatt
Spectrometer: HR+D1059
Trigger mode: 1
Integration Time (sec): 1.000000E-1
Scans to average: 1
Electric dark correction enabled: true
Nonlinearity correction enabled: false
Boxcar width: 0
XAxis mode: Wavelengths
Number of Pixels in Spectrum: 2048
>>>>>Begin Spectral Data<<<<<
223.165	-13.12
223.4	-13.12
223.635	-13.12
223.869	-20.12
224.104	-21.12
224.338	-3.12
224.573	-8.12
224.808	-25.12
225.042	-20.12
225.277	0.88
225.511	-5.12
225.746	15.88
225.98	6.88
226.215	5.88
226.449	17.88
226.683	11.88
226.918	21.88
227.152	34.88
227.387	38.88
227.621	27.88
227.856	51.88
228.09	44.88
228.324	33.88
228.559	52.88
228.793	70.88
229.027	86.88
229.262	93.88
229.496	109.88
229.73	133.88
229.964	137.88
230.199	120.88
230.433	84.88
230.667	87.88
230.901	115.88
231.136	101.88
231.37	123.88
231.604	102.88
231.838	106.88
232.072	128.88
232.306	101.88
232.541	107.88
232.775	119.88
233.009	114.88
233.243	108.88
233.477	105.88
233.711	118.88
233.945	120.88
234.179	125.88
234.413	113.88
234.647	109.88
234.881	113.88
235.115	110.88
235.349	118.88
235.583	108.88
235.817	121.88
236.051	106.88
236.285	127.88
236.519	136.88
236.753	129.88
236.987	139.88
237.221	154.88
237.455	217.88
237.689	173.88
237.922	138.88
238.156	139.88
238.39	132.88
238.624	113.88
238.858	118.88
239.091	116.88
239.325	116.88
239.559	124.88
239.793	114.88
240.027	130.88
240.26	132.88
240.494	146.88
240.728	131.88
240.961	142.88
241.195	118.88
241.429	133.88
241.662	139.88
241.896	133.88
242.13	125.88
242.363	121.88
242.597	128.88
242.83	122.88
243.064	142.88
243.298	127.88
243.531	145.88
243.765	139.88
243.998	126.88
244.232	124.88
244.465	135.88
244.699	140.88
244.932	125.88
245.166	131.88
245.399	137.88
245.633	149.88
245.866	131.88
246.099	135.88
246.333	154.88
246.566	141.88
246.8	133.88
247.033	147.88
247.266	151.88
247.5	148.88
247.733	167.88
247.966	157.88
248.2	171.88
248.433	153.88
248.666	158.88
248.899	182.88
249.133	179.88
249.366	185.88
249.599	189.88
249.832	169.88
250.066	167.88
250.299	171.88
250.532	181.88
250.765	193.88
250.998	219.88
251.231	215.88
251.465	196.88
251.698	205.88
251.931	179.88
252.164	185.88
252.397	173.88
252.63	199.88
252.863	186.88
253.096	188.88
253.329	209.88
253.562	212.88
253.795	201.88
254.028	213.88
254.261	206.88
254.494	216.88
254.727	226.88
254.96	266.88
255.193	264.88
255.426	228.88
255.659	210.88
255.892	241.88
256.124	249.88
256.357	237.88
256.59	242.88
256.823	202.88
257.056	211.88
257.289	195.88
257.521	202.88
257.754	201.88
257.987	199.88
258.22	179.88
258.452	216.88
258.685	201.88
258.918	192.88
259.151	200.88
259.383	193.88
259.616	193.88
259.849	216.88
260.081	222.88
260.314	220.88
260.547	226.88
260.779	221.88
261.012	218.88
261.244	204.88
261.477	205.88
261.71	200.88
261.942	222.88
262.175	230.88
262.407	233.88
262.64	207.88
262.872	214.88
263.105	211.88
263.337	185.88
263.57	212.88
263.802	196.88
264.035	182.88
264.267	184.88
264.499	200.88
264.732	198.88
264.964	204.88
265.197	195.88
265.429	192.88
265.661	190.88
265.894	195.88
266.126	199.88
266.358	201.88
266.591	204.88
266.823	202.88
267.055	224.88
267.287	221.88
267.52	205.88
267.752	227.88
267.984	206.88
268.216	215.88
268.448	223.88
268.681	213.88
268.913	239.88
269.145	234.88
269.377	257.88
269.609	243.88
269.841	246.88
270.073	253.88
270.306	283.88
270.538	293.88
270.77	270.88
271.002	285.88
271.234	274.88
271.466	275.88
271.698	281.88
271.93	297.88
272.162	292.88
272.394	270.88
272.626	280.88
272.858	263.88
273.09	263.88
273.322	258.88
273.553	257.88
273.785	270.88
274.017	249.88
274.249	252.88
274.481	257.88
274.713	238.88
274.945	239.88
275.176	258.88
275.408	241.88
275.64	248.88
275.872	232.88
276.104	241.88
276.335	241.88
276.567	254.88
276.799	274.88
277.031	293.88
277.262	299.88
277.494	285.88
277.726	255.88
277.957	270.88
278.189	267.88
278.421	254.88
278.652	261.88
278.884	248.88
279.115	245.88
279.347	252.88
279.579	255.88
279.81	258.88
280.042	255.88
280.273	241.88
280.505	239.88
280.736	239.88
280.968	242.88
281.199	255.88
281.431	231.88
281.662	249.88
281.894	241.88
282.125	259.88
282.356	283.88
282.588	269.88
282.819	276.88
283.051	261.88
283.282	246.88
283.513	243.88
283.745	249.88
283.976	256.88
284.207	251.88
284.439	257.88
284.67	241.88
284.901	260.88
285.132	255.88
285.364	235.88
285.595	232.88
285.826	244.88
286.057	250.88
286.288	244.88
286.52	249.88
286.751	244.88
286.982	275.88
287.213	246.88
287.444	252.88
287.675	276.88
287.906	258.88
288.138	265.88
288.369	273.88
288.6	291.88
288.831	271.88
289.062	274.88
289.293	260.88
289.524	259.88
289.755	268.88
289.986	272.88
290.217	265.88
290.448	260.88
290.679	275.88
290.91	253.88
291.141	269.88
291.371	262.88
291.602	267.88
291.833	247.88
292.064	259.88
292.295	270.88
292.526	279.88
292.757	269.88
292.987	258.88
293.218	271.88
293.449	289.88
293.68	273.88
293.91	280.88
294.141	277.88
294.372	272.88
294.603	265.88
294.833	269.88
295.064	274.88
295.295	267.88
295.525	262.88
295.756	269.88
295.987	273.88
296.217	296.88
296.448	303.88
296.679	289.88
296.909	261.88
297.14	263.88
297.37	286.88
297.601	286.88
297.831	295.88
298.062	261.88
298.292	269.88
298.523	275.88
298.753	285.88
298.984	282.88
299.214	274.88
299.445	277.88
299.675	273.88
299.905	279.88
300.136	307.88
300.366	289.88
300.597	277.88
300.827	298.88
301.057	305.88
301.288	299.88
301.518	314.88
301.748	316.88
301.979	309.88
302.209	302.88
302.439	297.88
302.669	291.88
302.9	293.88
303.13	310.88
303.36	300.88
303.59	325.88
303.82	310.88
304.051	325.88
304.281	298.88
304.511	301.88
304.741	293.88
304.971	294.88
305.201	308.88
305.431	303.88
305.661	310.88
305.891	298.88
306.121	298.88
306.352	296.88
306.582	292.88
306.812	307.88
307.042	315.88
307.272	294.88
307.502	312.88
307.731	316.88
307.961	329.88
308.191	305.88
308.421	295.88
308.651	315.88
308.881	318.88
309.111	318.88
309.341	328.88
309.571	327.88
309.8	327.88
310.03	347.88
310.26	327.88
310.49	329.88
310.72	364.88
310.949	366.88
311.179	377.88
311.409	382.88
311.639	328.88
311.868	348.88
312.098	370.88
312.328	357.88
312.557	371.88
312.787	373.88
313.017	374.88
313.246	374.88
313.476	331.88
313.706	345.88
313.935	345.88
314.165	384.88
314.394	393.88
314.624	382.88
314.853	346.88
315.083	346.88
315.312	340.88
315.542	340.88
315.771	349.88
316.001	356.88
316.23	344.88
316.46	335.88
316.689	354.88
316.919	355.88
317.148	337.88
317.377	355.88
317.607	346.88
317.836	345.88
318.065	357.88
318.295	331.88
318.524	347.88
318.753	358.88
318.983	347.88
319.212	371.88
319.441	372.88
319.67	337.88
319.9	371.88
320.129	360.88
320.358	351.88
320.587	354.88
320.816	347.88
321.046	372.88
321.275	368.88
321.504	372.88
321.733	370.88
321.962	374.88
322.191	359.88
322.42	423.88
322.649	424.88
322.878	426.88
323.108	439.88
323.337	446.88
323.566	476.88
323.795	527.88
324.024	577.88
324.253	686.88
324.482	986.88
324.71	1477.88
324.939	1961.88
325.168	1640.88
325.397	896.88
325.626	613.88
325.855	537.88
326.084	484.88
326.313	468.88
326.542	499.88
326.77	535.88
326.999	673.88
327.228	892.88
327.457	1313.88
327.686	1493.88
327.914	988.88
328.143	684.88
328.372	648.88
328.6	593.88
328.829	561.88
329.058	566.88
329.287	576.88
329.515	539.88
329.744	503.88
329.972	508.88
330.201	558.88
330.43	606.88
330.658	637.88
330.887	613.88
331.115	582.88
331.344	492.88
331.572	469.88
331.801	478.88
332.03	472.88
332.258	424.88
332.486	424.88
332.715	450.88
332.943	430.88
333.172	435.88
333.4	431.88
333.629	438.88
333.857	430.88
334.085	470.88
334.314	551.88
334.542	604.88
334.771	625.88
334.999	508.88
335.227	461.88
335.455	437.88
335.684	420.88
335.912	402.88
336.14	407.88
336.369	421.88
336.597	421.88
336.825	427.88
337.053	412.88
337.281	394.88
337.51	405.88
337.738	391.88
337.966	413.88
338.194	413.88
338.422	407.88
338.65	394.88
338.878	381.88
339.106	385.88
339.334	383.88
339.562	365.88
339.79	398.88
340.018	384.88
340.246	402.88
340.474	417.88
340.702	383.88
340.93	400.88
341.158	377.88
341.386	392.88
341.614	399.88
341.842	393.88
342.07	390.88
342.298	383.88
342.526	378.88
342.754	377.88
342.981	373.88
343.209	365.88
343.437	365.88
343.665	390.88
343.893	365.88
344.12	387.88
344.348	404.88
344.576	391.88
344.804	407.88
345.031	409.88
345.259	398.88
345.487	405.88
345.714	396.88
345.942	374.88
346.17	394.88
346.397	372.88
346.625	376.88
346.853	368.88
347.08	374.88
347.308	391.88
347.535	388.88
347.763	383.88
347.99	389.88
348.218	408.88
348.445	385.88
348.673	409.88
348.9	382.88
349.128	380.88
349.355	375.88
349.583	362.88
349.81	353.88
350.037	371.88
350.265	357.88
350.492	371.88
350.72	369.88
350.947	372.88
351.174	386.88
351.402	387.88
351.629	374.88
351.856	385.88
352.083	399.88
352.311	401.88
352.538	394.88
352.765	389.88
352.992	382.88
353.22	380.88
353.447	386.88
353.674	393.88
353.901	356.88
354.128	369.88
354.355	358.88
354.583	357.88
354.81	346.88
355.037	334.88
355.264	361.88
355.491	359.88
355.718	343.88
355.945	361.88
356.172	344.88
356.399	351.88
356.626	330.88
356.853	342.88
357.08	344.88
357.307	333.88
357.534	365.88
357.761	349.88
357.988	342.88
358.215	359.88
358.441	363.88
358.668	373.88
358.895	371.88
359.122	361.88
359.349	365.88
359.576	397.88
359.802	404.88
360.029	422.88
360.256	435.88
360.483	426.88
360.709	376.88
360.936	393.88
361.163	357.88
361.39	385.88
361.616	372.88
361.843	379.88
362.07	379.88
362.296	379.88
362.523	372.88
362.749	377.88
362.976	356.88
363.203	361.88
363.429	360.88
363.656	360.88
363.882	381.88
364.109	357.88
364.335	369.88
364.562	376.88
364.788	355.88
365.015	355.88
365.241	365.88
365.468	369.88
365.694	357.88
365.92	362.88
366.147	356.88
366.373	363.88
366.599	363.88
366.826	361.88
367.052	362.88
367.278	374.88
367.505	361.88
367.731	352.88
367.957	365.88
368.184	366.88
368.41	356.88
368.636	386.88
368.862	372.88
369.089	369.88
369.315	356.88
369.541	355.88
369.767	357.88
369.993	332.88
370.219	361.88
370.445	349.88
370.672	348.88
370.898	352.88
371.124	348.88
371.35	376.88
371.576	364.88
371.802	342.88
372.028	342.88
372.254	340.88
372.48	364.88
372.706	358.88
372.932	354.88
373.158	355.88
373.384	361.88
373.61	373.88
373.835	358.88
374.061	343.88
374.287	338.88
374.513	338.88
374.739	365.88
374.965	351.88
375.191	343.88
375.416	338.88
375.642	345.88
375.868	340.88
376.094	350.88
376.319	340.88
376.545	333.88
376.771	345.88
376.997	338.88
377.222	351.88
377.448	369.88
377.674	350.88
377.899	352.88
378.125	355.88
378.35	327.88
378.576	342.88
378.802	359.88
379.027	350.88
379.253	339.88
379.478	342.88
379.704	340.88
379.929	349.88
380.155	358.88
380.38	357.88
380.606	361.88
380.831	360.88
381.057	361.88
381.282	356.88
381.507	356.88
381.733	335.88
381.958	354.88
382.184	345.88
382.409	338.88
382.634	374.88
382.86	361.88
383.085	356.88
383.31	349.88
383.535	354.88
383.761	355.88
383.986	344.88
384.211	342.88
384.436	359.88
384.662	353.88
384.887	360.88
385.112	359.88
385.337	372.88
385.562	377.88
385.787	363.88
386.013	369.88
386.238	388.88
386.463	385.88
386.688	374.88
386.913	371.88
387.138	358.88
387.363	382.88
387.588	353.88
387.813	381.88
388.038	389.88
388.263	368.88
388.488	367.88
388.713	373.88
388.938	385.88
389.163	366.88
389.387	358.88
389.612	362.88
389.837	377.88
390.062	353.88
390.287	383.88
390.512	359.88
390.736	364.88
390.961	367.88
391.186	392.88
391.411	373.88
391.636	376.88
391.86	387.88
392.085	384.88
392.31	379.88
392.534	375.88
392.759	382.88
392.984	372.88
393.208	360.88
393.433	391.88
393.658	370.88
393.882	369.88
394.107	367.88
394.331	381.88
394.556	366.88
394.78	373.88
395.005	380.88
395.229	381.88
395.454	372.88
395.678	380.88
395.903	374.88
396.127	389.88
396.352	411.88
396.576	381.88
396.801	380.88
397.025	402.88
397.249	388.88
397.474	397.88
397.698	377.88
397.922	402.88
398.147	438.88
398.371	424.88
398.595	396.88
398.82	424.88
399.044	419.88
399.268	417.88
399.492	464.88
399.717	464.88
399.941	484.88
400.165	494.88
400.389	500.88
400.613	482.88
400.837	453.88
401.062	431.88
401.286	428.88
401.51	425.88
401.734	436.88
401.958	405.88
402.182	430.88
402.406	449.88
402.63	454.88
402.854	424.88
403.078	435.88
403.302	439.88
403.526	422.88
403.75	451.88
403.974	447.88
404.198	426.88
404.422	463.88
404.645	459.88
404.869	444.88
405.093	461.88
405.317	537.88
405.541	528.88
405.765	501.88
405.988	471.88
406.212	486.88
406.436	517.88
406.66	511.88
406.883	493.88
407.107	481.88
407.331	516.88
407.555	575.88
407.778	549.88
408.002	523.88
408.226	501.88
408.449	486.88
408.673	491.88
408.896	501.88
409.12	515.88
409.344	499.88
409.567	443.88
409.791	427.88
410.014	437.88
410.238	440.88
410.461	436.88
410.685	434.88
410.908	449.88
411.132	491.88
411.355	510.88
411.578	466.88
411.802	441.88
412.025	434.88
412.249	455.88
412.472	488.88
412.695	531.88
412.919	516.88
413.142	490.88
413.365	441.88
413.589	431.88
413.812	434.88
414.035	437.88
414.258	429.88
414.482	405.88
414.705	407.88
414.928	417.88
415.151	417.88
415.374	414.88
415.597	390.88
415.821	417.88
416.044	416.88
416.267	398.88
416.49	419.88
416.713	415.88
416.936	425.88
417.159	411.88
417.382	411.88
417.605	420.88
417.828	416.88
418.051	437.88
418.274	413.88
418.497	416.88
418.72	411.88
418.943	417.88
419.166	429.88
419.389	419.88
419.611	437.88
419.834	451.88
420.057	455.88
420.28	451.88
420.503	444.88
420.726	462.88
420.948	462.88
421.171	465.88
421.394	485.88
421.617	460.88
421.839	445.88
422.062	434.88
422.285	434.88
422.507	472.88
422.73	543.88
422.953	531.88
423.175	443.88
423.398	446.88
423.621	454.88
423.843	461.88
424.066	477.88
424.288	470.88
424.511	485.88
424.733	520.88
424.956	561.88
425.178	554.88
425.401	583.88
425.623	582.88
425.846	499.88
426.068	474.88
426.291	484.88
426.513	457.88
426.735	476.88
426.958	490.88
427.18	566.88
427.402	667.88
427.625	716.88
427.847	639.88
428.069	613.88
428.292	531.88
428.514	474.88
428.736	466.88
428.958	460.88
429.181	439.88
429.403	425.88
429.625	441.88
429.847	467.88
430.069	531.88
430.292	518.88
430.514	447.88
430.736	430.88
430.958	423.88
431.18	428.88
431.402	405.88
431.624	404.88
431.846	409.88
432.068	404.88
432.29	405.88
432.512	415.88
432.734	414.88
432.956	437.88
433.178	431.88
433.4	440.88
433.622	434.88
433.844	401.88
434.066	413.88
434.287	422.88
434.509	399.88
434.731	429.88
434.953	428.88
435.175	430.88
435.397	457.88
435.618	449.88
435.84	517.88
436.062	587.88
436.284	625.88
436.505	519.88
436.727	476.88
436.949	477.88
437.17	442.88
437.392	429.88
437.614	455.88
437.835	477.88
438.057	540.88
438.278	605.88
438.5	604.88
438.721	637.88
438.943	616.88
439.165	521.88
439.386	492.88
439.608	498.88
439.829	503.88
440.05	491.88
440.272	524.88
440.493	485.88
440.715	455.88
440.936	432.88
441.158	439.88
441.379	429.88
441.6	443.88
441.822	462.88
442.043	505.88
442.264	555.88
442.486	600.88
442.707	524.88
442.928	478.88
443.149	497.88
443.371	509.88
443.592	551.88
443.813	609.88
444.034	650.88
444.255	541.88
444.476	492.88
444.698	494.88
444.919	474.88
445.14	548.88
445.361	523.88
445.582	491.88
445.803	550.88
446.024	647.88
446.245	634.88
446.466	597.88
446.687	497.88
446.908	475.88
447.129	428.88
447.35	437.88
447.571	441.88
447.792	423.88
448.013	431.88
448.234	460.88
448.455	491.88
448.675	600.88
448.896	653.88
449.117	535.88
449.338	534.88
449.559	623.88
449.779	687.88
450	561.88
450.221	481.88
450.442	455.88
450.662	428.88
450.883	435.88
451.104	462.88
451.324	421.88
451.545	404.88
451.766	410.88
451.986	385.88
452.207	398.88
452.428	387.88
452.648	391.88
452.869	391.88
453.089	390.88
453.31	404.88
453.53	405.88
453.751	398.88
453.971	403.88
454.192	431.88
454.412	403.88
454.633	394.88
454.853	385.88
455.073	374.88
455.294	412.88
455.514	477.88
455.734	467.88
455.955	400.88
456.175	374.88
456.395	373.88
456.616	374.88
456.836	357.88
457.056	378.88
457.276	364.88
457.497	361.88
457.717	363.88
457.937	371.88
458.157	375.88
458.377	385.88
458.598	418.88
458.818	450.88
459.038	556.88
459.258	539.88
459.478	470.88
459.698	429.88
459.918	411.88
460.138	413.88
460.358	397.88
460.578	394.88
460.798	409.88
461.018	426.88
461.238	396.88
461.458	415.88
461.678	398.88
461.898	407.88
462.118	411.88
462.338	408.88
462.558	441.88
462.777	414.88
462.997	441.88
463.217	434.88
463.437	438.88
463.657	440.88
463.876	419.88
464.096	426.88
464.316	436.88
464.536	438.88
464.755	436.88
464.975	462.88
465.195	497.88
465.414	547.88
465.634	485.88
465.854	447.88
466.073	400.88
466.293	419.88
466.512	391.88
466.732	414.88
466.951	398.88
467.171	412.88
467.391	405.88
467.61	401.88
467.829	400.88
468.049	412.88
468.268	419.88
468.488	419.88
468.707	411.88
468.927	385.88
469.146	371.88
469.365	377.88
469.585	382.88
469.804	411.88
470.023	403.88
470.243	406.88
470.462	393.88
470.681	443.88
470.901	420.88
471.12	405.88
471.339	410.88
471.558	420.88
471.777	414.88
471.997	411.88
472.216	429.88
472.435	506.88
472.654	468.88
472.873	407.88
473.092	437.88
473.311	410.88
473.53	419.88
473.749	442.88
473.968	473.88
474.187	541.88
474.406	531.88
474.625	460.88
474.844	428.88
475.063	404.88
475.282	411.88
475.501	422.88
475.72	427.88
475.939	411.88
476.158	420.88
476.377	405.88
476.596	406.88
476.814	436.88
477.033	439.88
477.252	445.88
477.471	434.88
477.69	450.88
477.908	465.88
478.127	431.88
478.346	458.88
478.564	439.88
478.783	451.88
479.002	443.88
479.22	447.88
479.439	484.88
479.658	469.88
479.876	510.88
480.095	478.88
480.313	533.88
480.532	499.88
480.751	492.88
480.969	553.88
481.188	649.88
481.406	735.88
481.624	588.88
481.843	521.88
482.061	504.88
482.28	511.88
482.498	491.88
482.717	498.88
482.935	486.88
483.153	471.88
483.372	492.88
483.59	496.88
483.808	481.88
484.027	480.88
484.245	480.88
484.463	488.88
484.681	476.88
484.9	497.88
485.118	507.88
485.336	485.88
485.554	491.88
485.772	495.88
485.99	489.88
486.209	474.88
486.427	506.88
486.645	502.88
486.863	513.88
487.081	539.88
487.299	516.88
487.517	513.88
487.735	515.88
487.953	506.88
488.171	505.88
488.389	511.88
488.607	519.88
488.825	513.88
489.043	515.88
489.261	513.88
489.479	523.88
489.696	518.88
489.914	532.88
490.132	528.88
490.35	520.88
490.568	543.88
490.786	547.88
491.003	555.88
491.221	558.88
491.439	595.88
491.657	600.88
491.874	607.88
492.092	598.88
492.31	614.88
492.527	603.88
492.745	614.88
492.963	617.88
493.18	644.88
493.398	634.88
493.615	612.88
493.833	623.88
494.05	608.88
494.268	603.88
494.485	623.88
494.703	611.88
494.92	622.88
495.138	616.88
495.355	589.88
495.573	618.88
495.79	600.88
496.008	633.88
496.225	611.88
496.442	605.88
496.66	604.88
496.877	617.88
497.094	606.88
497.312	617.88
497.529	627.88
497.746	635.88
497.963	633.88
498.181	640.88
498.398	652.88
498.615	658.88
498.832	656.88
499.049	662.88
499.267	685.88
499.484	694.88
499.701	724.88
499.918	733.88
500.135	741.88
500.352	806.88
500.569	811.88
500.786	781.88
501.003	781.88
501.22	766.88
501.437	784.88
501.654	743.88
501.871	743.88
502.088	725.88
