Data from 1983.PennyLincolnUp.Lamp.En5.5.200Scan.071819.P1_HRD10591_16-52-38-965.txt Node
Date: Thu Jul 18 16:52:38 EDT 2019
User: cochatt
Spectrometer: HR+D1059
Trigger mode: 1
Integration Time (sec): 1.000000E-1
Scans to average: 1
Electric dark correction enabled: true
Nonlinearity correction enabled: false
Boxcar width: 0
XAxis mode: Wavelengths
Number of Pixels in Spectrum: 2048
>>>>>Begin Spectral Data<<<<<
223.165	-19.38
223.4	-19.38
223.635	-19.38
223.869	-25.38
224.104	-4.38
224.338	-25.38
224.573	-4.38
224.808	-28.38
225.042	-16.38
225.277	2.62
225.511	-8.38
225.746	8.62
225.98	6.62
226.215	22.62
226.449	11.62
226.683	26.62
226.918	16.62
227.152	36.62
227.387	45.62
227.621	38.62
227.856	64.62
228.09	45.62
228.324	64.62
228.559	62.62
228.793	63.62
229.027	91.62
229.262	112.62
229.496	110.62
229.73	129.62
229.964	126.62
230.199	97.62
230.433	99.62
230.667	102.62
230.901	107.62
231.136	103.62
231.37	96.62
231.604	95.62
231.838	94.62
232.072	104.62
232.306	98.62
232.541	103.62
232.775	102.62
233.009	113.62
233.243	108.62
233.477	92.62
233.711	108.62
233.945	113.62
234.179	116.62
234.413	101.62
234.647	115.62
234.881	102.62
235.115	102.62
235.349	115.62
235.583	114.62
235.817	107.62
236.051	119.62
236.285	85.62
236.519	105.62
236.753	120.62
236.987	129.62
237.221	157.62
237.455	198.62
237.689	144.62
237.922	131.62
238.156	128.62
238.39	119.62
238.624	115.62
238.858	116.62
239.091	105.62
239.325	107.62
239.559	112.62
239.793	121.62
240.027	122.62
240.26	127.62
240.494	129.62
240.728	125.62
240.961	141.62
241.195	128.62
241.429	127.62
241.662	118.62
241.896	113.62
242.13	129.62
242.363	108.62
242.597	117.62
242.83	115.62
243.064	128.62
243.298	119.62
243.531	113.62
243.765	126.62
243.998	134.62
244.232	124.62
244.465	118.62
244.699	138.62
244.932	125.62
245.166	131.62
245.399	135.62
245.633	125.62
245.866	127.62
246.099	117.62
246.333	118.62
246.566	135.62
246.8	132.62
247.033	145.62
247.266	138.62
247.5	147.62
247.733	147.62
247.966	154.62
248.2	143.62
248.433	149.62
248.666	155.62
248.899	159.62
249.133	176.62
249.366	175.62
249.599	163.62
249.832	158.62
250.066	147.62
250.299	164.62
250.532	164.62
250.765	175.62
250.998	170.62
251.231	175.62
251.465	186.62
251.698	170.62
251.931	173.62
252.164	172.62
252.397	183.62
252.63	175.62
252.863	154.62
253.096	191.62
253.329	195.62
253.562	181.62
253.795	171.62
254.028	179.62
254.261	195.62
254.494	196.62
254.727	199.62
254.96	222.62
255.193	205.62
255.426	218.62
255.659	203.62
255.892	192.62
256.124	184.62
256.357	183.62
256.59	181.62
256.823	189.62
257.056	180.62
257.289	191.62
257.521	178.62
257.754	175.62
257.987	179.62
258.22	182.62
258.452	182.62
258.685	176.62
258.918	182.62
259.151	177.62
259.383	165.62
259.616	194.62
259.849	191.62
260.081	210.62
260.314	201.62
260.547	202.62
260.779	199.62
261.012	206.62
261.244	200.62
261.477	209.62
261.71	207.62
261.942	197.62
262.175	193.62
262.407	188.62
262.64	184.62
262.872	182.62
263.105	187.62
263.337	201.62
263.57	189.62
263.802	185.62
264.035	186.62
264.267	187.62
264.499	179.62
264.732	175.62
264.964	197.62
265.197	187.62
265.429	181.62
265.661	182.62
265.894	193.62
266.126	183.62
266.358	193.62
266.591	186.62
266.823	202.62
267.055	190.62
267.287	193.62
267.52	201.62
267.752	199.62
267.984	199.62
268.216	183.62
268.448	211.62
268.681	203.62
268.913	205.62
269.145	232.62
269.377	256.62
269.609	247.62
269.841	232.62
270.073	234.62
270.306	250.62
270.538	265.62
270.77	259.62
271.002	235.62
271.234	248.62
271.466	235.62
271.698	251.62
271.93	262.62
272.162	277.62
272.394	278.62
272.626	250.62
272.858	239.62
273.09	241.62
273.322	239.62
273.553	223.62
273.785	219.62
274.017	233.62
274.249	227.62
274.481	228.62
274.713	240.62
274.945	229.62
275.176	228.62
275.408	224.62
275.64	221.62
275.872	245.62
276.104	234.62
276.335	232.62
276.567	235.62
276.799	244.62
277.031	245.62
277.262	264.62
277.494	264.62
277.726	232.62
277.957	225.62
278.189	245.62
278.421	229.62
278.652	243.62
278.884	232.62
279.115	232.62
279.347	254.62
279.579	229.62
279.81	230.62
280.042	224.62
280.273	224.62
280.505	222.62
280.736	235.62
280.968	227.62
281.199	228.62
281.431	242.62
281.662	227.62
281.894	227.62
282.125	220.62
282.356	232.62
282.588	258.62
282.819	274.62
283.051	249.62
283.282	231.62
283.513	241.62
283.745	246.62
283.976	233.62
284.207	236.62
284.439	250.62
284.67	239.62
284.901	228.62
285.132	234.62
285.364	227.62
285.595	239.62
285.826	221.62
286.057	228.62
286.288	219.62
286.52	251.62
286.751	226.62
286.982	237.62
287.213	235.62
287.444	246.62
287.675	235.62
287.906	254.62
288.138	257.62
288.369	244.62
288.6	245.62
288.831	253.62
289.062	257.62
289.293	252.62
289.524	256.62
289.755	246.62
289.986	251.62
290.217	242.62
290.448	253.62
290.679	246.62
290.91	235.62
291.141	247.62
291.371	259.62
291.602	247.62
291.833	229.62
292.064	257.62
292.295	230.62
292.526	236.62
292.757	264.62
292.987	258.62
293.218	248.62
293.449	237.62
293.68	234.62
293.91	255.62
294.141	247.62
294.372	239.62
294.603	237.62
294.833	242.62
295.064	245.62
295.295	255.62
295.525	253.62
295.756	242.62
295.987	280.62
296.217	278.62
296.448	265.62
296.679	255.62
296.909	259.62
297.14	251.62
297.37	263.62
297.601	250.62
297.831	264.62
298.062	251.62
298.292	261.62
298.523	264.62
298.753	260.62
298.984	249.62
299.214	260.62
299.445	252.62
299.675	267.62
299.905	281.62
300.136	259.62
300.366	266.62
300.597	239.62
300.827	255.62
301.057	270.62
301.288	280.62
301.518	271.62
301.748	271.62
301.979	287.62
302.209	299.62
302.439	282.62
302.669	281.62
302.9	274.62
303.13	282.62
303.36	304.62
303.59	305.62
303.82	283.62
304.051	279.62
304.281	267.62
304.511	283.62
304.741	278.62
304.971	263.62
305.201	272.62
305.431	261.62
305.661	286.62
305.891	279.62
306.121	270.62
306.352	275.62
306.582	301.62
306.812	303.62
307.042	287.62
307.272	283.62
307.502	289.62
307.731	284.62
307.961	294.62
308.191	294.62
308.421	292.62
308.651	293.62
308.881	298.62
309.111	292.62
309.341	290.62
309.571	316.62
309.8	304.62
310.03	317.62
310.26	322.62
310.49	309.62
310.72	332.62
310.949	337.62
311.179	352.62
311.409	307.62
311.639	306.62
311.868	328.62
312.098	308.62
312.328	337.62
312.557	339.62
312.787	352.62
313.017	341.62
313.246	332.62
313.476	307.62
313.706	336.62
313.935	330.62
314.165	325.62
314.394	335.62
314.624	347.62
314.853	343.62
315.083	340.62
315.312	319.62
315.542	307.62
315.771	303.62
316.001	313.62
316.23	335.62
316.46	317.62
316.689	311.62
316.919	320.62
317.148	326.62
317.377	325.62
317.607	344.62
317.836	321.62
318.065	320.62
318.295	344.62
318.524	326.62
318.753	317.62
318.983	319.62
319.212	327.62
319.441	319.62
319.67	342.62
319.9	339.62
320.129	324.62
320.358	327.62
320.587	331.62
320.816	329.62
321.046	337.62
321.275	331.62
321.504	330.62
321.733	342.62
321.962	347.62
322.191	336.62
322.42	360.62
322.649	376.62
322.878	356.62
323.108	383.62
323.337	422.62
323.566	391.62
323.795	440.62
324.024	501.62
324.253	586.62
324.482	835.62
324.71	1233.62
324.939	1647.62
325.168	1343.62
325.397	737.62
325.626	533.62
325.855	461.62
326.084	437.62
326.313	410.62
326.542	428.62
326.77	482.62
326.999	557.62
327.228	757.62
327.457	1050.62
327.686	1188.62
327.914	818.62
328.143	578.62
328.372	493.62
328.6	474.62
328.829	464.62
329.058	503.62
329.287	474.62
329.515	461.62
329.744	421.62
329.972	408.62
330.201	409.62
330.43	431.62
330.658	483.62
330.887	497.62
331.115	488.62
331.344	419.62
331.572	397.62
331.801	413.62
332.03	404.62
332.258	365.62
332.486	385.62
332.715	387.62
332.943	373.62
333.172	376.62
333.4	356.62
333.629	389.62
333.857	385.62
334.085	403.62
334.314	385.62
334.542	370.62
334.771	399.62
334.999	370.62
335.227	378.62
335.455	371.62
335.684	365.62
335.912	369.62
336.14	377.62
336.369	391.62
336.597	373.62
336.825	385.62
337.053	362.62
337.281	365.62
337.51	359.62
337.738	359.62
337.966	372.62
338.194	375.62
338.422	377.62
338.65	369.62
338.878	374.62
339.106	332.62
339.334	370.62
339.562	374.62
339.79	371.62
340.018	378.62
340.246	375.62
340.474	370.62
340.702	361.62
340.93	347.62
341.158	347.62
341.386	376.62
341.614	351.62
341.842	358.62
342.07	338.62
342.298	327.62
342.526	365.62
342.754	359.62
342.981	337.62
343.209	347.62
343.437	361.62
343.665	362.62
343.893	371.62
344.12	367.62
344.348	375.62
344.576	385.62
344.804	367.62
345.031	378.62
345.259	402.62
345.487	364.62
345.714	370.62
345.942	371.62
346.17	358.62
346.397	354.62
346.625	351.62
346.853	346.62
347.08	337.62
347.308	352.62
347.535	369.62
347.763	365.62
347.99	369.62
348.218	359.62
348.445	347.62
348.673	358.62
348.9	356.62
349.128	349.62
349.355	347.62
349.583	337.62
349.81	336.62
350.037	335.62
350.265	339.62
350.492	341.62
350.72	339.62
350.947	349.62
351.174	359.62
351.402	361.62
351.629	356.62
351.856	339.62
352.083	363.62
352.311	370.62
352.538	368.62
352.765	365.62
352.992	370.62
353.22	349.62
353.447	362.62
353.674	335.62
353.901	314.62
354.128	339.62
354.355	315.62
354.583	322.62
354.81	332.62
355.037	324.62
355.264	343.62
355.491	329.62
355.718	320.62
355.945	325.62
356.172	324.62
356.399	334.62
356.626	325.62
356.853	326.62
357.08	328.62
357.307	328.62
357.534	327.62
357.761	325.62
357.988	317.62
358.215	324.62
358.441	336.62
358.668	350.62
358.895	332.62
359.122	326.62
359.349	340.62
359.576	353.62
359.802	362.62
360.029	380.62
360.256	407.62
360.483	389.62
360.709	356.62
360.936	359.62
361.163	336.62
361.39	341.62
361.616	350.62
361.843	330.62
362.07	333.62
362.296	346.62
362.523	350.62
362.749	339.62
362.976	349.62
363.203	346.62
363.429	339.62
363.656	336.62
363.882	335.62
364.109	338.62
364.335	337.62
364.562	333.62
364.788	336.62
365.015	316.62
365.241	338.62
365.468	346.62
365.694	343.62
365.92	328.62
366.147	344.62
366.373	332.62
366.599	341.62
366.826	341.62
367.052	342.62
367.278	331.62
367.505	322.62
367.731	342.62
367.957	328.62
368.184	335.62
368.41	341.62
368.636	362.62
368.862	348.62
369.089	359.62
369.315	328.62
369.541	339.62
369.767	345.62
369.993	345.62
370.219	325.62
370.445	340.62
370.672	331.62
370.898	343.62
371.124	338.62
371.35	350.62
371.576	337.62
371.802	345.62
372.028	331.62
372.254	332.62
372.48	333.62
372.706	325.62
372.932	339.62
373.158	320.62
373.384	339.62
373.61	347.62
373.835	335.62
374.061	339.62
374.287	339.62
374.513	344.62
374.739	337.62
374.965	335.62
375.191	350.62
375.416	332.62
375.642	331.62
375.868	315.62
376.094	329.62
376.319	331.62
376.545	329.62
376.771	331.62
376.997	336.62
377.222	345.62
377.448	316.62
377.674	321.62
377.899	334.62
378.125	328.62
378.35	318.62
378.576	351.62
378.802	336.62
379.027	335.62
379.253	335.62
379.478	323.62
379.704	333.62
379.929	320.62
380.155	337.62
380.38	330.62
380.606	338.62
380.831	351.62
381.057	342.62
381.282	323.62
381.507	328.62
381.733	340.62
381.958	328.62
382.184	327.62
382.409	337.62
382.634	344.62
382.86	341.62
383.085	332.62
383.31	347.62
383.535	357.62
383.761	346.62
383.986	352.62
384.211	330.62
384.436	356.62
384.662	340.62
384.887	343.62
385.112	359.62
385.337	357.62
385.562	361.62
385.787	364.62
386.013	371.62
386.238	371.62
386.463	346.62
386.688	363.62
386.913	365.62
387.138	354.62
387.363	351.62
387.588	355.62
387.813	360.62
388.038	368.62
388.263	360.62
388.488	361.62
388.713	363.62
388.938	353.62
389.163	374.62
389.387	355.62
389.612	342.62
389.837	351.62
390.062	354.62
390.287	357.62
390.512	334.62
390.736	355.62
390.961	344.62
391.186	359.62
391.411	343.62
391.636	365.62
391.86	376.62
392.085	359.62
392.31	357.62
392.534	375.62
392.759	371.62
392.984	349.62
393.208	373.62
393.433	355.62
393.658	372.62
393.882	367.62
394.107	359.62
394.331	367.62
394.556	361.62
394.78	337.62
395.005	367.62
395.229	357.62
395.454	358.62
395.678	358.62
395.903	370.62
396.127	389.62
396.352	381.62
396.576	373.62
396.801	381.62
397.025	377.62
397.249	372.62
397.474	380.62
397.698	375.62
397.922	390.62
398.147	391.62
398.371	401.62
398.595	392.62
398.82	389.62
399.044	420.62
399.268	426.62
399.492	460.62
399.717	443.62
399.941	478.62
400.165	485.62
400.389	509.62
400.613	434.62
400.837	409.62
401.062	423.62
401.286	425.62
401.51	421.62
401.734	401.62
401.958	410.62
402.182	387.62
402.406	419.62
402.63	411.62
402.854	427.62
403.078	401.62
403.302	404.62
403.526	424.62
403.75	418.62
403.974	418.62
404.198	387.62
404.422	421.62
404.645	416.62
404.869	420.62
405.093	431.62
405.317	414.62
405.541	467.62
405.765	458.62
405.988	435.62
406.212	449.62
406.436	443.62
406.66	456.62
406.883	436.62
407.107	484.62
407.331	497.62
407.555	543.62
407.778	540.62
408.002	477.62
408.226	449.62
408.449	475.62
408.673	447.62
408.896	488.62
409.12	508.62
409.344	473.62
409.567	453.62
409.791	427.62
410.014	420.62
410.238	424.62
410.461	413.62
410.685	408.62
410.908	409.62
411.132	469.62
411.355	451.62
411.578	463.62
411.802	416.62
412.025	411.62
412.249	401.62
412.472	414.62
412.695	413.62
412.919	405.62
413.142	404.62
413.365	383.62
413.589	425.62
413.812	387.62
414.035	387.62
414.258	384.62
414.482	395.62
414.705	381.62
414.928	395.62
415.151	404.62
415.374	384.62
415.597	395.62
415.821	393.62
416.044	395.62
416.267	393.62
416.49	404.62
416.713	384.62
416.936	378.62
417.159	404.62
417.382	395.62
417.605	393.62
417.828	410.62
418.051	417.62
418.274	422.62
418.497	423.62
418.72	400.62
418.943	403.62
419.166	389.62
419.389	425.62
419.611	416.62
419.834	419.62
420.057	403.62
420.28	389.62
420.503	403.62
420.726	397.62
420.948	424.62
421.171	449.62
421.394	481.62
421.617	405.62
421.839	397.62
422.062	404.62
422.285	418.62
422.507	460.62
422.73	500.62
422.953	496.62
423.175	445.62
423.398	428.62
423.621	441.62
423.843	435.62
424.066	433.62
424.288	436.62
424.511	469.62
424.733	486.62
424.956	559.62
425.178	553.62
425.401	536.62
425.623	536.62
425.846	452.62
426.068	467.62
426.291	421.62
426.513	423.62
426.735	451.62
426.958	487.62
427.18	537.62
427.402	633.62
427.625	678.62
427.847	593.62
428.069	517.62
428.292	476.62
428.514	446.62
428.736	405.62
428.958	419.62
429.181	399.62
429.403	397.62
429.625	417.62
429.847	449.62
430.069	490.62
430.292	480.62
430.514	424.62
430.736	416.62
430.958	412.62
431.18	400.62
431.402	393.62
431.624	400.62
431.846	380.62
432.068	379.62
432.29	388.62
432.512	403.62
432.734	389.62
432.956	391.62
433.178	402.62
433.4	379.62
433.622	391.62
433.844	398.62
434.066	380.62
434.287	399.62
434.509	381.62
434.731	418.62
434.953	409.62
435.175	410.62
435.397	442.62
435.618	444.62
435.84	476.62
436.062	539.62
436.284	565.62
436.505	461.62
436.727	461.62
436.949	411.62
437.17	431.62
437.392	387.62
437.614	419.62
437.835	466.62
438.057	535.62
438.278	565.62
438.5	580.62
438.721	625.62
438.943	589.62
439.165	490.62
439.386	453.62
439.608	459.62
439.829	453.62
440.05	473.62
440.272	488.62
440.493	476.62
440.715	439.62
440.936	434.62
441.158	413.62
441.379	418.62
441.6	443.62
441.822	435.62
442.043	469.62
442.264	537.62
442.486	557.62
442.707	472.62
442.928	453.62
443.149	457.62
443.371	483.62
443.592	523.62
443.813	572.62
444.034	615.62
444.255	523.62
444.476	474.62
444.698	468.62
444.919	442.62
445.14	559.62
445.361	500.62
445.582	510.62
445.803	547.62
446.024	610.62
446.245	594.62
446.466	536.62
446.687	476.62
446.908	447.62
447.129	435.62
447.35	413.62
447.571	416.62
447.792	388.62
448.013	414.62
448.234	447.62
448.455	454.62
448.675	551.62
448.896	619.62
449.117	521.62
449.338	520.62
449.559	608.62
449.779	663.62
450	519.62
450.221	443.62
450.442	403.62
450.662	408.62
450.883	401.62
451.104	426.62
451.324	430.62
451.545	395.62
451.766	379.62
451.986	379.62
452.207	361.62
452.428	368.62
452.648	362.62
452.869	369.62
453.089	381.62
453.31	385.62
453.53	384.62
453.751	378.62
453.971	383.62
454.192	394.62
454.412	377.62
454.633	370.62
454.853	381.62
455.073	363.62
455.294	386.62
455.514	459.62
455.734	422.62
455.955	377.62
456.175	347.62
456.395	359.62
456.616	356.62
456.836	354.62
457.056	337.62
457.276	339.62
457.497	346.62
457.717	365.62
457.937	344.62
458.157	370.62
458.377	368.62
458.598	393.62
458.818	442.62
459.038	471.62
459.258	498.62
459.478	435.62
459.698	400.62
459.918	411.62
460.138	385.62
460.358	384.62
460.578	392.62
460.798	402.62
461.018	399.62
461.238	383.62
461.458	378.62
461.678	390.62
461.898	381.62
462.118	385.62
462.338	387.62
462.558	396.62
462.777	417.62
462.997	421.62
463.217	434.62
463.437	433.62
463.657	410.62
463.876	421.62
464.096	426.62
464.316	411.62
464.536	421.62
464.755	418.62
464.975	424.62
465.195	472.62
465.414	487.62
465.634	466.62
465.854	431.62
466.073	409.62
466.293	391.62
466.512	385.62
466.732	370.62
466.951	378.62
467.171	392.62
467.391	380.62
467.61	362.62
467.829	408.62
468.049	391.62
468.268	373.62
468.488	369.62
468.707	346.62
468.927	363.62
469.146	358.62
469.365	356.62
469.585	383.62
469.804	383.62
470.023	376.62
470.243	392.62
470.462	373.62
470.681	411.62
470.901	374.62
471.12	395.62
471.339	381.62
471.558	383.62
471.777	383.62
471.997	371.62
472.216	371.62
472.435	372.62
472.654	384.62
472.873	360.62
473.092	370.62
473.311	389.62
473.53	380.62
473.749	396.62
473.968	438.62
474.187	500.62
474.406	520.62
474.625	420.62
474.844	398.62
475.063	389.62
475.282	380.62
475.501	387.62
475.72	397.62
475.939	376.62
476.158	412.62
476.377	393.62
476.596	380.62
476.814	397.62
477.033	389.62
477.252	395.62
477.471	408.62
477.69	377.62
477.908	398.62
478.127	424.62
478.346	421.62
478.564	420.62
478.783	407.62
479.002	434.62
479.22	411.62
479.439	429.62
479.658	461.62
479.876	474.62
480.095	456.62
480.313	467.62
480.532	474.62
480.751	454.62
480.969	452.62
481.188	465.62
481.406	484.62
481.624	456.62
481.843	415.62
482.061	435.62
482.28	451.62
482.498	452.62
482.717	437.62
482.935	437.62
483.153	428.62
483.372	445.62
483.59	459.62
483.808	460.62
484.027	455.62
484.245	455.62
484.463	450.62
484.681	459.62
484.9	454.62
485.118	449.62
485.336	475.62
485.554	475.62
485.772	467.62
485.99	446.62
486.209	449.62
486.427	456.62
486.645	478.62
486.863	482.62
487.081	476.62
487.299	469.62
487.517	474.62
487.735	492.62
487.953	476.62
488.171	469.62
488.389	477.62
488.607	478.62
488.825	479.62
489.043	486.62
489.261	490.62
489.479	499.62
489.696	480.62
489.914	482.62
490.132	497.62
490.35	497.62
490.568	506.62
490.786	495.62
491.003	532.62
491.221	529.62
491.439	523.62
491.657	517.62
491.874	523.62
492.092	550.62
492.31	531.62
492.527	560.62
492.745	550.62
492.963	522.62
493.18	545.62
493.398	533.62
493.615	566.62
493.833	553.62
494.05	567.62
494.268	559.62
494.485	568.62
494.703	564.62
494.92	546.62
495.138	559.62
495.355	583.62
495.573	563.62
495.79	563.62
496.008	563.62
496.225	565.62
496.442	555.62
496.66	579.62
496.877	569.62
497.094	559.62
497.312	552.62
497.529	574.62
497.746	569.62
497.963	609.62
498.181	596.62
498.398	625.62
498.615	627.62
498.832	641.62
499.049	619.62
499.267	627.62
499.484	662.62
499.701	700.62
499.918	709.62
500.135	700.62
500.352	738.62
500.569	753.62
500.786	756.62
501.003	753.62
501.22	725.62
501.437	738.62
501.654	708.62
501.871	697.62
502.088	696.62
