Data from 1983.PennyLincolnUp.Lamp.En5.5.200Scan.071819.P1_HRD10591_16-52-29-964.txt Node
Date: Thu Jul 18 16:52:29 EDT 2019
User: cochatt
Spectrometer: HR+D1059
Trigger mode: 1
Integration Time (sec): 1.000000E-1
Scans to average: 1
Electric dark correction enabled: true
Nonlinearity correction enabled: false
Boxcar width: 0
XAxis mode: Wavelengths
Number of Pixels in Spectrum: 2048
>>>>>Begin Spectral Data<<<<<
223.165	-26.5
223.4	-26.5
223.635	-26.5
223.869	-22.5
224.104	-17.5
224.338	-1.5
224.573	-6.5
224.808	-16.5
225.042	5.5
225.277	-10.5
225.511	9.5
225.746	13.5
225.98	5.5
226.215	4.5
226.449	26.5
226.683	7.5
226.918	17.5
227.152	11.5
227.387	34.5
227.621	49.5
227.856	37.5
228.09	40.5
228.324	49.5
228.559	46.5
228.793	62.5
229.027	88.5
229.262	98.5
229.496	92.5
229.73	119.5
229.964	119.5
230.199	104.5
230.433	129.5
230.667	101.5
230.901	113.5
231.136	98.5
231.37	98.5
231.604	103.5
231.838	106.5
232.072	106.5
232.306	98.5
232.541	101.5
232.775	95.5
233.009	115.5
233.243	97.5
233.477	118.5
233.711	90.5
233.945	94.5
234.179	99.5
234.413	97.5
234.647	111.5
234.881	115.5
235.115	114.5
235.349	107.5
235.583	118.5
235.817	101.5
236.051	123.5
236.285	109.5
236.519	119.5
236.753	116.5
236.987	136.5
237.221	167.5
237.455	191.5
237.689	162.5
237.922	131.5
238.156	118.5
238.39	124.5
238.624	111.5
238.858	106.5
239.091	120.5
239.325	113.5
239.559	122.5
239.793	108.5
240.027	114.5
240.26	118.5
240.494	128.5
240.728	134.5
240.961	131.5
241.195	123.5
241.429	125.5
241.662	125.5
241.896	124.5
242.13	138.5
242.363	119.5
242.597	103.5
242.83	115.5
243.064	121.5
243.298	127.5
243.531	140.5
243.765	133.5
243.998	134.5
244.232	137.5
244.465	125.5
244.699	117.5
244.932	133.5
245.166	124.5
245.399	122.5
245.633	136.5
245.866	129.5
246.099	130.5
246.333	121.5
246.566	137.5
246.8	132.5
247.033	130.5
247.266	153.5
247.5	135.5
247.733	150.5
247.966	146.5
248.2	147.5
248.433	141.5
248.666	151.5
248.899	166.5
249.133	192.5
249.366	186.5
249.599	165.5
249.832	158.5
250.066	166.5
250.299	167.5
250.532	170.5
250.765	161.5
250.998	185.5
251.231	195.5
251.465	190.5
251.698	181.5
251.931	171.5
252.164	171.5
252.397	171.5
252.63	154.5
252.863	169.5
253.096	185.5
253.329	191.5
253.562	174.5
253.795	179.5
254.028	177.5
254.261	189.5
254.494	174.5
254.727	212.5
254.96	224.5
255.193	216.5
255.426	205.5
255.659	190.5
255.892	198.5
256.124	169.5
256.357	185.5
256.59	170.5
256.823	162.5
257.056	187.5
257.289	193.5
257.521	176.5
257.754	189.5
257.987	170.5
258.22	190.5
258.452	175.5
258.685	169.5
258.918	177.5
259.151	196.5
259.383	182.5
259.616	185.5
259.849	189.5
260.081	202.5
260.314	218.5
260.547	223.5
260.779	208.5
261.012	198.5
261.244	201.5
261.477	192.5
261.71	212.5
261.942	202.5
262.175	196.5
262.407	187.5
262.64	181.5
262.872	174.5
263.105	200.5
263.337	185.5
263.57	166.5
263.802	196.5
264.035	189.5
264.267	185.5
264.499	184.5
264.732	190.5
264.964	177.5
265.197	180.5
265.429	180.5
265.661	193.5
265.894	181.5
266.126	183.5
266.358	169.5
266.591	171.5
266.823	182.5
267.055	204.5
267.287	186.5
267.52	174.5
267.752	187.5
267.984	190.5
268.216	199.5
268.448	205.5
268.681	192.5
268.913	195.5
269.145	196.5
269.377	223.5
269.609	225.5
269.841	221.5
270.073	215.5
270.306	233.5
270.538	254.5
270.77	267.5
271.002	250.5
271.234	237.5
271.466	262.5
271.698	261.5
271.93	226.5
272.162	261.5
272.394	248.5
272.626	257.5
272.858	234.5
273.09	228.5
273.322	223.5
273.553	234.5
273.785	238.5
274.017	216.5
274.249	230.5
274.481	221.5
274.713	211.5
274.945	234.5
275.176	228.5
275.408	236.5
275.64	230.5
275.872	228.5
276.104	237.5
276.335	227.5
276.567	220.5
276.799	228.5
277.031	265.5
277.262	247.5
277.494	261.5
277.726	269.5
277.957	247.5
278.189	233.5
278.421	207.5
278.652	236.5
278.884	213.5
279.115	218.5
279.347	199.5
279.579	227.5
279.81	231.5
280.042	214.5
280.273	215.5
280.505	230.5
280.736	235.5
280.968	232.5
281.199	218.5
281.431	218.5
281.662	220.5
281.894	220.5
282.125	218.5
282.356	247.5
282.588	252.5
282.819	225.5
283.051	236.5
283.282	229.5
283.513	251.5
283.745	246.5
283.976	223.5
284.207	248.5
284.439	251.5
284.67	244.5
284.901	231.5
285.132	247.5
285.364	236.5
285.595	238.5
285.826	251.5
286.057	225.5
286.288	211.5
286.52	223.5
286.751	236.5
286.982	225.5
287.213	219.5
287.444	245.5
287.675	262.5
287.906	237.5
288.138	263.5
288.369	245.5
288.6	246.5
288.831	246.5
289.062	246.5
289.293	234.5
289.524	246.5
289.755	235.5
289.986	239.5
290.217	242.5
290.448	247.5
290.679	248.5
290.91	249.5
291.141	234.5
291.371	241.5
291.602	251.5
291.833	241.5
292.064	245.5
292.295	253.5
292.526	259.5
292.757	250.5
292.987	254.5
293.218	233.5
293.449	216.5
293.68	253.5
293.91	251.5
294.141	247.5
294.372	247.5
294.603	253.5
294.833	241.5
295.064	242.5
295.295	233.5
295.525	241.5
295.756	244.5
295.987	248.5
296.217	279.5
296.448	273.5
296.679	251.5
296.909	268.5
297.14	255.5
297.37	270.5
297.601	265.5
297.831	266.5
298.062	257.5
298.292	238.5
298.523	243.5
298.753	245.5
298.984	271.5
299.214	249.5
299.445	234.5
299.675	261.5
299.905	257.5
300.136	269.5
300.366	250.5
300.597	245.5
300.827	259.5
301.057	273.5
301.288	263.5
301.518	260.5
301.748	255.5
301.979	269.5
302.209	266.5
302.439	263.5
302.669	259.5
302.9	269.5
303.13	277.5
303.36	279.5
303.59	257.5
303.82	290.5
304.051	296.5
304.281	289.5
304.511	272.5
304.741	273.5
304.971	268.5
305.201	268.5
305.431	286.5
305.661	284.5
305.891	278.5
306.121	271.5
306.352	275.5
306.582	278.5
306.812	265.5
307.042	285.5
307.272	292.5
307.502	273.5
307.731	277.5
307.961	296.5
308.191	271.5
308.421	266.5
308.651	299.5
308.881	295.5
309.111	277.5
309.341	306.5
309.571	273.5
309.8	292.5
310.03	311.5
310.26	309.5
310.49	318.5
310.72	324.5
310.949	341.5
311.179	319.5
311.409	329.5
311.639	314.5
311.868	315.5
312.098	328.5
312.328	309.5
312.557	316.5
312.787	337.5
313.017	327.5
313.246	332.5
313.476	309.5
313.706	315.5
313.935	321.5
314.165	317.5
314.394	333.5
314.624	315.5
314.853	318.5
315.083	307.5
315.312	294.5
315.542	328.5
315.771	303.5
316.001	329.5
316.23	327.5
316.46	305.5
316.689	323.5
316.919	319.5
317.148	330.5
317.377	315.5
317.607	321.5
317.836	312.5
318.065	311.5
318.295	298.5
318.524	311.5
318.753	313.5
318.983	299.5
319.212	309.5
319.441	311.5
319.67	308.5
319.9	323.5
320.129	307.5
320.358	316.5
320.587	317.5
320.816	302.5
321.046	324.5
321.275	311.5
321.504	323.5
321.733	319.5
321.962	324.5
322.191	341.5
322.42	343.5
322.649	356.5
322.878	371.5
323.108	392.5
323.337	399.5
323.566	406.5
323.795	428.5
324.024	467.5
324.253	545.5
324.482	743.5
324.71	1090.5
324.939	1490.5
325.168	1239.5
325.397	718.5
325.626	483.5
325.855	423.5
326.084	385.5
326.313	397.5
326.542	412.5
326.77	428.5
326.999	489.5
327.228	681.5
327.457	982.5
327.686	1117.5
327.914	758.5
328.143	519.5
328.372	472.5
328.6	437.5
328.829	427.5
329.058	468.5
329.287	445.5
329.515	403.5
329.744	417.5
329.972	400.5
330.201	422.5
330.43	404.5
330.658	432.5
330.887	447.5
331.115	459.5
331.344	405.5
331.572	396.5
331.801	389.5
332.03	375.5
332.258	377.5
332.486	372.5
332.715	363.5
332.943	372.5
333.172	389.5
333.4	371.5
333.629	375.5
333.857	381.5
334.085	377.5
334.314	373.5
334.542	369.5
334.771	378.5
334.999	381.5
335.227	378.5
335.455	362.5
335.684	366.5
335.912	384.5
336.14	357.5
336.369	354.5
336.597	333.5
336.825	357.5
337.053	361.5
337.281	379.5
337.51	337.5
337.738	353.5
337.966	376.5
338.194	373.5
338.422	358.5
338.65	359.5
338.878	347.5
339.106	355.5
339.334	356.5
339.562	355.5
339.79	352.5
340.018	346.5
340.246	344.5
340.474	354.5
340.702	357.5
340.93	351.5
341.158	342.5
341.386	330.5
341.614	362.5
341.842	350.5
342.07	351.5
342.298	357.5
342.526	339.5
342.754	337.5
342.981	331.5
343.209	343.5
343.437	359.5
343.665	365.5
343.893	346.5
344.12	361.5
344.348	355.5
344.576	361.5
344.804	363.5
345.031	360.5
345.259	363.5
345.487	363.5
345.714	350.5
345.942	364.5
346.17	347.5
346.397	350.5
346.625	333.5
346.853	327.5
347.08	318.5
347.308	343.5
347.535	348.5
347.763	361.5
347.99	339.5
348.218	358.5
348.445	356.5
348.673	374.5
348.9	349.5
349.128	329.5
349.355	325.5
349.583	329.5
349.81	343.5
350.037	328.5
350.265	328.5
350.492	344.5
350.72	325.5
350.947	332.5
351.174	355.5
351.402	353.5
351.629	332.5
351.856	343.5
352.083	340.5
352.311	344.5
352.538	347.5
352.765	364.5
352.992	319.5
353.22	333.5
353.447	327.5
353.674	343.5
353.901	326.5
354.128	325.5
354.355	310.5
354.583	319.5
354.81	327.5
355.037	333.5
355.264	325.5
355.491	331.5
355.718	339.5
355.945	323.5
356.172	329.5
356.399	314.5
356.626	324.5
356.853	321.5
357.08	304.5
357.307	321.5
357.534	314.5
357.761	303.5
357.988	323.5
358.215	305.5
358.441	325.5
358.668	327.5
358.895	313.5
359.122	321.5
359.349	338.5
359.576	331.5
359.802	347.5
360.029	362.5
360.256	382.5
360.483	361.5
360.709	348.5
360.936	344.5
361.163	343.5
361.39	339.5
361.616	345.5
361.843	339.5
362.07	325.5
362.296	345.5
362.523	353.5
362.749	337.5
362.976	340.5
363.203	335.5
363.429	323.5
363.656	338.5
363.882	330.5
364.109	330.5
364.335	310.5
364.562	324.5
364.788	330.5
365.015	340.5
365.241	318.5
365.468	311.5
365.694	332.5
365.92	327.5
366.147	340.5
366.373	305.5
366.599	323.5
366.826	347.5
367.052	325.5
367.278	315.5
367.505	336.5
367.731	324.5
367.957	312.5
368.184	323.5
368.41	355.5
368.636	334.5
368.862	348.5
369.089	319.5
369.315	332.5
369.541	330.5
369.767	348.5
369.993	305.5
370.219	338.5
370.445	319.5
370.672	344.5
370.898	307.5
371.124	323.5
371.35	325.5
371.576	330.5
371.802	311.5
372.028	331.5
372.254	323.5
372.48	324.5
372.706	327.5
372.932	335.5
373.158	334.5
373.384	334.5
373.61	342.5
373.835	323.5
374.061	307.5
374.287	334.5
374.513	335.5
374.739	324.5
374.965	329.5
375.191	320.5
375.416	322.5
375.642	337.5
375.868	332.5
376.094	335.5
376.319	319.5
376.545	316.5
376.771	332.5
376.997	317.5
377.222	310.5
377.448	326.5
377.674	300.5
377.899	307.5
378.125	311.5
378.35	320.5
378.576	332.5
378.802	319.5
379.027	311.5
379.253	314.5
379.478	343.5
379.704	324.5
379.929	334.5
380.155	327.5
380.38	325.5
380.606	326.5
380.831	334.5
381.057	339.5
381.282	346.5
381.507	325.5
381.733	331.5
381.958	332.5
382.184	328.5
382.409	345.5
382.634	358.5
382.86	341.5
383.085	342.5
383.31	366.5
383.535	322.5
383.761	335.5
383.986	349.5
384.211	325.5
384.436	350.5
384.662	340.5
384.887	369.5
385.112	349.5
385.337	345.5
385.562	345.5
385.787	342.5
386.013	355.5
386.238	342.5
386.463	361.5
386.688	334.5
386.913	335.5
387.138	355.5
387.363	358.5
387.588	346.5
387.813	370.5
388.038	361.5
388.263	365.5
388.488	353.5
388.713	356.5
388.938	357.5
389.163	351.5
389.387	350.5
389.612	327.5
389.837	353.5
390.062	331.5
390.287	343.5
390.512	349.5
390.736	354.5
390.961	364.5
391.186	336.5
391.411	352.5
391.636	359.5
391.86	337.5
392.085	361.5
392.31	365.5
392.534	362.5
392.759	349.5
392.984	354.5
393.208	348.5
393.433	374.5
393.658	356.5
393.882	341.5
394.107	357.5
394.331	349.5
394.556	346.5
394.78	362.5
395.005	361.5
395.229	361.5
395.454	363.5
395.678	369.5
395.903	356.5
396.127	395.5
396.352	381.5
396.576	352.5
396.801	377.5
397.025	370.5
397.249	360.5
397.474	360.5
397.698	373.5
397.922	374.5
398.147	387.5
398.371	403.5
398.595	398.5
398.82	387.5
399.044	398.5
399.268	421.5
399.492	423.5
399.717	444.5
399.941	450.5
400.165	461.5
400.389	468.5
400.613	443.5
400.837	401.5
401.062	417.5
401.286	388.5
401.51	414.5
401.734	387.5
401.958	389.5
402.182	388.5
402.406	423.5
402.63	419.5
402.854	410.5
403.078	395.5
403.302	401.5
403.526	393.5
403.75	407.5
403.974	415.5
404.198	422.5
404.422	402.5
404.645	415.5
404.869	412.5
405.093	433.5
405.317	435.5
405.541	466.5
405.765	423.5
405.988	431.5
406.212	430.5
406.436	455.5
406.66	473.5
406.883	459.5
407.107	451.5
407.331	481.5
407.555	521.5
407.778	506.5
408.002	471.5
408.226	445.5
408.449	444.5
408.673	440.5
408.896	465.5
409.12	495.5
409.344	450.5
409.567	423.5
409.791	431.5
410.014	397.5
410.238	388.5
410.461	403.5
410.685	423.5
410.908	428.5
411.132	450.5
411.355	449.5
411.578	469.5
411.802	414.5
412.025	414.5
412.249	417.5
412.472	393.5
412.695	425.5
412.919	397.5
413.142	378.5
413.365	420.5
413.589	404.5
413.812	407.5
414.035	379.5
414.258	377.5
414.482	386.5
414.705	375.5
414.928	383.5
415.151	412.5
415.374	360.5
415.597	385.5
415.821	387.5
416.044	402.5
416.267	382.5
416.49	375.5
416.713	392.5
416.936	378.5
417.159	368.5
417.382	380.5
417.605	382.5
417.828	406.5
418.051	379.5
418.274	404.5
418.497	368.5
418.72	386.5
418.943	376.5
419.166	377.5
419.389	420.5
419.611	409.5
419.834	401.5
420.057	406.5
420.28	399.5
420.503	395.5
420.726	413.5
420.948	393.5
421.171	440.5
421.394	461.5
421.617	409.5
421.839	406.5
422.062	403.5
422.285	416.5
422.507	461.5
422.73	509.5
422.953	482.5
423.175	428.5
423.398	423.5
423.621	429.5
423.843	433.5
424.066	457.5
424.288	422.5
424.511	454.5
424.733	474.5
424.956	541.5
425.178	513.5
425.401	503.5
425.623	516.5
425.846	453.5
426.068	433.5
426.291	430.5
426.513	427.5
426.735	436.5
426.958	442.5
427.18	523.5
427.402	632.5
427.625	655.5
427.847	582.5
428.069	475.5
428.292	427.5
428.514	412.5
428.736	412.5
428.958	411.5
429.181	399.5
429.403	417.5
429.625	408.5
429.847	425.5
430.069	484.5
430.292	444.5
430.514	415.5
430.736	396.5
430.958	400.5
431.18	387.5
431.402	365.5
431.624	374.5
431.846	379.5
432.068	382.5
432.29	387.5
432.512	389.5
432.734	390.5
432.956	380.5
433.178	371.5
433.4	384.5
433.622	419.5
433.844	400.5
434.066	381.5
434.287	382.5
434.509	394.5
434.731	381.5
434.953	395.5
435.175	394.5
435.397	422.5
435.618	431.5
435.84	454.5
436.062	522.5
436.284	573.5
436.505	492.5
436.727	415.5
436.949	433.5
437.17	384.5
437.392	390.5
437.614	406.5
437.835	436.5
438.057	517.5
438.278	596.5
438.5	580.5
438.721	612.5
438.943	586.5
439.165	486.5
439.386	449.5
439.608	446.5
439.829	438.5
440.05	449.5
440.272	477.5
440.493	437.5
440.715	430.5
440.936	416.5
441.158	417.5
441.379	410.5
441.6	414.5
441.822	437.5
442.043	439.5
442.264	523.5
442.486	565.5
442.707	468.5
442.928	441.5
443.149	436.5
443.371	474.5
443.592	481.5
443.813	548.5
444.034	575.5
444.255	490.5
444.476	441.5
444.698	426.5
444.919	436.5
445.14	586.5
445.361	505.5
445.582	470.5
445.803	515.5
446.024	589.5
446.245	599.5
446.466	549.5
446.687	454.5
446.908	450.5
447.129	426.5
447.35	404.5
447.571	387.5
447.792	388.5
448.013	398.5
448.234	439.5
448.455	461.5
448.675	535.5
448.896	602.5
449.117	537.5
449.338	506.5
449.559	586.5
449.779	640.5
450	509.5
450.221	448.5
450.442	435.5
450.662	383.5
450.883	381.5
451.104	421.5
451.324	403.5
451.545	391.5
451.766	374.5
451.986	357.5
452.207	357.5
452.428	372.5
452.648	375.5
452.869	360.5
453.089	371.5
453.31	375.5
453.53	374.5
453.751	358.5
453.971	347.5
454.192	378.5
454.412	361.5
454.633	364.5
454.853	356.5
455.073	346.5
455.294	377.5
455.514	436.5
455.734	413.5
455.955	362.5
456.175	358.5
456.395	349.5
456.616	345.5
456.836	343.5
457.056	338.5
457.276	346.5
457.497	342.5
457.717	337.5
457.937	350.5
458.157	371.5
458.377	355.5
458.598	360.5
458.818	409.5
459.038	475.5
459.258	467.5
459.478	408.5
459.698	404.5
459.918	383.5
460.138	396.5
460.358	390.5
460.578	371.5
460.798	373.5
461.018	382.5
461.238	383.5
461.458	378.5
461.678	381.5
461.898	382.5
462.118	383.5
462.338	396.5
462.558	399.5
462.777	410.5
462.997	413.5
463.217	398.5
463.437	437.5
463.657	405.5
463.876	412.5
464.096	392.5
464.316	392.5
464.536	395.5
464.755	429.5
464.975	414.5
465.195	444.5
465.414	491.5
465.634	459.5
465.854	421.5
466.073	391.5
466.293	396.5
466.512	397.5
466.732	361.5
466.951	371.5
467.171	371.5
467.391	357.5
467.61	387.5
467.829	364.5
468.049	377.5
468.268	361.5
468.488	369.5
468.707	365.5
468.927	371.5
469.146	366.5
469.365	339.5
469.585	341.5
469.804	367.5
470.023	377.5
470.243	373.5
470.462	385.5
470.681	383.5
470.901	390.5
471.12	364.5
471.339	381.5
471.558	375.5
471.777	385.5
471.997	361.5
472.216	375.5
472.435	362.5
472.654	369.5
472.873	351.5
473.092	377.5
473.311	375.5
473.53	368.5
473.749	388.5
473.968	415.5
474.187	474.5
474.406	472.5
474.625	404.5
474.844	387.5
475.063	369.5
475.282	379.5
475.501	373.5
475.72	384.5
475.939	390.5
476.158	388.5
476.377	391.5
476.596	397.5
476.814	371.5
477.033	390.5
477.252	403.5
477.471	399.5
477.69	387.5
477.908	416.5
478.127	401.5
478.346	381.5
478.564	413.5
478.783	418.5
479.002	423.5
479.22	430.5
479.439	443.5
479.658	461.5
479.876	421.5
480.095	434.5
480.313	446.5
480.532	447.5
480.751	435.5
480.969	443.5
481.188	461.5
481.406	466.5
481.624	461.5
481.843	427.5
482.061	423.5
482.28	450.5
482.498	415.5
482.717	425.5
482.935	436.5
483.153	429.5
483.372	432.5
483.59	428.5
483.808	443.5
484.027	438.5
484.245	434.5
484.463	436.5
484.681	438.5
484.9	442.5
485.118	452.5
485.336	451.5
485.554	438.5
485.772	435.5
485.99	437.5
486.209	445.5
486.427	447.5
486.645	460.5
486.863	461.5
487.081	463.5
487.299	470.5
487.517	477.5
487.735	470.5
487.953	485.5
488.171	451.5
488.389	456.5
488.607	463.5
488.825	466.5
489.043	471.5
489.261	479.5
489.479	459.5
489.696	481.5
489.914	483.5
490.132	487.5
490.35	491.5
490.568	495.5
490.786	517.5
491.003	498.5
491.221	506.5
491.439	530.5
491.657	502.5
491.874	512.5
492.092	526.5
492.31	532.5
492.527	521.5
492.745	505.5
492.963	540.5
493.18	537.5
493.398	563.5
493.615	553.5
493.833	527.5
494.05	538.5
494.268	538.5
494.485	541.5
494.703	530.5
494.92	574.5
495.138	537.5
495.355	535.5
495.573	585.5
495.79	521.5
496.008	547.5
496.225	547.5
496.442	531.5
496.66	545.5
496.877	560.5
497.094	548.5
497.312	563.5
497.529	540.5
497.746	563.5
497.963	561.5
498.181	576.5
498.398	577.5
498.615	594.5
498.832	597.5
499.049	616.5
499.267	630.5
499.484	655.5
499.701	674.5
499.918	689.5
500.135	694.5
500.352	728.5
500.569	744.5
500.786	731.5
501.003	728.5
501.22	722.5
501.437	721.5
501.654	667.5
501.871	673.5
502.088	646.5
502.305	636.5
502.522	627.5
502.739	604.5
502.956	588.5
503.172	569.5
503.389	579.5
503.606	584.5
503.823	565.5
504.04	577.5
504.256	548.5
504.473	553.5
504.69	545.5
504.907	553.5
505.123	544.5
505.34	538.5
505.557	521.5
505.773	537.5
505.99	529.5
506.207	516.5
506.423	515.5
506.64	522.5
506.856	527.5
507.073	507.5
507.289	511.5
507.506	503.5
507.722	495.5
507.939	518.5
508.155	517.5
508.372	499.5
508.588	485.5
508.805	499.5
509.021	507.5
509.238	505.5
509.454	508.5
509.67	509.5
509.887	509.5
510.103	481.5
510.319	489.5
510.536	584.5
510.752	923.5
510.968	735.5
511.184	502.5
511.401	492.5
511.617	493.5
511.833	479.5
512.049	469.5
512.265	468.5
512.481	462.5
512.698	465.5
512.914	462.5
513.13	469.5
513.346	462.5
513.562	463.5
513.778	477.5
513.994	482.5
514.21	502.5
514.426	510.5
514.642	525.5
514.858	534.5
515.074	547.5
515.29	651.5
515.506	955.5
515.721	799.5
515.937	543.5
516.153	484.5
516.369	469.5
516.585	477.5
516.801	517.5
517.016	482.5
517.232	486.5
517.448	489.5
517.664	501.5
517.879	484.5
518.095	478.5
518.311	484.5
518.527	484.5
518.742	453.5
518.958	481.5
519.173	470.5
519.389	462.5
519.605	474.5
519.82	453.5
520.036	468.5
