Data from 1983.PennyLincolnUp.Lamp.En5.5.200Scan.071819.P1_HRD10591_16-54-08-966.txt Node
Date: Thu Jul 18 16:54:08 EDT 2019
User: cochatt
Spectrometer: HR+D1059
Trigger mode: 1
Integration Time (sec): 1.000000E-1
Scans to average: 1
Electric dark correction enabled: true
Nonlinearity correction enabled: false
Boxcar width: 0
XAxis mode: Wavelengths
Number of Pixels in Spectrum: 2048
>>>>>Begin Spectral Data<<<<<
223.165	-14.75
223.4	-14.75
223.635	-14.75
223.869	-14.75
224.104	-19.75
224.338	-4.75
224.573	-9.75
224.808	-11.75
225.042	-15.75
225.277	-2.75
225.511	11.25
225.746	2.25
225.98	2.25
226.215	0.25
226.449	18.25
226.683	14.25
226.918	17.25
227.152	28.25
227.387	34.25
227.621	31.25
227.856	39.25
228.09	48.25
228.324	33.25
228.559	46.25
228.793	68.25
229.027	105.25
229.262	105.25
229.496	113.25
229.73	126.25
229.964	136.25
230.199	119.25
230.433	99.25
230.667	105.25
230.901	106.25
231.136	112.25
231.37	103.25
231.604	84.25
231.838	98.25
232.072	120.25
232.306	101.25
232.541	95.25
232.775	103.25
233.009	125.25
233.243	98.25
233.477	114.25
233.711	107.25
233.945	95.25
234.179	111.25
234.413	108.25
234.647	123.25
234.881	101.25
235.115	108.25
235.349	122.25
235.583	110.25
235.817	100.25
236.051	112.25
236.285	118.25
236.519	122.25
236.753	126.25
236.987	134.25
237.221	164.25
237.455	198.25
237.689	160.25
237.922	128.25
238.156	122.25
238.39	120.25
238.624	108.25
238.858	120.25
239.091	107.25
239.325	125.25
239.559	116.25
239.793	110.25
240.027	126.25
240.26	122.25
240.494	135.25
240.728	136.25
240.961	130.25
241.195	133.25
241.429	131.25
241.662	112.25
241.896	117.25
242.13	129.25
242.363	135.25
242.597	127.25
242.83	120.25
243.064	131.25
243.298	143.25
243.531	116.25
243.765	139.25
243.998	123.25
244.232	132.25
244.465	134.25
244.699	126.25
244.932	138.25
245.166	130.25
245.399	139.25
245.633	135.25
245.866	133.25
246.099	150.25
246.333	160.25
246.566	126.25
246.8	147.25
247.033	130.25
247.266	128.25
247.5	150.25
247.733	146.25
247.966	159.25
248.2	151.25
248.433	163.25
248.666	168.25
248.899	167.25
249.133	188.25
249.366	184.25
249.599	192.25
249.832	164.25
250.066	168.25
250.299	178.25
250.532	171.25
250.765	190.25
250.998	208.25
251.231	207.25
251.465	187.25
251.698	182.25
251.931	176.25
252.164	189.25
252.397	178.25
252.63	200.25
252.863	195.25
253.096	205.25
253.329	191.25
253.562	195.25
253.795	192.25
254.028	192.25
254.261	186.25
254.494	201.25
254.727	227.25
254.96	239.25
255.193	235.25
255.426	225.25
255.659	238.25
255.892	204.25
256.124	220.25
256.357	216.25
256.59	208.25
256.823	202.25
257.056	208.25
257.289	196.25
257.521	190.25
257.754	187.25
257.987	193.25
258.22	182.25
258.452	190.25
258.685	195.25
258.918	196.25
259.151	182.25
259.383	206.25
259.616	200.25
259.849	218.25
260.081	204.25
260.314	233.25
260.547	223.25
260.779	207.25
261.012	195.25
261.244	192.25
261.477	201.25
261.71	197.25
261.942	203.25
262.175	208.25
262.407	211.25
262.64	208.25
262.872	204.25
263.105	198.25
263.337	187.25
263.57	191.25
263.802	198.25
264.035	200.25
264.267	188.25
264.499	193.25
264.732	216.25
264.964	197.25
265.197	203.25
265.429	192.25
265.661	172.25
265.894	187.25
266.126	220.25
266.358	198.25
266.591	186.25
266.823	196.25
267.055	200.25
267.287	187.25
267.52	212.25
267.752	196.25
267.984	211.25
268.216	197.25
268.448	203.25
268.681	218.25
268.913	206.25
269.145	247.25
269.377	252.25
269.609	254.25
269.841	220.25
270.073	254.25
270.306	266.25
270.538	273.25
270.77	297.25
271.002	251.25
271.234	261.25
271.466	264.25
271.698	292.25
271.93	280.25
272.162	293.25
272.394	289.25
272.626	265.25
272.858	260.25
273.09	242.25
273.322	243.25
273.553	256.25
273.785	243.25
274.017	221.25
274.249	228.25
274.481	238.25
274.713	234.25
274.945	247.25
275.176	219.25
275.408	232.25
275.64	251.25
275.872	233.25
276.104	239.25
276.335	245.25
276.567	232.25
276.799	272.25
277.031	273.25
277.262	290.25
277.494	287.25
277.726	276.25
277.957	260.25
278.189	248.25
278.421	256.25
278.652	235.25
278.884	242.25
279.115	243.25
279.347	237.25
279.579	231.25
279.81	235.25
280.042	238.25
280.273	234.25
280.505	216.25
280.736	247.25
280.968	228.25
281.199	238.25
281.431	228.25
281.662	252.25
281.894	240.25
282.125	234.25
282.356	252.25
282.588	281.25
282.819	280.25
283.051	247.25
283.282	247.25
283.513	244.25
283.745	244.25
283.976	276.25
284.207	243.25
284.439	231.25
284.67	236.25
284.901	260.25
285.132	255.25
285.364	240.25
285.595	252.25
285.826	254.25
286.057	247.25
286.288	235.25
286.52	254.25
286.751	238.25
286.982	236.25
287.213	252.25
287.444	252.25
287.675	254.25
287.906	256.25
288.138	274.25
288.369	268.25
288.6	259.25
288.831	281.25
289.062	264.25
289.293	279.25
289.524	257.25
289.755	261.25
289.986	255.25
290.217	252.25
290.448	269.25
290.679	258.25
290.91	251.25
291.141	251.25
291.371	268.25
291.602	242.25
291.833	257.25
292.064	265.25
292.295	256.25
292.526	266.25
292.757	266.25
292.987	271.25
293.218	262.25
293.449	265.25
293.68	252.25
293.91	256.25
294.141	251.25
294.372	255.25
294.603	256.25
294.833	262.25
295.064	263.25
295.295	259.25
295.525	254.25
295.756	268.25
295.987	262.25
296.217	266.25
296.448	290.25
296.679	261.25
296.909	270.25
297.14	265.25
297.37	258.25
297.601	266.25
297.831	267.25
298.062	275.25
298.292	275.25
298.523	268.25
298.753	270.25
298.984	291.25
299.214	269.25
299.445	276.25
299.675	274.25
299.905	281.25
300.136	264.25
300.366	276.25
300.597	274.25
300.827	281.25
301.057	288.25
301.288	292.25
301.518	282.25
301.748	271.25
301.979	273.25
302.209	297.25
302.439	297.25
302.669	293.25
302.9	291.25
303.13	295.25
303.36	292.25
303.59	286.25
303.82	293.25
304.051	303.25
304.281	297.25
304.511	289.25
304.741	274.25
304.971	277.25
305.201	295.25
305.431	296.25
305.661	304.25
305.891	277.25
306.121	305.25
306.352	296.25
306.582	304.25
306.812	298.25
307.042	288.25
307.272	276.25
307.502	288.25
307.731	295.25
307.961	317.25
308.191	278.25
308.421	307.25
308.651	302.25
308.881	312.25
309.111	309.25
309.341	314.25
309.571	323.25
309.8	331.25
310.03	350.25
310.26	343.25
310.49	338.25
310.72	355.25
310.949	366.25
311.179	367.25
311.409	349.25
311.639	338.25
311.868	330.25
312.098	344.25
312.328	353.25
312.557	360.25
312.787	395.25
313.017	363.25
313.246	344.25
313.476	350.25
313.706	327.25
313.935	339.25
314.165	350.25
314.394	378.25
314.624	370.25
314.853	354.25
315.083	357.25
315.312	353.25
315.542	317.25
315.771	343.25
316.001	339.25
316.23	315.25
316.46	328.25
316.689	327.25
316.919	350.25
317.148	360.25
317.377	353.25
317.607	328.25
317.836	346.25
318.065	339.25
318.295	328.25
318.524	314.25
318.753	336.25
318.983	330.25
319.212	320.25
319.441	356.25
319.67	346.25
319.9	345.25
320.129	325.25
320.358	340.25
320.587	336.25
320.816	346.25
321.046	351.25
321.275	357.25
321.504	358.25
321.733	377.25
321.962	378.25
322.191	377.25
322.42	395.25
322.649	405.25
322.878	426.25
323.108	434.25
323.337	448.25
323.566	472.25
323.795	507.25
324.024	565.25
324.253	711.25
324.482	1027.25
324.71	1542.25
324.939	2022.25
325.168	1727.25
325.397	908.25
325.626	609.25
325.855	531.25
326.084	471.25
326.313	440.25
326.542	484.25
326.77	525.25
326.999	640.25
327.228	896.25
327.457	1329.25
327.686	1507.25
327.914	1020.25
328.143	685.25
328.372	589.25
328.6	544.25
328.829	528.25
329.058	551.25
329.287	550.25
329.515	500.25
329.744	482.25
329.972	466.25
330.201	483.25
330.43	515.25
330.658	556.25
330.887	569.25
331.115	546.25
331.344	510.25
331.572	461.25
331.801	451.25
332.03	430.25
332.258	442.25
332.486	419.25
332.715	410.25
332.943	409.25
333.172	404.25
333.4	404.25
333.629	410.25
333.857	402.25
334.085	420.25
334.314	436.25
334.542	455.25
334.771	460.25
334.999	441.25
335.227	429.25
335.455	415.25
335.684	389.25
335.912	396.25
336.14	376.25
336.369	378.25
336.597	404.25
336.825	397.25
337.053	386.25
337.281	397.25
337.51	359.25
337.738	397.25
337.966	384.25
338.194	385.25
338.422	398.25
338.65	378.25
338.878	385.25
339.106	405.25
339.334	382.25
339.562	405.25
339.79	378.25
340.018	374.25
340.246	368.25
340.474	394.25
340.702	390.25
340.93	379.25
341.158	392.25
341.386	376.25
341.614	382.25
341.842	369.25
342.07	379.25
342.298	352.25
342.526	370.25
342.754	354.25
342.981	356.25
343.209	353.25
343.437	380.25
343.665	366.25
343.893	374.25
344.12	399.25
344.348	384.25
344.576	370.25
344.804	383.25
345.031	381.25
345.259	382.25
345.487	376.25
345.714	386.25
345.942	374.25
346.17	372.25
346.397	362.25
346.625	376.25
346.853	358.25
347.08	388.25
347.308	387.25
347.535	354.25
347.763	393.25
347.99	377.25
348.218	371.25
348.445	379.25
348.673	383.25
348.9	358.25
349.128	347.25
349.355	361.25
349.583	353.25
349.81	373.25
350.037	359.25
350.265	354.25
350.492	336.25
350.72	352.25
350.947	360.25
351.174	375.25
351.402	390.25
351.629	361.25
351.856	386.25
352.083	382.25
352.311	388.25
352.538	382.25
352.765	382.25
352.992	373.25
353.22	382.25
353.447	376.25
353.674	369.25
353.901	349.25
354.128	343.25
354.355	329.25
354.583	336.25
354.81	324.25
355.037	337.25
355.264	362.25
355.491	350.25
355.718	317.25
355.945	331.25
356.172	334.25
356.399	343.25
356.626	333.25
356.853	324.25
357.08	339.25
357.307	337.25
357.534	344.25
357.761	347.25
357.988	322.25
358.215	339.25
358.441	346.25
358.668	328.25
358.895	335.25
359.122	355.25
359.349	344.25
359.576	360.25
359.802	391.25
360.029	417.25
360.256	427.25
360.483	408.25
360.709	356.25
360.936	372.25
361.163	363.25
361.39	361.25
361.616	371.25
361.843	342.25
362.07	368.25
362.296	374.25
362.523	365.25
362.749	378.25
362.976	361.25
363.203	357.25
363.429	354.25
363.656	366.25
363.882	333.25
364.109	361.25
364.335	351.25
364.562	334.25
364.788	340.25
365.015	365.25
365.241	355.25
365.468	358.25
365.694	359.25
365.92	357.25
366.147	358.25
366.373	353.25
366.599	358.25
366.826	336.25
367.052	357.25
367.278	327.25
367.505	342.25
367.731	329.25
367.957	340.25
368.184	344.25
368.41	340.25
368.636	363.25
368.862	379.25
369.089	360.25
369.315	351.25
369.541	340.25
369.767	336.25
369.993	344.25
370.219	368.25
370.445	352.25
370.672	348.25
370.898	334.25
371.124	328.25
371.35	357.25
371.576	322.25
371.802	347.25
372.028	339.25
372.254	332.25
372.48	334.25
372.706	340.25
372.932	336.25
373.158	317.25
373.384	346.25
373.61	346.25
373.835	346.25
374.061	344.25
374.287	360.25
374.513	345.25
374.739	360.25
374.965	344.25
375.191	352.25
375.416	361.25
375.642	326.25
375.868	334.25
376.094	341.25
376.319	322.25
376.545	332.25
376.771	324.25
376.997	345.25
377.222	359.25
377.448	336.25
377.674	362.25
377.899	352.25
378.125	338.25
378.35	330.25
378.576	330.25
378.802	338.25
379.027	332.25
379.253	346.25
379.478	339.25
379.704	339.25
379.929	347.25
380.155	335.25
380.38	343.25
380.606	358.25
380.831	331.25
381.057	334.25
381.282	348.25
381.507	342.25
381.733	338.25
381.958	328.25
382.184	328.25
382.409	367.25
382.634	360.25
382.86	350.25
383.085	338.25
383.31	344.25
383.535	359.25
383.761	352.25
383.986	359.25
384.211	326.25
384.436	340.25
384.662	351.25
384.887	351.25
385.112	355.25
385.337	323.25
385.562	354.25
385.787	362.25
386.013	351.25
386.238	362.25
386.463	355.25
386.688	374.25
386.913	355.25
387.138	354.25
387.363	360.25
387.588	371.25
387.813	351.25
388.038	346.25
388.263	350.25
388.488	372.25
388.713	357.25
388.938	352.25
389.163	370.25
389.387	371.25
389.612	361.25
389.837	345.25
390.062	327.25
390.287	344.25
390.512	351.25
390.736	362.25
390.961	359.25
391.186	345.25
391.411	373.25
391.636	375.25
391.86	363.25
392.085	354.25
392.31	345.25
392.534	367.25
392.759	370.25
392.984	355.25
393.208	342.25
393.433	367.25
393.658	366.25
393.882	344.25
394.107	355.25
394.331	352.25
394.556	370.25
394.78	353.25
395.005	360.25
395.229	359.25
395.454	360.25
395.678	371.25
395.903	376.25
396.127	407.25
396.352	371.25
396.576	377.25
396.801	361.25
397.025	350.25
397.249	373.25
397.474	374.25
397.698	381.25
397.922	386.25
398.147	400.25
398.371	400.25
398.595	427.25
398.82	410.25
399.044	406.25
399.268	449.25
399.492	421.25
399.717	457.25
399.941	471.25
400.165	489.25
400.389	507.25
400.613	434.25
400.837	420.25
401.062	411.25
401.286	439.25
401.51	417.25
401.734	410.25
401.958	399.25
402.182	408.25
402.406	424.25
402.63	448.25
402.854	442.25
403.078	403.25
403.302	405.25
403.526	443.25
403.75	430.25
403.974	433.25
404.198	414.25
404.422	410.25
404.645	419.25
404.869	442.25
405.093	456.25
405.317	466.25
405.541	482.25
405.765	476.25
405.988	447.25
406.212	467.25
406.436	483.25
406.66	476.25
406.883	450.25
407.107	475.25
407.331	498.25
407.555	546.25
407.778	541.25
408.002	496.25
408.226	475.25
408.449	452.25
408.673	456.25
408.896	484.25
409.12	509.25
409.344	461.25
409.567	442.25
409.791	438.25
410.014	400.25
410.238	422.25
410.461	428.25
410.685	411.25
410.908	441.25
411.132	478.25
411.355	484.25
411.578	451.25
411.802	431.25
412.025	410.25
412.249	426.25
412.472	443.25
412.695	432.25
412.919	433.25
413.142	426.25
413.365	428.25
413.589	389.25
413.812	407.25
414.035	398.25
414.258	415.25
414.482	395.25
414.705	394.25
414.928	387.25
415.151	407.25
415.374	402.25
415.597	401.25
415.821	381.25
416.044	392.25
416.267	406.25
416.49	406.25
416.713	376.25
416.936	400.25
417.159	416.25
417.382	395.25
417.605	407.25
417.828	422.25
418.051	418.25
418.274	407.25
418.497	388.25
418.72	396.25
418.943	406.25
419.166	418.25
419.389	428.25
419.611	426.25
419.834	414.25
420.057	419.25
420.28	427.25
420.503	422.25
420.726	414.25
420.948	435.25
421.171	456.25
421.394	487.25
421.617	438.25
421.839	420.25
422.062	436.25
422.285	417.25
422.507	462.25
422.73	521.25
422.953	489.25
423.175	441.25
423.398	439.25
423.621	448.25
423.843	441.25
424.066	470.25
424.288	443.25
424.511	454.25
424.733	527.25
424.956	539.25
425.178	538.25
425.401	548.25
425.623	577.25
425.846	474.25
426.068	461.25
426.291	449.25
426.513	451.25
426.735	454.25
426.958	486.25
427.18	572.25
427.402	630.25
427.625	695.25
427.847	635.25
428.069	568.25
428.292	500.25
428.514	470.25
428.736	438.25
428.958	425.25
429.181	423.25
429.403	426.25
429.625	438.25
429.847	463.25
430.069	500.25
430.292	490.25
430.514	460.25
430.736	419.25
430.958	422.25
431.18	403.25
431.402	395.25
431.624	390.25
431.846	389.25
432.068	380.25
432.29	381.25
432.512	408.25
432.734	402.25
432.956	402.25
433.178	406.25
433.4	389.25
433.622	393.25
433.844	406.25
434.066	373.25
434.287	384.25
434.509	414.25
434.731	399.25
434.953	417.25
435.175	444.25
435.397	446.25
435.618	464.25
435.84	494.25
436.062	557.25
436.284	598.25
436.505	511.25
436.727	440.25
436.949	411.25
437.17	411.25
437.392	423.25
437.614	456.25
437.835	465.25
438.057	567.25
438.278	646.25
438.5	629.25
438.721	655.25
438.943	629.25
439.165	528.25
439.386	467.25
439.608	472.25
439.829	491.25
440.05	483.25
440.272	516.25
440.493	489.25
440.715	448.25
440.936	447.25
441.158	433.25
441.379	431.25
441.6	427.25
441.822	458.25
442.043	488.25
442.264	541.25
442.486	558.25
442.707	503.25
442.928	467.25
443.149	469.25
443.371	490.25
443.592	519.25
443.813	594.25
444.034	633.25
444.255	508.25
444.476	476.25
444.698	463.25
444.919	474.25
445.14	535.25
445.361	513.25
445.582	504.25
445.803	569.25
446.024	630.25
446.245	627.25
446.466	583.25
446.687	494.25
446.908	451.25
447.129	442.25
447.35	395.25
447.571	413.25
447.792	410.25
448.013	428.25
448.234	443.25
448.455	490.25
448.675	570.25
448.896	662.25
449.117	556.25
449.338	506.25
449.559	588.25
449.779	680.25
450	541.25
450.221	457.25
450.442	444.25
450.662	404.25
450.883	425.25
451.104	438.25
451.324	466.25
451.545	391.25
451.766	406.25
451.986	389.25
452.207	387.25
452.428	380.25
452.648	380.25
452.869	400.25
453.089	390.25
453.31	403.25
453.53	376.25
453.751	384.25
453.971	384.25
454.192	409.25
454.412	406.25
454.633	391.25
454.853	374.25
455.073	387.25
455.294	410.25
455.514	464.25
455.734	425.25
455.955	398.25
456.175	371.25
456.395	352.25
456.616	358.25
456.836	366.25
457.056	359.25
457.276	366.25
457.497	374.25
457.717	362.25
457.937	396.25
458.157	348.25
458.377	388.25
458.598	405.25
458.818	459.25
459.038	528.25
459.258	514.25
459.478	440.25
459.698	403.25
459.918	393.25
460.138	400.25
460.358	400.25
460.578	404.25
460.798	401.25
461.018	416.25
461.238	388.25
461.458	393.25
461.678	401.25
461.898	406.25
462.118	389.25
462.338	400.25
462.558	415.25
462.777	407.25
462.997	434.25
463.217	412.25
463.437	413.25
463.657	410.25
463.876	412.25
464.096	421.25
464.316	424.25
464.536	436.25
464.755	441.25
464.975	444.25
465.195	472.25
465.414	565.25
465.634	470.25
465.854	447.25
466.073	411.25
466.293	403.25
466.512	395.25
466.732	380.25
466.951	384.25
467.171	377.25
467.391	396.25
467.61	391.25
467.829	436.25
468.049	411.25
468.268	379.25
468.488	384.25
468.707	387.25
468.927	378.25
469.146	384.25
469.365	382.25
469.585	367.25
469.804	382.25
470.023	385.25
470.243	403.25
470.462	406.25
470.681	415.25
470.901	410.25
471.12	378.25
471.339	396.25
471.558	411.25
471.777	380.25
471.997	388.25
472.216	405.25
472.435	423.25
472.654	408.25
472.873	391.25
473.092	376.25
473.311	387.25
473.53	397.25
473.749	395.25
473.968	457.25
474.187	514.25
474.406	538.25
474.625	444.25
474.844	411.25
475.063	381.25
475.282	408.25
475.501	406.25
475.72	408.25
475.939	405.25
476.158	423.25
476.377	386.25
476.596	408.25
476.814	409.25
477.033	409.25
477.252	414.25
477.471	418.25
477.69	411.25
477.908	420.25
478.127	444.25
478.346	427.25
478.564	427.25
478.783	424.25
479.002	448.25
479.22	443.25
479.439	452.25
479.658	465.25
479.876	470.25
480.095	461.25
480.313	492.25
480.532	469.25
480.751	471.25
480.969	469.25
481.188	525.25
481.406	545.25
481.624	498.25
481.843	490.25
482.061	457.25
482.28	467.25
482.498	444.25
482.717	444.25
482.935	457.25
483.153	458.25
483.372	448.25
483.59	466.25
483.808	444.25
484.027	447.25
484.245	459.25
484.463	468.25
484.681	483.25
484.9	463.25
485.118	459.25
485.336	452.25
485.554	475.25
485.772	454.25
485.99	468.25
486.209	462.25
486.427	468.25
486.645	499.25
486.863	518.25
487.081	499.25
487.299	530.25
487.517	503.25
487.735	473.25
487.953	496.25
488.171	489.25
488.389	484.25
488.607	483.25
488.825	467.25
489.043	504.25
489.261	512.25
489.479	488.25
489.696	489.25
489.914	505.25
490.132	522.25
490.35	498.25
490.568	514.25
490.786	515.25
491.003	527.25
491.221	561.25
491.439	553.25
491.657	555.25
491.874	560.25
492.092	575.25
492.31	575.25
492.527	572.25
492.745	558.25
492.963	549.25
493.18	587.25
493.398	585.25
493.615	598.25
493.833	570.25
494.05	588.25
494.268	582.25
494.485	580.25
494.703	580.25
494.92	580.25
495.138	565.25
495.355	588.25
495.573	590.25
495.79	585.25
496.008	570.25
496.225	575.25
496.442	582.25
496.66	596.25
496.877	572.25
497.094	591.25
497.312	586.25
497.529	594.25
497.746	586.25
497.963	616.25
498.181	627.25
498.398	636.25
498.615	659.25
498.832	658.25
499.049	642.25
499.267	644.25
499.484	665.25
499.701	692.25
499.918	699.25
500.135	715.25
500.352	742.25
500.569	759.25
500.786	762.25
501.003	736.25
501.22	743.25
501.437	720.25
501.654	699.25
501.871	716.25
502.088	701.25
