Data from 1983.PennyLincolnUp.Lamp.En5.5.200Scan.071819.P1_HRD10591_16-52-32-964.txt Node
Date: Thu Jul 18 16:52:32 EDT 2019
User: cochatt
Spectrometer: HR+D1059
Trigger mode: 1
Integration Time (sec): 1.000000E-1
Scans to average: 1
Electric dark correction enabled: true
Nonlinearity correction enabled: false
Boxcar width: 0
XAxis mode: Wavelengths
Number of Pixels in Spectrum: 2048
>>>>>Begin Spectral Data<<<<<
223.165	-14.88
223.4	-14.88
223.635	-14.88
223.869	-11.88
224.104	-9.88
224.338	-9.88
224.573	-3.88
224.808	-20.88
225.042	-18.88
225.277	-3.88
225.511	-8.88
225.746	0.12
225.98	5.12
226.215	20.12
226.449	3.12
226.683	9.12
226.918	31.12
227.152	34.12
227.387	27.12
227.621	46.12
227.856	48.12
228.09	51.12
228.324	51.12
228.559	45.12
228.793	61.12
229.027	90.12
229.262	89.12
229.496	108.12
229.73	125.12
229.964	132.12
230.199	118.12
230.433	108.12
230.667	115.12
230.901	100.12
231.136	109.12
231.37	113.12
231.604	115.12
231.838	110.12
232.072	105.12
232.306	95.12
232.541	117.12
232.775	94.12
233.009	119.12
233.243	121.12
233.477	99.12
233.711	105.12
233.945	97.12
234.179	114.12
234.413	111.12
234.647	107.12
234.881	102.12
235.115	118.12
235.349	107.12
235.583	114.12
235.817	102.12
236.051	117.12
236.285	121.12
236.519	127.12
236.753	122.12
236.987	133.12
237.221	162.12
237.455	189.12
237.689	158.12
237.922	120.12
238.156	129.12
238.39	120.12
238.624	104.12
238.858	115.12
239.091	120.12
239.325	122.12
239.559	123.12
239.793	127.12
240.027	123.12
240.26	133.12
240.494	136.12
240.728	126.12
240.961	128.12
241.195	140.12
241.429	118.12
241.662	129.12
241.896	112.12
242.13	116.12
242.363	123.12
242.597	130.12
242.83	126.12
243.064	127.12
243.298	122.12
243.531	116.12
243.765	138.12
243.998	129.12
244.232	125.12
244.465	127.12
244.699	138.12
244.932	129.12
245.166	143.12
245.399	128.12
245.633	134.12
245.866	115.12
246.099	133.12
246.333	149.12
246.566	151.12
246.8	136.12
247.033	142.12
247.266	117.12
247.5	144.12
247.733	146.12
247.966	144.12
248.2	159.12
248.433	156.12
248.666	158.12
248.899	156.12
249.133	187.12
249.366	182.12
249.599	182.12
249.832	165.12
250.066	156.12
250.299	172.12
250.532	159.12
250.765	182.12
250.998	187.12
251.231	190.12
251.465	181.12
251.698	182.12
251.931	168.12
252.164	158.12
252.397	169.12
252.63	172.12
252.863	171.12
253.096	183.12
253.329	187.12
253.562	184.12
253.795	203.12
254.028	189.12
254.261	198.12
254.494	196.12
254.727	208.12
254.96	218.12
255.193	242.12
255.426	212.12
255.659	204.12
255.892	206.12
256.124	189.12
256.357	190.12
256.59	204.12
256.823	194.12
257.056	192.12
257.289	187.12
257.521	179.12
257.754	173.12
257.987	159.12
258.22	187.12
258.452	201.12
258.685	183.12
258.918	181.12
259.151	187.12
259.383	183.12
259.616	195.12
259.849	199.12
260.081	229.12
260.314	203.12
260.547	248.12
260.779	222.12
261.012	199.12
261.244	197.12
261.477	188.12
261.71	194.12
261.942	201.12
262.175	211.12
262.407	191.12
262.64	187.12
262.872	176.12
263.105	190.12
263.337	191.12
263.57	189.12
263.802	190.12
264.035	179.12
264.267	206.12
264.499	184.12
264.732	205.12
264.964	179.12
265.197	184.12
265.429	188.12
265.661	179.12
265.894	191.12
266.126	178.12
266.358	195.12
266.591	182.12
266.823	200.12
267.055	206.12
267.287	203.12
267.52	172.12
267.752	192.12
267.984	182.12
268.216	184.12
268.448	207.12
268.681	188.12
268.913	193.12
269.145	221.12
269.377	234.12
269.609	224.12
269.841	234.12
270.073	236.12
270.306	243.12
270.538	251.12
270.77	269.12
271.002	256.12
271.234	243.12
271.466	262.12
271.698	259.12
271.93	263.12
272.162	250.12
272.394	256.12
272.626	258.12
272.858	228.12
273.09	237.12
273.322	220.12
273.553	229.12
273.785	234.12
274.017	228.12
274.249	242.12
274.481	240.12
274.713	225.12
274.945	219.12
275.176	213.12
275.408	208.12
275.64	223.12
275.872	219.12
276.104	228.12
276.335	230.12
276.567	236.12
276.799	236.12
277.031	268.12
277.262	275.12
277.494	224.12
277.726	239.12
277.957	229.12
278.189	230.12
278.421	236.12
278.652	244.12
278.884	236.12
279.115	234.12
279.347	247.12
279.579	226.12
279.81	228.12
280.042	207.12
280.273	208.12
280.505	222.12
280.736	224.12
280.968	234.12
281.199	227.12
281.431	234.12
281.662	221.12
281.894	227.12
282.125	240.12
282.356	226.12
282.588	268.12
282.819	267.12
283.051	250.12
283.282	234.12
283.513	237.12
283.745	234.12
283.976	259.12
284.207	247.12
284.439	239.12
284.67	238.12
284.901	231.12
285.132	232.12
285.364	236.12
285.595	233.12
285.826	227.12
286.057	238.12
286.288	252.12
286.52	249.12
286.751	247.12
286.982	231.12
287.213	248.12
287.444	248.12
287.675	259.12
287.906	235.12
288.138	255.12
288.369	244.12
288.6	261.12
288.831	254.12
289.062	267.12
289.293	245.12
289.524	255.12
289.755	259.12
289.986	248.12
290.217	249.12
290.448	251.12
290.679	236.12
290.91	242.12
291.141	237.12
291.371	247.12
291.602	226.12
291.833	234.12
292.064	243.12
292.295	260.12
292.526	246.12
292.757	262.12
292.987	238.12
293.218	220.12
293.449	237.12
293.68	246.12
293.91	271.12
294.141	258.12
294.372	246.12
294.603	260.12
294.833	245.12
295.064	248.12
295.295	247.12
295.525	232.12
295.756	270.12
295.987	244.12
296.217	267.12
296.448	273.12
296.679	278.12
296.909	262.12
297.14	252.12
297.37	259.12
297.601	282.12
297.831	262.12
298.062	262.12
298.292	276.12
298.523	263.12
298.753	277.12
298.984	247.12
299.214	273.12
299.445	262.12
299.675	276.12
299.905	272.12
300.136	277.12
300.366	261.12
300.597	267.12
300.827	280.12
301.057	275.12
301.288	282.12
301.518	283.12
301.748	278.12
301.979	268.12
302.209	263.12
302.439	268.12
302.669	272.12
302.9	283.12
303.13	282.12
303.36	271.12
303.59	282.12
303.82	270.12
304.051	282.12
304.281	275.12
304.511	284.12
304.741	271.12
304.971	266.12
305.201	273.12
305.431	284.12
305.661	271.12
305.891	278.12
306.121	272.12
306.352	287.12
306.582	297.12
306.812	273.12
307.042	270.12
307.272	272.12
307.502	309.12
307.731	295.12
307.961	288.12
308.191	274.12
308.421	285.12
308.651	283.12
308.881	291.12
309.111	295.12
309.341	275.12
309.571	284.12
309.8	303.12
310.03	306.12
310.26	318.12
310.49	310.12
310.72	335.12
310.949	327.12
311.179	333.12
311.409	330.12
311.639	316.12
311.868	294.12
312.098	298.12
312.328	309.12
312.557	350.12
312.787	336.12
313.017	347.12
313.246	342.12
313.476	317.12
313.706	327.12
313.935	309.12
314.165	341.12
314.394	322.12
314.624	311.12
314.853	323.12
315.083	329.12
315.312	326.12
315.542	307.12
315.771	325.12
316.001	311.12
316.23	318.12
316.46	309.12
316.689	313.12
316.919	312.12
317.148	301.12
317.377	341.12
317.607	317.12
317.836	322.12
318.065	319.12
318.295	293.12
318.524	307.12
318.753	315.12
318.983	337.12
319.212	323.12
319.441	341.12
319.67	326.12
319.9	331.12
320.129	318.12
320.358	322.12
320.587	313.12
320.816	335.12
321.046	337.12
321.275	344.12
321.504	338.12
321.733	345.12
321.962	331.12
322.191	351.12
322.42	372.12
322.649	362.12
322.878	354.12
323.108	373.12
323.337	420.12
323.566	406.12
323.795	437.12
324.024	468.12
324.253	564.12
324.482	801.12
324.71	1179.12
324.939	1598.12
325.168	1325.12
325.397	722.12
325.626	520.12
325.855	446.12
326.084	415.12
326.313	406.12
326.542	406.12
326.77	464.12
326.999	535.12
327.228	745.12
327.457	1014.12
327.686	1204.12
327.914	811.12
328.143	556.12
328.372	476.12
328.6	448.12
328.829	439.12
329.058	454.12
329.287	463.12
329.515	413.12
329.744	391.12
329.972	399.12
330.201	380.12
330.43	426.12
330.658	454.12
330.887	484.12
331.115	454.12
331.344	425.12
331.572	410.12
331.801	407.12
332.03	396.12
332.258	391.12
332.486	364.12
332.715	380.12
332.943	378.12
333.172	384.12
333.4	366.12
333.629	373.12
333.857	418.12
334.085	387.12
334.314	398.12
334.542	372.12
334.771	399.12
334.999	386.12
335.227	376.12
335.455	377.12
335.684	374.12
335.912	357.12
336.14	348.12
336.369	374.12
336.597	358.12
336.825	395.12
337.053	375.12
337.281	358.12
337.51	357.12
337.738	364.12
337.966	358.12
338.194	366.12
338.422	348.12
338.65	367.12
338.878	377.12
339.106	364.12
339.334	379.12
339.562	354.12
339.79	362.12
340.018	366.12
340.246	360.12
340.474	356.12
340.702	339.12
340.93	342.12
341.158	349.12
341.386	356.12
341.614	361.12
341.842	354.12
342.07	344.12
342.298	348.12
342.526	342.12
342.754	351.12
342.981	356.12
343.209	342.12
343.437	352.12
343.665	351.12
343.893	339.12
344.12	370.12
344.348	343.12
344.576	369.12
344.804	381.12
345.031	391.12
345.259	375.12
345.487	366.12
345.714	348.12
345.942	350.12
346.17	352.12
346.397	342.12
346.625	340.12
346.853	344.12
347.08	349.12
347.308	350.12
347.535	354.12
347.763	371.12
347.99	346.12
348.218	350.12
348.445	336.12
348.673	355.12
348.9	343.12
349.128	333.12
349.355	325.12
349.583	344.12
349.81	336.12
350.037	339.12
350.265	329.12
350.492	328.12
350.72	334.12
350.947	329.12
351.174	359.12
351.402	376.12
351.629	348.12
351.856	348.12
352.083	364.12
352.311	348.12
352.538	367.12
352.765	365.12
352.992	340.12
353.22	351.12
353.447	346.12
353.674	339.12
353.901	329.12
354.128	329.12
354.355	327.12
354.583	328.12
354.81	327.12
355.037	331.12
355.264	330.12
355.491	312.12
355.718	316.12
355.945	317.12
356.172	324.12
356.399	305.12
356.626	320.12
356.853	317.12
357.08	322.12
357.307	330.12
357.534	334.12
357.761	313.12
357.988	327.12
358.215	333.12
358.441	336.12
358.668	335.12
358.895	324.12
359.122	331.12
359.349	325.12
359.576	340.12
359.802	364.12
360.029	367.12
360.256	375.12
360.483	371.12
360.709	363.12
360.936	353.12
361.163	338.12
361.39	345.12
361.616	346.12
361.843	319.12
362.07	358.12
362.296	342.12
362.523	346.12
362.749	339.12
362.976	326.12
363.203	325.12
363.429	326.12
363.656	327.12
363.882	330.12
364.109	342.12
364.335	344.12
364.562	335.12
364.788	321.12
365.015	331.12
365.241	339.12
365.468	332.12
365.694	348.12
365.92	330.12
366.147	347.12
366.373	328.12
366.599	320.12
366.826	336.12
367.052	308.12
367.278	332.12
367.505	328.12
367.731	336.12
367.957	325.12
368.184	350.12
368.41	341.12
368.636	340.12
368.862	351.12
369.089	345.12
369.315	326.12
369.541	337.12
369.767	333.12
369.993	343.12
370.219	330.12
370.445	322.12
370.672	324.12
370.898	335.12
371.124	331.12
371.35	328.12
371.576	317.12
371.802	332.12
372.028	313.12
372.254	336.12
372.48	331.12
372.706	339.12
372.932	351.12
373.158	327.12
373.384	343.12
373.61	341.12
373.835	346.12
374.061	349.12
374.287	334.12
374.513	348.12
374.739	340.12
374.965	323.12
375.191	340.12
375.416	328.12
375.642	337.12
375.868	331.12
376.094	339.12
376.319	325.12
376.545	342.12
376.771	325.12
376.997	342.12
377.222	328.12
377.448	327.12
377.674	335.12
377.899	341.12
378.125	332.12
378.35	330.12
378.576	325.12
378.802	311.12
379.027	336.12
379.253	327.12
379.478	332.12
379.704	318.12
379.929	319.12
380.155	338.12
380.38	306.12
380.606	327.12
380.831	338.12
381.057	327.12
381.282	338.12
381.507	329.12
381.733	337.12
381.958	347.12
382.184	339.12
382.409	334.12
382.634	342.12
382.86	349.12
383.085	333.12
383.31	348.12
383.535	340.12
383.761	354.12
383.986	338.12
384.211	335.12
384.436	338.12
384.662	357.12
384.887	346.12
385.112	350.12
385.337	360.12
385.562	358.12
385.787	353.12
386.013	370.12
386.238	376.12
386.463	356.12
386.688	378.12
386.913	356.12
387.138	349.12
387.363	367.12
387.588	342.12
387.813	359.12
388.038	346.12
388.263	354.12
388.488	354.12
388.713	347.12
388.938	346.12
389.163	367.12
389.387	350.12
389.612	359.12
389.837	346.12
390.062	349.12
390.287	346.12
390.512	356.12
390.736	338.12
390.961	362.12
391.186	343.12
391.411	379.12
391.636	366.12
391.86	360.12
392.085	352.12
392.31	354.12
392.534	370.12
392.759	341.12
392.984	364.12
393.208	374.12
393.433	360.12
393.658	371.12
393.882	362.12
394.107	343.12
394.331	347.12
394.556	357.12
394.78	363.12
395.005	356.12
395.229	345.12
395.454	368.12
395.678	370.12
395.903	368.12
396.127	392.12
396.352	381.12
396.576	371.12
396.801	374.12
397.025	372.12
397.249	383.12
397.474	366.12
397.698	375.12
397.922	390.12
398.147	394.12
398.371	401.12
398.595	396.12
398.82	396.12
399.044	394.12
399.268	412.12
399.492	444.12
399.717	472.12
399.941	478.12
400.165	502.12
400.389	477.12
400.613	441.12
400.837	416.12
401.062	407.12
401.286	426.12
401.51	405.12
401.734	407.12
401.958	382.12
402.182	417.12
402.406	404.12
402.63	409.12
402.854	414.12
403.078	388.12
403.302	404.12
403.526	434.12
403.75	421.12
403.974	429.12
404.198	417.12
404.422	425.12
404.645	404.12
404.869	418.12
405.093	423.12
405.317	440.12
405.541	445.12
405.765	451.12
405.988	438.12
406.212	440.12
406.436	462.12
406.66	426.12
406.883	440.12
407.107	459.12
407.331	491.12
407.555	544.12
407.778	559.12
408.002	491.12
408.226	462.12
408.449	451.12
408.673	458.12
408.896	459.12
409.12	497.12
409.344	468.12
409.567	440.12
409.791	425.12
410.014	400.12
410.238	434.12
410.461	416.12
410.685	440.12
410.908	452.12
411.132	459.12
411.355	473.12
411.578	466.12
411.802	415.12
412.025	422.12
412.249	426.12
412.472	426.12
412.695	419.12
412.919	391.12
413.142	404.12
413.365	390.12
413.589	418.12
413.812	384.12
414.035	391.12
414.258	396.12
414.482	401.12
414.705	380.12
414.928	414.12
415.151	373.12
415.374	388.12
415.597	383.12
415.821	389.12
416.044	394.12
416.267	405.12
416.49	384.12
416.713	390.12
416.936	382.12
417.159	384.12
417.382	411.12
417.605	391.12
417.828	370.12
418.051	392.12
418.274	411.12
418.497	393.12
418.72	401.12
418.943	394.12
419.166	406.12
419.389	414.12
419.611	428.12
419.834	436.12
420.057	414.12
420.28	391.12
420.503	398.12
420.726	412.12
420.948	415.12
421.171	424.12
421.394	470.12
421.617	432.12
421.839	405.12
422.062	403.12
422.285	447.12
422.507	449.12
422.73	510.12
422.953	507.12
423.175	444.12
423.398	438.12
423.621	423.12
423.843	444.12
424.066	466.12
424.288	453.12
424.511	443.12
424.733	488.12
424.956	548.12
425.178	543.12
425.401	539.12
425.623	557.12
425.846	460.12
426.068	436.12
426.291	435.12
426.513	419.12
426.735	450.12
426.958	480.12
427.18	539.12
427.402	663.12
427.625	674.12
427.847	601.12
428.069	504.12
428.292	458.12
428.514	421.12
428.736	419.12
428.958	411.12
429.181	415.12
429.403	390.12
429.625	424.12
429.847	438.12
430.069	488.12
430.292	489.12
430.514	421.12
430.736	413.12
430.958	392.12
431.18	402.12
431.402	379.12
431.624	370.12
431.846	388.12
432.068	386.12
432.29	392.12
432.512	399.12
432.734	379.12
432.956	399.12
433.178	388.12
433.4	388.12
433.622	399.12
433.844	376.12
434.066	394.12
434.287	376.12
434.509	398.12
434.731	374.12
434.953	402.12
435.175	419.12
435.397	422.12
435.618	442.12
435.84	483.12
436.062	532.12
436.284	576.12
436.505	489.12
436.727	446.12
436.949	425.12
437.17	408.12
437.392	406.12
437.614	436.12
437.835	434.12
438.057	508.12
438.278	584.12
438.5	588.12
438.721	600.12
438.943	616.12
439.165	471.12
439.386	439.12
439.608	454.12
439.829	448.12
440.05	470.12
440.272	491.12
440.493	470.12
440.715	413.12
440.936	417.12
441.158	414.12
441.379	420.12
441.6	426.12
441.822	437.12
442.043	467.12
442.264	542.12
442.486	568.12
442.707	499.12
442.928	461.12
443.149	450.12
443.371	492.12
443.592	500.12
443.813	574.12
444.034	612.12
444.255	519.12
444.476	436.12
444.698	434.12
444.919	429.12
445.14	562.12
445.361	511.12
445.582	483.12
445.803	529.12
446.024	604.12
446.245	586.12
446.466	532.12
446.687	447.12
446.908	424.12
447.129	410.12
447.35	404.12
447.571	403.12
447.792	415.12
448.013	411.12
448.234	448.12
448.455	477.12
448.675	530.12
448.896	616.12
449.117	538.12
449.338	508.12
449.559	586.12
449.779	638.12
450	508.12
450.221	455.12
450.442	405.12
450.662	414.12
450.883	416.12
451.104	411.12
451.324	395.12
451.545	398.12
451.766	391.12
451.986	360.12
452.207	378.12
452.428	361.12
452.648	356.12
452.869	370.12
453.089	372.12
453.31	368.12
453.53	390.12
453.751	379.12
453.971	371.12
454.192	404.12
454.412	366.12
454.633	362.12
454.853	352.12
455.073	366.12
455.294	397.12
455.514	449.12
455.734	407.12
455.955	355.12
456.175	365.12
456.395	350.12
456.616	339.12
456.836	343.12
457.056	344.12
457.276	331.12
457.497	338.12
457.717	371.12
457.937	356.12
458.157	336.12
458.377	352.12
458.598	382.12
458.818	436.12
459.038	483.12
459.258	479.12
459.478	439.12
459.698	410.12
459.918	377.12
460.138	399.12
460.358	382.12
460.578	420.12
460.798	402.12
461.018	405.12
461.238	397.12
461.458	388.12
461.678	398.12
461.898	395.12
462.118	390.12
462.338	415.12
462.558	401.12
462.777	429.12
462.997	414.12
463.217	417.12
463.437	429.12
463.657	416.12
463.876	425.12
464.096	408.12
464.316	414.12
464.536	423.12
464.755	436.12
464.975	424.12
465.195	446.12
465.414	516.12
465.634	440.12
465.854	421.12
466.073	389.12
466.293	398.12
466.512	382.12
466.732	375.12
466.951	381.12
467.171	383.12
467.391	398.12
467.61	403.12
467.829	386.12
468.049	354.12
468.268	390.12
468.488	383.12
468.707	362.12
468.927	357.12
469.146	352.12
469.365	388.12
469.585	362.12
469.804	378.12
470.023	378.12
470.243	376.12
470.462	384.12
470.681	414.12
470.901	383.12
471.12	374.12
471.339	374.12
471.558	386.12
471.777	396.12
471.997	379.12
472.216	351.12
472.435	384.12
472.654	359.12
472.873	392.12
473.092	380.12
473.311	378.12
473.53	383.12
473.749	371.12
473.968	397.12
474.187	487.12
474.406	505.12
474.625	422.12
474.844	394.12
475.063	381.12
475.282	398.12
475.501	375.12
475.72	388.12
475.939	386.12
476.158	400.12
476.377	387.12
476.596	370.12
476.814	396.12
477.033	407.12
477.252	415.12
477.471	413.12
477.69	401.12
477.908	404.12
478.127	411.12
478.346	422.12
478.564	444.12
478.783	446.12
479.002	428.12
479.22	416.12
479.439	419.12
479.658	462.12
479.876	457.12
480.095	458.12
480.313	470.12
480.532	462.12
480.751	461.12
480.969	449.12
481.188	486.12
481.406	460.12
481.624	456.12
481.843	458.12
482.061	437.12
482.28	433.12
482.498	435.12
482.717	429.12
482.935	445.12
483.153	447.12
483.372	424.12
483.59	436.12
483.808	452.12
484.027	447.12
484.245	441.12
484.463	453.12
484.681	453.12
484.9	439.12
485.118	451.12
485.336	446.12
485.554	440.12
485.772	448.12
485.99	454.12
486.209	455.12
486.427	466.12
486.645	482.12
486.863	475.12
487.081	465.12
487.299	460.12
487.517	500.12
487.735	466.12
487.953	476.12
488.171	478.12
488.389	481.12
488.607	441.12
488.825	470.12
489.043	472.12
489.261	460.12
489.479	466.12
489.696	470.12
489.914	476.12
490.132	512.12
490.35	498.12
490.568	474.12
490.786	515.12
491.003	498.12
491.221	527.12
491.439	521.12
491.657	532.12
491.874	532.12
492.092	533.12
492.31	535.12
492.527	556.12
492.745	534.12
492.963	557.12
493.18	538.12
493.398	532.12
493.615	540.12
493.833	553.12
494.05	543.12
494.268	556.12
494.485	542.12
494.703	546.12
494.92	570.12
495.138	556.12
495.355	552.12
495.573	566.12
495.79	555.12
496.008	557.12
496.225	537.12
496.442	567.12
496.66	550.12
496.877	547.12
497.094	559.12
497.312	565.12
497.529	556.12
497.746	576.12
497.963	578.12
498.181	591.12
498.398	608.12
498.615	604.12
498.832	626.12
499.049	646.12
499.267	663.12
499.484	662.12
499.701	657.12
499.918	682.12
500.135	703.12
500.352	748.12
500.569	759.12
500.786	731.12
501.003	755.12
501.22	728.12
501.437	716.12
501.654	692.12
501.871	693.12
502.088	673.12
