Data from 1983.PennyLincolnUp.Lamp.En5.5.200Scan.071819.P1_HRD10591_16-54-09-966.txt Node
Date: Thu Jul 18 16:54:09 EDT 2019
User: cochatt
Spectrometer: HR+D1059
Trigger mode: 1
Integration Time (sec): 1.000000E-1
Scans to average: 1
Electric dark correction enabled: true
Nonlinearity correction enabled: false
Boxcar width: 0
XAxis mode: Wavelengths
Number of Pixels in Spectrum: 2048
>>>>>Begin Spectral Data<<<<<
223.165	-19.81
223.4	-19.81
223.635	-19.81
223.869	-25.81
224.104	-32.81
224.338	-15.81
224.573	-13.81
224.808	-14.81
225.042	-9.81
225.277	5.19
225.511	1.19
225.746	5.19
225.98	19.19
226.215	21.19
226.449	30.19
226.683	26.19
226.918	11.19
227.152	13.19
227.387	19.19
227.621	36.19
227.856	28.19
228.09	34.19
228.324	41.19
228.559	55.19
228.793	68.19
229.027	98.19
229.262	82.19
229.496	113.19
229.73	115.19
229.964	131.19
230.199	116.19
230.433	112.19
230.667	119.19
230.901	105.19
231.136	105.19
231.37	99.19
231.604	108.19
231.838	107.19
232.072	102.19
232.306	113.19
232.541	99.19
232.775	114.19
233.009	99.19
233.243	108.19
233.477	120.19
233.711	110.19
233.945	129.19
234.179	113.19
234.413	119.19
234.647	111.19
234.881	119.19
235.115	99.19
235.349	99.19
235.583	109.19
235.817	118.19
236.051	115.19
236.285	127.19
236.519	131.19
236.753	128.19
236.987	140.19
237.221	167.19
237.455	198.19
237.689	154.19
237.922	137.19
238.156	135.19
238.39	122.19
238.624	90.19
238.858	108.19
239.091	111.19
239.325	99.19
239.559	109.19
239.793	119.19
240.027	114.19
240.26	134.19
240.494	135.19
240.728	136.19
240.961	129.19
241.195	116.19
241.429	130.19
241.662	124.19
241.896	120.19
242.13	136.19
242.363	124.19
242.597	120.19
242.83	130.19
243.064	129.19
243.298	104.19
243.531	126.19
243.765	137.19
243.998	124.19
244.232	146.19
244.465	126.19
244.699	115.19
244.932	134.19
245.166	134.19
245.399	135.19
245.633	123.19
245.866	132.19
246.099	129.19
246.333	130.19
246.566	139.19
246.8	136.19
247.033	151.19
247.266	141.19
247.5	150.19
247.733	159.19
247.966	155.19
248.2	152.19
248.433	174.19
248.666	155.19
248.899	160.19
249.133	187.19
249.366	188.19
249.599	170.19
249.832	169.19
250.066	151.19
250.299	147.19
250.532	169.19
250.765	182.19
250.998	199.19
251.231	203.19
251.465	196.19
251.698	197.19
251.931	179.19
252.164	181.19
252.397	179.19
252.63	196.19
252.863	189.19
253.096	212.19
253.329	206.19
253.562	203.19
253.795	201.19
254.028	186.19
254.261	191.19
254.494	217.19
254.727	245.19
254.96	265.19
255.193	237.19
255.426	214.19
255.659	199.19
255.892	234.19
256.124	219.19
256.357	211.19
256.59	210.19
256.823	194.19
257.056	193.19
257.289	182.19
257.521	204.19
257.754	191.19
257.987	186.19
258.22	170.19
258.452	182.19
258.685	193.19
258.918	192.19
259.151	190.19
259.383	195.19
259.616	204.19
259.849	216.19
260.081	220.19
260.314	261.19
260.547	226.19
260.779	240.19
261.012	226.19
261.244	201.19
261.477	201.19
261.71	186.19
261.942	198.19
262.175	215.19
262.407	210.19
262.64	203.19
262.872	203.19
263.105	191.19
263.337	187.19
263.57	191.19
263.802	198.19
264.035	174.19
264.267	179.19
264.499	186.19
264.732	191.19
264.964	194.19
265.197	185.19
265.429	174.19
265.661	189.19
265.894	203.19
266.126	189.19
266.358	197.19
266.591	206.19
266.823	200.19
267.055	201.19
267.287	217.19
267.52	208.19
267.752	193.19
267.984	204.19
268.216	196.19
268.448	212.19
268.681	201.19
268.913	229.19
269.145	239.19
269.377	252.19
269.609	252.19
269.841	254.19
270.073	252.19
270.306	271.19
270.538	280.19
270.77	267.19
271.002	280.19
271.234	243.19
271.466	277.19
271.698	284.19
271.93	282.19
272.162	281.19
272.394	295.19
272.626	269.19
272.858	260.19
273.09	256.19
273.322	227.19
273.553	247.19
273.785	229.19
274.017	232.19
274.249	249.19
274.481	228.19
274.713	225.19
274.945	232.19
275.176	240.19
275.408	241.19
275.64	243.19
275.872	231.19
276.104	233.19
276.335	230.19
276.567	244.19
276.799	272.19
277.031	259.19
277.262	292.19
277.494	294.19
277.726	275.19
277.957	249.19
278.189	240.19
278.421	247.19
278.652	231.19
278.884	240.19
279.115	238.19
279.347	246.19
279.579	234.19
279.81	238.19
280.042	220.19
280.273	235.19
280.505	233.19
280.736	248.19
280.968	232.19
281.199	251.19
281.431	240.19
281.662	240.19
281.894	260.19
282.125	252.19
282.356	259.19
282.588	264.19
282.819	273.19
283.051	247.19
283.282	230.19
283.513	233.19
283.745	256.19
283.976	251.19
284.207	246.19
284.439	245.19
284.67	255.19
284.901	251.19
285.132	230.19
285.364	243.19
285.595	263.19
285.826	258.19
286.057	255.19
286.288	242.19
286.52	248.19
286.751	260.19
286.982	257.19
287.213	243.19
287.444	250.19
287.675	265.19
287.906	246.19
288.138	252.19
288.369	275.19
288.6	284.19
288.831	271.19
289.062	250.19
289.293	243.19
289.524	246.19
289.755	256.19
289.986	260.19
290.217	258.19
290.448	248.19
290.679	238.19
290.91	265.19
291.141	254.19
291.371	260.19
291.602	244.19
291.833	271.19
292.064	245.19
292.295	263.19
292.526	254.19
292.757	260.19
292.987	267.19
293.218	238.19
293.449	258.19
293.68	258.19
293.91	247.19
294.141	260.19
294.372	249.19
294.603	255.19
294.833	259.19
295.064	282.19
295.295	275.19
295.525	252.19
295.756	265.19
295.987	272.19
296.217	276.19
296.448	306.19
296.679	290.19
296.909	256.19
297.14	266.19
297.37	272.19
297.601	268.19
297.831	247.19
298.062	251.19
298.292	254.19
298.523	260.19
298.753	275.19
298.984	266.19
299.214	270.19
299.445	289.19
299.675	288.19
299.905	275.19
300.136	296.19
300.366	281.19
300.597	276.19
300.827	300.19
301.057	292.19
301.288	291.19
301.518	302.19
301.748	283.19
301.979	290.19
302.209	305.19
302.439	294.19
302.669	280.19
302.9	286.19
303.13	291.19
303.36	282.19
303.59	318.19
303.82	320.19
304.051	291.19
304.281	282.19
304.511	297.19
304.741	286.19
304.971	272.19
305.201	260.19
305.431	282.19
305.661	287.19
305.891	294.19
306.121	296.19
306.352	293.19
306.582	293.19
306.812	286.19
307.042	281.19
307.272	288.19
307.502	284.19
307.731	294.19
307.961	305.19
308.191	305.19
308.421	289.19
308.651	310.19
308.881	275.19
309.111	297.19
309.341	290.19
309.571	324.19
309.8	328.19
310.03	344.19
310.26	358.19
310.49	339.19
310.72	340.19
310.949	337.19
311.179	365.19
311.409	346.19
311.639	343.19
311.868	351.19
312.098	351.19
312.328	331.19
312.557	373.19
312.787	367.19
313.017	369.19
313.246	342.19
313.476	342.19
313.706	340.19
313.935	360.19
314.165	369.19
314.394	356.19
314.624	368.19
314.853	326.19
315.083	358.19
315.312	345.19
315.542	322.19
315.771	320.19
316.001	348.19
316.23	343.19
316.46	337.19
316.689	344.19
316.919	346.19
317.148	359.19
317.377	345.19
317.607	348.19
317.836	345.19
318.065	335.19
318.295	337.19
318.524	323.19
318.753	339.19
318.983	331.19
319.212	356.19
319.441	357.19
319.67	354.19
319.9	370.19
320.129	346.19
320.358	336.19
320.587	337.19
320.816	347.19
321.046	342.19
321.275	364.19
321.504	343.19
321.733	353.19
321.962	387.19
322.191	374.19
322.42	382.19
322.649	412.19
322.878	429.19
323.108	420.19
323.337	437.19
323.566	456.19
323.795	514.19
324.024	593.19
324.253	726.19
324.482	1027.19
324.71	1522.19
324.939	2050.19
325.168	1717.19
325.397	914.19
325.626	604.19
325.855	502.19
326.084	468.19
326.313	467.19
326.542	496.19
326.77	522.19
326.999	637.19
327.228	919.19
327.457	1373.19
327.686	1504.19
327.914	1020.19
328.143	688.19
328.372	615.19
328.6	567.19
328.829	544.19
329.058	555.19
329.287	544.19
329.515	542.19
329.744	471.19
329.972	449.19
330.201	469.19
330.43	526.19
330.658	550.19
330.887	571.19
331.115	562.19
331.344	497.19
331.572	456.19
331.801	446.19
332.03	454.19
332.258	405.19
332.486	390.19
332.715	375.19
332.943	384.19
333.172	410.19
333.4	397.19
333.629	412.19
333.857	437.19
334.085	433.19
334.314	440.19
334.542	444.19
334.771	464.19
334.999	445.19
335.227	425.19
335.455	417.19
335.684	411.19
335.912	409.19
336.14	407.19
336.369	401.19
336.597	414.19
336.825	396.19
337.053	402.19
337.281	388.19
337.51	379.19
337.738	400.19
337.966	389.19
338.194	404.19
338.422	396.19
338.65	386.19
338.878	380.19
339.106	384.19
339.334	382.19
339.562	357.19
339.79	368.19
340.018	378.19
340.246	378.19
340.474	404.19
340.702	390.19
340.93	355.19
341.158	366.19
341.386	387.19
341.614	384.19
341.842	398.19
342.07	378.19
342.298	374.19
342.526	370.19
342.754	361.19
342.981	363.19
343.209	393.19
343.437	368.19
343.665	358.19
343.893	381.19
344.12	372.19
344.348	373.19
344.576	355.19
344.804	386.19
345.031	391.19
345.259	412.19
345.487	391.19
345.714	380.19
345.942	379.19
346.17	363.19
346.397	379.19
346.625	359.19
346.853	351.19
347.08	369.19
347.308	346.19
347.535	387.19
347.763	390.19
347.99	381.19
348.218	385.19
348.445	384.19
348.673	389.19
348.9	382.19
349.128	363.19
349.355	377.19
349.583	358.19
349.81	345.19
350.037	371.19
350.265	361.19
350.492	343.19
350.72	368.19
350.947	370.19
351.174	362.19
351.402	401.19
351.629	372.19
351.856	390.19
352.083	374.19
352.311	403.19
352.538	376.19
352.765	389.19
352.992	395.19
353.22	380.19
353.447	367.19
353.674	347.19
353.901	334.19
354.128	361.19
354.355	338.19
354.583	353.19
354.81	332.19
355.037	323.19
355.264	349.19
355.491	348.19
355.718	327.19
355.945	349.19
356.172	340.19
356.399	326.19
356.626	340.19
356.853	334.19
357.08	327.19
357.307	361.19
357.534	336.19
357.761	330.19
357.988	366.19
358.215	348.19
358.441	332.19
358.668	330.19
358.895	345.19
359.122	328.19
359.349	360.19
359.576	360.19
359.802	389.19
360.029	420.19
360.256	441.19
360.483	411.19
360.709	375.19
360.936	383.19
361.163	358.19
361.39	359.19
361.616	384.19
361.843	375.19
362.07	369.19
362.296	368.19
362.523	375.19
362.749	377.19
362.976	332.19
363.203	349.19
363.429	346.19
363.656	357.19
363.882	354.19
364.109	352.19
364.335	351.19
364.562	350.19
364.788	359.19
365.015	363.19
365.241	329.19
365.468	356.19
365.694	352.19
365.92	368.19
366.147	350.19
366.373	349.19
366.599	336.19
366.826	341.19
367.052	351.19
367.278	343.19
367.505	340.19
367.731	332.19
367.957	348.19
368.184	355.19
368.41	362.19
368.636	331.19
368.862	381.19
369.089	371.19
369.315	357.19
369.541	340.19
369.767	348.19
369.993	338.19
370.219	346.19
370.445	344.19
370.672	358.19
370.898	318.19
371.124	347.19
371.35	355.19
371.576	341.19
371.802	343.19
372.028	332.19
372.254	346.19
372.48	330.19
372.706	346.19
372.932	337.19
373.158	340.19
373.384	347.19
373.61	343.19
373.835	354.19
374.061	351.19
374.287	367.19
374.513	339.19
374.739	344.19
374.965	328.19
375.191	339.19
375.416	341.19
375.642	348.19
375.868	344.19
376.094	342.19
376.319	344.19
376.545	349.19
376.771	329.19
376.997	325.19
377.222	345.19
377.448	347.19
377.674	347.19
377.899	333.19
378.125	337.19
378.35	332.19
378.576	340.19
378.802	330.19
379.027	347.19
379.253	346.19
379.478	349.19
379.704	331.19
379.929	350.19
380.155	325.19
380.38	343.19
380.606	340.19
380.831	337.19
381.057	366.19
381.282	350.19
381.507	344.19
381.733	343.19
381.958	329.19
382.184	335.19
382.409	346.19
382.634	342.19
382.86	355.19
383.085	352.19
383.31	359.19
383.535	353.19
383.761	345.19
383.986	330.19
384.211	343.19
384.436	367.19
384.662	328.19
384.887	364.19
385.112	349.19
385.337	363.19
385.562	340.19
385.787	360.19
386.013	388.19
386.238	369.19
386.463	379.19
386.688	371.19
386.913	340.19
387.138	365.19
387.363	342.19
387.588	353.19
387.813	348.19
388.038	359.19
388.263	371.19
388.488	356.19
388.713	362.19
388.938	374.19
389.163	377.19
389.387	372.19
389.612	375.19
389.837	360.19
390.062	354.19
390.287	381.19
390.512	353.19
390.736	361.19
390.961	374.19
391.186	369.19
391.411	370.19
391.636	353.19
391.86	368.19
392.085	384.19
392.31	383.19
392.534	393.19
392.759	362.19
392.984	347.19
393.208	360.19
393.433	356.19
393.658	372.19
393.882	372.19
394.107	360.19
394.331	365.19
394.556	368.19
394.78	374.19
395.005	387.19
395.229	391.19
395.454	363.19
395.678	387.19
395.903	386.19
396.127	387.19
396.352	401.19
396.576	397.19
396.801	375.19
397.025	396.19
397.249	373.19
397.474	382.19
397.698	394.19
397.922	403.19
398.147	402.19
398.371	412.19
398.595	412.19
398.82	412.19
399.044	402.19
399.268	415.19
399.492	424.19
399.717	484.19
399.941	477.19
400.165	488.19
400.389	474.19
400.613	457.19
400.837	427.19
401.062	439.19
401.286	417.19
401.51	401.19
401.734	391.19
401.958	404.19
402.182	419.19
402.406	417.19
402.63	446.19
402.854	420.19
403.078	407.19
403.302	430.19
403.526	437.19
403.75	442.19
403.974	436.19
404.198	422.19
404.422	432.19
404.645	447.19
404.869	431.19
405.093	448.19
405.317	483.19
405.541	495.19
405.765	459.19
405.988	468.19
406.212	456.19
406.436	476.19
406.66	492.19
406.883	467.19
407.107	477.19
407.331	536.19
407.555	542.19
407.778	546.19
408.002	515.19
408.226	468.19
408.449	464.19
408.673	487.19
408.896	486.19
409.12	506.19
409.344	491.19
409.567	450.19
409.791	426.19
410.014	421.19
410.238	423.19
410.461	432.19
410.685	420.19
410.908	449.19
411.132	460.19
411.355	506.19
411.578	456.19
411.802	428.19
412.025	411.19
412.249	424.19
412.472	441.19
412.695	465.19
412.919	471.19
413.142	417.19
413.365	407.19
413.589	408.19
413.812	382.19
414.035	426.19
414.258	415.19
414.482	406.19
414.705	395.19
414.928	398.19
415.151	414.19
415.374	386.19
415.597	390.19
415.821	394.19
416.044	388.19
416.267	382.19
416.49	405.19
416.713	400.19
416.936	399.19
417.159	411.19
417.382	406.19
417.605	401.19
417.828	415.19
418.051	419.19
418.274	383.19
418.497	413.19
418.72	402.19
418.943	401.19
419.166	416.19
419.389	431.19
419.611	412.19
419.834	414.19
420.057	422.19
420.28	423.19
420.503	427.19
420.726	411.19
420.948	442.19
421.171	438.19
421.394	486.19
421.617	437.19
421.839	433.19
422.062	407.19
422.285	422.19
422.507	463.19
422.73	527.19
422.953	512.19
423.175	445.19
423.398	446.19
423.621	417.19
423.843	447.19
424.066	440.19
424.288	458.19
424.511	467.19
424.733	507.19
424.956	559.19
425.178	555.19
425.401	552.19
425.623	528.19
425.846	471.19
426.068	462.19
426.291	459.19
426.513	432.19
426.735	455.19
426.958	478.19
427.18	558.19
427.402	686.19
427.625	731.19
427.847	681.19
428.069	573.19
428.292	513.19
428.514	468.19
428.736	449.19
428.958	455.19
429.181	434.19
429.403	382.19
429.625	428.19
429.847	479.19
430.069	504.19
430.292	528.19
430.514	434.19
430.736	398.19
430.958	409.19
431.18	415.19
431.402	406.19
431.624	402.19
431.846	405.19
432.068	389.19
432.29	412.19
432.512	396.19
432.734	396.19
432.956	387.19
433.178	411.19
433.4	426.19
433.622	415.19
433.844	414.19
434.066	387.19
434.287	402.19
434.509	401.19
434.731	416.19
434.953	430.19
435.175	431.19
435.397	458.19
435.618	464.19
435.84	483.19
436.062	541.19
436.284	604.19
436.505	501.19
436.727	470.19
436.949	435.19
437.17	417.19
437.392	398.19
437.614	440.19
437.835	466.19
438.057	573.19
438.278	634.19
438.5	613.19
438.721	662.19
438.943	611.19
439.165	496.19
439.386	471.19
439.608	475.19
439.829	480.19
440.05	497.19
440.272	533.19
440.493	500.19
440.715	462.19
440.936	447.19
441.158	425.19
441.379	402.19
441.6	443.19
441.822	450.19
442.043	490.19
442.264	567.19
442.486	570.19
442.707	502.19
442.928	485.19
443.149	475.19
443.371	507.19
443.592	531.19
443.813	610.19
444.034	639.19
444.255	536.19
444.476	478.19
444.698	444.19
444.919	471.19
445.14	559.19
445.361	529.19
445.582	486.19
445.803	561.19
446.024	644.19
446.245	630.19
446.466	561.19
446.687	500.19
446.908	466.19
447.129	454.19
447.35	417.19
447.571	417.19
447.792	424.19
448.013	419.19
448.234	454.19
448.455	478.19
448.675	569.19
448.896	648.19
449.117	567.19
449.338	544.19
449.559	616.19
449.779	689.19
450	548.19
450.221	467.19
450.442	437.19
450.662	411.19
450.883	428.19
451.104	444.19
451.324	419.19
451.545	429.19
451.766	403.19
451.986	361.19
452.207	396.19
452.428	366.19
452.648	363.19
452.869	386.19
453.089	404.19
453.31	413.19
453.53	411.19
453.751	378.19
453.971	401.19
454.192	406.19
454.412	393.19
454.633	385.19
454.853	388.19
455.073	392.19
455.294	398.19
455.514	448.19
455.734	436.19
455.955	380.19
456.175	369.19
456.395	378.19
456.616	366.19
456.836	381.19
457.056	355.19
457.276	348.19
457.497	364.19
457.717	375.19
457.937	376.19
458.157	363.19
458.377	386.19
458.598	410.19
458.818	453.19
459.038	544.19
459.258	525.19
459.478	463.19
459.698	423.19
459.918	412.19
460.138	387.19
460.358	385.19
460.578	404.19
460.798	396.19
461.018	403.19
461.238	400.19
461.458	401.19
461.678	404.19
461.898	401.19
462.118	376.19
462.338	406.19
462.558	412.19
462.777	426.19
462.997	410.19
463.217	450.19
463.437	439.19
463.657	410.19
463.876	409.19
464.096	401.19
464.316	397.19
464.536	427.19
464.755	423.19
464.975	444.19
465.195	475.19
465.414	576.19
465.634	501.19
465.854	441.19
466.073	407.19
466.293	396.19
466.512	410.19
466.732	397.19
466.951	381.19
467.171	379.19
467.391	409.19
467.61	407.19
467.829	414.19
468.049	392.19
468.268	376.19
468.488	372.19
468.707	377.19
468.927	371.19
469.146	376.19
469.365	385.19
469.585	402.19
469.804	390.19
470.023	422.19
470.243	409.19
470.462	404.19
470.681	423.19
470.901	413.19
471.12	396.19
471.339	394.19
471.558	376.19
471.777	378.19
471.997	377.19
472.216	403.19
472.435	432.19
472.654	413.19
472.873	382.19
473.092	393.19
473.311	392.19
473.53	380.19
473.749	412.19
473.968	428.19
474.187	510.19
474.406	532.19
474.625	444.19
474.844	418.19
475.063	389.19
475.282	401.19
475.501	387.19
475.72	400.19
475.939	394.19
476.158	417.19
476.377	391.19
476.596	391.19
476.814	416.19
477.033	408.19
477.252	426.19
477.471	412.19
477.69	419.19
477.908	409.19
478.127	418.19
478.346	438.19
478.564	436.19
478.783	448.19
479.002	428.19
479.22	455.19
479.439	438.19
479.658	469.19
479.876	483.19
480.095	488.19
480.313	505.19
480.532	472.19
480.751	488.19
480.969	486.19
481.188	517.19
481.406	555.19
481.624	504.19
481.843	480.19
482.061	480.19
482.28	461.19
482.498	450.19
482.717	457.19
482.935	443.19
483.153	452.19
483.372	447.19
483.59	456.19
483.808	467.19
484.027	472.19
484.245	460.19
484.463	455.19
484.681	454.19
484.9	467.19
485.118	486.19
485.336	458.19
485.554	480.19
485.772	473.19
485.99	470.19
486.209	450.19
486.427	487.19
486.645	506.19
486.863	532.19
487.081	496.19
487.299	499.19
487.517	478.19
487.735	506.19
487.953	501.19
488.171	506.19
488.389	475.19
488.607	494.19
488.825	510.19
489.043	503.19
489.261	487.19
489.479	493.19
489.696	464.19
489.914	501.19
490.132	508.19
490.35	502.19
490.568	490.19
490.786	517.19
491.003	538.19
491.221	558.19
491.439	549.19
491.657	560.19
491.874	570.19
492.092	552.19
492.31	586.19
492.527	579.19
492.745	569.19
492.963	568.19
493.18	571.19
493.398	580.19
493.615	580.19
493.833	586.19
494.05	571.19
494.268	580.19
494.485	595.19
494.703	572.19
494.92	573.19
495.138	595.19
495.355	576.19
495.573	599.19
495.79	587.19
496.008	568.19
496.225	582.19
496.442	598.19
496.66	581.19
496.877	592.19
497.094	618.19
497.312	589.19
497.529	594.19
497.746	613.19
497.963	602.19
498.181	620.19
498.398	611.19
498.615	636.19
498.832	650.19
499.049	638.19
499.267	674.19
499.484	670.19
499.701	714.19
499.918	700.19
500.135	772.19
500.352	760.19
500.569	768.19
500.786	774.19
501.003	746.19
501.22	738.19
501.437	699.19
501.654	707.19
501.871	720.19
502.088	694.19
