Data from 1983.PennyLincolnUp.Lamp.En5.5.200Scan.071819.P1_HRD10591_16-54-45-966.txt Node
Date: Thu Jul 18 16:54:45 EDT 2019
User: cochatt
Spectrometer: HR+D1059
Trigger mode: 1
Integration Time (sec): 1.000000E-1
Scans to average: 1
Electric dark correction enabled: true
Nonlinearity correction enabled: false
Boxcar width: 0
XAxis mode: Wavelengths
Number of Pixels in Spectrum: 2048
>>>>>Begin Spectral Data<<<<<
223.165	2.62
223.4	2.62
223.635	2.62
223.869	5.62
224.104	-27.38
224.338	-25.38
224.573	-10.38
224.808	-19.38
225.042	-6.38
225.277	0.62
225.511	0.62
225.746	-3.38
225.98	0.62
226.215	12.62
226.449	6.62
226.683	8.62
226.918	22.62
227.152	31.62
227.387	16.62
227.621	44.62
227.856	32.62
228.09	43.62
228.324	57.62
228.559	52.62
228.793	59.62
229.027	94.62
229.262	99.62
229.496	108.62
229.73	132.62
229.964	145.62
230.199	122.62
230.433	116.62
230.667	104.62
230.901	116.62
231.136	107.62
231.37	104.62
231.604	109.62
231.838	112.62
232.072	94.62
232.306	110.62
232.541	106.62
232.775	97.62
233.009	108.62
233.243	115.62
233.477	101.62
233.711	112.62
233.945	112.62
234.179	106.62
234.413	118.62
234.647	107.62
234.881	98.62
235.115	118.62
235.349	112.62
235.583	129.62
235.817	123.62
236.051	114.62
236.285	100.62
236.519	132.62
236.753	124.62
236.987	146.62
237.221	167.62
237.455	204.62
237.689	162.62
237.922	124.62
238.156	131.62
238.39	128.62
238.624	121.62
238.858	132.62
239.091	124.62
239.325	118.62
239.559	107.62
239.793	119.62
240.027	136.62
240.26	126.62
240.494	140.62
240.728	143.62
240.961	142.62
241.195	120.62
241.429	135.62
241.662	126.62
241.896	137.62
242.13	119.62
242.363	126.62
242.597	130.62
242.83	137.62
243.064	134.62
243.298	134.62
243.531	110.62
243.765	132.62
243.998	136.62
244.232	142.62
244.465	122.62
244.699	132.62
244.932	130.62
245.166	136.62
245.399	135.62
245.633	135.62
245.866	145.62
246.099	125.62
246.333	142.62
246.566	146.62
246.8	138.62
247.033	148.62
247.266	157.62
247.5	140.62
247.733	165.62
247.966	164.62
248.2	157.62
248.433	184.62
248.666	178.62
248.899	191.62
249.133	190.62
249.366	192.62
249.599	185.62
249.832	174.62
250.066	163.62
250.299	162.62
250.532	195.62
250.765	193.62
250.998	188.62
251.231	205.62
251.465	196.62
251.698	188.62
251.931	183.62
252.164	187.62
252.397	187.62
252.63	196.62
252.863	187.62
253.096	192.62
253.329	208.62
253.562	210.62
253.795	209.62
254.028	215.62
254.261	196.62
254.494	205.62
254.727	242.62
254.96	264.62
255.193	263.62
255.426	227.62
255.659	218.62
255.892	227.62
256.124	230.62
256.357	265.62
256.59	252.62
256.823	221.62
257.056	202.62
257.289	194.62
257.521	197.62
257.754	188.62
257.987	210.62
258.22	198.62
258.452	201.62
258.685	184.62
258.918	178.62
259.151	190.62
259.383	202.62
259.616	199.62
259.849	214.62
260.081	205.62
260.314	232.62
260.547	237.62
260.779	206.62
261.012	212.62
261.244	213.62
261.477	211.62
261.71	193.62
261.942	219.62
262.175	219.62
262.407	220.62
262.64	194.62
262.872	200.62
263.105	207.62
263.337	196.62
263.57	188.62
263.802	203.62
264.035	203.62
264.267	189.62
264.499	200.62
264.732	194.62
264.964	176.62
265.197	209.62
265.429	202.62
265.661	200.62
265.894	189.62
266.126	205.62
266.358	198.62
266.591	202.62
266.823	196.62
267.055	215.62
267.287	216.62
267.52	204.62
267.752	198.62
267.984	210.62
268.216	216.62
268.448	224.62
268.681	213.62
268.913	239.62
269.145	238.62
269.377	254.62
269.609	258.62
269.841	252.62
270.073	254.62
270.306	282.62
270.538	280.62
270.77	289.62
271.002	284.62
271.234	279.62
271.466	267.62
271.698	274.62
271.93	276.62
272.162	289.62
272.394	299.62
272.626	288.62
272.858	262.62
273.09	264.62
273.322	242.62
273.553	240.62
273.785	247.62
274.017	253.62
274.249	250.62
274.481	240.62
274.713	234.62
274.945	256.62
275.176	241.62
275.408	236.62
275.64	239.62
275.872	248.62
276.104	232.62
276.335	241.62
276.567	268.62
276.799	268.62
277.031	283.62
277.262	284.62
277.494	299.62
277.726	278.62
277.957	278.62
278.189	266.62
278.421	254.62
278.652	237.62
278.884	237.62
279.115	249.62
279.347	240.62
279.579	260.62
279.81	250.62
280.042	246.62
280.273	240.62
280.505	237.62
280.736	243.62
280.968	229.62
281.199	240.62
281.431	241.62
281.662	227.62
281.894	235.62
282.125	237.62
282.356	245.62
282.588	285.62
282.819	269.62
283.051	245.62
283.282	252.62
283.513	253.62
283.745	250.62
283.976	259.62
284.207	258.62
284.439	261.62
284.67	265.62
284.901	252.62
285.132	254.62
285.364	265.62
285.595	245.62
285.826	235.62
286.057	247.62
286.288	258.62
286.52	257.62
286.751	249.62
286.982	245.62
287.213	260.62
287.444	257.62
287.675	261.62
287.906	276.62
288.138	285.62
288.369	275.62
288.6	262.62
288.831	277.62
289.062	276.62
289.293	261.62
289.524	244.62
289.755	272.62
289.986	276.62
290.217	248.62
290.448	272.62
290.679	270.62
290.91	265.62
291.141	251.62
291.371	246.62
291.602	250.62
291.833	252.62
292.064	254.62
292.295	264.62
292.526	261.62
292.757	265.62
292.987	267.62
293.218	265.62
293.449	260.62
293.68	265.62
293.91	245.62
294.141	262.62
294.372	265.62
294.603	260.62
294.833	275.62
295.064	276.62
295.295	256.62
295.525	264.62
295.756	258.62
295.987	291.62
296.217	280.62
296.448	305.62
296.679	260.62
296.909	264.62
297.14	251.62
297.37	285.62
297.601	274.62
297.831	252.62
298.062	264.62
298.292	286.62
298.523	289.62
298.753	261.62
298.984	272.62
299.214	272.62
299.445	277.62
299.675	274.62
299.905	284.62
300.136	276.62
300.366	297.62
300.597	283.62
300.827	291.62
301.057	292.62
301.288	287.62
301.518	308.62
301.748	281.62
301.979	288.62
302.209	315.62
302.439	313.62
302.669	302.62
302.9	298.62
303.13	290.62
303.36	281.62
303.59	317.62
303.82	308.62
304.051	292.62
304.281	305.62
304.511	304.62
304.741	285.62
304.971	289.62
305.201	299.62
305.431	297.62
305.661	316.62
305.891	304.62
306.121	313.62
306.352	285.62
306.582	317.62
306.812	301.62
307.042	302.62
307.272	293.62
307.502	305.62
307.731	304.62
307.961	314.62
308.191	313.62
308.421	321.62
308.651	306.62
308.881	314.62
309.111	298.62
309.341	321.62
309.571	319.62
309.8	330.62
310.03	324.62
310.26	330.62
310.49	344.62
310.72	357.62
310.949	377.62
311.179	386.62
311.409	349.62
311.639	343.62
311.868	364.62
312.098	340.62
312.328	353.62
312.557	372.62
312.787	382.62
313.017	394.62
313.246	355.62
313.476	358.62
313.706	349.62
313.935	334.62
314.165	347.62
314.394	380.62
314.624	362.62
314.853	365.62
315.083	356.62
315.312	347.62
315.542	334.62
315.771	349.62
316.001	341.62
316.23	337.62
316.46	349.62
316.689	349.62
316.919	350.62
317.148	351.62
317.377	341.62
317.607	354.62
317.836	355.62
318.065	337.62
318.295	326.62
318.524	344.62
318.753	348.62
318.983	358.62
319.212	340.62
319.441	349.62
319.67	368.62
319.9	359.62
320.129	338.62
320.358	360.62
320.587	338.62
320.816	357.62
321.046	370.62
321.275	390.62
321.504	367.62
321.733	388.62
321.962	384.62
322.191	381.62
322.42	378.62
322.649	413.62
322.878	443.62
323.108	423.62
323.337	436.62
323.566	472.62
323.795	500.62
324.024	547.62
324.253	687.62
324.482	967.62
324.71	1496.62
324.939	1952.62
325.168	1644.62
325.397	896.62
325.626	610.62
325.855	521.62
326.084	483.62
326.313	472.62
326.542	481.62
326.77	547.62
326.999	646.62
327.228	886.62
327.457	1283.62
327.686	1470.62
327.914	996.62
328.143	672.62
328.372	612.62
328.6	575.62
328.829	536.62
329.058	545.62
329.287	550.62
329.515	515.62
329.744	492.62
329.972	483.62
330.201	501.62
330.43	542.62
330.658	585.62
330.887	590.62
331.115	574.62
331.344	487.62
331.572	468.62
331.801	455.62
332.03	465.62
332.258	448.62
332.486	409.62
332.715	420.62
332.943	420.62
333.172	417.62
333.4	403.62
333.629	421.62
333.857	449.62
334.085	471.62
334.314	477.62
334.542	517.62
334.771	547.62
334.999	488.62
335.227	455.62
335.455	437.62
335.684	406.62
335.912	423.62
336.14	390.62
336.369	404.62
336.597	423.62
336.825	425.62
337.053	401.62
337.281	406.62
337.51	386.62
337.738	389.62
337.966	398.62
338.194	403.62
338.422	375.62
338.65	388.62
338.878	403.62
339.106	392.62
339.334	402.62
339.562	376.62
339.79	382.62
340.018	363.62
340.246	384.62
340.474	396.62
340.702	398.62
340.93	375.62
341.158	389.62
341.386	382.62
341.614	397.62
341.842	381.62
342.07	378.62
342.298	378.62
342.526	387.62
342.754	372.62
342.981	382.62
343.209	376.62
343.437	372.62
343.665	379.62
343.893	407.62
344.12	389.62
344.348	396.62
344.576	398.62
344.804	395.62
345.031	397.62
345.259	425.62
345.487	393.62
345.714	383.62
345.942	399.62
346.17	381.62
346.397	392.62
346.625	402.62
346.853	353.62
347.08	352.62
347.308	377.62
347.535	384.62
347.763	403.62
347.99	393.62
348.218	410.62
348.445	399.62
348.673	389.62
348.9	372.62
349.128	354.62
349.355	377.62
349.583	360.62
349.81	365.62
350.037	380.62
350.265	366.62
350.492	358.62
350.72	363.62
350.947	380.62
351.174	394.62
351.402	389.62
351.629	392.62
351.856	383.62
352.083	381.62
352.311	400.62
352.538	402.62
352.765	406.62
352.992	373.62
353.22	388.62
353.447	378.62
353.674	346.62
353.901	364.62
354.128	358.62
354.355	345.62
354.583	355.62
354.81	370.62
355.037	361.62
355.264	361.62
355.491	344.62
355.718	344.62
355.945	346.62
356.172	334.62
356.399	337.62
356.626	345.62
356.853	351.62
357.08	352.62
357.307	330.62
357.534	345.62
357.761	349.62
357.988	347.62
358.215	359.62
358.441	346.62
358.668	339.62
358.895	354.62
359.122	353.62
359.349	370.62
359.576	393.62
359.802	388.62
360.029	404.62
360.256	439.62
360.483	417.62
360.709	390.62
360.936	389.62
361.163	375.62
361.39	384.62
361.616	373.62
361.843	356.62
362.07	380.62
362.296	390.62
362.523	377.62
362.749	370.62
362.976	370.62
363.203	358.62
363.429	371.62
363.656	370.62
363.882	372.62
364.109	373.62
364.335	353.62
364.562	361.62
364.788	362.62
365.015	346.62
365.241	359.62
365.468	341.62
365.694	380.62
365.92	391.62
366.147	356.62
366.373	360.62
366.599	354.62
366.826	347.62
367.052	347.62
367.278	357.62
367.505	348.62
367.731	353.62
367.957	341.62
368.184	356.62
368.41	360.62
368.636	369.62
368.862	369.62
369.089	353.62
369.315	341.62
369.541	364.62
369.767	352.62
369.993	359.62
370.219	347.62
370.445	348.62
370.672	354.62
370.898	362.62
371.124	356.62
371.35	344.62
371.576	373.62
371.802	351.62
372.028	352.62
372.254	341.62
372.48	352.62
372.706	349.62
372.932	341.62
373.158	348.62
373.384	343.62
373.61	344.62
373.835	356.62
374.061	352.62
374.287	364.62
374.513	357.62
374.739	347.62
374.965	368.62
375.191	357.62
375.416	352.62
375.642	331.62
375.868	350.62
376.094	351.62
376.319	343.62
376.545	343.62
376.771	355.62
376.997	358.62
377.222	353.62
377.448	349.62
377.674	331.62
377.899	337.62
378.125	338.62
378.35	340.62
378.576	349.62
378.802	350.62
379.027	340.62
379.253	336.62
379.478	350.62
379.704	350.62
379.929	345.62
380.155	359.62
380.38	349.62
380.606	356.62
380.831	341.62
381.057	344.62
381.282	358.62
381.507	344.62
381.733	335.62
381.958	369.62
382.184	341.62
382.409	350.62
382.634	346.62
382.86	350.62
383.085	351.62
383.31	349.62
383.535	347.62
383.761	361.62
383.986	338.62
384.211	361.62
384.436	360.62
384.662	372.62
384.887	349.62
385.112	372.62
385.337	360.62
385.562	374.62
385.787	378.62
386.013	386.62
386.238	375.62
386.463	388.62
386.688	372.62
386.913	356.62
387.138	384.62
387.363	360.62
387.588	389.62
387.813	378.62
388.038	377.62
388.263	365.62
388.488	362.62
388.713	372.62
388.938	372.62
389.163	376.62
389.387	370.62
389.612	364.62
389.837	370.62
390.062	354.62
390.287	350.62
390.512	374.62
390.736	372.62
390.961	364.62
391.186	359.62
391.411	361.62
391.636	366.62
391.86	383.62
392.085	363.62
392.31	395.62
392.534	367.62
392.759	376.62
392.984	362.62
393.208	376.62
393.433	368.62
393.658	372.62
393.882	365.62
394.107	374.62
394.331	363.62
394.556	364.62
394.78	361.62
395.005	358.62
395.229	373.62
395.454	376.62
395.678	368.62
395.903	399.62
396.127	399.62
396.352	428.62
396.576	388.62
396.801	389.62
397.025	381.62
397.249	388.62
397.474	392.62
397.698	397.62
397.922	417.62
398.147	409.62
398.371	412.62
398.595	421.62
398.82	424.62
399.044	415.62
399.268	433.62
399.492	432.62
399.717	456.62
399.941	480.62
400.165	495.62
400.389	500.62
400.613	468.62
400.837	448.62
401.062	427.62
401.286	426.62
401.51	417.62
401.734	413.62
401.958	426.62
402.182	425.62
402.406	430.62
402.63	433.62
402.854	447.62
403.078	427.62
403.302	448.62
403.526	422.62
403.75	418.62
403.974	410.62
404.198	429.62
404.422	450.62
404.645	424.62
404.869	450.62
405.093	460.62
405.317	512.62
405.541	512.62
405.765	504.62
405.988	474.62
406.212	472.62
406.436	470.62
406.66	498.62
406.883	456.62
407.107	502.62
407.331	530.62
407.555	563.62
407.778	570.62
408.002	526.62
408.226	476.62
408.449	483.62
408.673	463.62
408.896	478.62
409.12	527.62
409.344	496.62
409.567	450.62
409.791	425.62
410.014	435.62
410.238	440.62
410.461	435.62
410.685	448.62
410.908	457.62
411.132	460.62
411.355	503.62
411.578	469.62
411.802	443.62
412.025	441.62
412.249	434.62
412.472	460.62
412.695	475.62
412.919	481.62
413.142	470.62
413.365	429.62
413.589	426.62
413.812	424.62
414.035	433.62
414.258	420.62
414.482	410.62
414.705	385.62
414.928	397.62
415.151	391.62
415.374	399.62
415.597	405.62
415.821	396.62
416.044	409.62
416.267	410.62
416.49	390.62
416.713	405.62
416.936	413.62
417.159	385.62
417.382	421.62
417.605	416.62
417.828	434.62
418.051	436.62
418.274	438.62
418.497	456.62
418.72	417.62
418.943	417.62
419.166	406.62
419.389	442.62
419.611	436.62
419.834	436.62
420.057	426.62
420.28	428.62
420.503	432.62
420.726	429.62
420.948	426.62
421.171	476.62
421.394	507.62
421.617	457.62
421.839	428.62
422.062	418.62
422.285	450.62
422.507	482.62
422.73	528.62
422.953	518.62
423.175	464.62
423.398	446.62
423.621	446.62
423.843	466.62
424.066	470.62
424.288	438.62
424.511	466.62
424.733	540.62
424.956	592.62
425.178	533.62
425.401	553.62
425.623	560.62
425.846	510.62
426.068	492.62
426.291	454.62
426.513	479.62
426.735	461.62
426.958	486.62
427.18	584.62
427.402	635.62
427.625	717.62
427.847	650.62
428.069	582.62
428.292	504.62
428.514	486.62
428.736	445.62
428.958	438.62
429.181	426.62
429.403	442.62
429.625	450.62
429.847	470.62
430.069	521.62
430.292	498.62
430.514	441.62
430.736	439.62
430.958	433.62
431.18	410.62
431.402	394.62
431.624	399.62
431.846	414.62
432.068	408.62
432.29	399.62
432.512	410.62
432.734	409.62
432.956	409.62
433.178	409.62
433.4	424.62
433.622	446.62
433.844	428.62
434.066	406.62
434.287	417.62
434.509	419.62
434.731	435.62
434.953	419.62
435.175	419.62
435.397	450.62
435.618	458.62
435.84	519.62
436.062	569.62
436.284	605.62
436.505	560.62
436.727	491.62
436.949	438.62
437.17	454.62
437.392	435.62
437.614	437.62
437.835	446.62
438.057	573.62
438.278	640.62
438.5	626.62
438.721	666.62
438.943	637.62
439.165	501.62
439.386	491.62
439.608	469.62
439.829	491.62
440.05	501.62
440.272	537.62
440.493	493.62
440.715	466.62
440.936	430.62
441.158	435.62
441.379	420.62
441.6	437.62
441.822	460.62
442.043	497.62
442.264	560.62
442.486	607.62
442.707	518.62
442.928	490.62
443.149	496.62
443.371	487.62
443.592	548.62
443.813	605.62
444.034	605.62
444.255	557.62
444.476	505.62
444.698	482.62
444.919	493.62
445.14	585.62
445.361	524.62
445.582	508.62
445.803	534.62
446.024	621.62
446.245	638.62
446.466	563.62
446.687	528.62
446.908	473.62
447.129	446.62
447.35	460.62
447.571	439.62
447.792	426.62
448.013	438.62
448.234	452.62
448.455	512.62
448.675	593.62
448.896	654.62
449.117	571.62
449.338	550.62
449.559	598.62
449.779	661.62
450	559.62
450.221	468.62
450.442	436.62
450.662	451.62
450.883	448.62
451.104	446.62
451.324	459.62
451.545	414.62
451.766	396.62
451.986	409.62
452.207	394.62
452.428	387.62
452.648	397.62
452.869	381.62
453.089	393.62
453.31	399.62
453.53	392.62
453.751	391.62
453.971	398.62
454.192	394.62
454.412	393.62
454.633	391.62
454.853	377.62
455.073	394.62
455.294	422.62
455.514	450.62
455.734	445.62
455.955	389.62
456.175	368.62
456.395	360.62
456.616	362.62
456.836	368.62
457.056	352.62
457.276	348.62
457.497	376.62
457.717	375.62
457.937	361.62
458.157	388.62
458.377	386.62
458.598	402.62
458.818	458.62
459.038	529.62
459.258	541.62
459.478	460.62
459.698	426.62
459.918	397.62
460.138	385.62
460.358	380.62
460.578	427.62
460.798	407.62
461.018	410.62
461.238	399.62
461.458	399.62
461.678	402.62
461.898	409.62
462.118	416.62
462.338	429.62
462.558	405.62
462.777	417.62
462.997	433.62
463.217	416.62
463.437	446.62
463.657	412.62
463.876	417.62
464.096	438.62
464.316	432.62
464.536	465.62
464.755	453.62
464.975	448.62
465.195	488.62
465.414	572.62
465.634	496.62
465.854	450.62
466.073	452.62
466.293	411.62
466.512	380.62
466.732	378.62
466.951	374.62
467.171	385.62
467.391	418.62
467.61	419.62
467.829	407.62
468.049	404.62
468.268	415.62
468.488	391.62
468.707	379.62
468.927	382.62
469.146	372.62
469.365	393.62
469.585	412.62
469.804	401.62
470.023	402.62
470.243	390.62
470.462	412.62
470.681	438.62
470.901	424.62
471.12	394.62
471.339	428.62
471.558	418.62
471.777	397.62
471.997	389.62
472.216	406.62
472.435	449.62
472.654	440.62
472.873	387.62
473.092	404.62
473.311	404.62
473.53	416.62
473.749	421.62
473.968	454.62
474.187	526.62
474.406	549.62
474.625	445.62
474.844	428.62
475.063	400.62
475.282	401.62
475.501	397.62
475.72	408.62
475.939	421.62
476.158	410.62
476.377	422.62
476.596	436.62
476.814	424.62
477.033	435.62
477.252	420.62
477.471	416.62
477.69	434.62
477.908	417.62
478.127	429.62
478.346	449.62
478.564	442.62
478.783	442.62
479.002	442.62
479.22	452.62
479.439	470.62
479.658	482.62
479.876	496.62
480.095	468.62
480.313	496.62
480.532	498.62
480.751	481.62
480.969	508.62
481.188	570.62
481.406	628.62
481.624	547.62
481.843	498.62
482.061	478.62
482.28	477.62
482.498	476.62
482.717	455.62
482.935	475.62
483.153	469.62
483.372	478.62
483.59	479.62
483.808	462.62
484.027	484.62
484.245	479.62
484.463	480.62
484.681	483.62
484.9	467.62
485.118	475.62
485.336	473.62
485.554	503.62
485.772	512.62
485.99	476.62
486.209	481.62
486.427	508.62
486.645	524.62
486.863	514.62
487.081	504.62
487.299	503.62
487.517	494.62
487.735	488.62
487.953	502.62
488.171	522.62
488.389	520.62
488.607	505.62
488.825	517.62
489.043	511.62
489.261	528.62
489.479	523.62
489.696	530.62
489.914	532.62
490.132	516.62
490.35	524.62
490.568	547.62
490.786	532.62
491.003	534.62
491.221	582.62
491.439	577.62
491.657	582.62
491.874	582.62
492.092	607.62
492.31	626.62
492.527	588.62
492.745	577.62
492.963	610.62
493.18	595.62
493.398	599.62
493.615	620.62
493.833	593.62
494.05	596.62
494.268	598.62
494.485	613.62
494.703	615.62
494.92	614.62
495.138	621.62
495.355	602.62
495.573	613.62
495.79	601.62
496.008	625.62
496.225	624.62
496.442	593.62
496.66	605.62
496.877	614.62
497.094	618.62
497.312	602.62
497.529	591.62
497.746	610.62
497.963	600.62
498.181	664.62
498.398	634.62
498.615	653.62
498.832	664.62
499.049	685.62
499.267	677.62
499.484	671.62
499.701	729.62
499.918	747.62
500.135	761.62
500.352	790.62
500.569	761.62
500.786	804.62
501.003	784.62
501.22	762.62
501.437	741.62
501.654	765.62
501.871	728.62
502.088	701.62
