Data from 1983.PennyLincolnUp.Lamp.En5.5.200Scan.071819.P1_HRD10591_16-54-58-966.txt Node
Date: Thu Jul 18 16:54:58 EDT 2019
User: cochatt
Spectrometer: HR+D1059
Trigger mode: 1
Integration Time (sec): 1.000000E-1
Scans to average: 1
Electric dark correction enabled: true
Nonlinearity correction enabled: false
Boxcar width: 0
XAxis mode: Wavelengths
Number of Pixels in Spectrum: 2048
>>>>>Begin Spectral Data<<<<<
223.165	-2.5
223.4	-2.5
223.635	-2.5
223.869	-23.5
224.104	-17.5
224.338	-12.5
224.573	-29.5
224.808	-32.5
225.042	-8.5
225.277	-13.5
225.511	-6.5
225.746	16.5
225.98	20.5
226.215	23.5
226.449	4.5
226.683	19.5
226.918	24.5
227.152	37.5
227.387	36.5
227.621	37.5
227.856	35.5
228.09	56.5
228.324	45.5
228.559	61.5
228.793	68.5
229.027	94.5
229.262	102.5
229.496	111.5
229.73	120.5
229.964	144.5
230.199	127.5
230.433	112.5
230.667	114.5
230.901	101.5
231.136	100.5
231.37	107.5
231.604	124.5
231.838	114.5
232.072	106.5
232.306	118.5
232.541	100.5
232.775	107.5
233.009	113.5
233.243	105.5
233.477	103.5
233.711	122.5
233.945	102.5
234.179	119.5
234.413	119.5
234.647	104.5
234.881	120.5
235.115	124.5
235.349	109.5
235.583	116.5
235.817	117.5
236.051	105.5
236.285	119.5
236.519	121.5
236.753	125.5
236.987	130.5
237.221	164.5
237.455	193.5
237.689	177.5
237.922	125.5
238.156	128.5
238.39	103.5
238.624	128.5
238.858	128.5
239.091	121.5
239.325	119.5
239.559	125.5
239.793	117.5
240.027	119.5
240.26	135.5
240.494	164.5
240.728	134.5
240.961	144.5
241.195	144.5
241.429	145.5
241.662	133.5
241.896	133.5
242.13	125.5
242.363	130.5
242.597	126.5
242.83	135.5
243.064	128.5
243.298	120.5
243.531	131.5
243.765	145.5
243.998	146.5
244.232	143.5
244.465	143.5
244.699	133.5
244.932	126.5
245.166	134.5
245.399	128.5
245.633	133.5
245.866	136.5
246.099	136.5
246.333	148.5
246.566	135.5
246.8	134.5
247.033	146.5
247.266	142.5
247.5	151.5
247.733	166.5
247.966	164.5
248.2	156.5
248.433	160.5
248.666	164.5
248.899	176.5
249.133	180.5
249.366	189.5
249.599	189.5
249.832	179.5
250.066	182.5
250.299	183.5
250.532	198.5
250.765	197.5
250.998	215.5
251.231	219.5
251.465	200.5
251.698	194.5
251.931	201.5
252.164	179.5
252.397	194.5
252.63	189.5
252.863	202.5
253.096	198.5
253.329	201.5
253.562	203.5
253.795	200.5
254.028	202.5
254.261	200.5
254.494	222.5
254.727	222.5
254.96	250.5
255.193	260.5
255.426	245.5
255.659	213.5
255.892	216.5
256.124	223.5
256.357	244.5
256.59	232.5
256.823	203.5
257.056	219.5
257.289	194.5
257.521	203.5
257.754	204.5
257.987	202.5
258.22	181.5
258.452	194.5
258.685	196.5
258.918	205.5
259.151	192.5
259.383	192.5
259.616	196.5
259.849	202.5
260.081	229.5
260.314	224.5
260.547	235.5
260.779	225.5
261.012	200.5
261.244	214.5
261.477	193.5
261.71	213.5
261.942	212.5
262.175	253.5
262.407	201.5
262.64	195.5
262.872	188.5
263.105	217.5
263.337	215.5
263.57	181.5
263.802	185.5
264.035	180.5
264.267	187.5
264.499	195.5
264.732	188.5
264.964	211.5
265.197	208.5
265.429	199.5
265.661	201.5
265.894	211.5
266.126	203.5
266.358	215.5
266.591	204.5
266.823	210.5
267.055	214.5
267.287	209.5
267.52	203.5
267.752	203.5
267.984	202.5
268.216	208.5
268.448	217.5
268.681	224.5
268.913	246.5
269.145	237.5
269.377	247.5
269.609	257.5
269.841	247.5
270.073	244.5
270.306	277.5
270.538	301.5
270.77	282.5
271.002	297.5
271.234	277.5
271.466	289.5
271.698	290.5
271.93	288.5
272.162	314.5
272.394	293.5
272.626	273.5
272.858	270.5
273.09	277.5
273.322	258.5
273.553	225.5
273.785	240.5
274.017	243.5
274.249	232.5
274.481	245.5
274.713	256.5
274.945	265.5
275.176	248.5
275.408	240.5
275.64	254.5
275.872	240.5
276.104	240.5
276.335	252.5
276.567	256.5
276.799	272.5
277.031	298.5
277.262	283.5
277.494	305.5
277.726	280.5
277.957	261.5
278.189	275.5
278.421	261.5
278.652	250.5
278.884	244.5
279.115	264.5
279.347	266.5
279.579	245.5
279.81	246.5
280.042	257.5
280.273	218.5
280.505	242.5
280.736	241.5
280.968	240.5
281.199	249.5
281.431	240.5
281.662	244.5
281.894	236.5
282.125	257.5
282.356	258.5
282.588	289.5
282.819	267.5
283.051	257.5
283.282	243.5
283.513	260.5
283.745	269.5
283.976	256.5
284.207	245.5
284.439	264.5
284.67	258.5
284.901	266.5
285.132	252.5
285.364	257.5
285.595	242.5
285.826	252.5
286.057	261.5
286.288	245.5
286.52	262.5
286.751	235.5
286.982	259.5
287.213	240.5
287.444	267.5
287.675	246.5
287.906	252.5
288.138	274.5
288.369	267.5
288.6	284.5
288.831	264.5
289.062	268.5
289.293	282.5
289.524	261.5
289.755	266.5
289.986	279.5
290.217	280.5
290.448	264.5
290.679	266.5
290.91	260.5
291.141	258.5
291.371	276.5
291.602	274.5
291.833	264.5
292.064	237.5
292.295	261.5
292.526	285.5
292.757	266.5
292.987	258.5
293.218	265.5
293.449	243.5
293.68	256.5
293.91	270.5
294.141	250.5
294.372	284.5
294.603	276.5
294.833	250.5
295.064	276.5
295.295	268.5
295.525	283.5
295.756	275.5
295.987	280.5
296.217	301.5
296.448	311.5
296.679	268.5
296.909	290.5
297.14	272.5
297.37	272.5
297.601	284.5
297.831	283.5
298.062	289.5
298.292	276.5
298.523	289.5
298.753	280.5
298.984	280.5
299.214	279.5
299.445	288.5
299.675	299.5
299.905	279.5
300.136	282.5
300.366	301.5
300.597	301.5
300.827	298.5
301.057	279.5
301.288	317.5
301.518	297.5
301.748	297.5
301.979	308.5
302.209	295.5
302.439	308.5
302.669	300.5
302.9	281.5
303.13	290.5
303.36	300.5
303.59	286.5
303.82	315.5
304.051	308.5
304.281	315.5
304.511	302.5
304.741	287.5
304.971	298.5
305.201	283.5
305.431	298.5
305.661	302.5
305.891	317.5
306.121	304.5
306.352	314.5
306.582	322.5
306.812	316.5
307.042	306.5
307.272	285.5
307.502	290.5
307.731	305.5
307.961	310.5
308.191	320.5
308.421	308.5
308.651	308.5
308.881	315.5
309.111	308.5
309.341	314.5
309.571	345.5
309.8	337.5
310.03	330.5
310.26	357.5
310.49	342.5
310.72	356.5
310.949	361.5
311.179	354.5
311.409	352.5
311.639	363.5
311.868	342.5
312.098	352.5
312.328	345.5
312.557	385.5
312.787	376.5
313.017	375.5
313.246	361.5
313.476	350.5
313.706	355.5
313.935	343.5
314.165	374.5
314.394	368.5
314.624	362.5
314.853	362.5
315.083	357.5
315.312	372.5
315.542	362.5
315.771	338.5
316.001	321.5
316.23	369.5
316.46	341.5
316.689	359.5
316.919	353.5
317.148	345.5
317.377	371.5
317.607	370.5
317.836	349.5
318.065	356.5
318.295	343.5
318.524	358.5
318.753	359.5
318.983	351.5
319.212	340.5
319.441	369.5
319.67	375.5
319.9	368.5
320.129	349.5
320.358	340.5
320.587	359.5
320.816	359.5
321.046	358.5
321.275	362.5
321.504	362.5
321.733	363.5
321.962	366.5
322.191	409.5
322.42	404.5
322.649	409.5
322.878	427.5
323.108	460.5
323.337	469.5
323.566	468.5
323.795	496.5
324.024	566.5
324.253	708.5
324.482	1002.5
324.71	1508.5
324.939	2052.5
325.168	1703.5
325.397	909.5
325.626	644.5
325.855	532.5
326.084	489.5
326.313	458.5
326.542	491.5
326.77	543.5
326.999	666.5
327.228	900.5
327.457	1331.5
327.686	1556.5
327.914	1046.5
328.143	715.5
328.372	634.5
328.6	600.5
328.829	539.5
329.058	582.5
329.287	571.5
329.515	550.5
329.744	505.5
329.972	504.5
330.201	539.5
330.43	602.5
330.658	596.5
330.887	601.5
331.115	596.5
331.344	490.5
331.572	473.5
331.801	458.5
332.03	466.5
332.258	448.5
332.486	433.5
332.715	421.5
332.943	410.5
333.172	422.5
333.4	416.5
333.629	421.5
333.857	452.5
334.085	479.5
334.314	514.5
334.542	546.5
334.771	553.5
334.999	491.5
335.227	456.5
335.455	418.5
335.684	427.5
335.912	396.5
336.14	394.5
336.369	418.5
336.597	400.5
336.825	393.5
337.053	389.5
337.281	395.5
337.51	408.5
337.738	411.5
337.966	397.5
338.194	414.5
338.422	418.5
338.65	409.5
338.878	401.5
339.106	362.5
339.334	390.5
339.562	381.5
339.79	382.5
340.018	395.5
340.246	382.5
340.474	404.5
340.702	399.5
340.93	378.5
341.158	383.5
341.386	376.5
341.614	404.5
341.842	395.5
342.07	390.5
342.298	382.5
342.526	382.5
342.754	397.5
342.981	371.5
343.209	374.5
343.437	375.5
343.665	389.5
343.893	384.5
344.12	389.5
344.348	375.5
344.576	386.5
344.804	411.5
345.031	416.5
345.259	424.5
345.487	398.5
345.714	393.5
345.942	368.5
346.17	367.5
346.397	374.5
346.625	389.5
346.853	388.5
347.08	379.5
347.308	375.5
347.535	390.5
347.763	408.5
347.99	396.5
348.218	402.5
348.445	405.5
348.673	389.5
348.9	372.5
349.128	379.5
349.355	378.5
349.583	369.5
349.81	372.5
350.037	377.5
350.265	384.5
350.492	364.5
350.72	378.5
350.947	399.5
351.174	391.5
351.402	391.5
351.629	399.5
351.856	395.5
352.083	403.5
352.311	390.5
352.538	377.5
352.765	418.5
352.992	390.5
353.22	358.5
353.447	387.5
353.674	370.5
353.901	360.5
354.128	328.5
354.355	364.5
354.583	357.5
354.81	370.5
355.037	343.5
355.264	351.5
355.491	343.5
355.718	344.5
355.945	342.5
356.172	347.5
356.399	349.5
356.626	358.5
356.853	343.5
357.08	343.5
357.307	333.5
357.534	346.5
357.761	342.5
357.988	357.5
358.215	343.5
358.441	336.5
358.668	342.5
358.895	362.5
359.122	342.5
359.349	372.5
359.576	393.5
359.802	404.5
360.029	432.5
360.256	438.5
360.483	415.5
360.709	376.5
360.936	379.5
361.163	375.5
361.39	377.5
361.616	373.5
361.843	357.5
362.07	348.5
362.296	371.5
362.523	384.5
362.749	361.5
362.976	376.5
363.203	372.5
363.429	356.5
363.656	370.5
363.882	355.5
364.109	352.5
364.335	342.5
364.562	344.5
364.788	353.5
365.015	346.5
365.241	352.5
365.468	361.5
365.694	356.5
365.92	369.5
366.147	356.5
366.373	376.5
366.599	364.5
366.826	370.5
367.052	345.5
367.278	342.5
367.505	360.5
367.731	358.5
367.957	339.5
368.184	358.5
368.41	366.5
368.636	379.5
368.862	371.5
369.089	366.5
369.315	360.5
369.541	363.5
369.767	349.5
369.993	365.5
370.219	352.5
370.445	356.5
370.672	341.5
370.898	373.5
371.124	337.5
371.35	342.5
371.576	353.5
371.802	361.5
372.028	354.5
372.254	355.5
372.48	352.5
372.706	340.5
372.932	357.5
373.158	352.5
373.384	348.5
373.61	371.5
373.835	353.5
374.061	357.5
374.287	369.5
374.513	356.5
374.739	340.5
374.965	353.5
375.191	361.5
375.416	350.5
375.642	361.5
375.868	370.5
376.094	362.5
376.319	359.5
376.545	356.5
376.771	352.5
376.997	345.5
377.222	362.5
377.448	337.5
377.674	346.5
377.899	350.5
378.125	352.5
378.35	349.5
378.576	339.5
378.802	347.5
379.027	350.5
379.253	325.5
379.478	331.5
379.704	330.5
379.929	358.5
380.155	341.5
380.38	348.5
380.606	361.5
380.831	344.5
381.057	352.5
381.282	337.5
381.507	333.5
381.733	351.5
381.958	338.5
382.184	359.5
382.409	358.5
382.634	353.5
382.86	350.5
383.085	348.5
383.31	352.5
383.535	350.5
383.761	345.5
383.986	326.5
384.211	361.5
384.436	352.5
384.662	372.5
384.887	352.5
385.112	352.5
385.337	365.5
385.562	354.5
385.787	340.5
386.013	376.5
386.238	392.5
386.463	355.5
386.688	370.5
386.913	372.5
387.138	361.5
387.363	382.5
387.588	384.5
387.813	359.5
388.038	370.5
388.263	372.5
388.488	373.5
388.713	371.5
388.938	376.5
389.163	388.5
389.387	384.5
389.612	368.5
389.837	368.5
390.062	354.5
390.287	359.5
390.512	372.5
390.736	365.5
390.961	380.5
391.186	384.5
391.411	372.5
391.636	372.5
391.86	378.5
392.085	375.5
392.31	389.5
392.534	357.5
392.759	372.5
392.984	375.5
393.208	393.5
393.433	374.5
393.658	375.5
393.882	371.5
394.107	378.5
394.331	378.5
394.556	356.5
394.78	372.5
395.005	372.5
395.229	360.5
395.454	374.5
395.678	406.5
395.903	377.5
396.127	396.5
396.352	419.5
396.576	402.5
396.801	396.5
397.025	394.5
397.249	408.5
397.474	395.5
397.698	397.5
397.922	423.5
398.147	416.5
398.371	426.5
398.595	394.5
398.82	434.5
399.044	406.5
399.268	430.5
399.492	459.5
399.717	464.5
399.941	492.5
400.165	517.5
400.389	514.5
400.613	496.5
400.837	440.5
401.062	418.5
401.286	424.5
401.51	403.5
401.734	395.5
401.958	442.5
402.182	432.5
402.406	427.5
402.63	442.5
402.854	441.5
403.078	445.5
403.302	438.5
403.526	450.5
403.75	450.5
403.974	446.5
404.198	428.5
404.422	426.5
404.645	458.5
404.869	450.5
405.093	478.5
405.317	517.5
405.541	518.5
405.765	496.5
405.988	474.5
406.212	461.5
406.436	490.5
406.66	497.5
406.883	496.5
407.107	480.5
407.331	512.5
407.555	569.5
407.778	553.5
408.002	528.5
408.226	484.5
408.449	474.5
408.673	481.5
408.896	503.5
409.12	534.5
409.344	487.5
409.567	464.5
409.791	434.5
410.014	427.5
410.238	418.5
410.461	448.5
410.685	442.5
410.908	442.5
411.132	482.5
411.355	505.5
411.578	481.5
411.802	459.5
412.025	430.5
412.249	450.5
412.472	456.5
412.695	492.5
412.919	488.5
413.142	449.5
413.365	428.5
413.589	431.5
413.812	446.5
414.035	442.5
414.258	422.5
414.482	399.5
414.705	412.5
414.928	422.5
415.151	427.5
415.374	402.5
415.597	402.5
415.821	428.5
416.044	422.5
416.267	436.5
416.49	435.5
416.713	404.5
416.936	398.5
417.159	406.5
417.382	412.5
417.605	413.5
417.828	446.5
418.051	426.5
418.274	420.5
418.497	409.5
418.72	419.5
418.943	402.5
419.166	428.5
419.389	438.5
419.611	459.5
419.834	435.5
420.057	452.5
420.28	442.5
420.503	452.5
420.726	424.5
420.948	452.5
421.171	479.5
421.394	507.5
421.617	456.5
421.839	433.5
422.062	439.5
422.285	416.5
422.507	472.5
422.73	549.5
422.953	544.5
423.175	452.5
423.398	441.5
423.621	430.5
423.843	472.5
424.066	450.5
424.288	448.5
424.511	492.5
424.733	525.5
424.956	578.5
425.178	557.5
425.401	564.5
425.623	586.5
425.846	537.5
426.068	463.5
426.291	461.5
426.513	469.5
426.735	481.5
426.958	519.5
427.18	550.5
427.402	657.5
427.625	718.5
427.847	647.5
428.069	568.5
428.292	497.5
428.514	474.5
428.736	462.5
428.958	433.5
429.181	420.5
429.403	424.5
429.625	434.5
429.847	456.5
430.069	497.5
430.292	513.5
430.514	460.5
430.736	442.5
430.958	428.5
431.18	408.5
431.402	423.5
431.624	419.5
431.846	409.5
432.068	404.5
432.29	409.5
432.512	416.5
432.734	408.5
432.956	405.5
433.178	417.5
433.4	433.5
433.622	404.5
433.844	416.5
434.066	412.5
434.287	402.5
434.509	410.5
434.731	427.5
434.953	426.5
435.175	436.5
435.397	473.5
435.618	469.5
435.84	503.5
436.062	557.5
436.284	611.5
436.505	523.5
436.727	486.5
436.949	453.5
437.17	436.5
437.392	437.5
437.614	448.5
437.835	485.5
438.057	572.5
438.278	635.5
438.5	641.5
438.721	663.5
438.943	638.5
439.165	517.5
439.386	497.5
439.608	497.5
439.829	484.5
440.05	518.5
440.272	541.5
440.493	501.5
440.715	453.5
440.936	468.5
441.158	433.5
441.379	435.5
441.6	446.5
441.822	449.5
442.043	505.5
442.264	568.5
442.486	579.5
442.707	517.5
442.928	488.5
443.149	498.5
443.371	504.5
443.592	548.5
443.813	599.5
444.034	650.5
444.255	545.5
444.476	492.5
444.698	468.5
444.919	464.5
445.14	595.5
445.361	557.5
445.582	502.5
445.803	554.5
446.024	633.5
446.245	637.5
446.466	574.5
446.687	496.5
446.908	444.5
447.129	456.5
447.35	443.5
447.571	456.5
447.792	427.5
448.013	423.5
448.234	469.5
448.455	520.5
448.675	594.5
448.896	653.5
449.117	571.5
449.338	550.5
449.559	615.5
449.779	688.5
450	574.5
450.221	482.5
450.442	443.5
450.662	417.5
450.883	452.5
451.104	454.5
451.324	438.5
451.545	422.5
451.766	406.5
451.986	408.5
452.207	396.5
452.428	389.5
452.648	391.5
452.869	394.5
453.089	421.5
453.31	411.5
453.53	398.5
453.751	402.5
453.971	378.5
454.192	429.5
454.412	404.5
454.633	402.5
454.853	382.5
455.073	395.5
455.294	405.5
455.514	458.5
455.734	432.5
455.955	398.5
456.175	380.5
456.395	355.5
456.616	348.5
456.836	363.5
457.056	362.5
457.276	376.5
457.497	378.5
457.717	354.5
457.937	370.5
458.157	372.5
458.377	387.5
458.598	394.5
458.818	453.5
459.038	546.5
459.258	546.5
459.478	449.5
459.698	421.5
459.918	421.5
460.138	412.5
460.358	410.5
460.578	407.5
460.798	418.5
461.018	386.5
461.238	411.5
461.458	406.5
461.678	408.5
461.898	402.5
462.118	432.5
462.338	417.5
462.558	417.5
462.777	421.5
462.997	418.5
463.217	437.5
463.437	427.5
463.657	426.5
463.876	446.5
464.096	434.5
464.316	437.5
464.536	426.5
464.755	451.5
464.975	429.5
465.195	486.5
465.414	574.5
465.634	498.5
465.854	457.5
466.073	438.5
466.293	419.5
466.512	408.5
466.732	404.5
466.951	385.5
467.171	415.5
467.391	393.5
467.61	402.5
467.829	411.5
468.049	419.5
468.268	423.5
468.488	406.5
468.707	398.5
468.927	390.5
469.146	386.5
469.365	402.5
469.585	369.5
469.804	414.5
470.023	408.5
470.243	420.5
470.462	404.5
470.681	434.5
470.901	434.5
471.12	417.5
471.339	407.5
471.558	418.5
471.777	398.5
471.997	388.5
472.216	410.5
472.435	475.5
472.654	441.5
472.873	417.5
473.092	379.5
473.311	420.5
473.53	406.5
473.749	406.5
473.968	475.5
474.187	557.5
474.406	547.5
474.625	473.5
474.844	429.5
475.063	423.5
475.282	418.5
475.501	417.5
475.72	415.5
475.939	410.5
476.158	396.5
476.377	442.5
476.596	442.5
476.814	427.5
477.033	418.5
477.252	431.5
477.471	419.5
477.69	445.5
477.908	421.5
478.127	450.5
478.346	438.5
478.564	444.5
478.783	462.5
479.002	467.5
479.22	465.5
479.439	490.5
479.658	504.5
479.876	512.5
480.095	482.5
480.313	524.5
480.532	498.5
480.751	487.5
480.969	514.5
481.188	612.5
481.406	685.5
481.624	540.5
481.843	514.5
482.061	488.5
482.28	504.5
482.498	482.5
482.717	484.5
482.935	477.5
483.153	472.5
483.372	480.5
483.59	479.5
483.808	476.5
484.027	484.5
484.245	480.5
484.463	466.5
484.681	476.5
484.9	475.5
485.118	461.5
485.336	478.5
485.554	488.5
485.772	477.5
485.99	488.5
486.209	504.5
486.427	491.5
486.645	490.5
486.863	503.5
487.081	532.5
487.299	503.5
487.517	516.5
487.735	497.5
487.953	521.5
488.171	521.5
488.389	486.5
488.607	501.5
488.825	515.5
489.043	516.5
489.261	504.5
489.479	536.5
489.696	538.5
489.914	527.5
490.132	517.5
490.35	551.5
490.568	536.5
490.786	548.5
491.003	578.5
491.221	577.5
491.439	571.5
491.657	595.5
491.874	598.5
492.092	595.5
492.31	618.5
492.527	598.5
492.745	599.5
492.963	629.5
493.18	620.5
493.398	609.5
493.615	621.5
493.833	606.5
494.05	613.5
494.268	611.5
494.485	617.5
494.703	623.5
494.92	628.5
495.138	616.5
495.355	626.5
495.573	603.5
495.79	612.5
496.008	610.5
496.225	605.5
496.442	624.5
496.66	611.5
496.877	604.5
497.094	614.5
497.312	628.5
497.529	618.5
497.746	619.5
497.963	652.5
498.181	652.5
498.398	667.5
498.615	646.5
498.832	669.5
499.049	648.5
499.267	683.5
499.484	714.5
499.701	714.5
499.918	732.5
500.135	732.5
500.352	794.5
500.569	790.5
500.786	789.5
501.003	777.5
501.22	773.5
501.437	748.5
501.654	738.5
501.871	724.5
502.088	706.5
502.305	686.5
502.522	675.5
502.739	651.5
502.956	625.5
503.172	628.5
503.389	618.5
503.606	644.5
503.823	643.5
504.04	645.5
504.256	611.5
504.473	586.5
504.69	587.5
504.907	601.5
505.123	557.5
505.34	599.5
505.557	573.5
505.773	581.5
505.99	595.5
506.207	593.5
506.423	598.5
506.64	574.5
506.856	561.5
507.073	585.5
507.289	567.5
507.506	546.5
507.722	578.5
507.939	624.5
508.155	553.5
508.372	556.5
508.588	548.5
508.805	541.5
509.021	550.5
509.238	565.5
509.454	565.5
509.67	542.5
509.887	553.5
510.103	553.5
510.319	601.5
510.536	683.5
510.752	1212.5
510.968	919.5
511.184	588.5
511.401	568.5
511.617	536.5
511.833	539.5
512.049	545.5
512.265	517.5
512.481	527.5
512.698	524.5
512.914	531.5
513.13	537.5
513.346	532.5
513.562	515.5
513.778	546.5
513.994	574.5
514.21	549.5
514.426	581.5
514.642	614.5
514.858	630.5
515.074	692.5
515.29	839.5
515.506	1310.5
515.721	1029.5
515.937	672.5
516.153	598.5
516.369	574.5
516.585	568.5
516.801	539.5
517.016	562.5
517.232	554.5
517.448	540.5
517.664	534.5
517.879	530.5
518.095	525.5
518.311	533.5
518.527	535.5
518.742	527.5
518.958	506.5
519.173	512.5
519.389	516.5
519.605	520.5
519.82	529.5
