Data from 1983.PennyLincolnUp.Lamp.En5.5.200Scan.071819.P1_HRD10591_16-54-55-966.txt Node
Date: Thu Jul 18 16:54:55 EDT 2019
User: cochatt
Spectrometer: HR+D1059
Trigger mode: 1
Integration Time (sec): 1.000000E-1
Scans to average: 1
Electric dark correction enabled: true
Nonlinearity correction enabled: false
Boxcar width: 0
XAxis mode: Wavelengths
Number of Pixels in Spectrum: 2048
>>>>>Begin Spectral Data<<<<<
223.165	-29.62
223.4	-29.62
223.635	-29.62
223.869	-6.62
224.104	-7.62
224.338	-21.62
224.573	-14.62
224.808	-22.62
225.042	-2.62
225.277	1.38
225.511	-11.62
225.746	3.38
225.98	13.38
226.215	-2.62
226.449	25.38
226.683	13.38
226.918	22.38
227.152	40.38
227.387	38.38
227.621	37.38
227.856	44.38
228.09	49.38
228.324	52.38
228.559	51.38
228.793	65.38
229.027	88.38
229.262	99.38
229.496	116.38
229.73	119.38
229.964	141.38
230.199	122.38
230.433	114.38
230.667	113.38
230.901	107.38
231.136	108.38
231.37	99.38
231.604	106.38
231.838	111.38
232.072	97.38
232.306	116.38
232.541	113.38
232.775	88.38
233.009	105.38
233.243	113.38
233.477	106.38
233.711	106.38
233.945	96.38
234.179	110.38
234.413	124.38
234.647	107.38
234.881	117.38
235.115	117.38
235.349	114.38
235.583	122.38
235.817	107.38
236.051	128.38
236.285	124.38
236.519	126.38
236.753	132.38
236.987	146.38
237.221	178.38
237.455	215.38
237.689	179.38
237.922	162.38
238.156	141.38
238.39	130.38
238.624	134.38
238.858	115.38
239.091	123.38
239.325	118.38
239.559	116.38
239.793	112.38
240.027	124.38
240.26	135.38
240.494	147.38
240.728	132.38
240.961	136.38
241.195	124.38
241.429	138.38
241.662	137.38
241.896	133.38
242.13	117.38
242.363	122.38
242.597	123.38
242.83	132.38
243.064	144.38
243.298	128.38
243.531	116.38
243.765	129.38
243.998	131.38
244.232	130.38
244.465	152.38
244.699	146.38
244.932	140.38
245.166	120.38
245.399	140.38
245.633	136.38
245.866	135.38
246.099	135.38
246.333	124.38
246.566	123.38
246.8	134.38
247.033	151.38
247.266	142.38
247.5	148.38
247.733	157.38
247.966	161.38
248.2	151.38
248.433	152.38
248.666	152.38
248.899	170.38
249.133	177.38
249.366	199.38
249.599	191.38
249.832	187.38
250.066	174.38
250.299	174.38
250.532	197.38
250.765	200.38
250.998	205.38
251.231	220.38
251.465	206.38
251.698	192.38
251.931	181.38
252.164	168.38
252.397	187.38
252.63	193.38
252.863	199.38
253.096	216.38
253.329	213.38
253.562	210.38
253.795	201.38
254.028	195.38
254.261	204.38
254.494	220.38
254.727	254.38
254.96	262.38
255.193	256.38
255.426	249.38
255.659	224.38
255.892	232.38
256.124	214.38
256.357	233.38
256.59	216.38
256.823	199.38
257.056	211.38
257.289	205.38
257.521	194.38
257.754	189.38
257.987	191.38
258.22	196.38
258.452	205.38
258.685	185.38
258.918	184.38
259.151	191.38
259.383	206.38
259.616	211.38
259.849	219.38
260.081	214.38
260.314	225.38
260.547	252.38
260.779	233.38
261.012	205.38
261.244	215.38
261.477	214.38
261.71	214.38
261.942	234.38
262.175	240.38
262.407	214.38
262.64	203.38
262.872	193.38
263.105	207.38
263.337	205.38
263.57	201.38
263.802	190.38
264.035	204.38
264.267	196.38
264.499	185.38
264.732	196.38
264.964	212.38
265.197	189.38
265.429	202.38
265.661	206.38
265.894	198.38
266.126	195.38
266.358	206.38
266.591	195.38
266.823	204.38
267.055	212.38
267.287	207.38
267.52	203.38
267.752	205.38
267.984	209.38
268.216	212.38
268.448	214.38
268.681	221.38
268.913	228.38
269.145	229.38
269.377	241.38
269.609	252.38
269.841	254.38
270.073	242.38
270.306	263.38
270.538	315.38
270.77	298.38
271.002	297.38
271.234	280.38
271.466	298.38
271.698	306.38
271.93	290.38
272.162	289.38
272.394	280.38
272.626	262.38
272.858	266.38
273.09	264.38
273.322	249.38
273.553	252.38
273.785	254.38
274.017	232.38
274.249	250.38
274.481	243.38
274.713	252.38
274.945	266.38
275.176	244.38
275.408	242.38
275.64	237.38
275.872	254.38
276.104	246.38
276.335	265.38
276.567	245.38
276.799	256.38
277.031	279.38
277.262	288.38
277.494	295.38
277.726	269.38
277.957	264.38
278.189	273.38
278.421	271.38
278.652	258.38
278.884	247.38
279.115	231.38
279.347	242.38
279.579	239.38
279.81	258.38
280.042	249.38
280.273	254.38
280.505	260.38
280.736	254.38
280.968	250.38
281.199	248.38
281.431	269.38
281.662	256.38
281.894	231.38
282.125	261.38
282.356	258.38
282.588	289.38
282.819	278.38
283.051	269.38
283.282	250.38
283.513	244.38
283.745	265.38
283.976	255.38
284.207	272.38
284.439	253.38
284.67	254.38
284.901	250.38
285.132	273.38
285.364	269.38
285.595	250.38
285.826	274.38
286.057	256.38
286.288	247.38
286.52	251.38
286.751	262.38
286.982	269.38
287.213	265.38
287.444	271.38
287.675	262.38
287.906	286.38
288.138	288.38
288.369	287.38
288.6	297.38
288.831	293.38
289.062	278.38
289.293	267.38
289.524	248.38
289.755	271.38
289.986	277.38
290.217	261.38
290.448	261.38
290.679	275.38
290.91	244.38
291.141	262.38
291.371	271.38
291.602	270.38
291.833	259.38
292.064	286.38
292.295	258.38
292.526	268.38
292.757	278.38
292.987	300.38
293.218	258.38
293.449	268.38
293.68	272.38
293.91	256.38
294.141	267.38
294.372	268.38
294.603	266.38
294.833	293.38
295.064	271.38
295.295	280.38
295.525	296.38
295.756	286.38
295.987	289.38
296.217	275.38
296.448	316.38
296.679	277.38
296.909	291.38
297.14	263.38
297.37	257.38
297.601	282.38
297.831	280.38
298.062	268.38
298.292	273.38
298.523	273.38
298.753	285.38
298.984	282.38
299.214	273.38
299.445	286.38
299.675	292.38
299.905	287.38
300.136	314.38
300.366	290.38
300.597	285.38
300.827	283.38
301.057	289.38
301.288	288.38
301.518	309.38
301.748	296.38
301.979	274.38
302.209	307.38
302.439	300.38
302.669	285.38
302.9	293.38
303.13	267.38
303.36	289.38
303.59	301.38
303.82	323.38
304.051	334.38
304.281	272.38
304.511	292.38
304.741	300.38
304.971	317.38
305.201	294.38
305.431	302.38
305.661	297.38
305.891	321.38
306.121	296.38
306.352	304.38
306.582	308.38
306.812	309.38
307.042	317.38
307.272	306.38
307.502	306.38
307.731	309.38
307.961	315.38
308.191	306.38
308.421	318.38
308.651	299.38
308.881	312.38
309.111	314.38
309.341	315.38
309.571	324.38
309.8	329.38
310.03	332.38
310.26	352.38
310.49	336.38
310.72	374.38
310.949	390.38
311.179	385.38
311.409	360.38
311.639	353.38
311.868	362.38
312.098	372.38
312.328	392.38
312.557	379.38
312.787	379.38
313.017	361.38
313.246	378.38
313.476	344.38
313.706	337.38
313.935	361.38
314.165	358.38
314.394	365.38
314.624	368.38
314.853	361.38
315.083	364.38
315.312	360.38
315.542	341.38
315.771	331.38
316.001	338.38
316.23	358.38
316.46	343.38
316.689	349.38
316.919	355.38
317.148	373.38
317.377	368.38
317.607	355.38
317.836	356.38
318.065	339.38
318.295	342.38
318.524	345.38
318.753	338.38
318.983	372.38
319.212	352.38
319.441	366.38
319.67	377.38
319.9	363.38
320.129	362.38
320.358	350.38
320.587	340.38
320.816	369.38
321.046	376.38
321.275	376.38
321.504	372.38
321.733	381.38
321.962	401.38
322.191	420.38
322.42	414.38
322.649	451.38
322.878	444.38
323.108	452.38
323.337	465.38
323.566	469.38
323.795	520.38
324.024	544.38
324.253	708.38
324.482	1020.38
324.71	1554.38
324.939	2081.38
325.168	1727.38
325.397	946.38
325.626	629.38
325.855	541.38
326.084	503.38
326.313	500.38
326.542	504.38
326.77	561.38
326.999	661.38
327.228	899.38
327.457	1353.38
327.686	1530.38
327.914	1054.38
328.143	728.38
328.372	651.38
328.6	592.38
328.829	552.38
329.058	576.38
329.287	573.38
329.515	542.38
329.744	510.38
329.972	517.38
330.201	520.38
330.43	566.38
330.658	596.38
330.887	620.38
331.115	597.38
331.344	511.38
331.572	483.38
331.801	473.38
332.03	492.38
332.258	449.38
332.486	423.38
332.715	418.38
332.943	440.38
333.172	423.38
333.4	418.38
333.629	435.38
333.857	472.38
334.085	455.38
334.314	498.38
334.542	518.38
334.771	543.38
334.999	518.38
335.227	471.38
335.455	426.38
335.684	412.38
335.912	413.38
336.14	414.38
336.369	417.38
336.597	424.38
336.825	426.38
337.053	412.38
337.281	390.38
337.51	411.38
337.738	409.38
337.966	425.38
338.194	418.38
338.422	410.38
338.65	406.38
338.878	414.38
339.106	398.38
339.334	403.38
339.562	410.38
339.79	372.38
340.018	392.38
340.246	396.38
340.474	405.38
340.702	406.38
340.93	397.38
341.158	404.38
341.386	391.38
341.614	410.38
341.842	386.38
342.07	393.38
342.298	362.38
342.526	380.38
342.754	368.38
342.981	376.38
343.209	381.38
343.437	382.38
343.665	381.38
343.893	395.38
344.12	397.38
344.348	392.38
344.576	394.38
344.804	416.38
345.031	422.38
345.259	408.38
345.487	404.38
345.714	400.38
345.942	397.38
346.17	376.38
346.397	388.38
346.625	371.38
346.853	369.38
347.08	372.38
347.308	386.38
347.535	371.38
347.763	410.38
347.99	386.38
348.218	388.38
348.445	388.38
348.673	379.38
348.9	374.38
349.128	372.38
349.355	361.38
349.583	352.38
349.81	363.38
350.037	365.38
350.265	382.38
350.492	372.38
350.72	377.38
350.947	398.38
351.174	374.38
351.402	413.38
351.629	396.38
351.856	394.38
352.083	406.38
352.311	410.38
352.538	401.38
352.765	392.38
352.992	395.38
353.22	386.38
353.447	369.38
353.674	381.38
353.901	365.38
354.128	353.38
354.355	356.38
354.583	356.38
354.81	349.38
355.037	352.38
355.264	346.38
355.491	375.38
355.718	352.38
355.945	346.38
356.172	335.38
356.399	342.38
356.626	347.38
356.853	326.38
357.08	343.38
357.307	344.38
357.534	357.38
357.761	352.38
357.988	365.38
358.215	369.38
358.441	348.38
358.668	345.38
358.895	370.38
359.122	364.38
359.349	365.38
359.576	395.38
359.802	414.38
360.029	436.38
360.256	452.38
360.483	426.38
360.709	392.38
360.936	384.38
361.163	402.38
361.39	388.38
361.616	378.38
361.843	364.38
362.07	384.38
362.296	379.38
362.523	370.38
362.749	384.38
362.976	376.38
363.203	383.38
363.429	369.38
363.656	362.38
363.882	382.38
364.109	363.38
364.335	358.38
364.562	351.38
364.788	353.38
365.015	347.38
365.241	361.38
365.468	392.38
365.694	362.38
365.92	364.38
366.147	362.38
366.373	345.38
366.599	357.38
366.826	336.38
367.052	344.38
367.278	346.38
367.505	365.38
367.731	358.38
367.957	373.38
368.184	364.38
368.41	380.38
368.636	388.38
368.862	387.38
369.089	375.38
369.315	384.38
369.541	353.38
369.767	349.38
369.993	355.38
370.219	371.38
370.445	349.38
370.672	354.38
370.898	349.38
371.124	341.38
371.35	341.38
371.576	354.38
371.802	362.38
372.028	371.38
372.254	360.38
372.48	340.38
372.706	349.38
372.932	355.38
373.158	367.38
373.384	369.38
373.61	356.38
373.835	356.38
374.061	356.38
374.287	361.38
374.513	380.38
374.739	342.38
374.965	358.38
375.191	375.38
375.416	352.38
375.642	360.38
375.868	362.38
376.094	358.38
376.319	344.38
376.545	347.38
376.771	347.38
376.997	349.38
377.222	342.38
377.448	343.38
377.674	332.38
377.899	340.38
378.125	355.38
378.35	348.38
378.576	341.38
378.802	340.38
379.027	352.38
379.253	341.38
379.478	350.38
379.704	344.38
379.929	356.38
380.155	353.38
380.38	336.38
380.606	354.38
380.831	352.38
381.057	349.38
381.282	325.38
381.507	346.38
381.733	350.38
381.958	348.38
382.184	349.38
382.409	379.38
382.634	356.38
382.86	356.38
383.085	354.38
383.31	363.38
383.535	343.38
383.761	348.38
383.986	344.38
384.211	372.38
384.436	368.38
384.662	374.38
384.887	368.38
385.112	360.38
385.337	370.38
385.562	365.38
385.787	380.38
386.013	392.38
386.238	380.38
386.463	384.38
386.688	376.38
386.913	366.38
387.138	370.38
387.363	388.38
387.588	378.38
387.813	371.38
388.038	375.38
388.263	374.38
388.488	381.38
388.713	375.38
388.938	375.38
389.163	379.38
389.387	374.38
389.612	354.38
389.837	380.38
390.062	382.38
390.287	377.38
390.512	381.38
390.736	358.38
390.961	359.38
391.186	392.38
391.411	363.38
391.636	356.38
391.86	382.38
392.085	380.38
392.31	390.38
392.534	373.38
392.759	378.38
392.984	379.38
393.208	384.38
393.433	403.38
393.658	381.38
393.882	368.38
394.107	393.38
394.331	372.38
394.556	372.38
394.78	349.38
395.005	372.38
395.229	374.38
395.454	385.38
395.678	400.38
395.903	417.38
396.127	418.38
396.352	418.38
396.576	399.38
396.801	397.38
397.025	384.38
397.249	388.38
397.474	381.38
397.698	389.38
397.922	402.38
398.147	419.38
398.371	423.38
398.595	421.38
398.82	410.38
399.044	421.38
399.268	404.38
399.492	471.38
399.717	476.38
399.941	503.38
400.165	500.38
400.389	521.38
400.613	490.38
400.837	456.38
401.062	440.38
401.286	423.38
401.51	436.38
401.734	435.38
401.958	409.38
402.182	434.38
402.406	440.38
402.63	440.38
402.854	433.38
403.078	430.38
403.302	438.38
403.526	451.38
403.75	429.38
403.974	435.38
404.198	432.38
404.422	448.38
404.645	445.38
404.869	442.38
405.093	475.38
405.317	514.38
405.541	536.38
405.765	490.38
405.988	472.38
406.212	476.38
406.436	508.38
406.66	520.38
406.883	508.38
407.107	502.38
407.331	551.38
407.555	560.38
407.778	556.38
408.002	516.38
408.226	486.38
408.449	470.38
408.673	492.38
408.896	479.38
409.12	510.38
409.344	504.38
409.567	456.38
409.791	448.38
410.014	452.38
410.238	442.38
410.461	429.38
410.685	450.38
410.908	448.38
411.132	497.38
411.355	522.38
411.578	481.38
411.802	479.38
412.025	455.38
412.249	420.38
412.472	486.38
412.695	496.38
412.919	497.38
413.142	449.38
413.365	451.38
413.589	426.38
413.812	436.38
414.035	413.38
414.258	425.38
414.482	412.38
414.705	402.38
414.928	417.38
415.151	420.38
415.374	401.38
415.597	392.38
415.821	413.38
416.044	408.38
416.267	434.38
416.49	416.38
416.713	429.38
416.936	422.38
417.159	418.38
417.382	432.38
417.605	434.38
417.828	418.38
418.051	430.38
418.274	428.38
418.497	413.38
418.72	406.38
418.943	403.38
419.166	426.38
419.389	456.38
419.611	453.38
419.834	437.38
420.057	463.38
420.28	457.38
420.503	440.38
420.726	437.38
420.948	453.38
421.171	491.38
421.394	505.38
421.617	479.38
421.839	448.38
422.062	439.38
422.285	451.38
422.507	501.38
422.73	557.38
422.953	512.38
423.175	473.38
423.398	450.38
423.621	443.38
423.843	467.38
424.066	459.38
424.288	484.38
424.511	458.38
424.733	525.38
424.956	599.38
425.178	584.38
425.401	582.38
425.623	564.38
425.846	526.38
426.068	492.38
426.291	468.38
426.513	468.38
426.735	459.38
426.958	508.38
427.18	586.38
427.402	641.38
427.625	739.38
427.847	676.38
428.069	583.38
428.292	520.38
428.514	499.38
428.736	467.38
428.958	455.38
429.181	442.38
429.403	446.38
429.625	435.38
429.847	464.38
430.069	541.38
430.292	514.38
430.514	445.38
430.736	418.38
430.958	439.38
431.18	416.38
431.402	420.38
431.624	392.38
431.846	423.38
432.068	410.38
432.29	419.38
432.512	406.38
432.734	429.38
432.956	421.38
433.178	422.38
433.4	437.38
433.622	412.38
433.844	397.38
434.066	404.38
434.287	413.38
434.509	412.38
434.731	427.38
434.953	435.38
435.175	425.38
435.397	481.38
435.618	466.38
435.84	487.38
436.062	583.38
436.284	634.38
436.505	552.38
436.727	517.38
436.949	457.38
437.17	433.38
437.392	454.38
437.614	449.38
437.835	513.38
438.057	562.38
438.278	627.38
438.5	626.38
438.721	677.38
438.943	630.38
439.165	548.38
439.386	483.38
439.608	460.38
439.829	489.38
440.05	512.38
440.272	537.38
440.493	511.38
440.715	452.38
440.936	463.38
441.158	457.38
441.379	454.38
441.6	453.38
441.822	487.38
442.043	521.38
442.264	594.38
442.486	616.38
442.707	500.38
442.928	476.38
443.149	498.38
443.371	517.38
443.592	576.38
443.813	617.38
444.034	650.38
444.255	552.38
444.476	504.38
444.698	471.38
444.919	481.38
445.14	587.38
445.361	549.38
445.582	513.38
445.803	569.38
446.024	636.38
446.245	625.38
446.466	594.38
446.687	536.38
446.908	499.38
447.129	448.38
447.35	436.38
447.571	444.38
447.792	435.38
448.013	412.38
448.234	468.38
448.455	529.38
448.675	591.38
448.896	692.38
449.117	617.38
449.338	533.38
449.559	626.38
449.779	707.38
450	585.38
450.221	483.38
450.442	468.38
450.662	435.38
450.883	445.38
451.104	453.38
451.324	460.38
451.545	434.38
451.766	422.38
451.986	408.38
452.207	374.38
452.428	384.38
452.648	395.38
452.869	411.38
453.089	426.38
453.31	404.38
453.53	418.38
453.751	393.38
453.971	412.38
454.192	411.38
454.412	419.38
454.633	394.38
454.853	406.38
455.073	389.38
455.294	425.38
455.514	492.38
455.734	461.38
455.955	405.38
456.175	348.38
456.395	373.38
456.616	365.38
456.836	377.38
457.056	372.38
457.276	360.38
457.497	372.38
457.717	363.38
457.937	386.38
458.157	375.38
458.377	401.38
458.598	406.38
458.818	470.38
459.038	538.38
459.258	546.38
459.478	443.38
459.698	425.38
459.918	396.38
460.138	398.38
460.358	415.38
460.578	406.38
460.798	441.38
461.018	424.38
461.238	403.38
461.458	402.38
461.678	402.38
461.898	409.38
462.118	420.38
462.338	418.38
462.558	412.38
462.777	409.38
462.997	425.38
463.217	439.38
463.437	461.38
463.657	438.38
463.876	444.38
464.096	436.38
464.316	438.38
464.536	428.38
464.755	452.38
464.975	446.38
465.195	495.38
465.414	560.38
465.634	482.38
465.854	442.38
466.073	426.38
466.293	430.38
466.512	406.38
466.732	377.38
466.951	408.38
467.171	392.38
467.391	411.38
467.61	427.38
467.829	450.38
468.049	432.38
468.268	438.38
468.488	416.38
468.707	404.38
468.927	387.38
469.146	410.38
469.365	420.38
469.585	396.38
469.804	413.38
470.023	437.38
470.243	402.38
470.462	413.38
470.681	430.38
470.901	425.38
471.12	412.38
471.339	408.38
471.558	425.38
471.777	436.38
471.997	411.38
472.216	395.38
472.435	479.38
472.654	441.38
472.873	426.38
473.092	403.38
473.311	406.38
473.53	428.38
473.749	412.38
473.968	452.38
474.187	552.38
474.406	548.38
474.625	467.38
474.844	434.38
475.063	415.38
475.282	419.38
475.501	413.38
475.72	436.38
475.939	437.38
476.158	429.38
476.377	446.38
476.596	418.38
476.814	408.38
477.033	428.38
477.252	442.38
477.471	437.38
477.69	433.38
477.908	454.38
478.127	438.38
478.346	427.38
478.564	443.38
478.783	443.38
479.002	481.38
479.22	460.38
479.439	500.38
479.658	491.38
479.876	494.38
480.095	484.38
480.313	526.38
480.532	504.38
480.751	493.38
480.969	525.38
481.188	614.38
481.406	662.38
481.624	598.38
481.843	512.38
482.061	516.38
482.28	495.38
482.498	475.38
482.717	475.38
482.935	455.38
483.153	490.38
483.372	470.38
483.59	485.38
483.808	487.38
484.027	477.38
484.245	447.38
484.463	495.38
484.681	504.38
484.9	497.38
485.118	519.38
485.336	485.38
485.554	492.38
485.772	490.38
485.99	491.38
486.209	507.38
486.427	513.38
486.645	508.38
486.863	540.38
487.081	539.38
487.299	505.38
487.517	518.38
487.735	510.38
487.953	525.38
488.171	537.38
488.389	505.38
488.607	524.38
488.825	520.38
489.043	526.38
489.261	524.38
489.479	524.38
489.696	521.38
489.914	542.38
490.132	514.38
490.35	559.38
490.568	556.38
490.786	564.38
491.003	572.38
491.221	577.38
491.439	590.38
491.657	612.38
491.874	600.38
492.092	590.38
492.31	602.38
492.527	597.38
492.745	621.38
492.963	600.38
493.18	607.38
493.398	625.38
493.615	637.38
493.833	630.38
494.05	613.38
494.268	606.38
494.485	618.38
494.703	630.38
494.92	617.38
495.138	606.38
495.355	626.38
495.573	604.38
495.79	632.38
496.008	619.38
496.225	615.38
496.442	624.38
496.66	610.38
496.877	620.38
497.094	633.38
497.312	616.38
497.529	630.38
497.746	644.38
497.963	620.38
498.181	653.38
498.398	642.38
498.615	681.38
498.832	661.38
499.049	692.38
499.267	694.38
499.484	672.38
499.701	722.38
499.918	752.38
500.135	795.38
500.352	769.38
500.569	806.38
500.786	810.38
501.003	774.38
501.22	791.38
501.437	774.38
501.654	755.38
501.871	746.38
502.088	741.38
