Data from 1983.PennyLincolnUp.Lamp.En5.5.200Scan.071819.P1_HRD10591_16-54-18-966.txt Node
Date: Thu Jul 18 16:54:18 EDT 2019
User: cochatt
Spectrometer: HR+D1059
Trigger mode: 1
Integration Time (sec): 1.000000E-1
Scans to average: 1
Electric dark correction enabled: true
Nonlinearity correction enabled: false
Boxcar width: 0
XAxis mode: Wavelengths
Number of Pixels in Spectrum: 2048
>>>>>Begin Spectral Data<<<<<
223.165	-23.81
223.4	-23.81
223.635	-23.81
223.869	-16.81
224.104	-15.81
224.338	-17.81
224.573	-11.81
224.808	-11.81
225.042	-12.81
225.277	-6.81
225.511	-1.81
225.746	13.19
225.98	11.19
226.215	11.19
226.449	22.19
226.683	14.19
226.918	24.19
227.152	23.19
227.387	27.19
227.621	41.19
227.856	51.19
228.09	60.19
228.324	43.19
228.559	52.19
228.793	77.19
229.027	102.19
229.262	108.19
229.496	95.19
229.73	118.19
229.964	135.19
230.199	137.19
230.433	112.19
230.667	106.19
230.901	113.19
231.136	108.19
231.37	105.19
231.604	107.19
231.838	106.19
232.072	110.19
232.306	96.19
232.541	112.19
232.775	100.19
233.009	114.19
233.243	130.19
233.477	109.19
233.711	110.19
233.945	105.19
234.179	105.19
234.413	106.19
234.647	107.19
234.881	100.19
235.115	129.19
235.349	114.19
235.583	118.19
235.817	105.19
236.051	121.19
236.285	133.19
236.519	116.19
236.753	127.19
236.987	133.19
237.221	157.19
237.455	212.19
237.689	173.19
237.922	138.19
238.156	122.19
238.39	130.19
238.624	122.19
238.858	119.19
239.091	114.19
239.325	124.19
239.559	128.19
239.793	120.19
240.027	132.19
240.26	120.19
240.494	153.19
240.728	144.19
240.961	151.19
241.195	141.19
241.429	123.19
241.662	133.19
241.896	127.19
242.13	128.19
242.363	135.19
242.597	128.19
242.83	132.19
243.064	130.19
243.298	133.19
243.531	131.19
243.765	131.19
243.998	132.19
244.232	122.19
244.465	136.19
244.699	132.19
244.932	152.19
245.166	133.19
245.399	143.19
245.633	145.19
245.866	142.19
246.099	146.19
246.333	141.19
246.566	159.19
246.8	129.19
247.033	146.19
247.266	144.19
247.5	144.19
247.733	164.19
247.966	141.19
248.2	164.19
248.433	147.19
248.666	172.19
248.899	163.19
249.133	190.19
249.366	187.19
249.599	201.19
249.832	183.19
250.066	174.19
250.299	176.19
250.532	178.19
250.765	186.19
250.998	213.19
251.231	210.19
251.465	184.19
251.698	202.19
251.931	188.19
252.164	181.19
252.397	194.19
252.63	186.19
252.863	187.19
253.096	194.19
253.329	210.19
253.562	201.19
253.795	204.19
254.028	204.19
254.261	208.19
254.494	216.19
254.727	230.19
254.96	258.19
255.193	206.19
255.426	225.19
255.659	210.19
255.892	201.19
256.124	213.19
256.357	207.19
256.59	199.19
256.823	216.19
257.056	196.19
257.289	187.19
257.521	179.19
257.754	185.19
257.987	197.19
258.22	189.19
258.452	181.19
258.685	189.19
258.918	195.19
259.151	201.19
259.383	202.19
259.616	201.19
259.849	204.19
260.081	210.19
260.314	231.19
260.547	232.19
260.779	226.19
261.012	221.19
261.244	212.19
261.477	229.19
261.71	209.19
261.942	206.19
262.175	233.19
262.407	209.19
262.64	179.19
262.872	200.19
263.105	194.19
263.337	187.19
263.57	188.19
263.802	204.19
264.035	196.19
264.267	196.19
264.499	198.19
264.732	181.19
264.964	210.19
265.197	184.19
265.429	193.19
265.661	194.19
265.894	202.19
266.126	205.19
266.358	203.19
266.591	180.19
266.823	208.19
267.055	196.19
267.287	200.19
267.52	195.19
267.752	198.19
267.984	208.19
268.216	224.19
268.448	228.19
268.681	234.19
268.913	221.19
269.145	215.19
269.377	252.19
269.609	251.19
269.841	231.19
270.073	251.19
270.306	253.19
270.538	279.19
270.77	289.19
271.002	278.19
271.234	265.19
271.466	276.19
271.698	278.19
271.93	292.19
272.162	290.19
272.394	284.19
272.626	293.19
272.858	278.19
273.09	254.19
273.322	256.19
273.553	244.19
273.785	242.19
274.017	244.19
274.249	223.19
274.481	244.19
274.713	256.19
274.945	249.19
275.176	241.19
275.408	256.19
275.64	248.19
275.872	239.19
276.104	233.19
276.335	260.19
276.567	242.19
276.799	261.19
277.031	289.19
277.262	295.19
277.494	315.19
277.726	280.19
277.957	256.19
278.189	255.19
278.421	240.19
278.652	253.19
278.884	245.19
279.115	256.19
279.347	247.19
279.579	262.19
279.81	233.19
280.042	241.19
280.273	249.19
280.505	249.19
280.736	240.19
280.968	229.19
281.199	246.19
281.431	240.19
281.662	254.19
281.894	219.19
282.125	245.19
282.356	256.19
282.588	294.19
282.819	289.19
283.051	259.19
283.282	257.19
283.513	258.19
283.745	269.19
283.976	274.19
284.207	256.19
284.439	258.19
284.67	249.19
284.901	256.19
285.132	245.19
285.364	246.19
285.595	249.19
285.826	254.19
286.057	279.19
286.288	244.19
286.52	257.19
286.751	258.19
286.982	261.19
287.213	256.19
287.444	260.19
287.675	260.19
287.906	263.19
288.138	267.19
288.369	285.19
288.6	284.19
288.831	251.19
289.062	275.19
289.293	260.19
289.524	262.19
289.755	270.19
289.986	272.19
290.217	262.19
290.448	260.19
290.679	275.19
290.91	275.19
291.141	265.19
291.371	261.19
291.602	253.19
291.833	255.19
292.064	260.19
292.295	266.19
292.526	257.19
292.757	263.19
292.987	260.19
293.218	273.19
293.449	264.19
293.68	265.19
293.91	263.19
294.141	273.19
294.372	274.19
294.603	256.19
294.833	253.19
295.064	266.19
295.295	267.19
295.525	268.19
295.756	279.19
295.987	283.19
296.217	296.19
296.448	322.19
296.679	298.19
296.909	274.19
297.14	269.19
297.37	275.19
297.601	276.19
297.831	262.19
298.062	271.19
298.292	278.19
298.523	304.19
298.753	265.19
298.984	256.19
299.214	255.19
299.445	277.19
299.675	281.19
299.905	287.19
300.136	270.19
300.366	284.19
300.597	292.19
300.827	273.19
301.057	290.19
301.288	288.19
301.518	305.19
301.748	281.19
301.979	286.19
302.209	285.19
302.439	307.19
302.669	307.19
302.9	308.19
303.13	286.19
303.36	298.19
303.59	304.19
303.82	315.19
304.051	314.19
304.281	299.19
304.511	285.19
304.741	296.19
304.971	300.19
305.201	267.19
305.431	286.19
305.661	278.19
305.891	287.19
306.121	313.19
306.352	320.19
306.582	303.19
306.812	294.19
307.042	297.19
307.272	302.19
307.502	308.19
307.731	320.19
307.961	288.19
308.191	306.19
308.421	313.19
308.651	305.19
308.881	308.19
309.111	305.19
309.341	312.19
309.571	338.19
309.8	318.19
310.03	340.19
310.26	348.19
310.49	345.19
310.72	356.19
310.949	369.19
311.179	368.19
311.409	351.19
311.639	336.19
311.868	355.19
312.098	352.19
312.328	354.19
312.557	366.19
312.787	362.19
313.017	378.19
313.246	354.19
313.476	346.19
313.706	317.19
313.935	362.19
314.165	362.19
314.394	357.19
314.624	383.19
314.853	360.19
315.083	353.19
315.312	331.19
315.542	329.19
315.771	347.19
316.001	329.19
316.23	364.19
316.46	356.19
316.689	336.19
316.919	350.19
317.148	363.19
317.377	373.19
317.607	352.19
317.836	345.19
318.065	353.19
318.295	332.19
318.524	345.19
318.753	318.19
318.983	343.19
319.212	348.19
319.441	347.19
319.67	362.19
319.9	353.19
320.129	338.19
320.358	343.19
320.587	357.19
320.816	351.19
321.046	344.19
321.275	361.19
321.504	364.19
321.733	381.19
321.962	372.19
322.191	392.19
322.42	389.19
322.649	416.19
322.878	436.19
323.108	439.19
323.337	452.19
323.566	484.19
323.795	533.19
324.024	562.19
324.253	695.19
324.482	998.19
324.71	1548.19
324.939	2074.19
325.168	1699.19
325.397	909.19
325.626	619.19
325.855	524.19
326.084	483.19
326.313	460.19
326.542	481.19
326.77	533.19
326.999	643.19
327.228	936.19
327.457	1338.19
327.686	1526.19
327.914	988.19
328.143	678.19
328.372	608.19
328.6	540.19
328.829	561.19
329.058	558.19
329.287	569.19
329.515	495.19
329.744	496.19
329.972	480.19
330.201	489.19
330.43	535.19
330.658	570.19
330.887	578.19
331.115	573.19
331.344	474.19
331.572	461.19
331.801	468.19
332.03	433.19
332.258	425.19
332.486	427.19
332.715	409.19
332.943	414.19
333.172	408.19
333.4	428.19
333.629	424.19
333.857	410.19
334.085	446.19
334.314	459.19
334.542	481.19
334.771	507.19
334.999	452.19
335.227	436.19
335.455	415.19
335.684	415.19
335.912	383.19
336.14	403.19
336.369	409.19
336.597	381.19
336.825	407.19
337.053	402.19
337.281	392.19
337.51	399.19
337.738	392.19
337.966	409.19
338.194	404.19
338.422	399.19
338.65	399.19
338.878	379.19
339.106	401.19
339.334	381.19
339.562	366.19
339.79	388.19
340.018	398.19
340.246	390.19
340.474	403.19
340.702	390.19
340.93	399.19
341.158	380.19
341.386	380.19
341.614	376.19
341.842	395.19
342.07	381.19
342.298	371.19
342.526	373.19
342.754	345.19
342.981	362.19
343.209	364.19
343.437	370.19
343.665	372.19
343.893	373.19
344.12	387.19
344.348	353.19
344.576	399.19
344.804	368.19
345.031	404.19
345.259	413.19
345.487	394.19
345.714	410.19
345.942	378.19
346.17	378.19
346.397	384.19
346.625	378.19
346.853	355.19
347.08	362.19
347.308	369.19
347.535	373.19
347.763	382.19
347.99	371.19
348.218	376.19
348.445	380.19
348.673	389.19
348.9	374.19
349.128	378.19
349.355	359.19
349.583	356.19
349.81	382.19
350.037	351.19
350.265	378.19
350.492	365.19
350.72	358.19
350.947	379.19
351.174	386.19
351.402	400.19
351.629	387.19
351.856	372.19
352.083	406.19
352.311	424.19
352.538	418.19
352.765	392.19
352.992	376.19
353.22	374.19
353.447	353.19
353.674	378.19
353.901	349.19
354.128	346.19
354.355	336.19
354.583	348.19
354.81	357.19
355.037	343.19
355.264	337.19
355.491	325.19
355.718	338.19
355.945	342.19
356.172	360.19
356.399	333.19
356.626	341.19
356.853	348.19
357.08	349.19
357.307	335.19
357.534	350.19
357.761	347.19
357.988	342.19
358.215	353.19
358.441	333.19
358.668	370.19
358.895	354.19
359.122	361.19
359.349	366.19
359.576	392.19
359.802	422.19
360.029	443.19
360.256	438.19
360.483	424.19
360.709	384.19
360.936	367.19
361.163	385.19
361.39	382.19
361.616	362.19
361.843	388.19
362.07	370.19
362.296	373.19
362.523	373.19
362.749	372.19
362.976	350.19
363.203	369.19
363.429	364.19
363.656	366.19
363.882	356.19
364.109	341.19
364.335	356.19
364.562	349.19
364.788	364.19
365.015	360.19
365.241	353.19
365.468	353.19
365.694	372.19
365.92	375.19
366.147	379.19
366.373	363.19
366.599	347.19
366.826	336.19
367.052	345.19
367.278	337.19
367.505	353.19
367.731	349.19
367.957	361.19
368.184	365.19
368.41	364.19
368.636	364.19
368.862	377.19
369.089	384.19
369.315	347.19
369.541	355.19
369.767	344.19
369.993	361.19
370.219	350.19
370.445	345.19
370.672	350.19
370.898	352.19
371.124	335.19
371.35	360.19
371.576	364.19
371.802	353.19
372.028	357.19
372.254	368.19
372.48	344.19
372.706	338.19
372.932	349.19
373.158	341.19
373.384	340.19
373.61	373.19
373.835	372.19
374.061	332.19
374.287	341.19
374.513	362.19
374.739	358.19
374.965	352.19
375.191	346.19
375.416	358.19
375.642	348.19
375.868	361.19
376.094	337.19
376.319	339.19
376.545	349.19
376.771	338.19
376.997	354.19
377.222	340.19
377.448	340.19
377.674	338.19
377.899	343.19
378.125	326.19
378.35	328.19
378.576	331.19
378.802	333.19
379.027	340.19
379.253	342.19
379.478	326.19
379.704	345.19
379.929	345.19
380.155	344.19
380.38	369.19
380.606	341.19
380.831	342.19
381.057	361.19
381.282	337.19
381.507	336.19
381.733	363.19
381.958	333.19
382.184	324.19
382.409	363.19
382.634	349.19
382.86	344.19
383.085	350.19
383.31	356.19
383.535	353.19
383.761	355.19
383.986	355.19
384.211	352.19
384.436	355.19
384.662	349.19
384.887	361.19
385.112	372.19
385.337	351.19
385.562	381.19
385.787	365.19
386.013	381.19
386.238	380.19
386.463	379.19
386.688	367.19
386.913	376.19
387.138	364.19
387.363	348.19
387.588	372.19
387.813	363.19
388.038	361.19
388.263	363.19
388.488	359.19
388.713	361.19
388.938	375.19
389.163	364.19
389.387	380.19
389.612	368.19
389.837	361.19
390.062	369.19
390.287	368.19
390.512	393.19
390.736	362.19
390.961	369.19
391.186	372.19
391.411	371.19
391.636	382.19
391.86	387.19
392.085	378.19
392.31	377.19
392.534	398.19
392.759	381.19
392.984	375.19
393.208	373.19
393.433	376.19
393.658	356.19
393.882	382.19
394.107	374.19
394.331	375.19
394.556	369.19
394.78	376.19
395.005	355.19
395.229	368.19
395.454	376.19
395.678	379.19
395.903	397.19
396.127	398.19
396.352	393.19
396.576	397.19
396.801	385.19
397.025	385.19
397.249	361.19
397.474	387.19
397.698	386.19
397.922	403.19
398.147	396.19
398.371	399.19
398.595	416.19
398.82	414.19
399.044	417.19
399.268	413.19
399.492	467.19
399.717	472.19
399.941	466.19
400.165	530.19
400.389	511.19
400.613	453.19
400.837	437.19
401.062	419.19
401.286	427.19
401.51	413.19
401.734	410.19
401.958	417.19
402.182	436.19
402.406	437.19
402.63	414.19
402.854	432.19
403.078	430.19
403.302	439.19
403.526	408.19
403.75	428.19
403.974	423.19
404.198	429.19
404.422	430.19
404.645	423.19
404.869	441.19
405.093	477.19
405.317	492.19
405.541	509.19
405.765	478.19
405.988	453.19
406.212	459.19
406.436	479.19
406.66	516.19
406.883	480.19
407.107	502.19
407.331	533.19
407.555	553.19
407.778	539.19
408.002	514.19
408.226	476.19
408.449	480.19
408.673	481.19
408.896	504.19
409.12	522.19
409.344	487.19
409.567	453.19
409.791	441.19
410.014	432.19
410.238	414.19
410.461	421.19
410.685	434.19
410.908	460.19
411.132	469.19
411.355	513.19
411.578	476.19
411.802	424.19
412.025	429.19
412.249	438.19
412.472	468.19
412.695	496.19
412.919	490.19
413.142	432.19
413.365	428.19
413.589	429.19
413.812	421.19
414.035	434.19
414.258	429.19
414.482	417.19
414.705	403.19
414.928	388.19
415.151	416.19
415.374	402.19
415.597	410.19
415.821	410.19
416.044	379.19
416.267	387.19
416.49	409.19
416.713	424.19
416.936	396.19
417.159	429.19
417.382	398.19
417.605	423.19
417.828	436.19
418.051	440.19
418.274	432.19
418.497	393.19
418.72	392.19
418.943	419.19
419.166	433.19
419.389	432.19
419.611	438.19
419.834	444.19
420.057	433.19
420.28	436.19
420.503	432.19
420.726	433.19
420.948	454.19
421.171	478.19
421.394	503.19
421.617	435.19
421.839	436.19
422.062	420.19
422.285	454.19
422.507	479.19
422.73	555.19
422.953	529.19
423.175	469.19
423.398	455.19
423.621	467.19
423.843	468.19
424.066	485.19
424.288	457.19
424.511	485.19
424.733	508.19
424.956	577.19
425.178	559.19
425.401	577.19
425.623	569.19
425.846	492.19
426.068	475.19
426.291	479.19
426.513	454.19
426.735	473.19
426.958	514.19
427.18	570.19
427.402	674.19
427.625	717.19
427.847	676.19
428.069	579.19
428.292	511.19
428.514	474.19
428.736	445.19
428.958	439.19
429.181	435.19
429.403	420.19
429.625	443.19
429.847	460.19
430.069	518.19
430.292	505.19
430.514	452.19
430.736	425.19
430.958	432.19
431.18	408.19
431.402	415.19
431.624	410.19
431.846	416.19
432.068	408.19
432.29	380.19
432.512	419.19
432.734	439.19
432.956	424.19
433.178	428.19
433.4	406.19
433.622	426.19
433.844	402.19
434.066	425.19
434.287	390.19
434.509	442.19
434.731	415.19
434.953	439.19
435.175	436.19
435.397	454.19
435.618	477.19
435.84	501.19
436.062	567.19
436.284	597.19
436.505	516.19
436.727	453.19
436.949	436.19
437.17	438.19
437.392	427.19
437.614	454.19
437.835	482.19
438.057	564.19
438.278	612.19
438.5	623.19
438.721	680.19
438.943	638.19
439.165	519.19
439.386	478.19
439.608	466.19
439.829	490.19
440.05	498.19
440.272	518.19
440.493	500.19
440.715	477.19
440.936	446.19
441.158	424.19
441.379	460.19
441.6	445.19
441.822	469.19
442.043	497.19
442.264	569.19
442.486	583.19
442.707	509.19
442.928	481.19
443.149	503.19
443.371	497.19
443.592	525.19
443.813	601.19
444.034	630.19
444.255	534.19
444.476	483.19
444.698	472.19
444.919	473.19
445.14	604.19
445.361	537.19
445.582	518.19
445.803	577.19
446.024	619.19
446.245	637.19
446.466	562.19
446.687	510.19
446.908	486.19
447.129	453.19
447.35	438.19
447.571	435.19
447.792	416.19
448.013	435.19
448.234	455.19
448.455	498.19
448.675	582.19
448.896	651.19
449.117	566.19
449.338	544.19
449.559	629.19
449.779	694.19
450	574.19
450.221	487.19
450.442	416.19
450.662	417.19
450.883	455.19
451.104	448.19
451.324	438.19
451.545	424.19
451.766	428.19
451.986	381.19
452.207	401.19
452.428	390.19
452.648	372.19
452.869	389.19
453.089	414.19
453.31	408.19
453.53	422.19
453.751	384.19
453.971	404.19
454.192	433.19
454.412	432.19
454.633	383.19
454.853	387.19
455.073	374.19
455.294	419.19
455.514	462.19
455.734	458.19
455.955	393.19
456.175	375.19
456.395	363.19
456.616	368.19
456.836	377.19
457.056	356.19
457.276	353.19
457.497	373.19
457.717	365.19
457.937	375.19
458.157	398.19
458.377	398.19
458.598	403.19
458.818	458.19
459.038	550.19
459.258	530.19
459.478	451.19
459.698	430.19
459.918	401.19
460.138	415.19
460.358	405.19
460.578	393.19
460.798	399.19
461.018	382.19
461.238	408.19
461.458	420.19
461.678	406.19
461.898	401.19
462.118	417.19
462.338	401.19
462.558	420.19
462.777	405.19
462.997	430.19
463.217	442.19
463.437	444.19
463.657	419.19
463.876	416.19
464.096	412.19
464.316	432.19
464.536	440.19
464.755	430.19
464.975	428.19
465.195	506.19
465.414	603.19
465.634	500.19
465.854	448.19
466.073	432.19
466.293	439.19
466.512	417.19
466.732	388.19
466.951	393.19
467.171	420.19
467.391	396.19
467.61	417.19
467.829	396.19
468.049	422.19
468.268	396.19
468.488	397.19
468.707	373.19
468.927	378.19
469.146	372.19
469.365	392.19
469.585	390.19
469.804	399.19
470.023	397.19
470.243	406.19
470.462	411.19
470.681	414.19
470.901	437.19
471.12	404.19
471.339	397.19
471.558	399.19
471.777	410.19
471.997	388.19
472.216	424.19
472.435	440.19
472.654	434.19
472.873	391.19
473.092	392.19
473.311	417.19
473.53	404.19
473.749	423.19
473.968	443.19
474.187	513.19
474.406	532.19
474.625	450.19
474.844	403.19
475.063	398.19
475.282	402.19
475.501	394.19
475.72	412.19
475.939	407.19
476.158	422.19
476.377	414.19
476.596	401.19
476.814	419.19
477.033	428.19
477.252	438.19
477.471	432.19
477.69	429.19
477.908	422.19
478.127	433.19
478.346	425.19
478.564	435.19
478.783	451.19
479.002	443.19
479.22	448.19
479.439	472.19
479.658	488.19
479.876	478.19
480.095	488.19
480.313	518.19
480.532	482.19
480.751	485.19
480.969	510.19
481.188	540.19
481.406	570.19
481.624	504.19
481.843	486.19
482.061	472.19
482.28	470.19
482.498	470.19
482.717	457.19
482.935	469.19
483.153	487.19
483.372	464.19
483.59	470.19
483.808	478.19
484.027	476.19
484.245	463.19
484.463	465.19
484.681	484.19
484.9	480.19
485.118	467.19
485.336	484.19
485.554	480.19
485.772	469.19
485.99	482.19
486.209	484.19
486.427	496.19
486.645	523.19
486.863	540.19
487.081	527.19
487.299	490.19
487.517	502.19
487.735	486.19
487.953	526.19
488.171	499.19
488.389	507.19
488.607	520.19
488.825	512.19
489.043	523.19
489.261	506.19
489.479	506.19
489.696	510.19
489.914	523.19
490.132	517.19
490.35	531.19
490.568	525.19
490.786	543.19
491.003	564.19
491.221	554.19
491.439	552.19
491.657	576.19
491.874	560.19
492.092	582.19
492.31	581.19
492.527	584.19
492.745	612.19
492.963	590.19
493.18	569.19
493.398	592.19
493.615	624.19
493.833	609.19
494.05	591.19
494.268	589.19
494.485	583.19
494.703	603.19
494.92	573.19
495.138	617.19
495.355	597.19
495.573	612.19
495.79	594.19
496.008	609.19
496.225	587.19
496.442	607.19
496.66	592.19
496.877	605.19
497.094	589.19
497.312	602.19
497.529	609.19
497.746	605.19
497.963	640.19
498.181	644.19
498.398	643.19
498.615	657.19
498.832	646.19
499.049	678.19
499.267	660.19
499.484	688.19
499.701	715.19
499.918	716.19
500.135	739.19
500.352	783.19
500.569	762.19
500.786	808.19
501.003	776.19
501.22	758.19
501.437	739.19
501.654	747.19
501.871	732.19
