Data from 1983.PennyLincolnUp.Lamp.En5.5.200Scan.071819.P1_HRD10591_16-54-19-966.txt Node
Date: Thu Jul 18 16:54:19 EDT 2019
User: cochatt
Spectrometer: HR+D1059
Trigger mode: 1
Integration Time (sec): 1.000000E-1
Scans to average: 1
Electric dark correction enabled: true
Nonlinearity correction enabled: false
Boxcar width: 0
XAxis mode: Wavelengths
Number of Pixels in Spectrum: 2048
>>>>>Begin Spectral Data<<<<<
223.165	-7.69
223.4	-7.69
223.635	-7.69
223.869	-20.69
224.104	-25.69
224.338	-6.69
224.573	-7.69
224.808	-8.69
225.042	-14.69
225.277	-4.69
225.511	5.31
225.746	4.31
225.98	0.31
226.215	12.31
226.449	11.31
226.683	19.31
226.918	31.31
227.152	12.31
227.387	24.31
227.621	30.31
227.856	30.31
228.09	51.31
228.324	53.31
228.559	61.31
228.793	53.31
229.027	88.31
229.262	91.31
229.496	108.31
229.73	127.31
229.964	139.31
230.199	133.31
230.433	118.31
230.667	99.31
230.901	111.31
231.136	89.31
231.37	107.31
231.604	105.31
231.838	96.31
232.072	105.31
232.306	97.31
232.541	97.31
232.775	107.31
233.009	107.31
233.243	101.31
233.477	104.31
233.711	106.31
233.945	101.31
234.179	92.31
234.413	117.31
234.647	115.31
234.881	111.31
235.115	91.31
235.349	101.31
235.583	116.31
235.817	102.31
236.051	103.31
236.285	121.31
236.519	113.31
236.753	121.31
236.987	135.31
237.221	158.31
237.455	211.31
237.689	163.31
237.922	125.31
238.156	128.31
238.39	117.31
238.624	119.31
238.858	117.31
239.091	109.31
239.325	123.31
239.559	118.31
239.793	124.31
240.027	119.31
240.26	136.31
240.494	139.31
240.728	126.31
240.961	116.31
241.195	133.31
241.429	133.31
241.662	113.31
241.896	112.31
242.13	103.31
242.363	121.31
242.597	132.31
242.83	115.31
243.064	123.31
243.298	128.31
243.531	121.31
243.765	135.31
243.998	113.31
244.232	139.31
244.465	111.31
244.699	131.31
244.932	132.31
245.166	124.31
245.399	145.31
245.633	133.31
245.866	132.31
246.099	137.31
246.333	127.31
246.566	138.31
246.8	146.31
247.033	141.31
247.266	140.31
247.5	154.31
247.733	150.31
247.966	162.31
248.2	145.31
248.433	159.31
248.666	161.31
248.899	172.31
249.133	199.31
249.366	187.31
249.599	160.31
249.832	175.31
250.066	173.31
250.299	153.31
250.532	174.31
250.765	180.31
250.998	197.31
251.231	201.31
251.465	191.31
251.698	188.31
251.931	188.31
252.164	169.31
252.397	195.31
252.63	204.31
252.863	173.31
253.096	189.31
253.329	201.31
253.562	199.31
253.795	195.31
254.028	185.31
254.261	183.31
254.494	208.31
254.727	229.31
254.96	276.31
255.193	251.31
255.426	220.31
255.659	207.31
255.892	219.31
256.124	207.31
256.357	220.31
256.59	198.31
256.823	192.31
257.056	182.31
257.289	184.31
257.521	203.31
257.754	179.31
257.987	183.31
258.22	204.31
258.452	194.31
258.685	183.31
258.918	188.31
259.151	186.31
259.383	187.31
259.616	221.31
259.849	190.31
260.081	229.31
260.314	222.31
260.547	235.31
260.779	220.31
261.012	201.31
261.244	205.31
261.477	191.31
261.71	218.31
261.942	206.31
262.175	212.31
262.407	206.31
262.64	201.31
262.872	192.31
263.105	192.31
263.337	182.31
263.57	218.31
263.802	199.31
264.035	201.31
264.267	197.31
264.499	189.31
264.732	219.31
264.964	198.31
265.197	199.31
265.429	181.31
265.661	192.31
265.894	193.31
266.126	185.31
266.358	200.31
266.591	199.31
266.823	205.31
267.055	211.31
267.287	205.31
267.52	195.31
267.752	212.31
267.984	210.31
268.216	209.31
268.448	216.31
268.681	212.31
268.913	216.31
269.145	235.31
269.377	235.31
269.609	262.31
269.841	247.31
270.073	232.31
270.306	261.31
270.538	284.31
270.77	284.31
271.002	280.31
271.234	262.31
271.466	266.31
271.698	277.31
271.93	289.31
272.162	272.31
272.394	288.31
272.626	265.31
272.858	257.31
273.09	252.31
273.322	232.31
273.553	244.31
273.785	240.31
274.017	237.31
274.249	250.31
274.481	248.31
274.713	235.31
274.945	236.31
275.176	238.31
275.408	218.31
275.64	225.31
275.872	233.31
276.104	231.31
276.335	251.31
276.567	251.31
276.799	274.31
277.031	278.31
277.262	278.31
277.494	262.31
277.726	259.31
277.957	268.31
278.189	248.31
278.421	235.31
278.652	225.31
278.884	235.31
279.115	234.31
279.347	243.31
279.579	233.31
279.81	253.31
280.042	237.31
280.273	227.31
280.505	237.31
280.736	253.31
280.968	240.31
281.199	236.31
281.431	231.31
281.662	212.31
281.894	224.31
282.125	247.31
282.356	270.31
282.588	266.31
282.819	257.31
283.051	228.31
283.282	251.31
283.513	247.31
283.745	242.31
283.976	254.31
284.207	251.31
284.439	268.31
284.67	247.31
284.901	240.31
285.132	251.31
285.364	247.31
285.595	231.31
285.826	254.31
286.057	247.31
286.288	255.31
286.52	246.31
286.751	243.31
286.982	243.31
287.213	245.31
287.444	266.31
287.675	247.31
287.906	249.31
288.138	262.31
288.369	271.31
288.6	277.31
288.831	270.31
289.062	276.31
289.293	255.31
289.524	270.31
289.755	268.31
289.986	255.31
290.217	251.31
290.448	243.31
290.679	262.31
290.91	261.31
291.141	267.31
291.371	238.31
291.602	258.31
291.833	257.31
292.064	246.31
292.295	266.31
292.526	265.31
292.757	265.31
292.987	262.31
293.218	283.31
293.449	269.31
293.68	260.31
293.91	261.31
294.141	263.31
294.372	247.31
294.603	239.31
294.833	254.31
295.064	240.31
295.295	254.31
295.525	256.31
295.756	272.31
295.987	282.31
296.217	295.31
296.448	305.31
296.679	261.31
296.909	264.31
297.14	269.31
297.37	247.31
297.601	275.31
297.831	273.31
298.062	271.31
298.292	280.31
298.523	269.31
298.753	271.31
298.984	261.31
299.214	270.31
299.445	269.31
299.675	286.31
299.905	277.31
300.136	275.31
300.366	270.31
300.597	278.31
300.827	286.31
301.057	274.31
301.288	271.31
301.518	283.31
301.748	300.31
301.979	293.31
302.209	291.31
302.439	293.31
302.669	281.31
302.9	302.31
303.13	283.31
303.36	295.31
303.59	284.31
303.82	273.31
304.051	289.31
304.281	278.31
304.511	283.31
304.741	290.31
304.971	280.31
305.201	288.31
305.431	315.31
305.661	284.31
305.891	290.31
306.121	305.31
306.352	299.31
306.582	297.31
306.812	297.31
307.042	299.31
307.272	285.31
307.502	311.31
307.731	295.31
307.961	314.31
308.191	289.31
308.421	277.31
308.651	300.31
308.881	301.31
309.111	317.31
309.341	302.31
309.571	315.31
309.8	343.31
310.03	338.31
310.26	347.31
310.49	325.31
310.72	348.31
310.949	358.31
311.179	373.31
311.409	345.31
311.639	343.31
311.868	337.31
312.098	335.31
312.328	351.31
312.557	359.31
312.787	379.31
313.017	373.31
313.246	356.31
313.476	331.31
313.706	351.31
313.935	346.31
314.165	367.31
314.394	361.31
314.624	372.31
314.853	360.31
315.083	332.31
315.312	335.31
315.542	333.31
315.771	347.31
316.001	343.31
316.23	328.31
316.46	327.31
316.689	357.31
316.919	344.31
317.148	363.31
317.377	333.31
317.607	352.31
317.836	343.31
318.065	344.31
318.295	340.31
318.524	339.31
318.753	335.31
318.983	335.31
319.212	333.31
319.441	352.31
319.67	342.31
319.9	346.31
320.129	320.31
320.358	349.31
320.587	370.31
320.816	351.31
321.046	373.31
321.275	356.31
321.504	360.31
321.733	358.31
321.962	364.31
322.191	379.31
322.42	404.31
322.649	397.31
322.878	430.31
323.108	424.31
323.337	443.31
323.566	477.31
323.795	511.31
324.024	562.31
324.253	700.31
324.482	1005.31
324.71	1534.31
324.939	2074.31
325.168	1675.31
325.397	902.31
325.626	637.31
325.855	532.31
326.084	471.31
326.313	470.31
326.542	481.31
326.77	535.31
326.999	634.31
327.228	897.31
327.457	1285.31
327.686	1491.31
327.914	1009.31
328.143	675.31
328.372	577.31
328.6	541.31
328.829	516.31
329.058	531.31
329.287	547.31
329.515	534.31
329.744	469.31
329.972	462.31
330.201	492.31
330.43	535.31
330.658	517.31
330.887	573.31
331.115	566.31
331.344	469.31
331.572	464.31
331.801	461.31
332.03	444.31
332.258	431.31
332.486	437.31
332.715	408.31
332.943	419.31
333.172	396.31
333.4	403.31
333.629	405.31
333.857	431.31
334.085	442.31
334.314	463.31
334.542	471.31
334.771	488.31
334.999	431.31
335.227	426.31
335.455	406.31
335.684	378.31
335.912	384.31
336.14	393.31
336.369	383.31
336.597	414.31
336.825	408.31
337.053	400.31
337.281	385.31
337.51	388.31
337.738	398.31
337.966	370.31
338.194	402.31
338.422	400.31
338.65	397.31
338.878	374.31
339.106	362.31
339.334	381.31
339.562	385.31
339.79	374.31
340.018	385.31
340.246	384.31
340.474	373.31
340.702	392.31
340.93	391.31
341.158	383.31
341.386	369.31
341.614	381.31
341.842	382.31
342.07	385.31
342.298	377.31
342.526	380.31
342.754	360.31
342.981	363.31
343.209	349.31
343.437	373.31
343.665	375.31
343.893	353.31
344.12	367.31
344.348	387.31
344.576	379.31
344.804	387.31
345.031	386.31
345.259	403.31
345.487	378.31
345.714	386.31
345.942	375.31
346.17	373.31
346.397	370.31
346.625	356.31
346.853	374.31
347.08	375.31
347.308	373.31
347.535	381.31
347.763	372.31
347.99	374.31
348.218	379.31
348.445	380.31
348.673	377.31
348.9	360.31
349.128	365.31
349.355	365.31
349.583	367.31
349.81	351.31
350.037	358.31
350.265	365.31
350.492	371.31
350.72	373.31
350.947	351.31
351.174	360.31
351.402	383.31
351.629	390.31
351.856	384.31
352.083	387.31
352.311	408.31
352.538	394.31
352.765	401.31
352.992	377.31
353.22	365.31
353.447	357.31
353.674	338.31
353.901	366.31
354.128	341.31
354.355	353.31
354.583	341.31
354.81	350.31
355.037	352.31
355.264	344.31
355.491	341.31
355.718	320.31
355.945	365.31
356.172	328.31
356.399	341.31
356.626	351.31
356.853	356.31
357.08	344.31
357.307	340.31
357.534	327.31
357.761	322.31
357.988	353.31
358.215	341.31
358.441	345.31
358.668	348.31
358.895	367.31
359.122	346.31
359.349	337.31
359.576	363.31
359.802	383.31
360.029	438.31
360.256	403.31
360.483	402.31
360.709	380.31
360.936	364.31
361.163	377.31
361.39	383.31
361.616	376.31
361.843	360.31
362.07	381.31
362.296	377.31
362.523	360.31
362.749	363.31
362.976	359.31
363.203	365.31
363.429	352.31
363.656	338.31
363.882	351.31
364.109	363.31
364.335	343.31
364.562	343.31
364.788	352.31
365.015	358.31
365.241	355.31
365.468	352.31
365.694	344.31
365.92	373.31
366.147	364.31
366.373	367.31
366.599	327.31
366.826	347.31
367.052	303.31
367.278	341.31
367.505	354.31
367.731	357.31
367.957	341.31
368.184	353.31
368.41	362.31
368.636	359.31
368.862	363.31
369.089	341.31
369.315	350.31
369.541	354.31
369.767	342.31
369.993	336.31
370.219	359.31
370.445	355.31
370.672	348.31
370.898	334.31
371.124	353.31
371.35	351.31
371.576	346.31
371.802	342.31
372.028	329.31
372.254	342.31
372.48	349.31
372.706	334.31
372.932	349.31
373.158	341.31
373.384	338.31
373.61	335.31
373.835	349.31
374.061	347.31
374.287	357.31
374.513	351.31
374.739	373.31
374.965	365.31
375.191	338.31
375.416	350.31
375.642	349.31
375.868	347.31
376.094	354.31
376.319	329.31
376.545	325.31
376.771	336.31
376.997	346.31
377.222	328.31
377.448	327.31
377.674	320.31
377.899	326.31
378.125	342.31
378.35	332.31
378.576	336.31
378.802	339.31
379.027	335.31
379.253	355.31
379.478	338.31
379.704	329.31
379.929	339.31
380.155	333.31
380.38	332.31
380.606	347.31
380.831	352.31
381.057	350.31
381.282	342.31
381.507	340.31
381.733	340.31
381.958	325.31
382.184	337.31
382.409	367.31
382.634	356.31
382.86	356.31
383.085	352.31
383.31	342.31
383.535	351.31
383.761	345.31
383.986	355.31
384.211	354.31
384.436	354.31
384.662	353.31
384.887	373.31
385.112	349.31
385.337	347.31
385.562	352.31
385.787	357.31
386.013	376.31
386.238	375.31
386.463	357.31
386.688	359.31
386.913	374.31
387.138	365.31
387.363	367.31
387.588	363.31
387.813	373.31
388.038	364.31
388.263	363.31
388.488	374.31
388.713	365.31
388.938	366.31
389.163	373.31
389.387	380.31
389.612	342.31
389.837	361.31
390.062	348.31
390.287	356.31
390.512	350.31
390.736	369.31
390.961	364.31
391.186	342.31
391.411	373.31
391.636	391.31
391.86	364.31
392.085	387.31
392.31	381.31
392.534	363.31
392.759	373.31
392.984	357.31
393.208	366.31
393.433	365.31
393.658	357.31
393.882	359.31
394.107	359.31
394.331	376.31
394.556	353.31
394.78	363.31
395.005	381.31
395.229	374.31
395.454	374.31
395.678	384.31
395.903	397.31
396.127	391.31
396.352	407.31
396.576	386.31
396.801	371.31
397.025	377.31
397.249	372.31
397.474	398.31
397.698	361.31
397.922	379.31
398.147	420.31
398.371	421.31
398.595	414.31
398.82	401.31
399.044	427.31
399.268	419.31
399.492	434.31
399.717	470.31
399.941	483.31
400.165	484.31
400.389	483.31
400.613	438.31
400.837	437.31
401.062	417.31
401.286	403.31
401.51	399.31
401.734	413.31
401.958	410.31
402.182	414.31
402.406	443.31
402.63	453.31
402.854	427.31
403.078	415.31
403.302	427.31
403.526	425.31
403.75	437.31
403.974	427.31
404.198	431.31
404.422	423.31
404.645	446.31
404.869	437.31
405.093	476.31
405.317	488.31
405.541	533.31
405.765	464.31
405.988	457.31
406.212	449.31
406.436	464.31
406.66	487.31
406.883	472.31
407.107	488.31
407.331	516.31
407.555	565.31
407.778	594.31
408.002	481.31
408.226	475.31
408.449	459.31
408.673	475.31
408.896	486.31
409.12	516.31
409.344	486.31
409.567	451.31
409.791	437.31
410.014	415.31
410.238	439.31
410.461	438.31
410.685	446.31
410.908	443.31
411.132	468.31
411.355	481.31
411.578	454.31
411.802	432.31
412.025	428.31
412.249	445.31
412.472	446.31
412.695	477.31
412.919	462.31
413.142	444.31
413.365	410.31
413.589	405.31
413.812	409.31
414.035	427.31
414.258	408.31
414.482	382.31
414.705	396.31
414.928	399.31
415.151	413.31
415.374	415.31
415.597	389.31
415.821	388.31
416.044	382.31
416.267	391.31
416.49	379.31
416.713	405.31
416.936	397.31
417.159	402.31
417.382	398.31
417.605	403.31
417.828	408.31
418.051	417.31
418.274	393.31
418.497	407.31
418.72	413.31
418.943	387.31
419.166	408.31
419.389	444.31
419.611	431.31
419.834	423.31
420.057	431.31
420.28	427.31
420.503	409.31
420.726	430.31
420.948	413.31
421.171	451.31
421.394	482.31
421.617	443.31
421.839	427.31
422.062	435.31
422.285	434.31
422.507	483.31
422.73	523.31
422.953	503.31
423.175	464.31
423.398	453.31
423.621	449.31
423.843	464.31
424.066	453.31
424.288	453.31
424.511	460.31
424.733	504.31
424.956	547.31
425.178	555.31
425.401	527.31
425.623	562.31
425.846	507.31
426.068	457.31
426.291	464.31
426.513	440.31
426.735	490.31
426.958	503.31
427.18	577.31
427.402	658.31
427.625	717.31
427.847	641.31
428.069	531.31
428.292	513.31
428.514	458.31
428.736	447.31
428.958	448.31
429.181	415.31
429.403	425.31
429.625	413.31
429.847	457.31
430.069	503.31
430.292	504.31
430.514	431.31
430.736	418.31
430.958	423.31
431.18	394.31
431.402	397.31
431.624	401.31
431.846	411.31
432.068	386.31
432.29	397.31
432.512	397.31
432.734	394.31
432.956	390.31
433.178	401.31
433.4	407.31
433.622	431.31
433.844	408.31
434.066	412.31
434.287	388.31
434.509	401.31
434.731	427.31
434.953	413.31
435.175	425.31
435.397	452.31
435.618	444.31
435.84	502.31
436.062	555.31
436.284	612.31
436.505	502.31
436.727	457.31
436.949	437.31
437.17	416.31
437.392	419.31
437.614	430.31
437.835	472.31
438.057	542.31
438.278	599.31
438.5	614.31
438.721	675.31
438.943	607.31
439.165	510.31
439.386	476.31
439.608	485.31
439.829	465.31
440.05	484.31
440.272	557.31
440.493	492.31
440.715	450.31
440.936	435.31
441.158	442.31
441.379	428.31
441.6	432.31
441.822	466.31
442.043	499.31
442.264	534.31
442.486	550.31
442.707	496.31
442.928	479.31
443.149	493.31
443.371	530.31
443.592	520.31
443.813	584.31
444.034	629.31
444.255	552.31
444.476	458.31
444.698	439.31
444.919	450.31
445.14	584.31
445.361	525.31
445.582	502.31
445.803	571.31
446.024	645.31
446.245	650.31
446.466	565.31
446.687	497.31
446.908	468.31
447.129	455.31
447.35	439.31
447.571	431.31
447.792	418.31
448.013	430.31
448.234	460.31
448.455	481.31
448.675	579.31
448.896	636.31
449.117	548.31
449.338	529.31
449.559	602.31
449.779	678.31
450	551.31
450.221	472.31
450.442	440.31
450.662	437.31
450.883	430.31
451.104	450.31
451.324	421.31
451.545	425.31
451.766	387.31
451.986	383.31
452.207	416.31
452.428	383.31
452.648	361.31
452.869	383.31
453.089	408.31
453.31	397.31
453.53	392.31
453.751	397.31
453.971	379.31
454.192	426.31
454.412	404.31
454.633	376.31
454.853	373.31
455.073	376.31
455.294	397.31
455.514	462.31
455.734	436.31
455.955	386.31
456.175	364.31
456.395	383.31
456.616	354.31
456.836	375.31
457.056	372.31
457.276	334.31
457.497	359.31
457.717	358.31
457.937	360.31
458.157	363.31
458.377	365.31
458.598	396.31
458.818	463.31
459.038	517.31
459.258	536.31
459.478	453.31
459.698	414.31
459.918	402.31
460.138	391.31
460.358	380.31
460.578	397.31
460.798	401.31
461.018	411.31
461.238	408.31
461.458	402.31
461.678	396.31
461.898	397.31
462.118	386.31
462.338	405.31
462.558	423.31
462.777	399.31
462.997	416.31
463.217	423.31
463.437	441.31
463.657	431.31
463.876	430.31
464.096	412.31
464.316	422.31
464.536	437.31
464.755	462.31
464.975	451.31
465.195	489.31
465.414	582.31
465.634	489.31
465.854	433.31
466.073	417.31
466.293	398.31
466.512	380.31
466.732	388.31
466.951	401.31
467.171	386.31
467.391	413.31
467.61	395.31
467.829	394.31
468.049	400.31
468.268	397.31
468.488	386.31
468.707	371.31
468.927	381.31
469.146	369.31
469.365	377.31
469.585	378.31
469.804	417.31
470.023	416.31
470.243	406.31
470.462	409.31
470.681	424.31
470.901	429.31
471.12	389.31
471.339	396.31
471.558	387.31
471.777	389.31
471.997	387.31
472.216	393.31
472.435	424.31
472.654	401.31
472.873	404.31
473.092	385.31
473.311	411.31
473.53	405.31
473.749	427.31
473.968	456.31
474.187	513.31
474.406	511.31
474.625	464.31
474.844	409.31
475.063	408.31
475.282	391.31
475.501	397.31
475.72	417.31
475.939	412.31
476.158	411.31
476.377	407.31
476.596	396.31
476.814	414.31
477.033	441.31
477.252	413.31
477.471	423.31
477.69	415.31
477.908	414.31
478.127	443.31
478.346	422.31
478.564	446.31
478.783	448.31
479.002	451.31
479.22	439.31
479.439	468.31
479.658	484.31
479.876	496.31
480.095	468.31
480.313	506.31
480.532	477.31
480.751	482.31
480.969	505.31
481.188	562.31
481.406	575.31
481.624	515.31
481.843	477.31
482.061	464.31
482.28	468.31
482.498	471.31
482.717	446.31
482.935	435.31
483.153	455.31
483.372	435.31
483.59	477.31
483.808	464.31
484.027	455.31
484.245	455.31
484.463	448.31
484.681	476.31
484.9	457.31
485.118	464.31
485.336	467.31
485.554	472.31
485.772	485.31
485.99	491.31
486.209	501.31
486.427	484.31
486.645	482.31
486.863	519.31
487.081	493.31
487.299	484.31
487.517	515.31
487.735	491.31
487.953	483.31
488.171	504.31
488.389	519.31
488.607	474.31
488.825	509.31
489.043	502.31
489.261	503.31
489.479	491.31
489.696	489.31
489.914	521.31
490.132	534.31
490.35	540.31
490.568	516.31
490.786	555.31
491.003	539.31
491.221	547.31
491.439	540.31
491.657	555.31
491.874	566.31
492.092	583.31
492.31	588.31
492.527	584.31
492.745	568.31
492.963	570.31
493.18	572.31
493.398	597.31
493.615	591.31
493.833	584.31
494.05	585.31
494.268	575.31
494.485	583.31
494.703	591.31
494.92	584.31
495.138	600.31
495.355	590.31
495.573	600.31
495.79	599.31
496.008	585.31
496.225	572.31
496.442	600.31
496.66	588.31
496.877	607.31
497.094	613.31
497.312	601.31
497.529	612.31
497.746	607.31
497.963	620.31
498.181	632.31
498.398	628.31
498.615	639.31
498.832	661.31
499.049	656.31
499.267	653.31
499.484	672.31
499.701	705.31
499.918	717.31
500.135	779.31
500.352	761.31
500.569	789.31
500.786	778.31
501.003	757.31
501.22	771.31
501.437	752.31
501.654	710.31
501.871	710.31
502.088	690.31
