Data from 1983.PennyLincolnUp.Lamp.En5.5.200Scan.071819.P1_HRD10591_16-54-05-966.txt Node
Date: Thu Jul 18 16:54:05 EDT 2019
User: cochatt
Spectrometer: HR+D1059
Trigger mode: 1
Integration Time (sec): 1.000000E-1
Scans to average: 1
Electric dark correction enabled: true
Nonlinearity correction enabled: false
Boxcar width: 0
XAxis mode: Wavelengths
Number of Pixels in Spectrum: 2048
>>>>>Begin Spectral Data<<<<<
223.165	-19.69
223.4	-19.69
223.635	-19.69
223.869	-23.69
224.104	-25.69
224.338	-17.69
224.573	-18.69
224.808	0.31
225.042	-9.69
225.277	-6.69
225.511	-1.69
225.746	3.31
225.98	17.31
226.215	8.31
226.449	13.31
226.683	34.31
226.918	25.31
227.152	21.31
227.387	18.31
227.621	32.31
227.856	47.31
228.09	42.31
228.324	54.31
228.559	52.31
228.793	62.31
229.027	90.31
229.262	106.31
229.496	98.31
229.73	126.31
229.964	143.31
230.199	130.31
230.433	113.31
230.667	109.31
230.901	118.31
231.136	108.31
231.37	117.31
231.604	117.31
231.838	114.31
232.072	117.31
232.306	103.31
232.541	113.31
232.775	121.31
233.009	127.31
233.243	105.31
233.477	103.31
233.711	107.31
233.945	105.31
234.179	101.31
234.413	121.31
234.647	111.31
234.881	114.31
235.115	103.31
235.349	120.31
235.583	126.31
235.817	101.31
236.051	137.31
236.285	125.31
236.519	121.31
236.753	137.31
236.987	147.31
237.221	159.31
237.455	207.31
237.689	177.31
237.922	134.31
238.156	124.31
238.39	124.31
238.624	118.31
238.858	131.31
239.091	105.31
239.325	124.31
239.559	129.31
239.793	122.31
240.027	122.31
240.26	130.31
240.494	147.31
240.728	146.31
240.961	138.31
241.195	124.31
241.429	125.31
241.662	145.31
241.896	129.31
242.13	129.31
242.363	126.31
242.597	139.31
242.83	132.31
243.064	131.31
243.298	137.31
243.531	141.31
243.765	132.31
243.998	128.31
244.232	130.31
244.465	147.31
244.699	121.31
244.932	129.31
245.166	129.31
245.399	134.31
245.633	138.31
245.866	134.31
246.099	137.31
246.333	137.31
246.566	135.31
246.8	161.31
247.033	138.31
247.266	134.31
247.5	154.31
247.733	141.31
247.966	152.31
248.2	165.31
248.433	150.31
248.666	169.31
248.899	179.31
249.133	179.31
249.366	187.31
249.599	179.31
249.832	163.31
250.066	168.31
250.299	179.31
250.532	175.31
250.765	206.31
250.998	218.31
251.231	202.31
251.465	210.31
251.698	206.31
251.931	204.31
252.164	181.31
252.397	192.31
252.63	190.31
252.863	188.31
253.096	199.31
253.329	209.31
253.562	196.31
253.795	199.31
254.028	190.31
254.261	218.31
254.494	206.31
254.727	238.31
254.96	249.31
255.193	235.31
255.426	221.31
255.659	232.31
255.892	210.31
256.124	204.31
256.357	187.31
256.59	193.31
256.823	189.31
257.056	192.31
257.289	193.31
257.521	181.31
257.754	193.31
257.987	193.31
258.22	188.31
258.452	205.31
258.685	200.31
258.918	185.31
259.151	187.31
259.383	185.31
259.616	188.31
259.849	190.31
260.081	225.31
260.314	221.31
260.547	234.31
260.779	206.31
261.012	215.31
261.244	203.31
261.477	211.31
261.71	198.31
261.942	215.31
262.175	222.31
262.407	233.31
262.64	204.31
262.872	202.31
263.105	207.31
263.337	196.31
263.57	197.31
263.802	183.31
264.035	198.31
264.267	179.31
264.499	188.31
264.732	191.31
264.964	212.31
265.197	200.31
265.429	199.31
265.661	191.31
265.894	201.31
266.126	195.31
266.358	205.31
266.591	202.31
266.823	206.31
267.055	202.31
267.287	230.31
267.52	219.31
267.752	211.31
267.984	221.31
268.216	204.31
268.448	214.31
268.681	226.31
268.913	235.31
269.145	262.31
269.377	251.31
269.609	241.31
269.841	246.31
270.073	246.31
270.306	263.31
270.538	281.31
270.77	282.31
271.002	281.31
271.234	271.31
271.466	284.31
271.698	297.31
271.93	287.31
272.162	281.31
272.394	293.31
272.626	279.31
272.858	279.31
273.09	266.31
273.322	264.31
273.553	254.31
273.785	236.31
274.017	255.31
274.249	251.31
274.481	236.31
274.713	245.31
274.945	233.31
275.176	245.31
275.408	245.31
275.64	248.31
275.872	250.31
276.104	236.31
276.335	222.31
276.567	247.31
276.799	281.31
277.031	277.31
277.262	282.31
277.494	287.31
277.726	256.31
277.957	284.31
278.189	270.31
278.421	257.31
278.652	241.31
278.884	225.31
279.115	236.31
279.347	257.31
279.579	249.31
279.81	240.31
280.042	237.31
280.273	245.31
280.505	234.31
280.736	241.31
280.968	234.31
281.199	239.31
281.431	253.31
281.662	254.31
281.894	249.31
282.125	253.31
282.356	279.31
282.588	293.31
282.819	279.31
283.051	254.31
283.282	263.31
283.513	263.31
283.745	249.31
283.976	259.31
284.207	249.31
284.439	258.31
284.67	257.31
284.901	261.31
285.132	237.31
285.364	245.31
285.595	241.31
285.826	248.31
286.057	269.31
286.288	271.31
286.52	259.31
286.751	257.31
286.982	264.31
287.213	276.31
287.444	262.31
287.675	267.31
287.906	286.31
288.138	275.31
288.369	279.31
288.6	292.31
288.831	266.31
289.062	275.31
289.293	262.31
289.524	251.31
289.755	261.31
289.986	257.31
290.217	243.31
290.448	255.31
290.679	266.31
290.91	261.31
291.141	265.31
291.371	272.31
291.602	271.31
291.833	275.31
292.064	247.31
292.295	270.31
292.526	262.31
292.757	253.31
292.987	247.31
293.218	256.31
293.449	266.31
293.68	273.31
293.91	274.31
294.141	261.31
294.372	261.31
294.603	257.31
294.833	277.31
295.064	265.31
295.295	257.31
295.525	263.31
295.756	270.31
295.987	281.31
296.217	296.31
296.448	310.31
296.679	283.31
296.909	278.31
297.14	266.31
297.37	286.31
297.601	249.31
297.831	271.31
298.062	272.31
298.292	275.31
298.523	265.31
298.753	278.31
298.984	274.31
299.214	280.31
299.445	289.31
299.675	290.31
299.905	305.31
300.136	292.31
300.366	277.31
300.597	282.31
300.827	307.31
301.057	279.31
301.288	305.31
301.518	291.31
301.748	279.31
301.979	299.31
302.209	291.31
302.439	283.31
302.669	294.31
302.9	294.31
303.13	310.31
303.36	286.31
303.59	302.31
303.82	318.31
304.051	283.31
304.281	284.31
304.511	313.31
304.741	310.31
304.971	300.31
305.201	294.31
305.431	306.31
305.661	294.31
305.891	291.31
306.121	299.31
306.352	302.31
306.582	303.31
306.812	306.31
307.042	303.31
307.272	294.31
307.502	293.31
307.731	300.31
307.961	302.31
308.191	304.31
308.421	332.31
308.651	303.31
308.881	301.31
309.111	309.31
309.341	292.31
309.571	332.31
309.8	339.31
310.03	341.31
310.26	345.31
310.49	352.31
310.72	349.31
310.949	360.31
311.179	352.31
311.409	348.31
311.639	355.31
311.868	359.31
312.098	354.31
312.328	358.31
312.557	361.31
312.787	351.31
313.017	390.31
313.246	347.31
313.476	344.31
313.706	328.31
313.935	342.31
314.165	355.31
314.394	360.31
314.624	364.31
314.853	360.31
315.083	364.31
315.312	337.31
315.542	349.31
315.771	344.31
316.001	344.31
316.23	339.31
316.46	328.31
316.689	329.31
316.919	334.31
317.148	349.31
317.377	368.31
317.607	350.31
317.836	334.31
318.065	335.31
318.295	341.31
318.524	307.31
318.753	328.31
318.983	333.31
319.212	344.31
319.441	355.31
319.67	375.31
319.9	356.31
320.129	348.31
320.358	340.31
320.587	359.31
320.816	375.31
321.046	360.31
321.275	357.31
321.504	371.31
321.733	384.31
321.962	369.31
322.191	401.31
322.42	393.31
322.649	400.31
322.878	415.31
323.108	423.31
323.337	437.31
323.566	473.31
323.795	527.31
324.024	544.31
324.253	705.31
324.482	987.31
324.71	1486.31
324.939	2028.31
325.168	1593.31
325.397	887.31
325.626	621.31
325.855	501.31
326.084	462.31
326.313	459.31
326.542	458.31
326.77	522.31
326.999	660.31
327.228	901.31
327.457	1291.31
327.686	1446.31
327.914	1009.31
328.143	655.31
328.372	587.31
328.6	564.31
328.829	529.31
329.058	558.31
329.287	557.31
329.515	492.31
329.744	444.31
329.972	470.31
330.201	486.31
330.43	516.31
330.658	555.31
330.887	573.31
331.115	562.31
331.344	486.31
331.572	470.31
331.801	445.31
332.03	431.31
332.258	445.31
332.486	418.31
332.715	403.31
332.943	401.31
333.172	402.31
333.4	412.31
333.629	418.31
333.857	437.31
334.085	446.31
334.314	423.31
334.542	445.31
334.771	457.31
334.999	442.31
335.227	396.31
335.455	434.31
335.684	387.31
335.912	397.31
336.14	401.31
336.369	412.31
336.597	410.31
336.825	390.31
337.053	423.31
337.281	400.31
337.51	387.31
337.738	413.31
337.966	395.31
338.194	395.31
338.422	396.31
338.65	401.31
338.878	385.31
339.106	383.31
339.334	385.31
339.562	366.31
339.79	387.31
340.018	393.31
340.246	387.31
340.474	408.31
340.702	381.31
340.93	392.31
341.158	387.31
341.386	377.31
341.614	382.31
341.842	382.31
342.07	384.31
342.298	357.31
342.526	375.31
342.754	371.31
342.981	369.31
343.209	347.31
343.437	365.31
343.665	379.31
343.893	378.31
344.12	390.31
344.348	389.31
344.576	383.31
344.804	399.31
345.031	409.31
345.259	400.31
345.487	398.31
345.714	394.31
345.942	381.31
346.17	382.31
346.397	386.31
346.625	381.31
346.853	371.31
347.08	382.31
347.308	387.31
347.535	397.31
347.763	383.31
347.99	379.31
348.218	412.31
348.445	388.31
348.673	398.31
348.9	387.31
349.128	378.31
349.355	365.31
349.583	381.31
349.81	378.31
350.037	357.31
350.265	348.31
350.492	369.31
350.72	362.31
350.947	382.31
351.174	405.31
351.402	389.31
351.629	405.31
351.856	390.31
352.083	401.31
352.311	389.31
352.538	373.31
352.765	401.31
352.992	383.31
353.22	380.31
353.447	387.31
353.674	348.31
353.901	358.31
354.128	331.31
354.355	345.31
354.583	352.31
354.81	359.31
355.037	348.31
355.264	345.31
355.491	341.31
355.718	347.31
355.945	355.31
356.172	334.31
356.399	351.31
356.626	337.31
356.853	317.31
357.08	339.31
357.307	342.31
357.534	348.31
357.761	342.31
357.988	343.31
358.215	361.31
358.441	351.31
358.668	359.31
358.895	351.31
359.122	357.31
359.349	362.31
359.576	388.31
359.802	395.31
360.029	429.31
360.256	420.31
360.483	419.31
360.709	387.31
360.936	387.31
361.163	373.31
361.39	382.31
361.616	373.31
361.843	379.31
362.07	411.31
362.296	380.31
362.523	377.31
362.749	385.31
362.976	361.31
363.203	344.31
363.429	359.31
363.656	379.31
363.882	353.31
364.109	355.31
364.335	357.31
364.562	348.31
364.788	379.31
365.015	349.31
365.241	353.31
365.468	379.31
365.694	361.31
365.92	359.31
366.147	363.31
366.373	343.31
366.599	340.31
366.826	327.31
367.052	352.31
367.278	358.31
367.505	363.31
367.731	350.31
367.957	341.31
368.184	362.31
368.41	377.31
368.636	355.31
368.862	379.31
369.089	372.31
369.315	341.31
369.541	345.31
369.767	351.31
369.993	364.31
370.219	362.31
370.445	358.31
370.672	354.31
370.898	349.31
371.124	359.31
371.35	347.31
371.576	342.31
371.802	366.31
372.028	338.31
372.254	343.31
372.48	338.31
372.706	356.31
372.932	363.31
373.158	358.31
373.384	334.31
373.61	357.31
373.835	341.31
374.061	359.31
374.287	346.31
374.513	367.31
374.739	350.31
374.965	358.31
375.191	358.31
375.416	356.31
375.642	339.31
375.868	336.31
376.094	361.31
376.319	382.31
376.545	345.31
376.771	343.31
376.997	310.31
377.222	353.31
377.448	339.31
377.674	354.31
377.899	338.31
378.125	356.31
378.35	350.31
378.576	347.31
378.802	339.31
379.027	356.31
379.253	341.31
379.478	321.31
379.704	346.31
379.929	332.31
380.155	347.31
380.38	341.31
380.606	341.31
380.831	331.31
381.057	358.31
381.282	351.31
381.507	353.31
381.733	358.31
381.958	359.31
382.184	359.31
382.409	351.31
382.634	359.31
382.86	354.31
383.085	363.31
383.31	357.31
383.535	369.31
383.761	347.31
383.986	336.31
384.211	348.31
384.436	364.31
384.662	377.31
384.887	365.31
385.112	360.31
385.337	361.31
385.562	380.31
385.787	373.31
386.013	388.31
386.238	394.31
386.463	373.31
386.688	374.31
386.913	347.31
387.138	374.31
387.363	376.31
387.588	361.31
387.813	369.31
388.038	365.31
388.263	381.31
388.488	398.31
388.713	373.31
388.938	361.31
389.163	370.31
389.387	381.31
389.612	384.31
389.837	369.31
390.062	377.31
390.287	366.31
390.512	379.31
390.736	369.31
390.961	376.31
391.186	371.31
391.411	378.31
391.636	372.31
391.86	377.31
392.085	364.31
392.31	362.31
392.534	373.31
392.759	369.31
392.984	360.31
393.208	376.31
393.433	374.31
393.658	390.31
393.882	383.31
394.107	383.31
394.331	389.31
394.556	372.31
394.78	387.31
395.005	377.31
395.229	381.31
395.454	381.31
395.678	381.31
395.903	398.31
396.127	411.31
396.352	390.31
396.576	394.31
396.801	379.31
397.025	391.31
397.249	402.31
397.474	390.31
397.698	387.31
397.922	400.31
398.147	418.31
398.371	408.31
398.595	411.31
398.82	392.31
399.044	419.31
399.268	427.31
399.492	458.31
399.717	463.31
399.941	490.31
400.165	490.31
400.389	484.31
400.613	465.31
400.837	451.31
401.062	435.31
401.286	406.31
401.51	416.31
401.734	412.31
401.958	414.31
402.182	427.31
402.406	430.31
402.63	434.31
402.854	436.31
403.078	433.31
403.302	434.31
403.526	433.31
403.75	429.31
403.974	427.31
404.198	435.31
404.422	455.31
404.645	452.31
404.869	455.31
405.093	462.31
405.317	465.31
405.541	489.31
405.765	462.31
405.988	460.31
406.212	469.31
406.436	485.31
406.66	506.31
406.883	469.31
407.107	484.31
407.331	516.31
407.555	569.31
407.778	557.31
408.002	527.31
408.226	490.31
408.449	483.31
408.673	471.31
408.896	491.31
409.12	539.31
409.344	494.31
409.567	460.31
409.791	452.31
410.014	454.31
410.238	446.31
410.461	450.31
410.685	444.31
410.908	457.31
411.132	466.31
411.355	494.31
411.578	487.31
411.802	444.31
412.025	438.31
412.249	449.31
412.472	426.31
412.695	460.31
412.919	452.31
413.142	418.31
413.365	413.31
413.589	437.31
413.812	412.31
414.035	417.31
414.258	425.31
414.482	400.31
414.705	415.31
414.928	406.31
415.151	399.31
415.374	409.31
415.597	391.31
415.821	415.31
416.044	421.31
416.267	436.31
416.49	417.31
416.713	403.31
416.936	405.31
417.159	408.31
417.382	403.31
417.605	408.31
417.828	425.31
418.051	430.31
418.274	434.31
418.497	399.31
418.72	415.31
418.943	388.31
419.166	446.31
419.389	422.31
419.611	436.31
419.834	412.31
420.057	415.31
420.28	421.31
420.503	443.31
420.726	451.31
420.948	451.31
421.171	476.31
421.394	491.31
421.617	445.31
421.839	430.31
422.062	415.31
422.285	445.31
422.507	500.31
422.73	538.31
422.953	533.31
423.175	460.31
423.398	462.31
423.621	451.31
423.843	445.31
424.066	487.31
424.288	456.31
424.511	458.31
424.733	522.31
424.956	599.31
425.178	560.31
425.401	545.31
425.623	567.31
425.846	490.31
426.068	449.31
426.291	469.31
426.513	473.31
426.735	481.31
426.958	502.31
427.18	603.31
427.402	681.31
427.625	726.31
427.847	649.31
428.069	588.31
428.292	501.31
428.514	471.31
428.736	447.31
428.958	466.31
429.181	446.31
429.403	439.31
429.625	441.31
429.847	483.31
430.069	527.31
430.292	520.31
430.514	442.31
430.736	440.31
430.958	418.31
431.18	419.31
431.402	427.31
431.624	404.31
431.846	396.31
432.068	397.31
432.29	435.31
432.512	400.31
432.734	421.31
432.956	420.31
433.178	420.31
433.4	418.31
433.622	405.31
433.844	398.31
434.066	429.31
434.287	405.31
434.509	417.31
434.731	419.31
434.953	403.31
435.175	427.31
435.397	434.31
435.618	459.31
435.84	491.31
436.062	557.31
436.284	618.31
436.505	517.31
436.727	473.31
436.949	441.31
437.17	446.31
437.392	436.31
437.614	447.31
437.835	500.31
438.057	565.31
438.278	625.31
438.5	642.31
438.721	656.31
438.943	641.31
439.165	517.31
439.386	472.31
439.608	475.31
439.829	477.31
440.05	483.31
440.272	527.31
440.493	498.31
440.715	474.31
440.936	442.31
441.158	443.31
441.379	454.31
441.6	434.31
441.822	456.31
442.043	503.31
442.264	557.31
442.486	596.31
442.707	515.31
442.928	480.31
443.149	497.31
443.371	503.31
443.592	534.31
443.813	614.31
444.034	626.31
444.255	549.31
444.476	490.31
444.698	474.31
444.919	451.31
445.14	553.31
445.361	525.31
445.582	525.31
445.803	549.31
446.024	647.31
446.245	635.31
446.466	598.31
446.687	503.31
446.908	469.31
447.129	455.31
447.35	436.31
447.571	424.31
447.792	422.31
448.013	450.31
448.234	451.31
448.455	507.31
448.675	596.31
448.896	656.31
449.117	564.31
449.338	549.31
449.559	632.31
449.779	673.31
450	567.31
450.221	469.31
450.442	442.31
450.662	427.31
450.883	442.31
451.104	490.31
451.324	454.31
451.545	413.31
451.766	396.31
451.986	403.31
452.207	385.31
452.428	377.31
452.648	406.31
452.869	403.31
453.089	410.31
453.31	411.31
453.53	390.31
453.751	379.31
453.971	402.31
454.192	404.31
454.412	395.31
454.633	391.31
454.853	380.31
455.073	388.31
455.294	434.31
455.514	458.31
455.734	449.31
455.955	382.31
456.175	393.31
456.395	379.31
456.616	365.31
456.836	352.31
457.056	348.31
457.276	370.31
457.497	344.31
457.717	357.31
457.937	369.31
458.157	373.31
458.377	370.31
458.598	427.31
458.818	462.31
459.038	521.31
459.258	519.31
459.478	453.31
459.698	431.31
459.918	396.31
460.138	405.31
460.358	409.31
460.578	408.31
460.798	409.31
461.018	406.31
461.238	406.31
461.458	384.31
461.678	421.31
461.898	408.31
462.118	408.31
462.338	391.31
462.558	431.31
462.777	411.31
462.997	430.31
463.217	437.31
463.437	428.31
463.657	433.31
463.876	444.31
464.096	418.31
464.316	428.31
464.536	438.31
464.755	457.31
464.975	437.31
465.195	485.31
465.414	596.31
465.634	497.31
465.854	446.31
466.073	409.31
466.293	403.31
466.512	390.31
466.732	386.31
466.951	392.31
467.171	394.31
467.391	408.31
467.61	414.31
467.829	408.31
468.049	437.31
468.268	400.31
468.488	402.31
468.707	385.31
468.927	386.31
469.146	391.31
469.365	398.31
469.585	378.31
469.804	394.31
470.023	395.31
470.243	418.31
470.462	410.31
470.681	433.31
470.901	424.31
471.12	392.31
471.339	399.31
471.558	403.31
471.777	395.31
471.997	403.31
472.216	409.31
472.435	427.31
472.654	413.31
472.873	416.31
473.092	389.31
473.311	387.31
473.53	371.31
473.749	395.31
473.968	441.31
474.187	518.31
474.406	535.31
474.625	442.31
474.844	399.31
475.063	413.31
475.282	390.31
475.501	412.31
475.72	422.31
475.939	402.31
476.158	421.31
476.377	414.31
476.596	429.31
476.814	420.31
477.033	423.31
477.252	450.31
477.471	417.31
477.69	423.31
477.908	424.31
478.127	441.31
478.346	417.31
478.564	425.31
478.783	443.31
479.002	459.31
479.22	463.31
479.439	471.31
479.658	495.31
479.876	499.31
480.095	503.31
480.313	525.31
480.532	498.31
480.751	483.31
480.969	497.31
481.188	541.31
481.406	553.31
481.624	523.31
481.843	490.31
482.061	488.31
482.28	470.31
482.498	446.31
482.717	452.31
482.935	433.31
483.153	457.31
483.372	475.31
483.59	460.31
483.808	453.31
484.027	471.31
484.245	475.31
484.463	467.31
484.681	468.31
484.9	471.31
485.118	483.31
485.336	459.31
485.554	485.31
485.772	464.31
485.99	482.31
486.209	475.31
486.427	522.31
486.645	508.31
486.863	519.31
487.081	504.31
487.299	498.31
487.517	503.31
487.735	488.31
487.953	499.31
488.171	501.31
488.389	505.31
488.607	522.31
488.825	507.31
489.043	515.31
489.261	504.31
489.479	519.31
489.696	500.31
489.914	521.31
490.132	514.31
490.35	527.31
490.568	506.31
490.786	519.31
491.003	547.31
491.221	570.31
491.439	576.31
491.657	591.31
491.874	564.31
492.092	578.31
492.31	575.31
492.527	597.31
492.745	557.31
492.963	568.31
493.18	581.31
493.398	607.31
493.615	587.31
493.833	601.31
494.05	598.31
494.268	599.31
494.485	584.31
494.703	567.31
494.92	587.31
495.138	589.31
495.355	606.31
495.573	596.31
495.79	604.31
496.008	589.31
496.225	590.31
496.442	605.31
496.66	604.31
496.877	599.31
497.094	612.31
497.312	606.31
497.529	614.31
497.746	610.31
497.963	626.31
498.181	622.31
498.398	633.31
498.615	649.31
498.832	632.31
499.049	673.31
499.267	684.31
499.484	705.31
499.701	698.31
499.918	716.31
500.135	759.31
500.352	775.31
500.569	795.31
500.786	784.31
501.003	766.31
501.22	778.31
501.437	740.31
501.654	727.31
501.871	755.31
