Data from 1983.PennyLincolnUp.Lamp.En5.5.200Scan.071819.P1_HRD10591_16-52-50-965.txt Node
Date: Thu Jul 18 16:52:50 EDT 2019
User: cochatt
Spectrometer: HR+D1059
Trigger mode: 1
Integration Time (sec): 1.000000E-1
Scans to average: 1
Electric dark correction enabled: true
Nonlinearity correction enabled: false
Boxcar width: 0
XAxis mode: Wavelengths
Number of Pixels in Spectrum: 2048
>>>>>Begin Spectral Data<<<<<
223.165	-19.69
223.4	-19.69
223.635	-19.69
223.869	-27.69
224.104	-21.69
224.338	-17.69
224.573	-14.69
224.808	-23.69
225.042	-6.69
225.277	3.31
225.511	9.31
225.746	12.31
225.98	15.31
226.215	11.31
226.449	30.31
226.683	13.31
226.918	17.31
227.152	19.31
227.387	30.31
227.621	43.31
227.856	29.31
228.09	44.31
228.324	47.31
228.559	55.31
228.793	69.31
229.027	83.31
229.262	95.31
229.496	97.31
229.73	109.31
229.964	150.31
230.199	135.31
230.433	98.31
230.667	107.31
230.901	105.31
231.136	109.31
231.37	97.31
231.604	115.31
231.838	107.31
232.072	90.31
232.306	109.31
232.541	126.31
232.775	101.31
233.009	104.31
233.243	100.31
233.477	108.31
233.711	103.31
233.945	120.31
234.179	111.31
234.413	112.31
234.647	99.31
234.881	95.31
235.115	115.31
235.349	107.31
235.583	123.31
235.817	116.31
236.051	112.31
236.285	121.31
236.519	121.31
236.753	127.31
236.987	118.31
237.221	177.31
237.455	192.31
237.689	157.31
237.922	121.31
238.156	118.31
238.39	124.31
238.624	109.31
238.858	114.31
239.091	115.31
239.325	120.31
239.559	108.31
239.793	123.31
240.027	118.31
240.26	135.31
240.494	132.31
240.728	122.31
240.961	134.31
241.195	137.31
241.429	120.31
241.662	118.31
241.896	125.31
242.13	119.31
242.363	131.31
242.597	127.31
242.83	118.31
243.064	118.31
243.298	119.31
243.531	132.31
243.765	124.31
243.998	130.31
244.232	133.31
244.465	123.31
244.699	125.31
244.932	125.31
245.166	139.31
245.399	149.31
245.633	129.31
245.866	127.31
246.099	124.31
246.333	140.31
246.566	129.31
246.8	129.31
247.033	152.31
247.266	147.31
247.5	135.31
247.733	147.31
247.966	156.31
248.2	151.31
248.433	162.31
248.666	159.31
248.899	162.31
249.133	190.31
249.366	180.31
249.599	174.31
249.832	156.31
250.066	164.31
250.299	166.31
250.532	177.31
250.765	172.31
250.998	186.31
251.231	205.31
251.465	194.31
251.698	185.31
251.931	181.31
252.164	172.31
252.397	156.31
252.63	171.31
252.863	194.31
253.096	199.31
253.329	208.31
253.562	211.31
253.795	201.31
254.028	185.31
254.261	188.31
254.494	209.31
254.727	237.31
254.96	237.31
255.193	219.31
255.426	241.31
255.659	214.31
255.892	189.31
256.124	197.31
256.357	191.31
256.59	184.31
256.823	193.31
257.056	196.31
257.289	175.31
257.521	183.31
257.754	185.31
257.987	196.31
258.22	176.31
258.452	186.31
258.685	166.31
258.918	197.31
259.151	188.31
259.383	192.31
259.616	192.31
259.849	216.31
260.081	196.31
260.314	218.31
260.547	240.31
260.779	219.31
261.012	221.31
261.244	204.31
261.477	195.31
261.71	191.31
261.942	205.31
262.175	214.31
262.407	202.31
262.64	180.31
262.872	207.31
263.105	186.31
263.337	186.31
263.57	198.31
263.802	188.31
264.035	168.31
264.267	193.31
264.499	187.31
264.732	197.31
264.964	194.31
265.197	191.31
265.429	181.31
265.661	203.31
265.894	187.31
266.126	195.31
266.358	207.31
266.591	169.31
266.823	190.31
267.055	190.31
267.287	195.31
267.52	213.31
267.752	200.31
267.984	197.31
268.216	203.31
268.448	224.31
268.681	203.31
268.913	211.31
269.145	245.31
269.377	244.31
269.609	230.31
269.841	231.31
270.073	236.31
270.306	275.31
270.538	271.31
270.77	267.31
271.002	257.31
271.234	264.31
271.466	278.31
271.698	276.31
271.93	278.31
272.162	278.31
272.394	281.31
272.626	258.31
272.858	244.31
273.09	246.31
273.322	236.31
273.553	253.31
273.785	245.31
274.017	227.31
274.249	227.31
274.481	244.31
274.713	227.31
274.945	231.31
275.176	237.31
275.408	229.31
275.64	249.31
275.872	223.31
276.104	224.31
276.335	229.31
276.567	247.31
276.799	261.31
277.031	241.31
277.262	295.31
277.494	275.31
277.726	289.31
277.957	256.31
278.189	239.31
278.421	241.31
278.652	227.31
278.884	239.31
279.115	230.31
279.347	232.31
279.579	245.31
279.81	219.31
280.042	245.31
280.273	254.31
280.505	239.31
280.736	240.31
280.968	239.31
281.199	228.31
281.431	230.31
281.662	232.31
281.894	236.31
282.125	246.31
282.356	267.31
282.588	261.31
282.819	268.31
283.051	235.31
283.282	227.31
283.513	249.31
283.745	248.31
283.976	253.31
284.207	245.31
284.439	246.31
284.67	244.31
284.901	257.31
285.132	233.31
285.364	249.31
285.595	264.31
285.826	236.31
286.057	256.31
286.288	246.31
286.52	255.31
286.751	246.31
286.982	255.31
287.213	246.31
287.444	266.31
287.675	255.31
287.906	251.31
288.138	261.31
288.369	266.31
288.6	266.31
288.831	261.31
289.062	256.31
289.293	255.31
289.524	265.31
289.755	262.31
289.986	258.31
290.217	246.31
290.448	263.31
290.679	260.31
290.91	259.31
291.141	244.31
291.371	249.31
291.602	265.31
291.833	247.31
292.064	248.31
292.295	249.31
292.526	241.31
292.757	259.31
292.987	258.31
293.218	244.31
293.449	248.31
293.68	244.31
293.91	247.31
294.141	250.31
294.372	255.31
294.603	257.31
294.833	241.31
295.064	247.31
295.295	269.31
295.525	251.31
295.756	255.31
295.987	256.31
296.217	306.31
296.448	297.31
296.679	280.31
296.909	274.31
297.14	275.31
297.37	252.31
297.601	257.31
297.831	257.31
298.062	248.31
298.292	265.31
298.523	260.31
298.753	265.31
298.984	274.31
299.214	273.31
299.445	259.31
299.675	263.31
299.905	280.31
300.136	263.31
300.366	258.31
300.597	285.31
300.827	291.31
301.057	305.31
301.288	284.31
301.518	277.31
301.748	268.31
301.979	276.31
302.209	290.31
302.439	296.31
302.669	284.31
302.9	299.31
303.13	281.31
303.36	283.31
303.59	304.31
303.82	282.31
304.051	294.31
304.281	291.31
304.511	298.31
304.741	285.31
304.971	283.31
305.201	281.31
305.431	283.31
305.661	304.31
305.891	308.31
306.121	295.31
306.352	280.31
306.582	296.31
306.812	276.31
307.042	291.31
307.272	283.31
307.502	295.31
307.731	282.31
307.961	290.31
308.191	293.31
308.421	284.31
308.651	305.31
308.881	291.31
309.111	286.31
309.341	300.31
309.571	313.31
309.8	311.31
310.03	332.31
310.26	336.31
310.49	320.31
310.72	344.31
310.949	346.31
311.179	339.31
311.409	345.31
311.639	333.31
311.868	320.31
312.098	338.31
312.328	329.31
312.557	347.31
312.787	368.31
313.017	354.31
313.246	369.31
313.476	343.31
313.706	337.31
313.935	319.31
314.165	339.31
314.394	357.31
314.624	353.31
314.853	355.31
315.083	331.31
315.312	328.31
315.542	327.31
315.771	324.31
316.001	296.31
316.23	315.31
316.46	327.31
316.689	339.31
316.919	327.31
317.148	341.31
317.377	339.31
317.607	350.31
317.836	341.31
318.065	334.31
318.295	334.31
318.524	335.31
318.753	326.31
318.983	338.31
319.212	350.31
319.441	337.31
319.67	341.31
319.9	336.31
320.129	331.31
320.358	331.31
320.587	337.31
320.816	350.31
321.046	336.31
321.275	346.31
321.504	352.31
321.733	360.31
321.962	368.31
322.191	389.31
322.42	379.31
322.649	385.31
322.878	395.31
323.108	426.31
323.337	427.31
323.566	418.31
323.795	475.31
324.024	515.31
324.253	631.31
324.482	878.31
324.71	1264.31
324.939	1759.31
325.168	1450.31
325.397	792.31
325.626	547.31
325.855	472.31
326.084	454.31
326.313	407.31
326.542	465.31
326.77	491.31
326.999	584.31
327.228	784.31
327.457	1135.31
327.686	1315.31
327.914	885.31
328.143	601.31
328.372	529.31
328.6	513.31
328.829	491.31
329.058	511.31
329.287	511.31
329.515	473.31
329.744	435.31
329.972	419.31
330.201	433.31
330.43	446.31
330.658	486.31
330.887	522.31
331.115	506.31
331.344	434.31
331.572	410.31
331.801	420.31
332.03	423.31
332.258	396.31
332.486	397.31
332.715	384.31
332.943	381.31
333.172	387.31
333.4	402.31
333.629	412.31
333.857	416.31
334.085	379.31
334.314	391.31
334.542	401.31
334.771	400.31
334.999	394.31
335.227	389.31
335.455	393.31
335.684	408.31
335.912	390.31
336.14	383.31
336.369	377.31
336.597	394.31
336.825	389.31
337.053	383.31
337.281	382.31
337.51	394.31
337.738	392.31
337.966	392.31
338.194	384.31
338.422	386.31
338.65	374.31
338.878	388.31
339.106	374.31
339.334	394.31
339.562	364.31
339.79	401.31
340.018	379.31
340.246	385.31
340.474	391.31
340.702	379.31
340.93	364.31
341.158	363.31
341.386	369.31
341.614	370.31
341.842	391.31
342.07	369.31
342.298	372.31
342.526	345.31
342.754	370.31
342.981	354.31
343.209	345.31
343.437	367.31
343.665	379.31
343.893	376.31
344.12	387.31
344.348	377.31
344.576	375.31
344.804	383.31
345.031	387.31
345.259	391.31
345.487	408.31
345.714	387.31
345.942	361.31
346.17	332.31
346.397	356.31
346.625	384.31
346.853	362.31
347.08	351.31
347.308	370.31
347.535	353.31
347.763	380.31
347.99	359.31
348.218	371.31
348.445	361.31
348.673	353.31
348.9	376.31
349.128	371.31
349.355	354.31
349.583	349.31
349.81	355.31
350.037	354.31
350.265	356.31
350.492	354.31
350.72	370.31
350.947	355.31
351.174	369.31
351.402	383.31
351.629	371.31
351.856	366.31
352.083	385.31
352.311	376.31
352.538	384.31
352.765	386.31
352.992	375.31
353.22	354.31
353.447	351.31
353.674	348.31
353.901	357.31
354.128	341.31
354.355	332.31
354.583	352.31
354.81	342.31
355.037	321.31
355.264	343.31
355.491	350.31
355.718	332.31
355.945	326.31
356.172	326.31
356.399	328.31
356.626	338.31
356.853	316.31
357.08	327.31
357.307	341.31
357.534	317.31
357.761	340.31
357.988	343.31
358.215	319.31
358.441	340.31
358.668	343.31
358.895	339.31
359.122	334.31
359.349	353.31
359.576	363.31
359.802	388.31
360.029	415.31
360.256	407.31
360.483	401.31
360.709	376.31
360.936	371.31
361.163	373.31
361.39	373.31
361.616	374.31
361.843	347.31
362.07	362.31
362.296	378.31
362.523	367.31
362.749	347.31
362.976	335.31
363.203	351.31
363.429	356.31
363.656	349.31
363.882	345.31
364.109	352.31
364.335	341.31
364.562	355.31
364.788	352.31
365.015	344.31
365.241	337.31
365.468	356.31
365.694	358.31
365.92	349.31
366.147	365.31
366.373	344.31
366.599	353.31
366.826	339.31
367.052	351.31
367.278	347.31
367.505	336.31
367.731	339.31
367.957	360.31
368.184	351.31
368.41	350.31
368.636	361.31
368.862	356.31
369.089	350.31
369.315	340.31
369.541	336.31
369.767	352.31
369.993	321.31
370.219	336.31
370.445	352.31
370.672	338.31
370.898	352.31
371.124	339.31
371.35	318.31
371.576	339.31
371.802	342.31
372.028	338.31
372.254	348.31
372.48	330.31
372.706	357.31
372.932	339.31
373.158	341.31
373.384	349.31
373.61	354.31
373.835	361.31
374.061	339.31
374.287	347.31
374.513	354.31
374.739	341.31
374.965	348.31
375.191	356.31
375.416	324.31
375.642	353.31
375.868	351.31
376.094	349.31
376.319	343.31
376.545	345.31
376.771	333.31
376.997	326.31
377.222	354.31
377.448	333.31
377.674	337.31
377.899	337.31
378.125	308.31
378.35	327.31
378.576	326.31
378.802	333.31
379.027	340.31
379.253	339.31
379.478	318.31
379.704	354.31
379.929	333.31
380.155	321.31
380.38	340.31
380.606	325.31
380.831	319.31
381.057	347.31
381.282	350.31
381.507	327.31
381.733	348.31
381.958	338.31
382.184	342.31
382.409	340.31
382.634	363.31
382.86	337.31
383.085	346.31
383.31	349.31
383.535	332.31
383.761	360.31
383.986	347.31
384.211	359.31
384.436	363.31
384.662	351.31
384.887	377.31
385.112	354.31
385.337	357.31
385.562	348.31
385.787	371.31
386.013	370.31
386.238	360.31
386.463	383.31
386.688	361.31
386.913	343.31
387.138	374.31
387.363	351.31
387.588	366.31
387.813	377.31
388.038	355.31
388.263	383.31
388.488	387.31
388.713	360.31
388.938	368.31
389.163	379.31
389.387	379.31
389.612	369.31
389.837	367.31
390.062	354.31
390.287	373.31
390.512	370.31
390.736	375.31
390.961	357.31
391.186	376.31
391.411	348.31
391.636	386.31
391.86	401.31
392.085	371.31
392.31	381.31
392.534	394.31
392.759	395.31
392.984	384.31
393.208	376.31
393.433	370.31
393.658	343.31
393.882	358.31
394.107	368.31
394.331	388.31
394.556	364.31
394.78	375.31
395.005	356.31
395.229	353.31
395.454	389.31
395.678	368.31
395.903	389.31
396.127	387.31
396.352	401.31
396.576	401.31
396.801	364.31
397.025	387.31
397.249	377.31
397.474	383.31
397.698	396.31
397.922	396.31
398.147	424.31
398.371	405.31
398.595	391.31
398.82	389.31
399.044	412.31
399.268	417.31
399.492	465.31
399.717	458.31
399.941	492.31
400.165	481.31
400.389	479.31
400.613	468.31
400.837	458.31
401.062	421.31
401.286	408.31
401.51	410.31
401.734	407.31
401.958	421.31
402.182	433.31
402.406	431.31
402.63	456.31
402.854	426.31
403.078	430.31
403.302	437.31
403.526	439.31
403.75	429.31
403.974	428.31
404.198	427.31
404.422	439.31
404.645	422.31
404.869	410.31
405.093	439.31
405.317	432.31
405.541	460.31
405.765	449.31
405.988	444.31
406.212	455.31
406.436	481.31
406.66	488.31
406.883	452.31
407.107	487.31
407.331	506.31
407.555	553.31
407.778	567.31
408.002	490.31
408.226	480.31
408.449	479.31
408.673	464.31
408.896	489.31
409.12	515.31
409.344	495.31
409.567	459.31
409.791	411.31
410.014	422.31
410.238	443.31
410.461	450.31
410.685	439.31
410.908	450.31
411.132	471.31
411.355	486.31
411.578	458.31
411.802	433.31
412.025	436.31
412.249	421.31
412.472	415.31
412.695	423.31
412.919	407.31
413.142	421.31
413.365	434.31
413.589	432.31
413.812	398.31
414.035	419.31
414.258	420.31
414.482	404.31
414.705	411.31
414.928	403.31
415.151	391.31
415.374	390.31
415.597	417.31
415.821	391.31
416.044	403.31
416.267	398.31
416.49	399.31
416.713	397.31
416.936	404.31
417.159	410.31
417.382	411.31
417.605	390.31
417.828	423.31
418.051	412.31
418.274	420.31
418.497	418.31
418.72	424.31
418.943	418.31
419.166	409.31
419.389	434.31
419.611	449.31
419.834	431.31
420.057	437.31
420.28	406.31
420.503	427.31
420.726	415.31
420.948	437.31
421.171	472.31
421.394	478.31
421.617	443.31
421.839	419.31
422.062	427.31
422.285	440.31
422.507	490.31
422.73	541.31
422.953	501.31
423.175	473.31
423.398	439.31
423.621	439.31
423.843	449.31
424.066	475.31
424.288	469.31
424.511	469.31
424.733	486.31
424.956	575.31
425.178	553.31
425.401	528.31
425.623	571.31
425.846	481.31
426.068	450.31
426.291	442.31
426.513	441.31
426.735	464.31
426.958	489.31
427.18	564.31
427.402	647.31
427.625	707.31
427.847	617.31
428.069	532.31
428.292	481.31
428.514	435.31
428.736	451.31
428.958	427.31
429.181	411.31
429.403	412.31
429.625	441.31
429.847	457.31
430.069	507.31
430.292	526.31
430.514	426.31
430.736	420.31
430.958	401.31
431.18	417.31
431.402	413.31
431.624	387.31
431.846	389.31
432.068	395.31
432.29	398.31
432.512	417.31
432.734	401.31
432.956	411.31
433.178	431.31
433.4	425.31
433.622	393.31
433.844	404.31
434.066	409.31
434.287	409.31
434.509	398.31
434.731	403.31
434.953	422.31
435.175	441.31
435.397	449.31
435.618	451.31
435.84	506.31
436.062	543.31
436.284	582.31
436.505	515.31
436.727	469.31
436.949	440.31
437.17	435.31
437.392	434.31
437.614	453.31
437.835	466.31
438.057	551.31
438.278	608.31
438.5	603.31
438.721	652.31
438.943	629.31
439.165	526.31
439.386	481.31
439.608	465.31
439.829	495.31
440.05	474.31
440.272	540.31
440.493	482.31
440.715	466.31
440.936	439.31
441.158	411.31
441.379	414.31
441.6	439.31
441.822	460.31
442.043	489.31
442.264	567.31
442.486	564.31
442.707	513.31
442.928	471.31
443.149	473.31
443.371	498.31
443.592	506.31
443.813	585.31
444.034	630.31
444.255	515.31
444.476	473.31
444.698	462.31
444.919	459.31
445.14	556.31
445.361	509.31
445.582	488.31
445.803	559.31
446.024	617.31
446.245	610.31
446.466	557.31
446.687	498.31
446.908	475.31
447.129	439.31
447.35	440.31
447.571	421.31
447.792	412.31
448.013	425.31
448.234	452.31
448.455	500.31
448.675	587.31
448.896	641.31
449.117	573.31
449.338	541.31
449.559	607.31
449.779	684.31
450	567.31
450.221	457.31
450.442	420.31
450.662	423.31
450.883	438.31
451.104	435.31
451.324	437.31
451.545	407.31
451.766	386.31
451.986	380.31
452.207	385.31
452.428	385.31
452.648	377.31
452.869	371.31
453.089	403.31
453.31	410.31
453.53	393.31
453.751	373.31
453.971	377.31
454.192	409.31
454.412	396.31
454.633	389.31
454.853	376.31
455.073	377.31
455.294	396.31
455.514	444.31
455.734	444.31
455.955	385.31
456.175	367.31
456.395	367.31
456.616	355.31
456.836	349.31
457.056	358.31
457.276	347.31
457.497	369.31
457.717	363.31
457.937	377.31
458.157	369.31
458.377	371.31
458.598	370.31
458.818	440.31
459.038	518.31
459.258	515.31
459.478	439.31
459.698	412.31
459.918	393.31
460.138	395.31
460.358	411.31
460.578	389.31
460.798	389.31
461.018	396.31
461.238	403.31
461.458	400.31
461.678	394.31
461.898	406.31
462.118	406.31
462.338	411.31
462.558	410.31
462.777	414.31
462.997	429.31
463.217	445.31
463.437	452.31
463.657	424.31
463.876	420.31
464.096	418.31
464.316	421.31
464.536	448.31
464.755	431.31
464.975	434.31
465.195	466.31
465.414	548.31
465.634	475.31
465.854	432.31
466.073	415.31
466.293	411.31
466.512	393.31
466.732	379.31
466.951	392.31
467.171	384.31
467.391	393.31
467.61	415.31
467.829	407.31
468.049	380.31
468.268	412.31
468.488	392.31
468.707	364.31
468.927	371.31
469.146	375.31
469.365	377.31
469.585	392.31
469.804	387.31
470.023	392.31
470.243	384.31
470.462	391.31
470.681	430.31
470.901	406.31
471.12	400.31
471.339	385.31
471.558	389.31
471.777	415.31
471.997	380.31
472.216	377.31
472.435	406.31
472.654	400.31
472.873	369.31
473.092	379.31
473.311	377.31
473.53	380.31
473.749	395.31
473.968	433.31
474.187	513.31
474.406	535.31
474.625	425.31
474.844	392.31
475.063	394.31
475.282	387.31
475.501	402.31
475.72	406.31
475.939	419.31
476.158	403.31
476.377	417.31
476.596	394.31
476.814	431.31
477.033	435.31
477.252	413.31
477.471	410.31
477.69	431.31
477.908	419.31
478.127	435.31
478.346	411.31
478.564	425.31
478.783	433.31
479.002	437.31
479.22	465.31
479.439	449.31
479.658	465.31
479.876	492.31
480.095	463.31
480.313	490.31
480.532	488.31
480.751	440.31
480.969	457.31
481.188	492.31
481.406	487.31
481.624	477.31
481.843	463.31
482.061	453.31
482.28	449.31
482.498	454.31
482.717	440.31
482.935	471.31
483.153	441.31
483.372	460.31
483.59	469.31
483.808	442.31
484.027	446.31
484.245	437.31
484.463	444.31
484.681	434.31
484.9	460.31
485.118	475.31
485.336	459.31
485.554	455.31
485.772	475.31
485.99	479.31
486.209	483.31
486.427	469.31
486.645	504.31
486.863	503.31
487.081	502.31
487.299	505.31
487.517	491.31
487.735	469.31
487.953	491.31
488.171	478.31
488.389	483.31
488.607	479.31
488.825	517.31
489.043	492.31
489.261	501.31
489.479	505.31
489.696	481.31
489.914	500.31
490.132	513.31
490.35	497.31
490.568	500.31
490.786	547.31
491.003	517.31
491.221	525.31
491.439	555.31
491.657	523.31
491.874	559.31
492.092	567.31
492.31	550.31
492.527	556.31
492.745	572.31
492.963	591.31
493.18	545.31
493.398	556.31
493.615	555.31
493.833	570.31
494.05	572.31
494.268	575.31
494.485	587.31
494.703	582.31
494.92	590.31
495.138	585.31
495.355	580.31
495.573	585.31
495.79	590.31
496.008	605.31
496.225	594.31
496.442	583.31
496.66	590.31
496.877	583.31
497.094	593.31
497.312	591.31
497.529	596.31
497.746	628.31
497.963	599.31
498.181	633.31
498.398	637.31
498.615	634.31
498.832	649.31
499.049	645.31
499.267	677.31
499.484	674.31
499.701	697.31
499.918	727.31
500.135	742.31
500.352	782.31
500.569	778.31
500.786	796.31
501.003	764.31
501.22	758.31
501.437	723.31
501.654	706.31
501.871	722.31
502.088	690.31
