Data from 1983.PennyLincolnUp.Lamp.En5.5.200Scan.071819.P1_HRD10591_16-55-17-968.txt Node
Date: Thu Jul 18 16:55:17 EDT 2019
User: cochatt
Spectrometer: HR+D1059
Trigger mode: 1
Integration Time (sec): 1.000000E-1
Scans to average: 1
Electric dark correction enabled: true
Nonlinearity correction enabled: false
Boxcar width: 0
XAxis mode: Wavelengths
Number of Pixels in Spectrum: 2048
>>>>>Begin Spectral Data<<<<<
223.165	-20.56
223.4	-20.56
223.635	-20.56
223.869	-6.56
224.104	-10.56
224.338	-21.56
224.573	-18.56
224.808	-27.56
225.042	-3.56
225.277	-3.56
225.511	16.44
225.746	-5.56
225.98	17.44
226.215	5.44
226.449	15.44
226.683	21.44
226.918	21.44
227.152	20.44
227.387	37.44
227.621	42.44
227.856	47.44
228.09	38.44
228.324	47.44
228.559	76.44
228.793	73.44
229.027	83.44
229.262	96.44
229.496	100.44
229.73	116.44
229.964	149.44
230.199	108.44
230.433	115.44
230.667	128.44
230.901	113.44
231.136	118.44
231.37	118.44
231.604	114.44
231.838	111.44
232.072	116.44
232.306	105.44
232.541	104.44
232.775	97.44
233.009	103.44
233.243	119.44
233.477	129.44
233.711	96.44
233.945	121.44
234.179	122.44
234.413	116.44
234.647	110.44
234.881	100.44
235.115	104.44
235.349	116.44
235.583	118.44
235.817	117.44
236.051	127.44
236.285	99.44
236.519	118.44
236.753	127.44
236.987	143.44
237.221	179.44
237.455	218.44
237.689	183.44
237.922	143.44
238.156	137.44
238.39	126.44
238.624	125.44
238.858	129.44
239.091	131.44
239.325	122.44
239.559	127.44
239.793	137.44
240.027	144.44
240.26	135.44
240.494	145.44
240.728	142.44
240.961	136.44
241.195	141.44
241.429	143.44
241.662	124.44
241.896	133.44
242.13	135.44
242.363	124.44
242.597	131.44
242.83	118.44
243.064	127.44
243.298	112.44
243.531	131.44
243.765	127.44
243.998	136.44
244.232	133.44
244.465	135.44
244.699	144.44
244.932	139.44
245.166	125.44
245.399	156.44
245.633	133.44
245.866	153.44
246.099	135.44
246.333	146.44
246.566	144.44
246.8	151.44
247.033	133.44
247.266	153.44
247.5	149.44
247.733	169.44
247.966	167.44
248.2	163.44
248.433	166.44
248.666	179.44
248.899	189.44
249.133	183.44
249.366	190.44
249.599	185.44
249.832	172.44
250.066	161.44
250.299	165.44
250.532	198.44
250.765	211.44
250.998	214.44
251.231	214.44
251.465	204.44
251.698	199.44
251.931	189.44
252.164	203.44
252.397	182.44
252.63	195.44
252.863	171.44
253.096	195.44
253.329	204.44
253.562	198.44
253.795	198.44
254.028	205.44
254.261	206.44
254.494	220.44
254.727	243.44
254.96	265.44
255.193	266.44
255.426	246.44
255.659	217.44
255.892	234.44
256.124	245.44
256.357	237.44
256.59	231.44
256.823	245.44
257.056	230.44
257.289	205.44
257.521	204.44
257.754	200.44
257.987	201.44
258.22	206.44
258.452	180.44
258.685	186.44
258.918	197.44
259.151	197.44
259.383	207.44
259.616	207.44
259.849	219.44
260.081	216.44
260.314	226.44
260.547	251.44
260.779	240.44
261.012	227.44
261.244	230.44
261.477	222.44
261.71	208.44
261.942	217.44
262.175	215.44
262.407	219.44
262.64	215.44
262.872	216.44
263.105	199.44
263.337	199.44
263.57	195.44
263.802	185.44
264.035	183.44
264.267	192.44
264.499	191.44
264.732	183.44
264.964	189.44
265.197	204.44
265.429	203.44
265.661	198.44
265.894	207.44
266.126	191.44
266.358	208.44
266.591	210.44
266.823	217.44
267.055	206.44
267.287	211.44
267.52	215.44
267.752	215.44
267.984	203.44
268.216	208.44
268.448	210.44
268.681	221.44
268.913	226.44
269.145	245.44
269.377	250.44
269.609	245.44
269.841	256.44
270.073	248.44
270.306	274.44
270.538	291.44
270.77	287.44
271.002	280.44
271.234	276.44
271.466	271.44
271.698	295.44
271.93	299.44
272.162	295.44
272.394	296.44
272.626	287.44
272.858	280.44
273.09	272.44
273.322	257.44
273.553	254.44
273.785	260.44
274.017	243.44
274.249	259.44
274.481	270.44
274.713	252.44
274.945	240.44
275.176	259.44
275.408	240.44
275.64	246.44
275.872	239.44
276.104	240.44
276.335	229.44
276.567	237.44
276.799	274.44
277.031	291.44
277.262	298.44
277.494	293.44
277.726	266.44
277.957	266.44
278.189	254.44
278.421	263.44
278.652	259.44
278.884	243.44
279.115	263.44
279.347	259.44
279.579	246.44
279.81	264.44
280.042	260.44
280.273	273.44
280.505	256.44
280.736	253.44
280.968	262.44
281.199	266.44
281.431	259.44
281.662	247.44
281.894	253.44
282.125	246.44
282.356	261.44
282.588	291.44
282.819	293.44
283.051	260.44
283.282	266.44
283.513	266.44
283.745	273.44
283.976	272.44
284.207	263.44
284.439	283.44
284.67	244.44
284.901	259.44
285.132	255.44
285.364	262.44
285.595	270.44
285.826	254.44
286.057	265.44
286.288	253.44
286.52	268.44
286.751	271.44
286.982	241.44
287.213	249.44
287.444	269.44
287.675	272.44
287.906	302.44
288.138	285.44
288.369	283.44
288.6	269.44
288.831	276.44
289.062	272.44
289.293	277.44
289.524	267.44
289.755	267.44
289.986	279.44
290.217	268.44
290.448	273.44
290.679	275.44
290.91	269.44
291.141	258.44
291.371	267.44
291.602	265.44
291.833	259.44
292.064	270.44
292.295	252.44
292.526	263.44
292.757	269.44
292.987	255.44
293.218	257.44
293.449	272.44
293.68	255.44
293.91	253.44
294.141	262.44
294.372	252.44
294.603	276.44
294.833	274.44
295.064	280.44
295.295	271.44
295.525	256.44
295.756	291.44
295.987	267.44
296.217	328.44
296.448	309.44
296.679	291.44
296.909	269.44
297.14	272.44
297.37	283.44
297.601	279.44
297.831	275.44
298.062	284.44
298.292	268.44
298.523	288.44
298.753	277.44
298.984	267.44
299.214	278.44
299.445	288.44
299.675	291.44
299.905	266.44
300.136	280.44
300.366	281.44
300.597	289.44
300.827	298.44
301.057	295.44
301.288	299.44
301.518	311.44
301.748	302.44
301.979	297.44
302.209	302.44
302.439	310.44
302.669	313.44
302.9	307.44
303.13	304.44
303.36	307.44
303.59	296.44
303.82	321.44
304.051	313.44
304.281	289.44
304.511	295.44
304.741	300.44
304.971	299.44
305.201	294.44
305.431	304.44
305.661	317.44
305.891	317.44
306.121	317.44
306.352	308.44
306.582	285.44
306.812	307.44
307.042	315.44
307.272	308.44
307.502	295.44
307.731	313.44
307.961	301.44
308.191	296.44
308.421	309.44
308.651	315.44
308.881	299.44
309.111	309.44
309.341	330.44
309.571	328.44
309.8	347.44
310.03	351.44
310.26	334.44
310.49	348.44
310.72	352.44
310.949	379.44
311.179	374.44
311.409	326.44
311.639	337.44
311.868	367.44
312.098	344.44
312.328	355.44
312.557	373.44
312.787	389.44
313.017	384.44
313.246	377.44
313.476	350.44
313.706	368.44
313.935	360.44
314.165	362.44
314.394	378.44
314.624	380.44
314.853	377.44
315.083	351.44
315.312	352.44
315.542	337.44
315.771	346.44
316.001	341.44
316.23	347.44
316.46	355.44
316.689	339.44
316.919	351.44
317.148	366.44
317.377	364.44
317.607	357.44
317.836	367.44
318.065	341.44
318.295	363.44
318.524	348.44
318.753	357.44
318.983	332.44
319.212	382.44
319.441	379.44
319.67	355.44
319.9	365.44
320.129	354.44
320.358	353.44
320.587	359.44
320.816	373.44
321.046	373.44
321.275	357.44
321.504	381.44
321.733	382.44
321.962	380.44
322.191	400.44
322.42	412.44
322.649	427.44
322.878	438.44
323.108	441.44
323.337	481.44
323.566	488.44
323.795	531.44
324.024	569.44
324.253	739.44
324.482	1064.44
324.71	1528.44
324.939	2076.44
325.168	1723.44
325.397	910.44
325.626	640.44
325.855	561.44
326.084	504.44
326.313	484.44
326.542	465.44
326.77	565.44
326.999	654.44
327.228	896.44
327.457	1341.44
327.686	1565.44
327.914	1040.44
328.143	705.44
328.372	619.44
328.6	604.44
328.829	563.44
329.058	567.44
329.287	563.44
329.515	545.44
329.744	520.44
329.972	520.44
330.201	585.44
330.43	596.44
330.658	631.44
330.887	642.44
331.115	605.44
331.344	533.44
331.572	477.44
331.801	462.44
332.03	472.44
332.258	451.44
332.486	434.44
332.715	424.44
332.943	427.44
333.172	422.44
333.4	444.44
333.629	452.44
333.857	472.44
334.085	485.44
334.314	535.44
334.542	551.44
334.771	601.44
334.999	501.44
335.227	465.44
335.455	426.44
335.684	438.44
335.912	412.44
336.14	433.44
336.369	414.44
336.597	415.44
336.825	438.44
337.053	423.44
337.281	387.44
337.51	415.44
337.738	407.44
337.966	384.44
338.194	389.44
338.422	400.44
338.65	377.44
338.878	398.44
339.106	390.44
339.334	401.44
339.562	383.44
339.79	390.44
340.018	389.44
340.246	387.44
340.474	384.44
340.702	376.44
340.93	366.44
341.158	405.44
341.386	390.44
341.614	393.44
341.842	395.44
342.07	394.44
342.298	392.44
342.526	396.44
342.754	375.44
342.981	367.44
343.209	371.44
343.437	390.44
343.665	395.44
343.893	379.44
344.12	400.44
344.348	384.44
344.576	416.44
344.804	401.44
345.031	416.44
345.259	415.44
345.487	401.44
345.714	398.44
345.942	397.44
346.17	391.44
346.397	383.44
346.625	379.44
346.853	372.44
347.08	397.44
347.308	381.44
347.535	384.44
347.763	400.44
347.99	409.44
348.218	410.44
348.445	407.44
348.673	385.44
348.9	409.44
349.128	371.44
349.355	360.44
349.583	355.44
349.81	368.44
350.037	375.44
350.265	360.44
350.492	368.44
350.72	392.44
350.947	393.44
351.174	398.44
351.402	392.44
351.629	374.44
351.856	385.44
352.083	392.44
352.311	389.44
352.538	405.44
352.765	405.44
352.992	395.44
353.22	397.44
353.447	388.44
353.674	378.44
353.901	372.44
354.128	356.44
354.355	365.44
354.583	363.44
354.81	344.44
355.037	372.44
355.264	352.44
355.491	347.44
355.718	353.44
355.945	360.44
356.172	340.44
356.399	354.44
356.626	341.44
356.853	350.44
357.08	352.44
357.307	335.44
357.534	357.44
357.761	344.44
357.988	352.44
358.215	361.44
358.441	354.44
358.668	351.44
358.895	381.44
359.122	351.44
359.349	363.44
359.576	373.44
359.802	416.44
360.029	437.44
360.256	450.44
360.483	437.44
360.709	402.44
360.936	394.44
361.163	377.44
361.39	400.44
361.616	387.44
361.843	390.44
362.07	377.44
362.296	391.44
362.523	386.44
362.749	389.44
362.976	379.44
363.203	372.44
363.429	363.44
363.656	371.44
363.882	375.44
364.109	354.44
364.335	374.44
364.562	349.44
364.788	366.44
365.015	366.44
365.241	360.44
365.468	369.44
365.694	356.44
365.92	363.44
366.147	360.44
366.373	367.44
366.599	355.44
366.826	346.44
367.052	344.44
367.278	351.44
367.505	355.44
367.731	354.44
367.957	347.44
368.184	355.44
368.41	370.44
368.636	378.44
368.862	390.44
369.089	359.44
369.315	369.44
369.541	374.44
369.767	351.44
369.993	360.44
370.219	349.44
370.445	369.44
370.672	347.44
370.898	343.44
371.124	371.44
371.35	349.44
371.576	365.44
371.802	335.44
372.028	356.44
372.254	358.44
372.48	331.44
372.706	342.44
372.932	345.44
373.158	348.44
373.384	360.44
373.61	373.44
373.835	345.44
374.061	347.44
374.287	323.44
374.513	355.44
374.739	340.44
374.965	352.44
375.191	371.44
375.416	334.44
375.642	350.44
375.868	353.44
376.094	372.44
376.319	346.44
376.545	357.44
376.771	343.44
376.997	341.44
377.222	357.44
377.448	335.44
377.674	351.44
377.899	342.44
378.125	353.44
378.35	343.44
378.576	343.44
378.802	349.44
379.027	337.44
379.253	342.44
379.478	343.44
379.704	336.44
379.929	341.44
380.155	352.44
380.38	368.44
380.606	352.44
380.831	344.44
381.057	347.44
381.282	335.44
381.507	361.44
381.733	363.44
381.958	344.44
382.184	359.44
382.409	345.44
382.634	348.44
382.86	358.44
383.085	373.44
383.31	363.44
383.535	359.44
383.761	350.44
383.986	384.44
384.211	365.44
384.436	377.44
384.662	375.44
384.887	375.44
385.112	353.44
385.337	367.44
385.562	367.44
385.787	375.44
386.013	384.44
386.238	369.44
386.463	367.44
386.688	375.44
386.913	359.44
387.138	377.44
387.363	367.44
387.588	365.44
387.813	361.44
388.038	365.44
388.263	389.44
388.488	374.44
388.713	381.44
388.938	364.44
389.163	377.44
389.387	392.44
389.612	359.44
389.837	372.44
390.062	355.44
390.287	371.44
390.512	359.44
390.736	363.44
390.961	364.44
391.186	392.44
391.411	377.44
391.636	389.44
391.86	390.44
392.085	384.44
392.31	380.44
392.534	388.44
392.759	368.44
392.984	379.44
393.208	384.44
393.433	356.44
393.658	369.44
393.882	378.44
394.107	381.44
394.331	381.44
394.556	370.44
394.78	367.44
395.005	383.44
395.229	386.44
395.454	401.44
395.678	351.44
395.903	387.44
396.127	405.44
396.352	424.44
396.576	373.44
396.801	390.44
397.025	405.44
397.249	396.44
397.474	400.44
397.698	411.44
397.922	425.44
398.147	421.44
398.371	432.44
398.595	423.44
398.82	419.44
399.044	413.44
399.268	446.44
399.492	480.44
399.717	475.44
399.941	477.44
400.165	495.44
400.389	495.44
400.613	467.44
400.837	443.44
401.062	432.44
401.286	451.44
401.51	413.44
401.734	413.44
401.958	419.44
402.182	433.44
402.406	449.44
402.63	464.44
402.854	431.44
403.078	445.44
403.302	451.44
403.526	440.44
403.75	439.44
403.974	452.44
404.198	469.44
404.422	433.44
404.645	435.44
404.869	457.44
405.093	484.44
405.317	506.44
405.541	549.44
405.765	480.44
405.988	450.44
406.212	472.44
406.436	518.44
406.66	501.44
406.883	475.44
407.107	512.44
407.331	502.44
407.555	581.44
407.778	559.44
408.002	515.44
408.226	497.44
408.449	467.44
408.673	460.44
408.896	495.44
409.12	533.44
409.344	508.44
409.567	460.44
409.791	447.44
410.014	458.44
410.238	470.44
410.461	432.44
410.685	445.44
410.908	453.44
411.132	484.44
411.355	526.44
411.578	508.44
411.802	471.44
412.025	441.44
412.249	466.44
412.472	495.44
412.695	524.44
412.919	521.44
413.142	486.44
413.365	441.44
413.589	444.44
413.812	428.44
414.035	439.44
414.258	410.44
414.482	423.44
414.705	437.44
414.928	421.44
415.151	414.44
415.374	410.44
415.597	418.44
415.821	415.44
416.044	431.44
416.267	421.44
416.49	414.44
416.713	393.44
416.936	417.44
417.159	400.44
417.382	412.44
417.605	410.44
417.828	433.44
418.051	443.44
418.274	459.44
418.497	427.44
418.72	444.44
418.943	414.44
419.166	421.44
419.389	463.44
419.611	439.44
419.834	449.44
420.057	451.44
420.28	441.44
420.503	452.44
420.726	439.44
420.948	452.44
421.171	494.44
421.394	493.44
421.617	452.44
421.839	430.44
422.062	435.44
422.285	459.44
422.507	487.44
422.73	554.44
422.953	544.44
423.175	493.44
423.398	449.44
423.621	446.44
423.843	460.44
424.066	472.44
424.288	441.44
424.511	474.44
424.733	535.44
424.956	592.44
425.178	573.44
425.401	546.44
425.623	579.44
425.846	510.44
426.068	462.44
426.291	460.44
426.513	480.44
426.735	466.44
426.958	523.44
427.18	597.44
427.402	687.44
427.625	748.44
427.847	672.44
428.069	598.44
428.292	519.44
428.514	461.44
428.736	469.44
428.958	445.44
429.181	455.44
429.403	446.44
429.625	456.44
429.847	478.44
430.069	529.44
430.292	485.44
430.514	461.44
430.736	454.44
430.958	420.44
431.18	426.44
431.402	419.44
431.624	418.44
431.846	380.44
432.068	407.44
432.29	419.44
432.512	402.44
432.734	399.44
432.956	407.44
433.178	421.44
433.4	422.44
433.622	429.44
433.844	436.44
434.066	421.44
434.287	406.44
434.509	407.44
434.731	421.44
434.953	437.44
435.175	453.44
435.397	468.44
435.618	455.44
435.84	519.44
436.062	553.44
436.284	593.44
436.505	523.44
436.727	447.44
436.949	451.44
437.17	439.44
437.392	413.44
437.614	444.44
437.835	480.44
438.057	539.44
438.278	632.44
438.5	619.44
438.721	675.44
438.943	641.44
439.165	517.44
439.386	479.44
439.608	498.44
439.829	470.44
440.05	486.44
440.272	535.44
440.493	515.44
440.715	488.44
440.936	463.44
441.158	454.44
441.379	444.44
441.6	448.44
441.822	465.44
442.043	508.44
442.264	563.44
442.486	605.44
442.707	530.44
442.928	476.44
443.149	502.44
443.371	515.44
443.592	561.44
443.813	629.44
444.034	649.44
444.255	529.44
444.476	485.44
444.698	489.44
444.919	487.44
445.14	567.44
445.361	550.44
445.582	487.44
445.803	555.44
446.024	657.44
446.245	638.44
446.466	599.44
446.687	519.44
446.908	466.44
447.129	454.44
447.35	453.44
447.571	429.44
447.792	449.44
448.013	424.44
448.234	479.44
448.455	503.44
448.675	595.44
448.896	649.44
449.117	561.44
449.338	564.44
449.559	613.44
449.779	699.44
450	575.44
450.221	495.44
450.442	445.44
450.662	434.44
450.883	448.44
451.104	460.44
451.324	454.44
451.545	429.44
451.766	429.44
451.986	426.44
452.207	388.44
452.428	397.44
452.648	385.44
452.869	394.44
453.089	397.44
453.31	412.44
453.53	401.44
453.751	397.44
453.971	408.44
454.192	440.44
454.412	426.44
454.633	405.44
454.853	405.44
455.073	409.44
455.294	425.44
455.514	493.44
455.734	442.44
455.955	396.44
456.175	376.44
456.395	354.44
456.616	352.44
456.836	357.44
457.056	371.44
457.276	371.44
457.497	377.44
457.717	365.44
457.937	374.44
458.157	405.44
458.377	394.44
458.598	399.44
458.818	465.44
459.038	563.44
459.258	537.44
459.478	433.44
459.698	420.44
459.918	406.44
460.138	398.44
460.358	405.44
460.578	414.44
460.798	407.44
461.018	415.44
461.238	421.44
461.458	411.44
461.678	395.44
461.898	416.44
462.118	397.44
462.338	419.44
462.558	418.44
462.777	432.44
462.997	457.44
463.217	446.44
463.437	455.44
463.657	455.44
463.876	428.44
464.096	410.44
464.316	437.44
464.536	443.44
464.755	456.44
464.975	443.44
465.195	480.44
465.414	586.44
465.634	525.44
465.854	451.44
466.073	446.44
466.293	419.44
466.512	412.44
466.732	404.44
466.951	398.44
467.171	389.44
467.391	411.44
467.61	417.44
467.829	432.44
468.049	407.44
468.268	423.44
468.488	422.44
468.707	402.44
468.927	387.44
469.146	391.44
469.365	405.44
469.585	409.44
469.804	410.44
470.023	401.44
470.243	401.44
470.462	432.44
470.681	443.44
470.901	444.44
471.12	417.44
471.339	401.44
471.558	433.44
471.777	416.44
471.997	424.44
472.216	447.44
472.435	504.44
472.654	500.44
472.873	452.44
473.092	413.44
473.311	416.44
473.53	424.44
473.749	417.44
473.968	501.44
474.187	551.44
474.406	554.44
474.625	445.44
474.844	428.44
475.063	412.44
475.282	413.44
475.501	424.44
475.72	428.44
475.939	412.44
476.158	409.44
476.377	435.44
476.596	429.44
476.814	404.44
477.033	438.44
477.252	425.44
477.471	423.44
477.69	423.44
477.908	457.44
478.127	452.44
478.346	427.44
478.564	454.44
478.783	473.44
479.002	470.44
479.22	473.44
479.439	488.44
479.658	462.44
479.876	489.44
480.095	496.44
480.313	519.44
480.532	511.44
480.751	519.44
480.969	550.44
481.188	619.44
481.406	727.44
481.624	567.44
481.843	540.44
482.061	525.44
482.28	507.44
482.498	492.44
482.717	497.44
482.935	480.44
483.153	483.44
483.372	493.44
483.59	472.44
483.808	469.44
484.027	497.44
484.245	485.44
484.463	499.44
484.681	478.44
484.9	495.44
485.118	483.44
485.336	478.44
485.554	477.44
485.772	493.44
485.99	499.44
486.209	518.44
486.427	493.44
486.645	524.44
486.863	537.44
487.081	540.44
487.299	515.44
487.517	506.44
487.735	511.44
487.953	520.44
488.171	527.44
488.389	511.44
488.607	510.44
488.825	514.44
489.043	518.44
489.261	520.44
489.479	529.44
489.696	552.44
489.914	527.44
490.132	527.44
490.35	569.44
490.568	563.44
490.786	553.44
491.003	571.44
491.221	568.44
491.439	587.44
491.657	586.44
491.874	595.44
492.092	603.44
492.31	614.44
492.527	597.44
492.745	603.44
492.963	632.44
493.18	649.44
493.398	620.44
493.615	633.44
493.833	625.44
494.05	631.44
494.268	615.44
494.485	607.44
494.703	601.44
494.92	618.44
495.138	599.44
495.355	636.44
495.573	621.44
495.79	600.44
496.008	627.44
496.225	595.44
496.442	613.44
496.66	615.44
496.877	611.44
497.094	607.44
497.312	606.44
497.529	620.44
497.746	634.44
497.963	631.44
498.181	649.44
498.398	654.44
498.615	672.44
498.832	681.44
499.049	679.44
499.267	688.44
499.484	698.44
499.701	687.44
499.918	725.44
500.135	757.44
500.352	759.44
500.569	791.44
500.786	791.44
501.003	795.44
501.22	784.44
501.437	732.44
501.654	720.44
501.871	747.44
