Data from 1983.PennyLincolnUp.Lamp.En5.5.200Scan.071819.P1_HRD10591_16-55-18-966.txt Node
Date: Thu Jul 18 16:55:18 EDT 2019
User: cochatt
Spectrometer: HR+D1059
Trigger mode: 1
Integration Time (sec): 1.000000E-1
Scans to average: 1
Electric dark correction enabled: true
Nonlinearity correction enabled: false
Boxcar width: 0
XAxis mode: Wavelengths
Number of Pixels in Spectrum: 2048
>>>>>Begin Spectral Data<<<<<
223.165	-3.38
223.4	-3.38
223.635	-3.38
223.869	-9.38
224.104	-25.38
224.338	-12.38
224.573	-8.38
224.808	-14.38
225.042	-10.38
225.277	-7.38
225.511	-2.38
225.746	1.62
225.98	2.62
226.215	10.62
226.449	8.62
226.683	30.62
226.918	20.62
227.152	18.62
227.387	29.62
227.621	28.62
227.856	48.62
228.09	51.62
228.324	53.62
228.559	62.62
228.793	67.62
229.027	86.62
229.262	91.62
229.496	112.62
229.73	136.62
229.964	140.62
230.199	131.62
230.433	102.62
230.667	103.62
230.901	107.62
231.136	112.62
231.37	104.62
231.604	114.62
231.838	107.62
232.072	102.62
232.306	104.62
232.541	112.62
232.775	120.62
233.009	113.62
233.243	107.62
233.477	114.62
233.711	107.62
233.945	96.62
234.179	120.62
234.413	124.62
234.647	118.62
234.881	114.62
235.115	128.62
235.349	109.62
235.583	105.62
235.817	129.62
236.051	124.62
236.285	122.62
236.519	113.62
236.753	133.62
236.987	132.62
237.221	160.62
237.455	215.62
237.689	172.62
237.922	131.62
238.156	126.62
238.39	127.62
238.624	133.62
238.858	116.62
239.091	129.62
239.325	134.62
239.559	109.62
239.793	125.62
240.027	118.62
240.26	132.62
240.494	148.62
240.728	141.62
240.961	128.62
241.195	125.62
241.429	129.62
241.662	128.62
241.896	139.62
242.13	121.62
242.363	124.62
242.597	127.62
242.83	148.62
243.064	142.62
243.298	135.62
243.531	139.62
243.765	123.62
243.998	158.62
244.232	151.62
244.465	141.62
244.699	133.62
244.932	132.62
245.166	147.62
245.399	140.62
245.633	143.62
245.866	141.62
246.099	143.62
246.333	148.62
246.566	138.62
246.8	138.62
247.033	146.62
247.266	161.62
247.5	156.62
247.733	148.62
247.966	145.62
248.2	159.62
248.433	166.62
248.666	174.62
248.899	158.62
249.133	198.62
249.366	205.62
249.599	176.62
249.832	188.62
250.066	182.62
250.299	166.62
250.532	198.62
250.765	195.62
250.998	206.62
251.231	213.62
251.465	205.62
251.698	196.62
251.931	189.62
252.164	180.62
252.397	175.62
252.63	177.62
252.863	191.62
253.096	194.62
253.329	206.62
253.562	203.62
253.795	201.62
254.028	218.62
254.261	200.62
254.494	225.62
254.727	234.62
254.96	262.62
255.193	274.62
255.426	246.62
255.659	219.62
255.892	221.62
256.124	240.62
256.357	239.62
256.59	251.62
256.823	212.62
257.056	193.62
257.289	215.62
257.521	214.62
257.754	217.62
257.987	192.62
258.22	189.62
258.452	194.62
258.685	205.62
258.918	190.62
259.151	200.62
259.383	202.62
259.616	206.62
259.849	216.62
260.081	219.62
260.314	228.62
260.547	217.62
260.779	238.62
261.012	220.62
261.244	217.62
261.477	213.62
261.71	219.62
261.942	221.62
262.175	219.62
262.407	220.62
262.64	214.62
262.872	202.62
263.105	223.62
263.337	198.62
263.57	192.62
263.802	204.62
264.035	190.62
264.267	197.62
264.499	208.62
264.732	212.62
264.964	199.62
265.197	202.62
265.429	199.62
265.661	172.62
265.894	192.62
266.126	201.62
266.358	203.62
266.591	193.62
266.823	227.62
267.055	219.62
267.287	211.62
267.52	225.62
267.752	205.62
267.984	213.62
268.216	214.62
268.448	220.62
268.681	203.62
268.913	227.62
269.145	262.62
269.377	269.62
269.609	250.62
269.841	247.62
270.073	262.62
270.306	272.62
270.538	294.62
270.77	299.62
271.002	280.62
271.234	276.62
271.466	274.62
271.698	281.62
271.93	312.62
272.162	300.62
272.394	294.62
272.626	269.62
272.858	253.62
273.09	260.62
273.322	248.62
273.553	251.62
273.785	251.62
274.017	244.62
274.249	230.62
274.481	230.62
274.713	231.62
274.945	238.62
275.176	241.62
275.408	242.62
275.64	230.62
275.872	240.62
276.104	231.62
276.335	246.62
276.567	254.62
276.799	294.62
277.031	287.62
277.262	302.62
277.494	298.62
277.726	290.62
277.957	260.62
278.189	260.62
278.421	259.62
278.652	249.62
278.884	247.62
279.115	255.62
279.347	227.62
279.579	254.62
279.81	232.62
280.042	249.62
280.273	233.62
280.505	252.62
280.736	256.62
280.968	244.62
281.199	233.62
281.431	256.62
281.662	235.62
281.894	253.62
282.125	264.62
282.356	257.62
282.588	288.62
282.819	290.62
283.051	251.62
283.282	268.62
283.513	259.62
283.745	248.62
283.976	252.62
284.207	272.62
284.439	242.62
284.67	263.62
284.901	250.62
285.132	254.62
285.364	242.62
285.595	254.62
285.826	248.62
286.057	256.62
286.288	246.62
286.52	266.62
286.751	265.62
286.982	264.62
287.213	263.62
287.444	250.62
287.675	270.62
287.906	289.62
288.138	276.62
288.369	289.62
288.6	273.62
288.831	271.62
289.062	268.62
289.293	268.62
289.524	268.62
289.755	267.62
289.986	262.62
290.217	278.62
290.448	251.62
290.679	265.62
290.91	262.62
291.141	264.62
291.371	268.62
291.602	261.62
291.833	270.62
292.064	243.62
292.295	264.62
292.526	274.62
292.757	265.62
292.987	274.62
293.218	260.62
293.449	266.62
293.68	243.62
293.91	257.62
294.141	266.62
294.372	268.62
294.603	276.62
294.833	263.62
295.064	268.62
295.295	275.62
295.525	248.62
295.756	286.62
295.987	264.62
296.217	306.62
296.448	320.62
296.679	279.62
296.909	269.62
297.14	272.62
297.37	264.62
297.601	271.62
297.831	266.62
298.062	284.62
298.292	285.62
298.523	267.62
298.753	283.62
298.984	286.62
299.214	290.62
299.445	280.62
299.675	281.62
299.905	278.62
300.136	268.62
300.366	293.62
300.597	292.62
300.827	291.62
301.057	279.62
301.288	277.62
301.518	284.62
301.748	293.62
301.979	291.62
302.209	291.62
302.439	288.62
302.669	296.62
302.9	305.62
303.13	315.62
303.36	294.62
303.59	302.62
303.82	299.62
304.051	302.62
304.281	286.62
304.511	285.62
304.741	273.62
304.971	277.62
305.201	301.62
305.431	296.62
305.661	286.62
305.891	316.62
306.121	294.62
306.352	306.62
306.582	321.62
306.812	303.62
307.042	305.62
307.272	294.62
307.502	309.62
307.731	313.62
307.961	300.62
308.191	292.62
308.421	322.62
308.651	317.62
308.881	306.62
309.111	313.62
309.341	316.62
309.571	317.62
309.8	342.62
310.03	343.62
310.26	322.62
310.49	341.62
310.72	354.62
310.949	376.62
311.179	370.62
311.409	354.62
311.639	340.62
311.868	349.62
312.098	335.62
312.328	362.62
312.557	373.62
312.787	392.62
313.017	384.62
313.246	364.62
313.476	338.62
313.706	356.62
313.935	356.62
314.165	364.62
314.394	378.62
314.624	372.62
314.853	364.62
315.083	362.62
315.312	346.62
315.542	369.62
315.771	346.62
316.001	334.62
316.23	338.62
316.46	321.62
316.689	352.62
316.919	346.62
317.148	358.62
317.377	368.62
317.607	352.62
317.836	340.62
318.065	356.62
318.295	342.62
318.524	341.62
318.753	353.62
318.983	341.62
319.212	360.62
319.441	348.62
319.67	372.62
319.9	336.62
320.129	346.62
320.358	374.62
320.587	369.62
320.816	369.62
321.046	353.62
321.275	372.62
321.504	362.62
321.733	372.62
321.962	388.62
322.191	392.62
322.42	413.62
322.649	406.62
322.878	416.62
323.108	427.62
323.337	469.62
323.566	484.62
323.795	522.62
324.024	573.62
324.253	712.62
324.482	1013.62
324.71	1501.62
324.939	2046.62
325.168	1696.62
325.397	905.62
325.626	607.62
325.855	520.62
326.084	483.62
326.313	484.62
326.542	504.62
326.77	557.62
326.999	643.62
327.228	888.62
327.457	1357.62
327.686	1499.62
327.914	1055.62
328.143	698.62
328.372	637.62
328.6	587.62
328.829	568.62
329.058	571.62
329.287	549.62
329.515	536.62
329.744	502.62
329.972	529.62
330.201	549.62
330.43	604.62
330.658	637.62
330.887	642.62
331.115	577.62
331.344	495.62
331.572	455.62
331.801	459.62
332.03	457.62
332.258	462.62
332.486	425.62
332.715	428.62
332.943	440.62
333.172	437.62
333.4	449.62
333.629	450.62
333.857	477.62
334.085	510.62
334.314	515.62
334.542	575.62
334.771	594.62
334.999	529.62
335.227	475.62
335.455	428.62
335.684	425.62
335.912	416.62
336.14	402.62
336.369	411.62
336.597	426.62
336.825	417.62
337.053	398.62
337.281	413.62
337.51	410.62
337.738	403.62
337.966	412.62
338.194	401.62
338.422	404.62
338.65	392.62
338.878	383.62
339.106	390.62
339.334	396.62
339.562	390.62
339.79	385.62
340.018	388.62
340.246	396.62
340.474	398.62
340.702	401.62
340.93	408.62
341.158	381.62
341.386	397.62
341.614	377.62
341.842	399.62
342.07	377.62
342.298	364.62
342.526	376.62
342.754	378.62
342.981	348.62
343.209	370.62
343.437	376.62
343.665	366.62
343.893	394.62
344.12	393.62
344.348	406.62
344.576	384.62
344.804	418.62
345.031	396.62
345.259	423.62
345.487	410.62
345.714	401.62
345.942	384.62
346.17	390.62
346.397	380.62
346.625	370.62
346.853	370.62
347.08	376.62
347.308	369.62
347.535	399.62
347.763	394.62
347.99	404.62
348.218	397.62
348.445	418.62
348.673	390.62
348.9	392.62
349.128	380.62
349.355	357.62
349.583	362.62
349.81	361.62
350.037	362.62
350.265	364.62
350.492	377.62
350.72	353.62
350.947	372.62
351.174	388.62
351.402	385.62
351.629	395.62
351.856	381.62
352.083	389.62
352.311	401.62
352.538	404.62
352.765	405.62
352.992	392.62
353.22	376.62
353.447	375.62
353.674	381.62
353.901	333.62
354.128	348.62
354.355	356.62
354.583	342.62
354.81	354.62
355.037	345.62
355.264	353.62
355.491	350.62
355.718	335.62
355.945	350.62
356.172	364.62
356.399	351.62
356.626	338.62
356.853	345.62
357.08	336.62
357.307	350.62
357.534	360.62
357.761	333.62
357.988	342.62
358.215	346.62
358.441	320.62
358.668	335.62
358.895	350.62
359.122	356.62
359.349	370.62
359.576	394.62
359.802	395.62
360.029	419.62
360.256	467.62
360.483	422.62
360.709	399.62
360.936	390.62
361.163	374.62
361.39	376.62
361.616	388.62
361.843	372.62
362.07	390.62
362.296	373.62
362.523	384.62
362.749	370.62
362.976	364.62
363.203	368.62
363.429	361.62
363.656	343.62
363.882	373.62
364.109	376.62
364.335	366.62
364.562	368.62
364.788	354.62
365.015	365.62
365.241	362.62
365.468	361.62
365.694	372.62
365.92	382.62
366.147	351.62
366.373	344.62
366.599	358.62
366.826	347.62
367.052	332.62
367.278	358.62
367.505	368.62
367.731	352.62
367.957	360.62
368.184	344.62
368.41	359.62
368.636	353.62
368.862	371.62
369.089	356.62
369.315	347.62
369.541	342.62
369.767	368.62
369.993	360.62
370.219	352.62
370.445	358.62
370.672	363.62
370.898	347.62
371.124	349.62
371.35	356.62
371.576	348.62
371.802	342.62
372.028	332.62
372.254	328.62
372.48	367.62
372.706	373.62
372.932	354.62
373.158	348.62
373.384	346.62
373.61	356.62
373.835	356.62
374.061	348.62
374.287	347.62
374.513	342.62
374.739	358.62
374.965	369.62
375.191	356.62
375.416	344.62
375.642	374.62
375.868	348.62
376.094	335.62
376.319	368.62
376.545	336.62
376.771	325.62
376.997	321.62
377.222	344.62
377.448	340.62
377.674	346.62
377.899	346.62
378.125	331.62
378.35	364.62
378.576	347.62
378.802	345.62
379.027	333.62
379.253	330.62
379.478	349.62
379.704	352.62
379.929	356.62
380.155	348.62
380.38	362.62
380.606	357.62
380.831	347.62
381.057	356.62
381.282	353.62
381.507	354.62
381.733	334.62
381.958	350.62
382.184	359.62
382.409	330.62
382.634	348.62
382.86	352.62
383.085	370.62
383.31	354.62
383.535	353.62
383.761	368.62
383.986	359.62
384.211	357.62
384.436	369.62
384.662	352.62
384.887	366.62
385.112	357.62
385.337	372.62
385.562	355.62
385.787	364.62
386.013	385.62
386.238	373.62
386.463	381.62
386.688	358.62
386.913	356.62
387.138	355.62
387.363	363.62
387.588	362.62
387.813	373.62
388.038	358.62
388.263	368.62
388.488	372.62
388.713	372.62
388.938	374.62
389.163	371.62
389.387	371.62
389.612	376.62
389.837	364.62
390.062	364.62
390.287	355.62
390.512	379.62
390.736	359.62
390.961	374.62
391.186	393.62
391.411	369.62
391.636	386.62
391.86	382.62
392.085	388.62
392.31	374.62
392.534	387.62
392.759	378.62
392.984	370.62
393.208	377.62
393.433	371.62
393.658	368.62
393.882	361.62
394.107	374.62
394.331	358.62
394.556	375.62
394.78	362.62
395.005	376.62
395.229	384.62
395.454	379.62
395.678	369.62
395.903	393.62
396.127	396.62
396.352	412.62
396.576	388.62
396.801	379.62
397.025	373.62
397.249	388.62
397.474	405.62
397.698	404.62
397.922	397.62
398.147	416.62
398.371	397.62
398.595	398.62
398.82	397.62
399.044	411.62
399.268	426.62
399.492	457.62
399.717	465.62
399.941	472.62
400.165	484.62
400.389	510.62
400.613	462.62
400.837	439.62
401.062	422.62
401.286	418.62
401.51	402.62
401.734	417.62
401.958	428.62
402.182	413.62
402.406	439.62
402.63	433.62
402.854	417.62
403.078	438.62
403.302	421.62
403.526	440.62
403.75	432.62
403.974	442.62
404.198	431.62
404.422	430.62
404.645	427.62
404.869	481.62
405.093	487.62
405.317	514.62
405.541	551.62
405.765	527.62
405.988	498.62
406.212	472.62
406.436	488.62
406.66	522.62
406.883	481.62
407.107	481.62
407.331	507.62
407.555	557.62
407.778	553.62
408.002	527.62
408.226	477.62
408.449	474.62
408.673	484.62
408.896	489.62
409.12	501.62
409.344	489.62
409.567	446.62
409.791	438.62
410.014	426.62
410.238	442.62
410.461	421.62
410.685	458.62
410.908	460.62
411.132	480.62
411.355	514.62
411.578	481.62
411.802	432.62
412.025	447.62
412.249	451.62
412.472	482.62
412.695	508.62
412.919	498.62
413.142	459.62
413.365	463.62
413.589	429.62
413.812	443.62
414.035	414.62
414.258	408.62
414.482	410.62
414.705	410.62
414.928	405.62
415.151	410.62
415.374	403.62
415.597	408.62
415.821	421.62
416.044	413.62
416.267	418.62
416.49	413.62
416.713	390.62
416.936	410.62
417.159	420.62
417.382	432.62
417.605	420.62
417.828	413.62
418.051	436.62
418.274	417.62
418.497	430.62
418.72	416.62
418.943	423.62
419.166	444.62
419.389	458.62
419.611	460.62
419.834	440.62
420.057	449.62
420.28	466.62
420.503	443.62
420.726	440.62
420.948	467.62
421.171	460.62
421.394	512.62
421.617	450.62
421.839	440.62
422.062	428.62
422.285	448.62
422.507	494.62
422.73	537.62
422.953	540.62
423.175	444.62
423.398	439.62
423.621	424.62
423.843	483.62
424.066	460.62
424.288	464.62
424.511	470.62
424.733	520.62
424.956	579.62
425.178	560.62
425.401	554.62
425.623	562.62
425.846	501.62
426.068	480.62
426.291	470.62
426.513	458.62
426.735	469.62
426.958	499.62
427.18	579.62
427.402	647.62
427.625	754.62
427.847	669.62
428.069	576.62
428.292	518.62
428.514	486.62
428.736	448.62
428.958	441.62
429.181	437.62
429.403	437.62
429.625	449.62
429.847	460.62
430.069	504.62
430.292	502.62
430.514	446.62
430.736	429.62
430.958	437.62
431.18	422.62
431.402	410.62
431.624	397.62
431.846	404.62
432.068	390.62
432.29	406.62
432.512	409.62
432.734	412.62
432.956	416.62
433.178	426.62
433.4	413.62
433.622	408.62
433.844	405.62
434.066	399.62
434.287	393.62
434.509	397.62
434.731	416.62
434.953	416.62
435.175	439.62
435.397	453.62
435.618	466.62
435.84	503.62
436.062	575.62
436.284	581.62
436.505	526.62
436.727	472.62
436.949	440.62
437.17	439.62
437.392	425.62
437.614	431.62
437.835	493.62
438.057	572.62
438.278	636.62
438.5	621.62
438.721	676.62
438.943	647.62
439.165	503.62
439.386	477.62
439.608	466.62
439.829	461.62
440.05	504.62
440.272	533.62
440.493	524.62
440.715	463.62
440.936	463.62
441.158	445.62
441.379	453.62
441.6	453.62
441.822	468.62
442.043	498.62
442.264	558.62
442.486	574.62
442.707	521.62
442.928	489.62
443.149	490.62
443.371	492.62
443.592	543.62
443.813	600.62
444.034	649.62
444.255	556.62
444.476	478.62
444.698	462.62
444.919	441.62
445.14	536.62
445.361	502.62
445.582	518.62
445.803	573.62
446.024	658.62
446.245	642.62
446.466	590.62
446.687	520.62
446.908	486.62
447.129	448.62
447.35	432.62
447.571	426.62
447.792	411.62
448.013	420.62
448.234	458.62
448.455	498.62
448.675	588.62
448.896	644.62
449.117	564.62
449.338	529.62
449.559	619.62
449.779	672.62
450	568.62
450.221	468.62
450.442	480.62
450.662	443.62
450.883	440.62
451.104	471.62
451.324	454.62
451.545	436.62
451.766	389.62
451.986	379.62
452.207	406.62
452.428	401.62
452.648	386.62
452.869	400.62
453.089	404.62
453.31	405.62
453.53	398.62
453.751	395.62
453.971	393.62
454.192	422.62
454.412	426.62
454.633	411.62
454.853	388.62
455.073	390.62
455.294	396.62
455.514	465.62
455.734	448.62
455.955	393.62
456.175	376.62
456.395	361.62
456.616	371.62
456.836	366.62
457.056	368.62
457.276	372.62
457.497	359.62
457.717	368.62
457.937	369.62
458.157	374.62
458.377	364.62
458.598	402.62
458.818	465.62
459.038	554.62
459.258	509.62
459.478	470.62
459.698	414.62
459.918	412.62
460.138	417.62
460.358	398.62
460.578	383.62
460.798	420.62
461.018	413.62
461.238	411.62
461.458	426.62
461.678	402.62
461.898	415.62
462.118	382.62
462.338	418.62
462.558	432.62
462.777	414.62
462.997	421.62
463.217	419.62
463.437	434.62
463.657	432.62
463.876	438.62
464.096	422.62
464.316	422.62
464.536	446.62
464.755	433.62
464.975	458.62
465.195	502.62
465.414	542.62
465.634	500.62
465.854	437.62
466.073	448.62
466.293	427.62
466.512	405.62
466.732	388.62
466.951	420.62
467.171	409.62
467.391	404.62
467.61	418.62
467.829	408.62
468.049	422.62
468.268	429.62
468.488	391.62
468.707	404.62
468.927	394.62
469.146	390.62
469.365	380.62
469.585	388.62
469.804	398.62
470.023	400.62
470.243	418.62
470.462	408.62
470.681	442.62
470.901	405.62
471.12	416.62
471.339	387.62
471.558	394.62
471.777	414.62
471.997	409.62
472.216	436.62
472.435	504.62
472.654	469.62
472.873	428.62
473.092	416.62
473.311	423.62
473.53	407.62
473.749	433.62
473.968	460.62
474.187	541.62
474.406	560.62
474.625	471.62
474.844	411.62
475.063	399.62
475.282	390.62
475.501	412.62
475.72	396.62
475.939	418.62
476.158	421.62
476.377	424.62
476.596	398.62
476.814	412.62
477.033	444.62
477.252	422.62
477.471	428.62
477.69	409.62
477.908	428.62
478.127	434.62
478.346	419.62
478.564	443.62
478.783	455.62
479.002	450.62
479.22	454.62
479.439	454.62
479.658	497.62
479.876	504.62
480.095	508.62
480.313	514.62
480.532	504.62
480.751	502.62
480.969	540.62
481.188	633.62
481.406	702.62
481.624	587.62
481.843	540.62
482.061	517.62
482.28	500.62
482.498	487.62
482.717	474.62
482.935	467.62
483.153	475.62
483.372	486.62
483.59	481.62
483.808	465.62
484.027	473.62
484.245	480.62
484.463	472.62
484.681	483.62
484.9	470.62
485.118	475.62
485.336	481.62
485.554	504.62
485.772	496.62
485.99	513.62
486.209	469.62
486.427	484.62
486.645	522.62
486.863	533.62
487.081	498.62
487.299	510.62
487.517	519.62
487.735	518.62
487.953	512.62
488.171	536.62
488.389	518.62
488.607	518.62
488.825	525.62
489.043	515.62
489.261	514.62
489.479	513.62
489.696	515.62
489.914	523.62
490.132	533.62
490.35	521.62
490.568	549.62
490.786	545.62
491.003	546.62
491.221	569.62
491.439	578.62
491.657	585.62
491.874	593.62
492.092	584.62
492.31	598.62
492.527	605.62
492.745	589.62
492.963	620.62
493.18	604.62
493.398	592.62
493.615	601.62
493.833	629.62
494.05	612.62
494.268	627.62
494.485	611.62
494.703	605.62
494.92	612.62
495.138	590.62
495.355	619.62
495.573	619.62
495.79	607.62
496.008	617.62
496.225	619.62
496.442	618.62
496.66	611.62
496.877	620.62
497.094	626.62
497.312	593.62
497.529	620.62
497.746	629.62
497.963	617.62
498.181	651.62
498.398	636.62
498.615	654.62
498.832	678.62
499.049	682.62
499.267	691.62
499.484	678.62
499.701	712.62
499.918	738.62
500.135	750.62
500.352	779.62
500.569	778.62
500.786	780.62
501.003	782.62
501.22	772.62
501.437	754.62
501.654	742.62
501.871	741.62
502.088	724.62
