Data from 1983.PennyLincolnUp.Lamp.En5.5.200Scan.071819.P1_HRD10591_16-52-14-965.txt Node
Date: Thu Jul 18 16:52:14 EDT 2019
User: cochatt
Spectrometer: HR+D1059
Trigger mode: 1
Integration Time (sec): 1.000000E-1
Scans to average: 1
Electric dark correction enabled: true
Nonlinearity correction enabled: false
Boxcar width: 0
XAxis mode: Wavelengths
Number of Pixels in Spectrum: 2048
>>>>>Begin Spectral Data<<<<<
223.165	-17.81
223.4	-17.81
223.635	-17.81
223.869	-20.81
224.104	-8.81
224.338	-18.81
224.573	-2.81
224.808	-18.81
225.042	-2.81
225.277	5.19
225.511	-7.81
225.746	-3.81
225.98	-1.81
226.215	25.19
226.449	9.19
226.683	27.19
226.918	17.19
227.152	20.19
227.387	24.19
227.621	27.19
227.856	39.19
228.09	51.19
228.324	62.19
228.559	62.19
228.793	63.19
229.027	78.19
229.262	79.19
229.496	102.19
229.73	108.19
229.964	132.19
230.199	103.19
230.433	91.19
230.667	103.19
230.901	95.19
231.136	95.19
231.37	92.19
231.604	102.19
231.838	109.19
232.072	108.19
232.306	113.19
232.541	92.19
232.775	109.19
233.009	102.19
233.243	109.19
233.477	105.19
233.711	105.19
233.945	93.19
234.179	96.19
234.413	101.19
234.647	96.19
234.881	104.19
235.115	117.19
235.349	108.19
235.583	115.19
235.817	108.19
236.051	94.19
236.285	115.19
236.519	119.19
236.753	115.19
236.987	125.19
237.221	142.19
237.455	168.19
237.689	150.19
237.922	113.19
238.156	123.19
238.39	117.19
238.624	118.19
238.858	108.19
239.091	99.19
239.325	97.19
239.559	104.19
239.793	110.19
240.027	121.19
240.26	124.19
240.494	123.19
240.728	123.19
240.961	130.19
241.195	120.19
241.429	102.19
241.662	105.19
241.896	121.19
242.13	121.19
242.363	112.19
242.597	105.19
242.83	115.19
243.064	123.19
243.298	130.19
243.531	118.19
243.765	120.19
243.998	111.19
244.232	111.19
244.465	123.19
244.699	117.19
244.932	125.19
245.166	130.19
245.399	120.19
245.633	107.19
245.866	138.19
246.099	118.19
246.333	130.19
246.566	122.19
246.8	133.19
247.033	126.19
247.266	132.19
247.5	141.19
247.733	127.19
247.966	141.19
248.2	133.19
248.433	139.19
248.666	139.19
248.899	144.19
249.133	161.19
249.366	150.19
249.599	156.19
249.832	140.19
250.066	141.19
250.299	139.19
250.532	149.19
250.765	159.19
250.998	155.19
251.231	179.19
251.465	162.19
251.698	149.19
251.931	147.19
252.164	183.19
252.397	169.19
252.63	141.19
252.863	169.19
253.096	159.19
253.329	178.19
253.562	189.19
253.795	179.19
254.028	173.19
254.261	182.19
254.494	177.19
254.727	179.19
254.96	183.19
255.193	189.19
255.426	172.19
255.659	195.19
255.892	181.19
256.124	179.19
256.357	161.19
256.59	179.19
256.823	161.19
257.056	173.19
257.289	167.19
257.521	167.19
257.754	166.19
257.987	174.19
258.22	183.19
258.452	163.19
258.685	168.19
258.918	155.19
259.151	176.19
259.383	197.19
259.616	173.19
259.849	186.19
260.081	197.19
260.314	203.19
260.547	201.19
260.779	185.19
261.012	171.19
261.244	191.19
261.477	187.19
261.71	164.19
261.942	185.19
262.175	181.19
262.407	173.19
262.64	184.19
262.872	156.19
263.105	166.19
263.337	185.19
263.57	181.19
263.802	162.19
264.035	188.19
264.267	188.19
264.499	168.19
264.732	172.19
264.964	172.19
265.197	172.19
265.429	180.19
265.661	167.19
265.894	170.19
266.126	183.19
266.358	174.19
266.591	173.19
266.823	201.19
267.055	184.19
267.287	186.19
267.52	196.19
267.752	192.19
267.984	171.19
268.216	195.19
268.448	183.19
268.681	201.19
268.913	196.19
269.145	217.19
269.377	214.19
269.609	197.19
269.841	210.19
270.073	196.19
270.306	212.19
270.538	228.19
270.77	213.19
271.002	214.19
271.234	211.19
271.466	213.19
271.698	224.19
271.93	245.19
272.162	238.19
272.394	241.19
272.626	215.19
272.858	205.19
273.09	204.19
273.322	212.19
273.553	225.19
273.785	219.19
274.017	207.19
274.249	203.19
274.481	185.19
274.713	206.19
274.945	214.19
275.176	193.19
275.408	204.19
275.64	218.19
275.872	222.19
276.104	197.19
276.335	203.19
276.567	211.19
276.799	213.19
277.031	227.19
277.262	236.19
277.494	236.19
277.726	233.19
277.957	222.19
278.189	207.19
278.421	195.19
278.652	226.19
278.884	198.19
279.115	191.19
279.347	221.19
279.579	218.19
279.81	196.19
280.042	200.19
280.273	216.19
280.505	199.19
280.736	197.19
280.968	220.19
281.199	192.19
281.431	209.19
281.662	218.19
281.894	205.19
282.125	215.19
282.356	222.19
282.588	227.19
282.819	241.19
283.051	214.19
283.282	203.19
283.513	219.19
283.745	227.19
283.976	229.19
284.207	208.19
284.439	205.19
284.67	207.19
284.901	229.19
285.132	212.19
285.364	230.19
285.595	230.19
285.826	200.19
286.057	207.19
286.288	216.19
286.52	222.19
286.751	213.19
286.982	207.19
287.213	209.19
287.444	211.19
287.675	222.19
287.906	217.19
288.138	253.19
288.369	243.19
288.6	220.19
288.831	211.19
289.062	225.19
289.293	219.19
289.524	209.19
289.755	206.19
289.986	221.19
290.217	223.19
290.448	213.19
290.679	253.19
290.91	232.19
291.141	230.19
291.371	230.19
291.602	222.19
291.833	236.19
292.064	243.19
292.295	215.19
292.526	230.19
292.757	221.19
292.987	212.19
293.218	206.19
293.449	235.19
293.68	225.19
293.91	234.19
294.141	217.19
294.372	225.19
294.603	245.19
294.833	228.19
295.064	232.19
295.295	224.19
295.525	234.19
295.756	237.19
295.987	255.19
296.217	248.19
296.448	263.19
296.679	225.19
296.909	237.19
297.14	237.19
297.37	242.19
297.601	228.19
297.831	241.19
298.062	248.19
298.292	233.19
298.523	228.19
298.753	239.19
298.984	247.19
299.214	238.19
299.445	227.19
299.675	253.19
299.905	238.19
300.136	257.19
300.366	244.19
300.597	238.19
300.827	234.19
301.057	232.19
301.288	248.19
301.518	246.19
301.748	249.19
301.979	250.19
302.209	257.19
302.439	236.19
302.669	249.19
302.9	263.19
303.13	255.19
303.36	237.19
303.59	262.19
303.82	253.19
304.051	267.19
304.281	274.19
304.511	269.19
304.741	267.19
304.971	264.19
305.201	260.19
305.431	255.19
305.661	245.19
305.891	253.19
306.121	270.19
306.352	262.19
306.582	269.19
306.812	255.19
307.042	255.19
307.272	249.19
307.502	267.19
307.731	274.19
307.961	261.19
308.191	244.19
308.421	252.19
308.651	271.19
308.881	273.19
309.111	289.19
309.341	245.19
309.571	281.19
309.8	273.19
310.03	276.19
310.26	294.19
310.49	292.19
310.72	286.19
310.949	279.19
311.179	298.19
311.409	281.19
311.639	288.19
311.868	289.19
312.098	278.19
312.328	281.19
312.557	320.19
312.787	291.19
313.017	319.19
313.246	295.19
313.476	290.19
313.706	295.19
313.935	298.19
314.165	282.19
314.394	299.19
314.624	275.19
314.853	297.19
315.083	275.19
315.312	286.19
315.542	291.19
315.771	285.19
316.001	293.19
316.23	286.19
316.46	282.19
316.689	285.19
316.919	287.19
317.148	310.19
317.377	313.19
317.607	308.19
317.836	295.19
318.065	291.19
318.295	288.19
318.524	290.19
318.753	278.19
318.983	302.19
319.212	295.19
319.441	294.19
319.67	311.19
319.9	289.19
320.129	283.19
320.358	302.19
320.587	285.19
320.816	313.19
321.046	313.19
321.275	309.19
321.504	297.19
321.733	322.19
321.962	307.19
322.191	324.19
322.42	342.19
322.649	339.19
322.878	329.19
323.108	329.19
323.337	334.19
323.566	364.19
323.795	378.19
324.024	403.19
324.253	462.19
324.482	645.19
324.71	933.19
324.939	1250.19
325.168	1037.19
325.397	563.19
325.626	420.19
325.855	355.19
326.084	357.19
326.313	355.19
326.542	374.19
326.77	370.19
326.999	452.19
327.228	567.19
327.457	842.19
327.686	908.19
327.914	627.19
328.143	451.19
328.372	377.19
328.6	398.19
328.829	383.19
329.058	371.19
329.287	415.19
329.515	366.19
329.744	369.19
329.972	341.19
330.201	367.19
330.43	357.19
330.658	397.19
330.887	404.19
331.115	406.19
331.344	382.19
331.572	351.19
331.801	338.19
332.03	350.19
332.258	350.19
332.486	325.19
332.715	335.19
332.943	314.19
333.172	317.19
333.4	336.19
333.629	349.19
333.857	356.19
334.085	351.19
334.314	321.19
334.542	346.19
334.771	358.19
334.999	348.19
335.227	358.19
335.455	333.19
335.684	348.19
335.912	335.19
336.14	329.19
336.369	327.19
336.597	344.19
336.825	341.19
337.053	342.19
337.281	345.19
337.51	332.19
337.738	330.19
337.966	330.19
338.194	333.19
338.422	326.19
338.65	339.19
338.878	327.19
339.106	326.19
339.334	316.19
339.562	321.19
339.79	317.19
340.018	334.19
340.246	343.19
340.474	310.19
340.702	338.19
340.93	331.19
341.158	346.19
341.386	316.19
341.614	321.19
341.842	334.19
342.07	321.19
342.298	334.19
342.526	326.19
342.754	316.19
342.981	308.19
343.209	325.19
343.437	337.19
343.665	329.19
343.893	327.19
344.12	334.19
344.348	345.19
344.576	339.19
344.804	350.19
345.031	326.19
345.259	345.19
345.487	345.19
345.714	326.19
345.942	328.19
346.17	317.19
346.397	300.19
346.625	323.19
346.853	315.19
347.08	306.19
347.308	331.19
347.535	338.19
347.763	326.19
347.99	324.19
348.218	317.19
348.445	315.19
348.673	314.19
348.9	291.19
349.128	306.19
349.355	300.19
349.583	311.19
349.81	300.19
350.037	325.19
350.265	315.19
350.492	299.19
350.72	318.19
350.947	321.19
351.174	332.19
351.402	305.19
351.629	322.19
351.856	305.19
352.083	315.19
352.311	315.19
352.538	347.19
352.765	335.19
352.992	327.19
353.22	311.19
353.447	307.19
353.674	300.19
353.901	313.19
354.128	291.19
354.355	305.19
354.583	314.19
354.81	308.19
355.037	307.19
355.264	298.19
355.491	311.19
355.718	300.19
355.945	309.19
356.172	309.19
356.399	310.19
356.626	320.19
356.853	306.19
357.08	307.19
357.307	291.19
357.534	302.19
357.761	294.19
357.988	291.19
358.215	322.19
358.441	290.19
358.668	298.19
358.895	309.19
359.122	293.19
359.349	317.19
359.576	324.19
359.802	327.19
360.029	354.19
360.256	347.19
360.483	339.19
360.709	338.19
360.936	321.19
361.163	315.19
361.39	314.19
361.616	334.19
361.843	299.19
362.07	305.19
362.296	320.19
362.523	315.19
362.749	325.19
362.976	311.19
363.203	308.19
363.429	316.19
363.656	305.19
363.882	311.19
364.109	313.19
364.335	299.19
364.562	303.19
364.788	311.19
365.015	311.19
365.241	311.19
365.468	306.19
365.694	320.19
365.92	334.19
366.147	321.19
366.373	310.19
366.599	310.19
366.826	306.19
367.052	300.19
367.278	311.19
367.505	307.19
367.731	299.19
367.957	315.19
368.184	299.19
368.41	317.19
368.636	316.19
368.862	300.19
369.089	314.19
369.315	306.19
369.541	328.19
369.767	335.19
369.993	318.19
370.219	321.19
370.445	323.19
370.672	305.19
370.898	311.19
371.124	305.19
371.35	301.19
371.576	319.19
371.802	320.19
372.028	303.19
372.254	309.19
372.48	321.19
372.706	312.19
372.932	310.19
373.158	302.19
373.384	329.19
373.61	305.19
373.835	312.19
374.061	326.19
374.287	309.19
374.513	322.19
374.739	311.19
374.965	326.19
375.191	311.19
375.416	329.19
375.642	320.19
375.868	310.19
376.094	317.19
376.319	318.19
376.545	312.19
376.771	307.19
376.997	302.19
377.222	309.19
377.448	313.19
377.674	303.19
377.899	315.19
378.125	306.19
378.35	307.19
378.576	312.19
378.802	315.19
379.027	303.19
379.253	294.19
379.478	312.19
379.704	315.19
379.929	327.19
380.155	319.19
380.38	313.19
380.606	322.19
380.831	333.19
381.057	301.19
381.282	324.19
381.507	318.19
381.733	302.19
381.958	334.19
382.184	322.19
382.409	332.19
382.634	314.19
382.86	329.19
383.085	324.19
383.31	312.19
383.535	333.19
383.761	316.19
383.986	346.19
384.211	339.19
384.436	332.19
384.662	333.19
384.887	335.19
385.112	329.19
385.337	342.19
385.562	347.19
385.787	358.19
386.013	347.19
386.238	349.19
386.463	324.19
386.688	320.19
386.913	323.19
387.138	333.19
387.363	331.19
387.588	350.19
387.813	350.19
388.038	327.19
388.263	334.19
388.488	356.19
388.713	351.19
388.938	322.19
389.163	329.19
389.387	348.19
389.612	333.19
389.837	343.19
390.062	332.19
390.287	333.19
390.512	334.19
390.736	348.19
390.961	329.19
391.186	349.19
391.411	340.19
391.636	358.19
391.86	347.19
392.085	355.19
392.31	358.19
392.534	346.19
392.759	350.19
392.984	348.19
393.208	348.19
393.433	351.19
393.658	330.19
393.882	340.19
394.107	322.19
394.331	342.19
394.556	347.19
394.78	336.19
395.005	343.19
395.229	333.19
395.454	349.19
395.678	343.19
395.903	361.19
396.127	389.19
396.352	353.19
396.576	337.19
396.801	340.19
397.025	347.19
397.249	349.19
397.474	341.19
397.698	353.19
397.922	361.19
398.147	369.19
398.371	371.19
398.595	388.19
398.82	377.19
399.044	382.19
399.268	389.19
399.492	425.19
399.717	406.19
399.941	435.19
400.165	462.19
400.389	445.19
400.613	428.19
400.837	389.19
401.062	372.19
401.286	384.19
401.51	369.19
401.734	365.19
401.958	401.19
402.182	376.19
402.406	383.19
402.63	363.19
402.854	387.19
403.078	395.19
403.302	381.19
403.526	396.19
403.75	385.19
403.974	387.19
404.198	366.19
404.422	359.19
404.645	395.19
404.869	388.19
405.093	404.19
405.317	415.19
405.541	426.19
405.765	397.19
405.988	381.19
406.212	420.19
406.436	412.19
406.66	435.19
406.883	425.19
407.107	438.19
407.331	443.19
407.555	482.19
407.778	500.19
408.002	440.19
408.226	426.19
408.449	429.19
408.673	435.19
408.896	432.19
409.12	466.19
409.344	437.19
409.567	433.19
409.791	403.19
410.014	384.19
410.238	404.19
410.461	382.19
410.685	387.19
410.908	419.19
411.132	443.19
411.355	437.19
411.578	439.19
411.802	386.19
412.025	370.19
412.249	406.19
412.472	399.19
412.695	394.19
412.919	381.19
413.142	391.19
413.365	377.19
413.589	377.19
413.812	365.19
414.035	370.19
414.258	353.19
414.482	361.19
414.705	377.19
414.928	379.19
415.151	393.19
415.374	362.19
415.597	377.19
415.821	369.19
416.044	371.19
416.267	364.19
416.49	373.19
416.713	375.19
416.936	364.19
417.159	375.19
417.382	379.19
417.605	373.19
417.828	359.19
418.051	381.19
418.274	388.19
418.497	379.19
418.72	350.19
418.943	377.19
419.166	395.19
419.389	388.19
419.611	389.19
419.834	381.19
420.057	390.19
420.28	381.19
420.503	373.19
420.726	382.19
420.948	381.19
421.171	410.19
421.394	439.19
421.617	386.19
421.839	387.19
422.062	373.19
422.285	382.19
422.507	437.19
422.73	481.19
422.953	423.19
423.175	397.19
423.398	396.19
423.621	379.19
423.843	407.19
424.066	421.19
424.288	396.19
424.511	415.19
424.733	446.19
424.956	499.19
425.178	484.19
425.401	470.19
425.623	487.19
425.846	435.19
426.068	405.19
426.291	403.19
426.513	403.19
426.735	411.19
426.958	411.19
427.18	485.19
427.402	573.19
427.625	602.19
427.847	541.19
428.069	470.19
428.292	437.19
428.514	388.19
428.736	391.19
428.958	382.19
429.181	371.19
429.403	379.19
429.625	400.19
429.847	385.19
430.069	429.19
430.292	446.19
430.514	400.19
430.736	374.19
430.958	375.19
431.18	347.19
431.402	387.19
431.624	360.19
431.846	360.19
432.068	348.19
432.29	355.19
432.512	359.19
432.734	365.19
432.956	365.19
433.178	358.19
433.4	400.19
433.622	366.19
433.844	360.19
434.066	367.19
434.287	359.19
434.509	353.19
434.731	358.19
434.953	375.19
435.175	382.19
435.397	398.19
435.618	404.19
435.84	420.19
436.062	508.19
436.284	531.19
436.505	455.19
436.727	419.19
436.949	371.19
437.17	374.19
437.392	372.19
437.614	370.19
437.835	398.19
438.057	455.19
438.278	523.19
438.5	542.19
438.721	583.19
438.943	553.19
439.165	437.19
439.386	392.19
439.608	398.19
439.829	396.19
440.05	415.19
440.272	463.19
440.493	406.19
440.715	391.19
440.936	377.19
441.158	369.19
441.379	357.19
441.6	383.19
441.822	405.19
442.043	420.19
442.264	487.19
442.486	484.19
442.707	443.19
442.928	418.19
443.149	423.19
443.371	422.19
443.592	474.19
443.813	511.19
444.034	529.19
444.255	453.19
444.476	429.19
444.698	404.19
444.919	417.19
445.14	548.19
445.361	467.19
445.582	437.19
445.803	492.19
446.024	531.19
446.245	527.19
446.466	469.19
446.687	421.19
446.908	405.19
447.129	385.19
447.35	403.19
447.571	374.19
447.792	358.19
448.013	366.19
448.234	383.19
448.455	410.19
448.675	496.19
448.896	563.19
449.117	488.19
449.338	439.19
449.559	499.19
449.779	561.19
450	484.19
450.221	415.19
450.442	378.19
450.662	349.19
450.883	360.19
451.104	385.19
451.324	349.19
451.545	364.19
451.766	347.19
451.986	350.19
452.207	335.19
452.428	347.19
452.648	355.19
452.869	331.19
453.089	349.19
453.31	348.19
453.53	323.19
453.751	330.19
453.971	342.19
454.192	329.19
454.412	341.19
454.633	341.19
454.853	324.19
455.073	305.19
455.294	358.19
455.514	386.19
455.734	371.19
455.955	336.19
456.175	313.19
456.395	309.19
456.616	332.19
456.836	329.19
457.056	330.19
457.276	313.19
457.497	349.19
457.717	335.19
457.937	333.19
458.157	315.19
458.377	332.19
458.598	348.19
458.818	368.19
459.038	422.19
459.258	415.19
459.478	370.19
459.698	374.19
459.918	349.19
460.138	375.19
460.358	355.19
460.578	377.19
460.798	373.19
461.018	381.19
461.238	371.19
461.458	370.19
461.678	361.19
461.898	365.19
462.118	371.19
462.338	384.19
462.558	381.19
462.777	382.19
462.997	383.19
463.217	404.19
463.437	397.19
463.657	396.19
463.876	391.19
464.096	400.19
464.316	389.19
464.536	391.19
464.755	383.19
464.975	378.19
465.195	403.19
465.414	439.19
465.634	397.19
465.854	371.19
466.073	360.19
466.293	373.19
466.512	356.19
466.732	361.19
466.951	365.19
467.171	352.19
467.391	351.19
467.61	360.19
467.829	347.19
468.049	347.19
468.268	350.19
468.488	335.19
468.707	334.19
468.927	333.19
469.146	329.19
469.365	336.19
469.585	352.19
469.804	348.19
470.023	352.19
470.243	347.19
470.462	360.19
470.681	357.19
470.901	366.19
471.12	359.19
471.339	370.19
471.558	373.19
471.777	362.19
471.997	360.19
472.216	345.19
472.435	345.19
472.654	352.19
472.873	359.19
473.092	350.19
473.311	353.19
473.53	367.19
473.749	352.19
473.968	388.19
474.187	462.19
474.406	442.19
474.625	381.19
474.844	389.19
475.063	366.19
475.282	385.19
475.501	378.19
475.72	359.19
475.939	337.19
476.158	359.19
476.377	366.19
476.596	365.19
476.814	380.19
477.033	373.19
477.252	372.19
477.471	383.19
477.69	398.19
477.908	389.19
478.127	377.19
478.346	387.19
478.564	385.19
478.783	406.19
479.002	401.19
479.22	390.19
479.439	410.19
479.658	400.19
479.876	397.19
480.095	417.19
480.313	420.19
480.532	417.19
480.751	412.19
480.969	418.19
481.188	421.19
481.406	448.19
481.624	418.19
481.843	407.19
482.061	425.19
482.28	400.19
482.498	401.19
482.717	400.19
482.935	389.19
483.153	410.19
483.372	400.19
483.59	404.19
483.808	400.19
484.027	430.19
484.245	405.19
484.463	417.19
484.681	408.19
484.9	443.19
485.118	408.19
485.336	407.19
485.554	416.19
485.772	419.19
485.99	426.19
486.209	429.19
486.427	439.19
486.645	444.19
486.863	404.19
487.081	427.19
487.299	456.19
487.517	435.19
487.735	434.19
487.953	406.19
488.171	437.19
488.389	454.19
488.607	431.19
488.825	435.19
489.043	442.19
489.261	416.19
489.479	442.19
489.696	415.19
489.914	427.19
490.132	438.19
490.35	450.19
490.568	436.19
490.786	474.19
491.003	480.19
491.221	488.19
491.439	477.19
491.657	490.19
491.874	490.19
492.092	475.19
492.31	490.19
492.527	511.19
492.745	503.19
492.963	489.19
493.18	507.19
493.398	499.19
493.615	491.19
493.833	495.19
494.05	477.19
494.268	507.19
494.485	513.19
494.703	510.19
494.92	507.19
495.138	521.19
495.355	519.19
495.573	498.19
495.79	513.19
496.008	525.19
496.225	517.19
496.442	514.19
496.66	515.19
496.877	486.19
497.094	539.19
497.312	520.19
497.529	511.19
497.746	514.19
497.963	552.19
498.181	546.19
498.398	557.19
498.615	561.19
498.832	585.19
499.049	608.19
499.267	583.19
499.484	585.19
499.701	641.19
499.918	647.19
500.135	685.19
500.352	706.19
500.569	683.19
500.786	723.19
501.003	691.19
501.22	694.19
501.437	689.19
501.654	626.19
501.871	629.19
502.088	627.19
