Data from 1983.PennyLincolnUp.Lamp.En5.5.200Scan.071819.P1_HRD10591_16-53-55-965.txt Node
Date: Thu Jul 18 16:53:55 EDT 2019
User: cochatt
Spectrometer: HR+D1059
Trigger mode: 1
Integration Time (sec): 1.000000E-1
Scans to average: 1
Electric dark correction enabled: true
Nonlinearity correction enabled: false
Boxcar width: 0
XAxis mode: Wavelengths
Number of Pixels in Spectrum: 2048
>>>>>Begin Spectral Data<<<<<
223.165	-7.5
223.4	-7.5
223.635	-7.5
223.869	-19.5
224.104	-27.5
224.338	-9.5
224.573	-11.5
224.808	-12.5
225.042	-13.5
225.277	-3.5
225.511	-11.5
225.746	10.5
225.98	-0.5
226.215	9.5
226.449	19.5
226.683	10.5
226.918	34.5
227.152	32.5
227.387	47.5
227.621	38.5
227.856	32.5
228.09	38.5
228.324	60.5
228.559	64.5
228.793	63.5
229.027	83.5
229.262	96.5
229.496	98.5
229.73	138.5
229.964	136.5
230.199	119.5
230.433	96.5
230.667	103.5
230.901	106.5
231.136	95.5
231.37	105.5
231.604	123.5
231.838	109.5
232.072	104.5
232.306	119.5
232.541	109.5
232.775	116.5
233.009	111.5
233.243	106.5
233.477	118.5
233.711	119.5
233.945	100.5
234.179	108.5
234.413	115.5
234.647	120.5
234.881	104.5
235.115	119.5
235.349	113.5
235.583	113.5
235.817	118.5
236.051	122.5
236.285	111.5
236.519	103.5
236.753	129.5
236.987	148.5
237.221	176.5
237.455	227.5
237.689	171.5
237.922	128.5
238.156	110.5
238.39	122.5
238.624	123.5
238.858	126.5
239.091	119.5
239.325	127.5
239.559	124.5
239.793	122.5
240.027	141.5
240.26	133.5
240.494	136.5
240.728	139.5
240.961	139.5
241.195	144.5
241.429	132.5
241.662	140.5
241.896	134.5
242.13	134.5
242.363	120.5
242.597	131.5
242.83	132.5
243.064	132.5
243.298	137.5
243.531	146.5
243.765	137.5
243.998	125.5
244.232	119.5
244.465	140.5
244.699	154.5
244.932	142.5
245.166	124.5
245.399	139.5
245.633	138.5
245.866	126.5
246.099	140.5
246.333	136.5
246.566	150.5
246.8	134.5
247.033	141.5
247.266	142.5
247.5	157.5
247.733	154.5
247.966	173.5
248.2	161.5
248.433	175.5
248.666	162.5
248.899	170.5
249.133	196.5
249.366	194.5
249.599	179.5
249.832	162.5
250.066	178.5
250.299	178.5
250.532	188.5
250.765	196.5
250.998	195.5
251.231	203.5
251.465	197.5
251.698	181.5
251.931	181.5
252.164	172.5
252.397	185.5
252.63	191.5
252.863	185.5
253.096	190.5
253.329	225.5
253.562	214.5
253.795	215.5
254.028	218.5
254.261	208.5
254.494	210.5
254.727	232.5
254.96	240.5
255.193	258.5
255.426	226.5
255.659	212.5
255.892	210.5
256.124	211.5
256.357	204.5
256.59	201.5
256.823	203.5
257.056	213.5
257.289	202.5
257.521	195.5
257.754	202.5
257.987	189.5
258.22	190.5
258.452	206.5
258.685	201.5
258.918	203.5
259.151	200.5
259.383	191.5
259.616	208.5
259.849	216.5
260.081	224.5
260.314	221.5
260.547	237.5
260.779	221.5
261.012	208.5
261.244	206.5
261.477	199.5
261.71	191.5
261.942	224.5
262.175	207.5
262.407	214.5
262.64	188.5
262.872	202.5
263.105	206.5
263.337	195.5
263.57	204.5
263.802	191.5
264.035	181.5
264.267	186.5
264.499	198.5
264.732	193.5
264.964	174.5
265.197	187.5
265.429	202.5
265.661	204.5
265.894	199.5
266.126	191.5
266.358	197.5
266.591	197.5
266.823	204.5
267.055	218.5
267.287	212.5
267.52	208.5
267.752	204.5
267.984	223.5
268.216	212.5
268.448	220.5
268.681	234.5
268.913	231.5
269.145	234.5
269.377	263.5
269.609	238.5
269.841	239.5
270.073	261.5
270.306	267.5
270.538	271.5
270.77	280.5
271.002	271.5
271.234	259.5
271.466	271.5
271.698	294.5
271.93	285.5
272.162	291.5
272.394	289.5
272.626	268.5
272.858	264.5
273.09	247.5
273.322	257.5
273.553	234.5
273.785	258.5
274.017	228.5
274.249	259.5
274.481	247.5
274.713	243.5
274.945	238.5
275.176	252.5
275.408	236.5
275.64	246.5
275.872	244.5
276.104	231.5
276.335	230.5
276.567	252.5
276.799	269.5
277.031	283.5
277.262	293.5
277.494	277.5
277.726	273.5
277.957	251.5
278.189	253.5
278.421	268.5
278.652	237.5
278.884	238.5
279.115	233.5
279.347	247.5
279.579	230.5
279.81	255.5
280.042	224.5
280.273	228.5
280.505	256.5
280.736	231.5
280.968	251.5
281.199	254.5
281.431	255.5
281.662	240.5
281.894	246.5
282.125	256.5
282.356	264.5
282.588	291.5
282.819	293.5
283.051	254.5
283.282	230.5
283.513	267.5
283.745	277.5
283.976	262.5
284.207	249.5
284.439	258.5
284.67	256.5
284.901	240.5
285.132	265.5
285.364	264.5
285.595	251.5
285.826	270.5
286.057	264.5
286.288	249.5
286.52	258.5
286.751	251.5
286.982	247.5
287.213	244.5
287.444	261.5
287.675	254.5
287.906	274.5
288.138	274.5
288.369	278.5
288.6	282.5
288.831	265.5
289.062	282.5
289.293	270.5
289.524	263.5
289.755	267.5
289.986	252.5
290.217	264.5
290.448	252.5
290.679	251.5
290.91	260.5
291.141	263.5
291.371	265.5
291.602	260.5
291.833	264.5
292.064	254.5
292.295	265.5
292.526	260.5
292.757	284.5
292.987	263.5
293.218	246.5
293.449	265.5
293.68	261.5
293.91	251.5
294.141	256.5
294.372	268.5
294.603	278.5
294.833	269.5
295.064	269.5
295.295	275.5
295.525	266.5
295.756	276.5
295.987	290.5
296.217	295.5
296.448	313.5
296.679	286.5
296.909	290.5
297.14	268.5
297.37	280.5
297.601	265.5
297.831	290.5
298.062	277.5
298.292	254.5
298.523	259.5
298.753	265.5
298.984	282.5
299.214	296.5
299.445	285.5
299.675	298.5
299.905	279.5
300.136	286.5
300.366	309.5
300.597	276.5
300.827	292.5
301.057	319.5
301.288	316.5
301.518	295.5
301.748	292.5
301.979	296.5
302.209	302.5
302.439	293.5
302.669	301.5
302.9	309.5
303.13	295.5
303.36	285.5
303.59	280.5
303.82	310.5
304.051	294.5
304.281	298.5
304.511	314.5
304.741	283.5
304.971	282.5
305.201	282.5
305.431	297.5
305.661	295.5
305.891	305.5
306.121	301.5
306.352	319.5
306.582	316.5
306.812	295.5
307.042	303.5
307.272	275.5
307.502	300.5
307.731	310.5
307.961	314.5
308.191	297.5
308.421	318.5
308.651	298.5
308.881	303.5
309.111	338.5
309.341	302.5
309.571	307.5
309.8	315.5
310.03	353.5
310.26	335.5
310.49	357.5
310.72	348.5
310.949	383.5
311.179	376.5
311.409	350.5
311.639	349.5
311.868	344.5
312.098	334.5
312.328	344.5
312.557	367.5
312.787	362.5
313.017	374.5
313.246	370.5
313.476	342.5
313.706	333.5
313.935	362.5
314.165	346.5
314.394	358.5
314.624	357.5
314.853	350.5
315.083	357.5
315.312	341.5
315.542	327.5
315.771	345.5
316.001	354.5
316.23	342.5
316.46	339.5
316.689	340.5
316.919	335.5
317.148	352.5
317.377	352.5
317.607	364.5
317.836	356.5
318.065	347.5
318.295	337.5
318.524	338.5
318.753	346.5
318.983	351.5
319.212	356.5
319.441	354.5
319.67	364.5
319.9	359.5
320.129	356.5
320.358	346.5
320.587	365.5
320.816	365.5
321.046	354.5
321.275	373.5
321.504	370.5
321.733	382.5
321.962	373.5
322.191	391.5
322.42	397.5
322.649	435.5
322.878	406.5
323.108	428.5
323.337	454.5
323.566	482.5
323.795	508.5
324.024	566.5
324.253	695.5
324.482	999.5
324.71	1498.5
324.939	1950.5
325.168	1634.5
325.397	896.5
325.626	622.5
325.855	532.5
326.084	484.5
326.313	471.5
326.542	488.5
326.77	540.5
326.999	638.5
327.228	902.5
327.457	1286.5
327.686	1468.5
327.914	980.5
328.143	690.5
328.372	592.5
328.6	558.5
328.829	546.5
329.058	537.5
329.287	583.5
329.515	538.5
329.744	473.5
329.972	461.5
330.201	472.5
330.43	514.5
330.658	534.5
330.887	590.5
331.115	588.5
331.344	476.5
331.572	462.5
331.801	436.5
332.03	452.5
332.258	444.5
332.486	384.5
332.715	404.5
332.943	418.5
333.172	400.5
333.4	424.5
333.629	436.5
333.857	450.5
334.085	437.5
334.314	445.5
334.542	456.5
334.771	452.5
334.999	440.5
335.227	415.5
335.455	388.5
335.684	415.5
335.912	406.5
336.14	406.5
336.369	391.5
336.597	408.5
336.825	415.5
337.053	378.5
337.281	379.5
337.51	387.5
337.738	400.5
337.966	414.5
338.194	400.5
338.422	409.5
338.65	383.5
338.878	396.5
339.106	371.5
339.334	371.5
339.562	392.5
339.79	382.5
340.018	379.5
340.246	394.5
340.474	411.5
340.702	378.5
340.93	372.5
341.158	406.5
341.386	394.5
341.614	414.5
341.842	393.5
342.07	404.5
342.298	412.5
342.526	388.5
342.754	387.5
342.981	356.5
343.209	358.5
343.437	377.5
343.665	388.5
343.893	380.5
344.12	389.5
344.348	392.5
344.576	400.5
344.804	380.5
345.031	422.5
345.259	402.5
345.487	422.5
345.714	369.5
345.942	380.5
346.17	389.5
346.397	384.5
346.625	380.5
346.853	389.5
347.08	347.5
347.308	390.5
347.535	374.5
347.763	393.5
347.99	378.5
348.218	390.5
348.445	399.5
348.673	392.5
348.9	378.5
349.128	382.5
349.355	380.5
349.583	350.5
349.81	361.5
350.037	346.5
350.265	363.5
350.492	347.5
350.72	360.5
350.947	367.5
351.174	380.5
351.402	402.5
351.629	387.5
351.856	358.5
352.083	401.5
352.311	413.5
352.538	395.5
352.765	399.5
352.992	392.5
353.22	384.5
353.447	366.5
353.674	358.5
353.901	351.5
354.128	367.5
354.355	344.5
354.583	378.5
354.81	356.5
355.037	362.5
355.264	351.5
355.491	352.5
355.718	336.5
355.945	346.5
356.172	330.5
356.399	336.5
356.626	340.5
356.853	357.5
357.08	332.5
357.307	356.5
357.534	331.5
357.761	339.5
357.988	361.5
358.215	364.5
358.441	360.5
358.668	351.5
358.895	352.5
359.122	357.5
359.349	369.5
359.576	371.5
359.802	400.5
360.029	450.5
360.256	436.5
360.483	426.5
360.709	380.5
360.936	376.5
361.163	374.5
361.39	370.5
361.616	380.5
361.843	364.5
362.07	386.5
362.296	382.5
362.523	384.5
362.749	384.5
362.976	387.5
363.203	363.5
363.429	360.5
363.656	373.5
363.882	346.5
364.109	360.5
364.335	346.5
364.562	336.5
364.788	352.5
365.015	365.5
365.241	361.5
365.468	359.5
365.694	370.5
365.92	374.5
366.147	359.5
366.373	349.5
366.599	378.5
366.826	347.5
367.052	360.5
367.278	356.5
367.505	365.5
367.731	368.5
367.957	350.5
368.184	357.5
368.41	377.5
368.636	379.5
368.862	364.5
369.089	363.5
369.315	349.5
369.541	348.5
369.767	349.5
369.993	357.5
370.219	360.5
370.445	341.5
370.672	354.5
370.898	342.5
371.124	341.5
371.35	349.5
371.576	347.5
371.802	344.5
372.028	344.5
372.254	343.5
372.48	372.5
372.706	355.5
372.932	341.5
373.158	341.5
373.384	351.5
373.61	347.5
373.835	357.5
374.061	363.5
374.287	373.5
374.513	341.5
374.739	357.5
374.965	349.5
375.191	353.5
375.416	366.5
375.642	378.5
375.868	348.5
376.094	362.5
376.319	357.5
376.545	367.5
376.771	360.5
376.997	321.5
377.222	352.5
377.448	333.5
377.674	354.5
377.899	341.5
378.125	343.5
378.35	338.5
378.576	348.5
378.802	353.5
379.027	360.5
379.253	348.5
379.478	340.5
379.704	343.5
379.929	347.5
380.155	355.5
380.38	356.5
380.606	346.5
380.831	354.5
381.057	349.5
381.282	353.5
381.507	331.5
381.733	358.5
381.958	346.5
382.184	350.5
382.409	358.5
382.634	341.5
382.86	372.5
383.085	373.5
383.31	380.5
383.535	382.5
383.761	360.5
383.986	368.5
384.211	358.5
384.436	353.5
384.662	363.5
384.887	368.5
385.112	365.5
385.337	371.5
385.562	384.5
385.787	364.5
386.013	376.5
386.238	381.5
386.463	371.5
386.688	390.5
386.913	379.5
387.138	378.5
387.363	378.5
387.588	381.5
387.813	372.5
388.038	379.5
388.263	358.5
388.488	362.5
388.713	372.5
388.938	363.5
389.163	351.5
389.387	382.5
389.612	350.5
389.837	372.5
390.062	380.5
390.287	387.5
390.512	372.5
390.736	362.5
390.961	378.5
391.186	381.5
391.411	409.5
391.636	385.5
391.86	385.5
392.085	401.5
392.31	397.5
392.534	382.5
392.759	394.5
392.984	375.5
393.208	371.5
393.433	366.5
393.658	374.5
393.882	362.5
394.107	384.5
394.331	386.5
394.556	384.5
394.78	379.5
395.005	367.5
395.229	367.5
395.454	385.5
395.678	376.5
395.903	390.5
396.127	401.5
396.352	416.5
396.576	391.5
396.801	394.5
397.025	387.5
397.249	384.5
397.474	394.5
397.698	392.5
397.922	423.5
398.147	416.5
398.371	415.5
398.595	425.5
398.82	415.5
399.044	426.5
399.268	439.5
399.492	460.5
399.717	472.5
399.941	486.5
400.165	482.5
400.389	522.5
400.613	477.5
400.837	439.5
401.062	417.5
401.286	439.5
401.51	436.5
401.734	418.5
401.958	447.5
402.182	452.5
402.406	451.5
402.63	459.5
402.854	437.5
403.078	446.5
403.302	446.5
403.526	436.5
403.75	435.5
403.974	437.5
404.198	411.5
404.422	453.5
404.645	451.5
404.869	456.5
405.093	460.5
405.317	483.5
405.541	498.5
405.765	483.5
405.988	458.5
406.212	469.5
406.436	495.5
406.66	521.5
406.883	488.5
407.107	502.5
407.331	535.5
407.555	577.5
407.778	562.5
408.002	540.5
408.226	486.5
408.449	472.5
408.673	468.5
408.896	522.5
409.12	522.5
409.344	492.5
409.567	455.5
409.791	458.5
410.014	426.5
410.238	418.5
410.461	426.5
410.685	439.5
410.908	468.5
411.132	471.5
411.355	490.5
411.578	469.5
411.802	436.5
412.025	424.5
412.249	446.5
412.472	474.5
412.695	479.5
412.919	460.5
413.142	429.5
413.365	419.5
413.589	415.5
413.812	432.5
414.035	426.5
414.258	413.5
414.482	411.5
414.705	419.5
414.928	418.5
415.151	417.5
415.374	410.5
415.597	412.5
415.821	417.5
416.044	416.5
416.267	404.5
416.49	412.5
416.713	415.5
416.936	397.5
417.159	411.5
417.382	424.5
417.605	425.5
417.828	432.5
418.051	436.5
418.274	432.5
418.497	431.5
418.72	417.5
418.943	415.5
419.166	422.5
419.389	434.5
419.611	436.5
419.834	437.5
420.057	442.5
420.28	439.5
420.503	436.5
420.726	421.5
420.948	446.5
421.171	460.5
421.394	489.5
421.617	454.5
421.839	454.5
422.062	438.5
422.285	471.5
422.507	491.5
422.73	534.5
422.953	528.5
423.175	475.5
423.398	439.5
423.621	470.5
423.843	482.5
424.066	474.5
424.288	462.5
424.511	492.5
424.733	540.5
424.956	585.5
425.178	559.5
425.401	556.5
425.623	550.5
425.846	481.5
426.068	456.5
426.291	455.5
426.513	471.5
426.735	470.5
426.958	511.5
427.18	586.5
427.402	672.5
427.625	724.5
427.847	671.5
428.069	564.5
428.292	499.5
428.514	469.5
428.736	453.5
428.958	448.5
429.181	434.5
429.403	433.5
429.625	447.5
429.847	462.5
430.069	538.5
430.292	506.5
430.514	450.5
430.736	441.5
430.958	436.5
431.18	404.5
431.402	411.5
431.624	394.5
431.846	422.5
432.068	391.5
432.29	399.5
432.512	420.5
432.734	421.5
432.956	426.5
433.178	404.5
433.4	440.5
433.622	423.5
433.844	411.5
434.066	411.5
434.287	406.5
434.509	401.5
434.731	422.5
434.953	425.5
435.175	462.5
435.397	462.5
435.618	457.5
435.84	505.5
436.062	564.5
436.284	611.5
436.505	528.5
436.727	470.5
436.949	446.5
437.17	460.5
437.392	421.5
437.614	450.5
437.835	481.5
438.057	568.5
438.278	638.5
438.5	600.5
438.721	655.5
438.943	657.5
439.165	523.5
439.386	480.5
439.608	486.5
439.829	486.5
440.05	508.5
440.272	534.5
440.493	493.5
440.715	466.5
440.936	448.5
441.158	444.5
441.379	463.5
441.6	448.5
441.822	475.5
442.043	511.5
442.264	583.5
442.486	612.5
442.707	502.5
442.928	485.5
443.149	511.5
443.371	493.5
443.592	539.5
443.813	620.5
444.034	653.5
444.255	532.5
444.476	482.5
444.698	438.5
444.919	455.5
445.14	577.5
445.361	524.5
445.582	496.5
445.803	530.5
446.024	620.5
446.245	632.5
446.466	566.5
446.687	492.5
446.908	461.5
447.129	451.5
447.35	433.5
447.571	430.5
447.792	444.5
448.013	464.5
448.234	439.5
448.455	494.5
448.675	576.5
448.896	647.5
449.117	565.5
449.338	564.5
449.559	647.5
449.779	692.5
450	566.5
450.221	466.5
450.442	452.5
450.662	436.5
450.883	456.5
451.104	456.5
451.324	459.5
451.545	426.5
451.766	402.5
451.986	397.5
452.207	389.5
452.428	397.5
452.648	398.5
452.869	400.5
453.089	412.5
453.31	432.5
453.53	411.5
453.751	406.5
453.971	394.5
454.192	419.5
454.412	404.5
454.633	394.5
454.853	378.5
455.073	381.5
455.294	423.5
455.514	469.5
455.734	467.5
455.955	398.5
456.175	386.5
456.395	366.5
456.616	370.5
456.836	372.5
457.056	385.5
457.276	354.5
457.497	368.5
457.717	373.5
457.937	390.5
458.157	400.5
458.377	388.5
458.598	408.5
458.818	453.5
459.038	537.5
459.258	536.5
459.478	462.5
459.698	422.5
459.918	401.5
460.138	410.5
460.358	407.5
460.578	409.5
460.798	414.5
461.018	410.5
461.238	388.5
461.458	424.5
461.678	425.5
461.898	398.5
462.118	384.5
462.338	410.5
462.558	428.5
462.777	415.5
462.997	438.5
463.217	431.5
463.437	444.5
463.657	421.5
463.876	425.5
464.096	434.5
464.316	439.5
464.536	459.5
464.755	472.5
464.975	454.5
465.195	499.5
465.414	584.5
465.634	512.5
465.854	449.5
466.073	424.5
466.293	404.5
466.512	414.5
466.732	421.5
466.951	410.5
467.171	399.5
467.391	409.5
467.61	415.5
467.829	412.5
468.049	404.5
468.268	390.5
468.488	400.5
468.707	392.5
468.927	407.5
469.146	384.5
469.365	399.5
469.585	382.5
469.804	388.5
470.023	400.5
470.243	393.5
470.462	395.5
470.681	418.5
470.901	419.5
471.12	420.5
471.339	399.5
471.558	411.5
471.777	404.5
471.997	388.5
472.216	400.5
472.435	441.5
472.654	400.5
472.873	416.5
473.092	386.5
473.311	404.5
473.53	404.5
473.749	399.5
473.968	440.5
474.187	562.5
474.406	543.5
474.625	453.5
474.844	446.5
475.063	420.5
475.282	412.5
475.501	430.5
475.72	425.5
475.939	426.5
476.158	421.5
476.377	417.5
476.596	423.5
476.814	406.5
477.033	405.5
477.252	422.5
477.471	418.5
477.69	427.5
477.908	435.5
478.127	460.5
478.346	431.5
478.564	438.5
478.783	446.5
479.002	455.5
479.22	470.5
479.439	471.5
479.658	478.5
479.876	488.5
480.095	497.5
480.313	526.5
480.532	495.5
480.751	508.5
480.969	503.5
481.188	544.5
481.406	539.5
481.624	490.5
481.843	485.5
482.061	465.5
482.28	475.5
482.498	482.5
482.717	461.5
482.935	463.5
483.153	472.5
483.372	453.5
483.59	456.5
483.808	477.5
484.027	473.5
484.245	473.5
484.463	479.5
484.681	484.5
484.9	474.5
485.118	483.5
485.336	487.5
485.554	488.5
485.772	487.5
485.99	498.5
486.209	486.5
486.427	512.5
486.645	479.5
486.863	517.5
487.081	522.5
487.299	492.5
487.517	515.5
487.735	520.5
487.953	520.5
488.171	517.5
488.389	503.5
488.607	502.5
488.825	516.5
489.043	490.5
489.261	502.5
489.479	513.5
489.696	516.5
489.914	520.5
490.132	508.5
490.35	515.5
490.568	526.5
490.786	541.5
491.003	535.5
491.221	559.5
491.439	542.5
491.657	590.5
491.874	588.5
492.092	585.5
492.31	584.5
492.527	574.5
492.745	577.5
492.963	580.5
493.18	576.5
493.398	595.5
493.615	590.5
493.833	603.5
494.05	611.5
494.268	604.5
494.485	603.5
494.703	574.5
494.92	584.5
495.138	606.5
495.355	601.5
495.573	594.5
495.79	607.5
496.008	612.5
496.225	615.5
496.442	605.5
496.66	602.5
496.877	617.5
497.094	611.5
497.312	584.5
497.529	610.5
497.746	593.5
497.963	637.5
498.181	647.5
498.398	637.5
498.615	665.5
498.832	680.5
499.049	658.5
499.267	662.5
499.484	704.5
499.701	734.5
499.918	722.5
500.135	756.5
500.352	775.5
500.569	804.5
500.786	776.5
501.003	781.5
501.22	780.5
501.437	724.5
501.654	748.5
501.871	727.5
502.088	726.5
502.305	696.5
502.522	678.5
502.739	634.5
502.956	638.5
503.172	636.5
503.389	622.5
503.606	631.5
503.823	649.5
504.04	614.5
504.256	616.5
504.473	588.5
504.69	622.5
504.907	614.5
505.123	588.5
505.34	584.5
505.557	575.5
505.773	585.5
505.99	565.5
506.207	572.5
506.423	586.5
506.64	577.5
506.856	563.5
507.073	567.5
507.289	565.5
507.506	545.5
507.722	578.5
507.939	579.5
508.155	588.5
508.372	568.5
508.588	583.5
508.805	544.5
509.021	554.5
509.238	556.5
509.454	562.5
509.67	576.5
509.887	559.5
510.103	519.5
510.319	562.5
510.536	676.5
510.752	1178.5
510.968	919.5
511.184	586.5
511.401	554.5
511.617	544.5
511.833	513.5
512.049	514.5
512.265	532.5
512.481	499.5
512.698	494.5
512.914	534.5
513.13	513.5
513.346	517.5
513.562	540.5
513.778	525.5
513.994	515.5
514.21	539.5
514.426	562.5
514.642	605.5
514.858	642.5
515.074	714.5
515.29	858.5
515.506	1316.5
515.721	1047.5
515.937	692.5
516.153	601.5
516.369	564.5
516.585	560.5
516.801	507.5
517.016	538.5
517.232	537.5
517.448	525.5
517.664	504.5
517.879	542.5
518.095	546.5
518.311	527.5
518.527	518.5
518.742	502.5
518.958	537.5
519.173	520.5
519.389	518.5
519.605	526.5
519.82	506.5
