Data from 1983.PennyLincolnUp.Lamp.En5.5.200Scan.071819.P1_HRD10591_16-52-57-964.txt Node
Date: Thu Jul 18 16:52:57 EDT 2019
User: cochatt
Spectrometer: HR+D1059
Trigger mode: 1
Integration Time (sec): 1.000000E-1
Scans to average: 1
Electric dark correction enabled: true
Nonlinearity correction enabled: false
Boxcar width: 0
XAxis mode: Wavelengths
Number of Pixels in Spectrum: 2048
>>>>>Begin Spectral Data<<<<<
223.165	-17.81
223.4	-17.81
223.635	-17.81
223.869	-14.81
224.104	-18.81
224.338	-1.81
224.573	-9.81
224.808	-15.81
225.042	-3.81
225.277	-3.81
225.511	-11.81
225.746	-3.81
225.98	11.19
226.215	2.19
226.449	21.19
226.683	21.19
226.918	26.19
227.152	20.19
227.387	25.19
227.621	35.19
227.856	47.19
228.09	35.19
228.324	35.19
228.559	43.19
228.793	61.19
229.027	81.19
229.262	100.19
229.496	118.19
229.73	120.19
229.964	121.19
230.199	111.19
230.433	101.19
230.667	104.19
230.901	100.19
231.136	102.19
231.37	99.19
231.604	100.19
231.838	103.19
232.072	93.19
232.306	99.19
232.541	96.19
232.775	104.19
233.009	93.19
233.243	108.19
233.477	99.19
233.711	106.19
233.945	99.19
234.179	92.19
234.413	110.19
234.647	96.19
234.881	111.19
235.115	109.19
235.349	129.19
235.583	122.19
235.817	114.19
236.051	129.19
236.285	111.19
236.519	107.19
236.753	126.19
236.987	142.19
237.221	160.19
237.455	188.19
237.689	153.19
237.922	124.19
238.156	105.19
238.39	114.19
238.624	125.19
238.858	103.19
239.091	104.19
239.325	124.19
239.559	118.19
239.793	107.19
240.027	117.19
240.26	116.19
240.494	127.19
240.728	134.19
240.961	120.19
241.195	127.19
241.429	122.19
241.662	119.19
241.896	114.19
242.13	126.19
242.363	120.19
242.597	128.19
242.83	122.19
243.064	130.19
243.298	131.19
243.531	126.19
243.765	120.19
243.998	120.19
244.232	144.19
244.465	131.19
244.699	138.19
244.932	130.19
245.166	131.19
245.399	120.19
245.633	120.19
245.866	138.19
246.099	143.19
246.333	132.19
246.566	142.19
246.8	134.19
247.033	146.19
247.266	132.19
247.5	142.19
247.733	134.19
247.966	163.19
248.2	142.19
248.433	149.19
248.666	178.19
248.899	162.19
249.133	176.19
249.366	186.19
249.599	180.19
249.832	172.19
250.066	157.19
250.299	168.19
250.532	161.19
250.765	174.19
250.998	196.19
251.231	200.19
251.465	185.19
251.698	183.19
251.931	183.19
252.164	178.19
252.397	182.19
252.63	184.19
252.863	163.19
253.096	189.19
253.329	186.19
253.562	213.19
253.795	198.19
254.028	187.19
254.261	191.19
254.494	213.19
254.727	220.19
254.96	241.19
255.193	219.19
255.426	223.19
255.659	207.19
255.892	201.19
256.124	212.19
256.357	187.19
256.59	193.19
256.823	186.19
257.056	179.19
257.289	194.19
257.521	191.19
257.754	182.19
257.987	182.19
258.22	185.19
258.452	170.19
258.685	179.19
258.918	177.19
259.151	201.19
259.383	186.19
259.616	197.19
259.849	207.19
260.081	210.19
260.314	216.19
260.547	219.19
260.779	218.19
261.012	206.19
261.244	204.19
261.477	204.19
261.71	203.19
261.942	200.19
262.175	198.19
262.407	208.19
262.64	210.19
262.872	191.19
263.105	198.19
263.337	197.19
263.57	203.19
263.802	189.19
264.035	187.19
264.267	196.19
264.499	186.19
264.732	197.19
264.964	195.19
265.197	196.19
265.429	198.19
265.661	192.19
265.894	196.19
266.126	203.19
266.358	204.19
266.591	199.19
266.823	204.19
267.055	194.19
267.287	195.19
267.52	197.19
267.752	212.19
267.984	201.19
268.216	193.19
268.448	197.19
268.681	219.19
268.913	225.19
269.145	219.19
269.377	244.19
269.609	230.19
269.841	242.19
270.073	236.19
270.306	263.19
270.538	272.19
270.77	268.19
271.002	260.19
271.234	278.19
271.466	274.19
271.698	260.19
271.93	269.19
272.162	269.19
272.394	277.19
272.626	265.19
272.858	235.19
273.09	235.19
273.322	251.19
273.553	243.19
273.785	226.19
274.017	217.19
274.249	249.19
274.481	232.19
274.713	232.19
274.945	230.19
275.176	224.19
275.408	226.19
275.64	226.19
275.872	226.19
276.104	223.19
276.335	238.19
276.567	242.19
276.799	256.19
277.031	277.19
277.262	270.19
277.494	272.19
277.726	261.19
277.957	268.19
278.189	257.19
278.421	250.19
278.652	236.19
278.884	250.19
279.115	229.19
279.347	226.19
279.579	223.19
279.81	241.19
280.042	227.19
280.273	242.19
280.505	229.19
280.736	224.19
280.968	242.19
281.199	235.19
281.431	252.19
281.662	248.19
281.894	228.19
282.125	267.19
282.356	246.19
282.588	258.19
282.819	278.19
283.051	222.19
283.282	240.19
283.513	223.19
283.745	244.19
283.976	247.19
284.207	236.19
284.439	260.19
284.67	240.19
284.901	254.19
285.132	268.19
285.364	241.19
285.595	244.19
285.826	234.19
286.057	242.19
286.288	246.19
286.52	255.19
286.751	251.19
286.982	262.19
287.213	248.19
287.444	233.19
287.675	266.19
287.906	246.19
288.138	274.19
288.369	253.19
288.6	254.19
288.831	257.19
289.062	265.19
289.293	257.19
289.524	261.19
289.755	244.19
289.986	258.19
290.217	234.19
290.448	261.19
290.679	256.19
290.91	254.19
291.141	235.19
291.371	274.19
291.602	275.19
291.833	266.19
292.064	263.19
292.295	256.19
292.526	254.19
292.757	252.19
292.987	242.19
293.218	257.19
293.449	257.19
293.68	268.19
293.91	257.19
294.141	257.19
294.372	240.19
294.603	246.19
294.833	257.19
295.064	252.19
295.295	257.19
295.525	272.19
295.756	264.19
295.987	264.19
296.217	275.19
296.448	297.19
296.679	264.19
296.909	271.19
297.14	266.19
297.37	269.19
297.601	270.19
297.831	268.19
298.062	279.19
298.292	258.19
298.523	296.19
298.753	282.19
298.984	272.19
299.214	276.19
299.445	276.19
299.675	261.19
299.905	290.19
300.136	291.19
300.366	273.19
300.597	270.19
300.827	306.19
301.057	281.19
301.288	286.19
301.518	286.19
301.748	291.19
301.979	284.19
302.209	283.19
302.439	294.19
302.669	283.19
302.9	269.19
303.13	276.19
303.36	282.19
303.59	282.19
303.82	297.19
304.051	301.19
304.281	278.19
304.511	263.19
304.741	292.19
304.971	297.19
305.201	309.19
305.431	291.19
305.661	284.19
305.891	278.19
306.121	308.19
306.352	299.19
306.582	297.19
306.812	300.19
307.042	293.19
307.272	275.19
307.502	283.19
307.731	283.19
307.961	284.19
308.191	281.19
308.421	287.19
308.651	299.19
308.881	305.19
309.111	314.19
309.341	300.19
309.571	310.19
309.8	312.19
310.03	318.19
310.26	316.19
310.49	332.19
310.72	348.19
310.949	360.19
311.179	333.19
311.409	329.19
311.639	328.19
311.868	330.19
312.098	327.19
312.328	335.19
312.557	367.19
312.787	384.19
313.017	371.19
313.246	350.19
313.476	325.19
313.706	335.19
313.935	328.19
314.165	359.19
314.394	372.19
314.624	358.19
314.853	342.19
315.083	329.19
315.312	332.19
315.542	339.19
315.771	321.19
316.001	329.19
316.23	327.19
316.46	342.19
316.689	342.19
316.919	332.19
317.148	348.19
317.377	339.19
317.607	350.19
317.836	327.19
318.065	317.19
318.295	332.19
318.524	340.19
318.753	328.19
318.983	335.19
319.212	363.19
319.441	353.19
319.67	360.19
319.9	329.19
320.129	336.19
320.358	331.19
320.587	345.19
320.816	359.19
321.046	365.19
321.275	357.19
321.504	366.19
321.733	359.19
321.962	373.19
322.191	378.19
322.42	373.19
322.649	392.19
322.878	390.19
323.108	408.19
323.337	467.19
323.566	439.19
323.795	468.19
324.024	508.19
324.253	632.19
324.482	890.19
324.71	1348.19
324.939	1822.19
325.168	1475.19
325.397	820.19
325.626	574.19
325.855	482.19
326.084	467.19
326.313	435.19
326.542	457.19
326.77	489.19
326.999	588.19
327.228	811.19
327.457	1174.19
327.686	1356.19
327.914	895.19
328.143	619.19
328.372	530.19
328.6	526.19
328.829	488.19
329.058	489.19
329.287	505.19
329.515	476.19
329.744	422.19
329.972	427.19
330.201	426.19
330.43	452.19
330.658	494.19
330.887	526.19
331.115	497.19
331.344	474.19
331.572	437.19
331.801	443.19
332.03	426.19
332.258	406.19
332.486	417.19
332.715	400.19
332.943	405.19
333.172	388.19
333.4	397.19
333.629	396.19
333.857	402.19
334.085	413.19
334.314	408.19
334.542	394.19
334.771	406.19
334.999	402.19
335.227	388.19
335.455	399.19
335.684	384.19
335.912	379.19
336.14	394.19
336.369	385.19
336.597	394.19
336.825	404.19
337.053	396.19
337.281	372.19
337.51	400.19
337.738	376.19
337.966	389.19
338.194	392.19
338.422	368.19
338.65	391.19
338.878	383.19
339.106	381.19
339.334	369.19
339.562	357.19
339.79	369.19
340.018	370.19
340.246	379.19
340.474	390.19
340.702	404.19
340.93	376.19
341.158	378.19
341.386	397.19
341.614	373.19
341.842	366.19
342.07	375.19
342.298	350.19
342.526	366.19
342.754	340.19
342.981	370.19
343.209	344.19
343.437	388.19
343.665	399.19
343.893	386.19
344.12	377.19
344.348	385.19
344.576	351.19
344.804	374.19
345.031	396.19
345.259	395.19
345.487	386.19
345.714	384.19
345.942	377.19
346.17	368.19
346.397	362.19
346.625	370.19
346.853	359.19
347.08	369.19
347.308	354.19
347.535	364.19
347.763	378.19
347.99	358.19
348.218	386.19
348.445	385.19
348.673	374.19
348.9	361.19
349.128	357.19
349.355	368.19
349.583	348.19
349.81	344.19
350.037	367.19
350.265	342.19
350.492	354.19
350.72	356.19
350.947	383.19
351.174	366.19
351.402	359.19
351.629	362.19
351.856	389.19
352.083	390.19
352.311	390.19
352.538	375.19
352.765	367.19
352.992	380.19
353.22	370.19
353.447	372.19
353.674	370.19
353.901	357.19
354.128	350.19
354.355	328.19
354.583	371.19
354.81	340.19
355.037	341.19
355.264	346.19
355.491	323.19
355.718	335.19
355.945	329.19
356.172	327.19
356.399	347.19
356.626	369.19
356.853	328.19
357.08	337.19
357.307	320.19
357.534	317.19
357.761	360.19
357.988	335.19
358.215	359.19
358.441	338.19
358.668	370.19
358.895	354.19
359.122	366.19
359.349	356.19
359.576	358.19
359.802	381.19
360.029	413.19
360.256	406.19
360.483	385.19
360.709	372.19
360.936	374.19
361.163	363.19
361.39	374.19
361.616	358.19
361.843	376.19
362.07	366.19
362.296	381.19
362.523	378.19
362.749	371.19
362.976	368.19
363.203	334.19
363.429	353.19
363.656	348.19
363.882	342.19
364.109	353.19
364.335	359.19
364.562	362.19
364.788	347.19
365.015	374.19
365.241	364.19
365.468	375.19
365.694	355.19
365.92	380.19
366.147	351.19
366.373	352.19
366.599	357.19
366.826	345.19
367.052	344.19
367.278	331.19
367.505	335.19
367.731	359.19
367.957	349.19
368.184	333.19
368.41	344.19
368.636	358.19
368.862	364.19
369.089	342.19
369.315	331.19
369.541	345.19
369.767	342.19
369.993	353.19
370.219	353.19
370.445	347.19
370.672	351.19
370.898	347.19
371.124	338.19
371.35	345.19
371.576	323.19
371.802	341.19
372.028	330.19
372.254	360.19
372.48	338.19
372.706	332.19
372.932	346.19
373.158	347.19
373.384	339.19
373.61	345.19
373.835	345.19
374.061	341.19
374.287	352.19
374.513	344.19
374.739	342.19
374.965	355.19
375.191	357.19
375.416	350.19
375.642	344.19
375.868	353.19
376.094	331.19
376.319	337.19
376.545	336.19
376.771	338.19
376.997	342.19
377.222	350.19
377.448	344.19
377.674	346.19
377.899	332.19
378.125	353.19
378.35	327.19
378.576	341.19
378.802	344.19
379.027	332.19
379.253	336.19
379.478	325.19
379.704	329.19
379.929	348.19
380.155	343.19
380.38	340.19
380.606	341.19
380.831	345.19
381.057	340.19
381.282	338.19
381.507	339.19
381.733	336.19
381.958	342.19
382.184	333.19
382.409	355.19
382.634	353.19
382.86	348.19
383.085	346.19
383.31	344.19
383.535	347.19
383.761	366.19
383.986	338.19
384.211	348.19
384.436	352.19
384.662	350.19
384.887	363.19
385.112	362.19
385.337	359.19
385.562	360.19
385.787	376.19
386.013	375.19
386.238	389.19
386.463	391.19
386.688	372.19
386.913	353.19
387.138	368.19
387.363	365.19
387.588	344.19
387.813	376.19
388.038	379.19
388.263	365.19
388.488	366.19
388.713	365.19
388.938	372.19
389.163	371.19
389.387	350.19
389.612	356.19
389.837	350.19
390.062	369.19
390.287	344.19
390.512	376.19
390.736	370.19
390.961	380.19
391.186	367.19
391.411	364.19
391.636	360.19
391.86	370.19
392.085	379.19
392.31	367.19
392.534	375.19
392.759	395.19
392.984	377.19
393.208	361.19
393.433	377.19
393.658	375.19
393.882	357.19
394.107	367.19
394.331	363.19
394.556	379.19
394.78	376.19
395.005	372.19
395.229	364.19
395.454	383.19
395.678	374.19
395.903	389.19
396.127	407.19
396.352	393.19
396.576	378.19
396.801	369.19
397.025	372.19
397.249	401.19
397.474	397.19
397.698	399.19
397.922	412.19
398.147	421.19
398.371	392.19
398.595	406.19
398.82	403.19
399.044	428.19
399.268	405.19
399.492	469.19
399.717	451.19
399.941	495.19
400.165	473.19
400.389	488.19
400.613	451.19
400.837	417.19
401.062	415.19
401.286	422.19
401.51	421.19
401.734	414.19
401.958	418.19
402.182	406.19
402.406	431.19
402.63	438.19
402.854	426.19
403.078	430.19
403.302	420.19
403.526	421.19
403.75	432.19
403.974	417.19
404.198	424.19
404.422	424.19
404.645	428.19
404.869	439.19
405.093	449.19
405.317	448.19
405.541	469.19
405.765	448.19
405.988	443.19
406.212	466.19
406.436	498.19
406.66	487.19
406.883	466.19
407.107	483.19
407.331	500.19
407.555	552.19
407.778	551.19
408.002	493.19
408.226	466.19
408.449	461.19
408.673	479.19
408.896	492.19
409.12	531.19
409.344	479.19
409.567	458.19
409.791	468.19
410.014	443.19
410.238	440.19
410.461	442.19
410.685	464.19
410.908	444.19
411.132	463.19
411.355	471.19
411.578	452.19
411.802	430.19
412.025	403.19
412.249	414.19
412.472	426.19
412.695	439.19
412.919	428.19
413.142	384.19
413.365	419.19
413.589	413.19
413.812	417.19
414.035	426.19
414.258	394.19
414.482	419.19
414.705	395.19
414.928	408.19
415.151	402.19
415.374	416.19
415.597	406.19
415.821	404.19
416.044	402.19
416.267	425.19
416.49	412.19
416.713	393.19
416.936	396.19
417.159	398.19
417.382	403.19
417.605	390.19
417.828	421.19
418.051	424.19
418.274	408.19
418.497	398.19
418.72	421.19
418.943	390.19
419.166	416.19
419.389	443.19
419.611	425.19
419.834	418.19
420.057	438.19
420.28	419.19
420.503	422.19
420.726	423.19
420.948	444.19
421.171	463.19
421.394	456.19
421.617	440.19
421.839	426.19
422.062	427.19
422.285	443.19
422.507	499.19
422.73	522.19
422.953	514.19
423.175	438.19
423.398	409.19
423.621	432.19
423.843	459.19
424.066	443.19
424.288	436.19
424.511	484.19
424.733	499.19
424.956	570.19
425.178	551.19
425.401	542.19
425.623	560.19
425.846	494.19
426.068	465.19
426.291	442.19
426.513	437.19
426.735	480.19
426.958	508.19
427.18	601.19
427.402	672.19
427.625	724.19
427.847	663.19
428.069	538.19
428.292	492.19
428.514	458.19
428.736	448.19
428.958	434.19
429.181	432.19
429.403	420.19
429.625	400.19
429.847	448.19
430.069	531.19
430.292	494.19
430.514	438.19
430.736	419.19
430.958	408.19
431.18	414.19
431.402	402.19
431.624	391.19
431.846	403.19
432.068	394.19
432.29	402.19
432.512	414.19
432.734	409.19
432.956	402.19
433.178	386.19
433.4	413.19
433.622	410.19
433.844	408.19
434.066	403.19
434.287	377.19
434.509	414.19
434.731	424.19
434.953	422.19
435.175	416.19
435.397	439.19
435.618	450.19
435.84	474.19
436.062	581.19
436.284	607.19
436.505	527.19
436.727	464.19
436.949	441.19
437.17	426.19
437.392	431.19
437.614	444.19
437.835	476.19
438.057	551.19
438.278	614.19
438.5	638.19
438.721	658.19
438.943	623.19
439.165	511.19
439.386	469.19
439.608	455.19
439.829	466.19
440.05	481.19
440.272	531.19
440.493	487.19
440.715	463.19
440.936	426.19
441.158	419.19
441.379	447.19
441.6	446.19
441.822	454.19
442.043	496.19
442.264	571.19
442.486	582.19
442.707	511.19
442.928	472.19
443.149	481.19
443.371	484.19
443.592	528.19
443.813	587.19
444.034	616.19
444.255	519.19
444.476	462.19
444.698	469.19
444.919	466.19
445.14	592.19
445.361	522.19
445.582	474.19
445.803	543.19
446.024	615.19
446.245	626.19
446.466	569.19
446.687	484.19
446.908	473.19
447.129	449.19
447.35	423.19
447.571	434.19
447.792	438.19
448.013	418.19
448.234	449.19
448.455	470.19
448.675	580.19
448.896	635.19
449.117	538.19
449.338	537.19
449.559	606.19
449.779	670.19
450	554.19
450.221	471.19
450.442	446.19
450.662	406.19
450.883	428.19
451.104	435.19
451.324	422.19
451.545	414.19
451.766	393.19
451.986	376.19
452.207	393.19
452.428	372.19
452.648	394.19
452.869	395.19
453.089	384.19
453.31	417.19
453.53	393.19
453.751	387.19
453.971	376.19
454.192	418.19
454.412	401.19
454.633	362.19
454.853	364.19
455.073	373.19
455.294	386.19
455.514	450.19
455.734	444.19
455.955	380.19
456.175	382.19
456.395	355.19
456.616	359.19
456.836	376.19
457.056	370.19
457.276	350.19
457.497	345.19
457.717	368.19
457.937	380.19
458.157	375.19
458.377	356.19
458.598	407.19
458.818	461.19
459.038	491.19
459.258	516.19
459.478	438.19
459.698	404.19
459.918	406.19
460.138	402.19
460.358	396.19
460.578	417.19
460.798	392.19
461.018	407.19
461.238	407.19
461.458	396.19
461.678	402.19
461.898	388.19
462.118	390.19
462.338	398.19
462.558	411.19
462.777	405.19
462.997	440.19
463.217	425.19
463.437	442.19
463.657	451.19
463.876	418.19
464.096	431.19
464.316	442.19
464.536	430.19
464.755	436.19
464.975	444.19
465.195	484.19
465.414	539.19
465.634	480.19
465.854	395.19
466.073	396.19
466.293	410.19
466.512	382.19
466.732	392.19
466.951	381.19
467.171	385.19
467.391	381.19
467.61	408.19
467.829	414.19
468.049	388.19
468.268	382.19
468.488	383.19
468.707	380.19
468.927	382.19
469.146	398.19
469.365	364.19
469.585	356.19
469.804	397.19
470.023	388.19
470.243	396.19
470.462	413.19
470.681	440.19
470.901	401.19
471.12	393.19
471.339	390.19
471.558	377.19
471.777	392.19
471.997	393.19
472.216	375.19
472.435	378.19
472.654	374.19
472.873	388.19
473.092	402.19
473.311	384.19
473.53	395.19
473.749	410.19
473.968	428.19
474.187	507.19
474.406	533.19
474.625	440.19
474.844	392.19
475.063	385.19
475.282	403.19
475.501	387.19
475.72	387.19
475.939	418.19
476.158	390.19
476.377	410.19
476.596	388.19
476.814	387.19
477.033	407.19
477.252	406.19
477.471	401.19
477.69	400.19
477.908	414.19
478.127	449.19
478.346	446.19
478.564	419.19
478.783	442.19
479.002	454.19
479.22	445.19
479.439	454.19
479.658	456.19
479.876	478.19
480.095	479.19
480.313	477.19
480.532	496.19
480.751	478.19
480.969	474.19
481.188	475.19
481.406	478.19
481.624	452.19
481.843	476.19
482.061	464.19
482.28	454.19
482.498	468.19
482.717	442.19
482.935	458.19
483.153	452.19
483.372	428.19
483.59	465.19
483.808	440.19
484.027	440.19
484.245	456.19
484.463	479.19
484.681	471.19
484.9	472.19
485.118	495.19
485.336	462.19
485.554	478.19
485.772	479.19
485.99	483.19
486.209	474.19
486.427	500.19
486.645	485.19
486.863	495.19
487.081	484.19
487.299	498.19
487.517	479.19
487.735	486.19
487.953	500.19
488.171	482.19
488.389	480.19
488.607	505.19
488.825	497.19
489.043	479.19
489.261	503.19
489.479	495.19
489.696	475.19
489.914	500.19
490.132	498.19
490.35	512.19
490.568	494.19
490.786	507.19
491.003	525.19
491.221	540.19
491.439	539.19
491.657	545.19
491.874	536.19
492.092	570.19
492.31	562.19
492.527	546.19
492.745	564.19
492.963	570.19
493.18	577.19
493.398	574.19
493.615	582.19
493.833	581.19
494.05	569.19
494.268	570.19
494.485	566.19
494.703	570.19
494.92	568.19
495.138	570.19
495.355	590.19
495.573	600.19
495.79	551.19
496.008	560.19
496.225	583.19
496.442	576.19
496.66	587.19
496.877	586.19
497.094	584.19
497.312	587.19
497.529	587.19
497.746	611.19
497.963	599.19
498.181	629.19
498.398	619.19
498.615	629.19
498.832	634.19
499.049	655.19
499.267	647.19
499.484	666.19
499.701	705.19
499.918	720.19
500.135	740.19
500.352	778.19
500.569	787.19
500.786	795.19
501.003	771.19
501.22	776.19
501.437	720.19
501.654	738.19
501.871	734.19
502.088	708.19
