Data from 1983.PennyLincolnUp.Lamp.En5.5.200Scan.071819.P1_HRD10591_16-54-21-965.txt Node
Date: Thu Jul 18 16:54:21 EDT 2019
User: cochatt
Spectrometer: HR+D1059
Trigger mode: 1
Integration Time (sec): 1.000000E-1
Scans to average: 1
Electric dark correction enabled: true
Nonlinearity correction enabled: false
Boxcar width: 0
XAxis mode: Wavelengths
Number of Pixels in Spectrum: 2048
>>>>>Begin Spectral Data<<<<<
223.165	-25.12
223.4	-25.12
223.635	-25.12
223.869	-15.12
224.104	-13.12
224.338	-9.12
224.573	-9.12
224.808	-16.12
225.042	-8.12
225.277	-14.12
225.511	-6.12
225.746	-0.12
225.98	8.88
226.215	5.88
226.449	26.88
226.683	20.88
226.918	25.88
227.152	27.88
227.387	40.88
227.621	37.88
227.856	42.88
228.09	46.88
228.324	42.88
228.559	52.88
228.793	60.88
229.027	91.88
229.262	99.88
229.496	106.88
229.73	114.88
229.964	141.88
230.199	124.88
230.433	129.88
230.667	106.88
230.901	93.88
231.136	113.88
231.37	92.88
231.604	115.88
231.838	108.88
232.072	99.88
232.306	105.88
232.541	90.88
232.775	123.88
233.009	113.88
233.243	99.88
233.477	112.88
233.711	101.88
233.945	99.88
234.179	101.88
234.413	113.88
234.647	118.88
234.881	123.88
235.115	125.88
235.349	117.88
235.583	104.88
235.817	122.88
236.051	131.88
236.285	125.88
236.519	113.88
236.753	135.88
236.987	142.88
237.221	168.88
237.455	209.88
237.689	177.88
237.922	133.88
238.156	135.88
238.39	116.88
238.624	114.88
238.858	116.88
239.091	109.88
239.325	130.88
239.559	122.88
239.793	106.88
240.027	122.88
240.26	116.88
240.494	149.88
240.728	143.88
240.961	139.88
241.195	132.88
241.429	136.88
241.662	134.88
241.896	117.88
242.13	125.88
242.363	126.88
242.597	134.88
242.83	127.88
243.064	125.88
243.298	125.88
243.531	147.88
243.765	114.88
243.998	138.88
244.232	127.88
244.465	142.88
244.699	136.88
244.932	142.88
245.166	142.88
245.399	155.88
245.633	134.88
245.866	146.88
246.099	143.88
246.333	120.88
246.566	132.88
246.8	135.88
247.033	156.88
247.266	148.88
247.5	146.88
247.733	140.88
247.966	158.88
248.2	162.88
248.433	176.88
248.666	171.88
248.899	154.88
249.133	188.88
249.366	187.88
249.599	181.88
249.832	170.88
250.066	156.88
250.299	164.88
250.532	191.88
250.765	192.88
250.998	200.88
251.231	207.88
251.465	184.88
251.698	188.88
251.931	175.88
252.164	166.88
252.397	180.88
252.63	205.88
252.863	192.88
253.096	183.88
253.329	198.88
253.562	213.88
253.795	186.88
254.028	208.88
254.261	198.88
254.494	208.88
254.727	232.88
254.96	236.88
255.193	245.88
255.426	238.88
255.659	195.88
255.892	228.88
256.124	205.88
256.357	182.88
256.59	197.88
256.823	194.88
257.056	206.88
257.289	182.88
257.521	213.88
257.754	181.88
257.987	185.88
258.22	187.88
258.452	192.88
258.685	190.88
258.918	203.88
259.151	199.88
259.383	194.88
259.616	199.88
259.849	216.88
260.081	217.88
260.314	229.88
260.547	237.88
260.779	210.88
261.012	217.88
261.244	210.88
261.477	204.88
261.71	189.88
261.942	209.88
262.175	231.88
262.407	221.88
262.64	198.88
262.872	193.88
263.105	186.88
263.337	199.88
263.57	184.88
263.802	194.88
264.035	188.88
264.267	207.88
264.499	203.88
264.732	203.88
264.964	211.88
265.197	178.88
265.429	194.88
265.661	186.88
265.894	188.88
266.126	205.88
266.358	206.88
266.591	208.88
266.823	210.88
267.055	202.88
267.287	217.88
267.52	211.88
267.752	217.88
267.984	198.88
268.216	202.88
268.448	232.88
268.681	209.88
268.913	231.88
269.145	230.88
269.377	263.88
269.609	232.88
269.841	240.88
270.073	248.88
270.306	273.88
270.538	280.88
270.77	285.88
271.002	274.88
271.234	248.88
271.466	273.88
271.698	289.88
271.93	304.88
272.162	286.88
272.394	279.88
272.626	270.88
272.858	243.88
273.09	264.88
273.322	254.88
273.553	252.88
273.785	250.88
274.017	235.88
274.249	230.88
274.481	240.88
274.713	243.88
274.945	251.88
275.176	257.88
275.408	242.88
275.64	235.88
275.872	250.88
276.104	244.88
276.335	234.88
276.567	248.88
276.799	263.88
277.031	275.88
277.262	297.88
277.494	291.88
277.726	275.88
277.957	263.88
278.189	254.88
278.421	237.88
278.652	260.88
278.884	245.88
279.115	236.88
279.347	258.88
279.579	247.88
279.81	250.88
280.042	243.88
280.273	240.88
280.505	252.88
280.736	240.88
280.968	240.88
281.199	242.88
281.431	254.88
281.662	242.88
281.894	244.88
282.125	251.88
282.356	256.88
282.588	269.88
282.819	280.88
283.051	262.88
283.282	233.88
283.513	262.88
283.745	250.88
283.976	256.88
284.207	248.88
284.439	254.88
284.67	259.88
284.901	258.88
285.132	257.88
285.364	262.88
285.595	258.88
285.826	244.88
286.057	265.88
286.288	255.88
286.52	247.88
286.751	249.88
286.982	248.88
287.213	248.88
287.444	262.88
287.675	279.88
287.906	276.88
288.138	276.88
288.369	257.88
288.6	276.88
288.831	262.88
289.062	267.88
289.293	270.88
289.524	258.88
289.755	252.88
289.986	260.88
290.217	256.88
290.448	254.88
290.679	275.88
290.91	263.88
291.141	245.88
291.371	257.88
291.602	272.88
291.833	248.88
292.064	245.88
292.295	260.88
292.526	256.88
292.757	262.88
292.987	259.88
293.218	254.88
293.449	281.88
293.68	269.88
293.91	274.88
294.141	254.88
294.372	266.88
294.603	262.88
294.833	267.88
295.064	268.88
295.295	281.88
295.525	262.88
295.756	266.88
295.987	279.88
296.217	294.88
296.448	299.88
296.679	284.88
296.909	282.88
297.14	275.88
297.37	274.88
297.601	257.88
297.831	264.88
298.062	275.88
298.292	271.88
298.523	288.88
298.753	295.88
298.984	292.88
299.214	276.88
299.445	286.88
299.675	265.88
299.905	273.88
300.136	285.88
300.366	289.88
300.597	272.88
300.827	288.88
301.057	297.88
301.288	297.88
301.518	281.88
301.748	301.88
301.979	293.88
302.209	292.88
302.439	293.88
302.669	308.88
302.9	288.88
303.13	289.88
303.36	292.88
303.59	304.88
303.82	284.88
304.051	292.88
304.281	273.88
304.511	298.88
304.741	300.88
304.971	275.88
305.201	289.88
305.431	304.88
305.661	292.88
305.891	298.88
306.121	290.88
306.352	305.88
306.582	312.88
306.812	297.88
307.042	297.88
307.272	297.88
307.502	317.88
307.731	318.88
307.961	305.88
308.191	313.88
308.421	313.88
308.651	313.88
308.881	329.88
309.111	312.88
309.341	306.88
309.571	339.88
309.8	336.88
310.03	331.88
310.26	343.88
310.49	348.88
310.72	361.88
310.949	373.88
311.179	387.88
311.409	355.88
311.639	338.88
311.868	352.88
312.098	355.88
312.328	337.88
312.557	374.88
312.787	392.88
313.017	362.88
313.246	354.88
313.476	357.88
313.706	349.88
313.935	328.88
314.165	357.88
314.394	376.88
314.624	373.88
314.853	356.88
315.083	353.88
315.312	356.88
315.542	336.88
315.771	320.88
316.001	331.88
316.23	342.88
316.46	341.88
316.689	342.88
316.919	338.88
317.148	363.88
317.377	344.88
317.607	353.88
317.836	362.88
318.065	356.88
318.295	351.88
318.524	354.88
318.753	330.88
318.983	334.88
319.212	332.88
319.441	336.88
319.67	340.88
319.9	337.88
320.129	364.88
320.358	360.88
320.587	359.88
320.816	363.88
321.046	355.88
321.275	375.88
321.504	360.88
321.733	365.88
321.962	369.88
322.191	410.88
322.42	388.88
322.649	404.88
322.878	419.88
323.108	444.88
323.337	460.88
323.566	466.88
323.795	496.88
324.024	560.88
324.253	672.88
324.482	985.88
324.71	1534.88
324.939	2009.88
325.168	1676.88
325.397	892.88
325.626	630.88
325.855	520.88
326.084	489.88
326.313	479.88
326.542	468.88
326.77	518.88
326.999	657.88
327.228	881.88
327.457	1314.88
327.686	1497.88
327.914	1003.88
328.143	683.88
328.372	591.88
328.6	568.88
328.829	525.88
329.058	552.88
329.287	536.88
329.515	501.88
329.744	475.88
329.972	474.88
330.201	489.88
330.43	552.88
330.658	570.88
330.887	585.88
331.115	556.88
331.344	469.88
331.572	481.88
331.801	445.88
332.03	423.88
332.258	423.88
332.486	416.88
332.715	424.88
332.943	406.88
333.172	413.88
333.4	414.88
333.629	415.88
333.857	438.88
334.085	426.88
334.314	448.88
334.542	473.88
334.771	491.88
334.999	446.88
335.227	447.88
335.455	414.88
335.684	399.88
335.912	403.88
336.14	389.88
336.369	396.88
336.597	392.88
336.825	419.88
337.053	398.88
337.281	396.88
337.51	402.88
337.738	392.88
337.966	386.88
338.194	410.88
338.422	406.88
338.65	394.88
338.878	404.88
339.106	374.88
339.334	369.88
339.562	375.88
339.79	389.88
340.018	378.88
340.246	395.88
340.474	401.88
340.702	399.88
340.93	400.88
341.158	379.88
341.386	408.88
341.614	389.88
341.842	411.88
342.07	380.88
342.298	354.88
342.526	373.88
342.754	378.88
342.981	376.88
343.209	370.88
343.437	397.88
343.665	374.88
343.893	386.88
344.12	398.88
344.348	379.88
344.576	380.88
344.804	399.88
345.031	393.88
345.259	396.88
345.487	401.88
345.714	364.88
345.942	380.88
346.17	364.88
346.397	365.88
346.625	371.88
346.853	390.88
347.08	373.88
347.308	394.88
347.535	385.88
347.763	405.88
347.99	393.88
348.218	404.88
348.445	388.88
348.673	401.88
348.9	388.88
349.128	376.88
349.355	352.88
349.583	355.88
349.81	365.88
350.037	386.88
350.265	368.88
350.492	353.88
350.72	363.88
350.947	394.88
351.174	388.88
351.402	415.88
351.629	371.88
351.856	365.88
352.083	370.88
352.311	386.88
352.538	391.88
352.765	400.88
352.992	376.88
353.22	381.88
353.447	375.88
353.674	375.88
353.901	364.88
354.128	355.88
354.355	359.88
354.583	352.88
354.81	342.88
355.037	354.88
355.264	334.88
355.491	350.88
355.718	325.88
355.945	320.88
356.172	325.88
356.399	354.88
356.626	346.88
356.853	334.88
357.08	335.88
357.307	346.88
357.534	352.88
357.761	338.88
357.988	348.88
358.215	348.88
358.441	346.88
358.668	333.88
358.895	358.88
359.122	354.88
359.349	362.88
359.576	377.88
359.802	406.88
360.029	443.88
360.256	424.88
360.483	407.88
360.709	385.88
360.936	372.88
361.163	376.88
361.39	379.88
361.616	387.88
361.843	400.88
362.07	379.88
362.296	373.88
362.523	368.88
362.749	372.88
362.976	368.88
363.203	369.88
363.429	361.88
363.656	365.88
363.882	359.88
364.109	365.88
364.335	371.88
364.562	364.88
364.788	349.88
365.015	355.88
365.241	353.88
365.468	372.88
365.694	362.88
365.92	374.88
366.147	373.88
366.373	335.88
366.599	368.88
366.826	363.88
367.052	354.88
367.278	358.88
367.505	366.88
367.731	349.88
367.957	359.88
368.184	357.88
368.41	363.88
368.636	363.88
368.862	384.88
369.089	370.88
369.315	356.88
369.541	355.88
369.767	347.88
369.993	361.88
370.219	350.88
370.445	353.88
370.672	345.88
370.898	336.88
371.124	352.88
371.35	362.88
371.576	361.88
371.802	333.88
372.028	341.88
372.254	338.88
372.48	344.88
372.706	355.88
372.932	332.88
373.158	348.88
373.384	344.88
373.61	346.88
373.835	331.88
374.061	348.88
374.287	358.88
374.513	362.88
374.739	363.88
374.965	336.88
375.191	360.88
375.416	353.88
375.642	347.88
375.868	358.88
376.094	351.88
376.319	342.88
376.545	339.88
376.771	322.88
376.997	336.88
377.222	347.88
377.448	363.88
377.674	349.88
377.899	332.88
378.125	320.88
378.35	342.88
378.576	337.88
378.802	333.88
379.027	346.88
379.253	338.88
379.478	331.88
379.704	342.88
379.929	358.88
380.155	342.88
380.38	362.88
380.606	342.88
380.831	336.88
381.057	356.88
381.282	349.88
381.507	343.88
381.733	346.88
381.958	344.88
382.184	341.88
382.409	352.88
382.634	357.88
382.86	353.88
383.085	339.88
383.31	336.88
383.535	350.88
383.761	352.88
383.986	357.88
384.211	347.88
384.436	358.88
384.662	361.88
384.887	369.88
385.112	364.88
385.337	340.88
385.562	368.88
385.787	362.88
386.013	390.88
386.238	375.88
386.463	395.88
386.688	385.88
386.913	370.88
387.138	360.88
387.363	380.88
387.588	373.88
387.813	380.88
388.038	370.88
388.263	358.88
388.488	380.88
388.713	360.88
388.938	359.88
389.163	359.88
389.387	363.88
389.612	375.88
389.837	360.88
390.062	377.88
390.287	376.88
390.512	359.88
390.736	375.88
390.961	374.88
391.186	374.88
391.411	378.88
391.636	363.88
391.86	392.88
392.085	372.88
392.31	381.88
392.534	386.88
392.759	363.88
392.984	377.88
393.208	374.88
393.433	346.88
393.658	362.88
393.882	352.88
394.107	385.88
394.331	372.88
394.556	376.88
394.78	375.88
395.005	376.88
395.229	379.88
395.454	382.88
395.678	369.88
395.903	374.88
396.127	389.88
396.352	401.88
396.576	379.88
396.801	373.88
397.025	384.88
397.249	384.88
397.474	402.88
397.698	404.88
397.922	416.88
398.147	413.88
398.371	420.88
398.595	420.88
398.82	399.88
399.044	430.88
399.268	430.88
399.492	435.88
399.717	468.88
399.941	481.88
400.165	502.88
400.389	507.88
400.613	457.88
400.837	454.88
401.062	446.88
401.286	429.88
401.51	414.88
401.734	405.88
401.958	420.88
402.182	442.88
402.406	440.88
402.63	441.88
402.854	428.88
403.078	436.88
403.302	430.88
403.526	453.88
403.75	424.88
403.974	435.88
404.198	433.88
404.422	453.88
404.645	429.88
404.869	463.88
405.093	462.88
405.317	515.88
405.541	497.88
405.765	485.88
405.988	445.88
406.212	464.88
406.436	494.88
406.66	519.88
406.883	483.88
407.107	490.88
407.331	527.88
407.555	540.88
407.778	544.88
408.002	508.88
408.226	502.88
408.449	467.88
408.673	460.88
408.896	503.88
409.12	507.88
409.344	488.88
409.567	463.88
409.791	439.88
410.014	441.88
410.238	421.88
410.461	454.88
410.685	453.88
410.908	461.88
411.132	475.88
411.355	478.88
411.578	465.88
411.802	444.88
412.025	437.88
412.249	442.88
412.472	445.88
412.695	485.88
412.919	476.88
413.142	450.88
413.365	438.88
413.589	419.88
413.812	438.88
414.035	412.88
414.258	395.88
414.482	408.88
414.705	408.88
414.928	406.88
415.151	417.88
415.374	406.88
415.597	414.88
415.821	401.88
416.044	419.88
416.267	412.88
416.49	398.88
416.713	397.88
416.936	409.88
417.159	381.88
417.382	410.88
417.605	403.88
417.828	407.88
418.051	442.88
418.274	417.88
418.497	401.88
418.72	412.88
418.943	406.88
419.166	416.88
419.389	430.88
419.611	458.88
419.834	430.88
420.057	421.88
420.28	455.88
420.503	440.88
420.726	420.88
420.948	459.88
421.171	491.88
421.394	499.88
421.617	436.88
421.839	426.88
422.062	426.88
422.285	447.88
422.507	506.88
422.73	540.88
422.953	512.88
423.175	476.88
423.398	437.88
423.621	458.88
423.843	458.88
424.066	483.88
424.288	461.88
424.511	482.88
424.733	508.88
424.956	569.88
425.178	542.88
425.401	534.88
425.623	553.88
425.846	503.88
426.068	459.88
426.291	439.88
426.513	456.88
426.735	449.88
426.958	508.88
427.18	576.88
427.402	667.88
427.625	730.88
427.847	672.88
428.069	564.88
428.292	500.88
428.514	470.88
428.736	467.88
428.958	441.88
429.181	438.88
429.403	424.88
429.625	459.88
429.847	450.88
430.069	534.88
430.292	512.88
430.514	455.88
430.736	433.88
430.958	392.88
431.18	416.88
431.402	416.88
431.624	418.88
431.846	395.88
432.068	404.88
432.29	403.88
432.512	409.88
432.734	412.88
432.956	413.88
433.178	420.88
433.4	441.88
433.622	416.88
433.844	398.88
434.066	402.88
434.287	389.88
434.509	412.88
434.731	415.88
434.953	413.88
435.175	424.88
435.397	465.88
435.618	461.88
435.84	486.88
436.062	568.88
436.284	642.88
436.505	538.88
436.727	461.88
436.949	440.88
437.17	452.88
437.392	440.88
437.614	454.88
437.835	482.88
438.057	556.88
438.278	644.88
438.5	613.88
438.721	666.88
438.943	618.88
439.165	529.88
439.386	463.88
439.608	476.88
439.829	483.88
440.05	512.88
440.272	521.88
440.493	491.88
440.715	468.88
440.936	441.88
441.158	424.88
441.379	439.88
441.6	458.88
441.822	469.88
442.043	520.88
442.264	548.88
442.486	589.88
442.707	510.88
442.928	500.88
443.149	499.88
443.371	488.88
443.592	541.88
443.813	609.88
444.034	633.88
444.255	525.88
444.476	496.88
444.698	459.88
444.919	451.88
445.14	593.88
445.361	545.88
445.582	498.88
445.803	552.88
446.024	643.88
446.245	642.88
446.466	586.88
446.687	506.88
446.908	500.88
447.129	456.88
447.35	432.88
447.571	442.88
447.792	432.88
448.013	427.88
448.234	452.88
448.455	506.88
448.675	588.88
448.896	632.88
449.117	562.88
449.338	518.88
449.559	597.88
449.779	692.88
450	550.88
450.221	483.88
450.442	441.88
450.662	424.88
450.883	418.88
451.104	441.88
451.324	426.88
451.545	424.88
451.766	397.88
451.986	388.88
452.207	397.88
452.428	383.88
452.648	380.88
452.869	413.88
453.089	394.88
453.31	412.88
453.53	377.88
453.751	413.88
453.971	408.88
454.192	428.88
454.412	414.88
454.633	408.88
454.853	381.88
455.073	396.88
455.294	399.88
455.514	460.88
455.734	436.88
455.955	398.88
456.175	361.88
456.395	378.88
456.616	372.88
456.836	360.88
457.056	374.88
457.276	364.88
457.497	382.88
457.717	360.88
457.937	372.88
458.157	373.88
458.377	390.88
458.598	399.88
458.818	455.88
459.038	543.88
459.258	549.88
459.478	452.88
459.698	392.88
459.918	387.88
460.138	424.88
460.358	407.88
460.578	420.88
460.798	420.88
461.018	397.88
461.238	417.88
461.458	398.88
461.678	390.88
461.898	424.88
462.118	396.88
462.338	389.88
462.558	414.88
462.777	440.88
462.997	412.88
463.217	423.88
463.437	448.88
463.657	440.88
463.876	425.88
464.096	415.88
464.316	441.88
464.536	430.88
464.755	435.88
464.975	438.88
465.195	500.88
465.414	556.88
465.634	485.88
465.854	438.88
466.073	416.88
466.293	404.88
466.512	399.88
466.732	389.88
466.951	394.88
467.171	394.88
467.391	396.88
467.61	407.88
467.829	417.88
468.049	426.88
468.268	393.88
468.488	399.88
468.707	396.88
468.927	395.88
469.146	370.88
469.365	397.88
469.585	387.88
469.804	382.88
470.023	387.88
470.243	422.88
470.462	406.88
470.681	433.88
470.901	419.88
471.12	394.88
471.339	404.88
471.558	406.88
471.777	402.88
471.997	398.88
472.216	391.88
472.435	442.88
472.654	436.88
472.873	398.88
473.092	389.88
473.311	388.88
473.53	395.88
473.749	414.88
473.968	453.88
474.187	541.88
474.406	542.88
474.625	465.88
474.844	404.88
475.063	406.88
475.282	407.88
475.501	388.88
475.72	416.88
475.939	410.88
476.158	422.88
476.377	420.88
476.596	429.88
476.814	419.88
477.033	419.88
477.252	434.88
477.471	441.88
477.69	440.88
477.908	441.88
478.127	464.88
478.346	427.88
478.564	438.88
478.783	436.88
479.002	437.88
479.22	460.88
479.439	482.88
479.658	478.88
479.876	462.88
480.095	506.88
480.313	530.88
480.532	502.88
480.751	496.88
480.969	487.88
481.188	557.88
481.406	568.88
481.624	508.88
481.843	476.88
482.061	499.88
482.28	478.88
482.498	463.88
482.717	455.88
482.935	487.88
483.153	463.88
483.372	454.88
483.59	472.88
483.808	459.88
484.027	453.88
484.245	472.88
484.463	483.88
484.681	485.88
484.9	484.88
485.118	482.88
485.336	475.88
485.554	482.88
485.772	470.88
485.99	486.88
486.209	488.88
486.427	484.88
486.645	499.88
486.863	522.88
487.081	493.88
487.299	503.88
487.517	484.88
487.735	536.88
487.953	506.88
488.171	505.88
488.389	494.88
488.607	485.88
488.825	520.88
489.043	481.88
489.261	504.88
489.479	502.88
489.696	507.88
489.914	534.88
490.132	530.88
490.35	517.88
490.568	549.88
490.786	532.88
491.003	537.88
491.221	580.88
491.439	574.88
491.657	576.88
491.874	572.88
492.092	561.88
492.31	602.88
492.527	585.88
492.745	590.88
492.963	597.88
493.18	569.88
493.398	587.88
493.615	606.88
493.833	600.88
494.05	586.88
494.268	581.88
494.485	585.88
494.703	568.88
494.92	608.88
495.138	612.88
495.355	608.88
495.573	608.88
495.79	620.88
496.008	624.88
496.225	608.88
496.442	608.88
496.66	606.88
496.877	590.88
497.094	610.88
497.312	630.88
497.529	612.88
497.746	616.88
497.963	612.88
498.181	637.88
498.398	622.88
498.615	648.88
498.832	645.88
499.049	661.88
499.267	673.88
499.484	692.88
499.701	702.88
499.918	720.88
500.135	747.88
500.352	792.88
500.569	793.88
500.786	773.88
501.003	786.88
501.22	770.88
501.437	752.88
501.654	740.88
501.871	742.88
502.088	718.88
