Data from 1983.PennyLincolnUp.Lamp.En5.5.200Scan.071819.P1_HRD10591_16-54-14-965.txt Node
Date: Thu Jul 18 16:54:14 EDT 2019
User: cochatt
Spectrometer: HR+D1059
Trigger mode: 1
Integration Time (sec): 1.000000E-1
Scans to average: 1
Electric dark correction enabled: true
Nonlinearity correction enabled: false
Boxcar width: 0
XAxis mode: Wavelengths
Number of Pixels in Spectrum: 2048
>>>>>Begin Spectral Data<<<<<
223.165	-18.75
223.4	-18.75
223.635	-18.75
223.869	-14.75
224.104	-9.75
224.338	-6.75
224.573	-6.75
224.808	-15.75
225.042	-12.75
225.277	-20.75
225.511	-8.75
225.746	-1.75
225.98	5.25
226.215	17.25
226.449	10.25
226.683	17.25
226.918	24.25
227.152	42.25
227.387	36.25
227.621	40.25
227.856	52.25
228.09	47.25
228.324	57.25
228.559	61.25
228.793	79.25
229.027	81.25
229.262	108.25
229.496	109.25
229.73	131.25
229.964	140.25
230.199	117.25
230.433	118.25
230.667	111.25
230.901	105.25
231.136	116.25
231.37	108.25
231.604	123.25
231.838	115.25
232.072	106.25
232.306	112.25
232.541	118.25
232.775	111.25
233.009	108.25
233.243	117.25
233.477	125.25
233.711	109.25
233.945	108.25
234.179	111.25
234.413	115.25
234.647	126.25
234.881	111.25
235.115	122.25
235.349	113.25
235.583	111.25
235.817	109.25
236.051	127.25
236.285	124.25
236.519	106.25
236.753	119.25
236.987	129.25
237.221	164.25
237.455	200.25
237.689	182.25
237.922	140.25
238.156	137.25
238.39	133.25
238.624	125.25
238.858	126.25
239.091	125.25
239.325	110.25
239.559	110.25
239.793	121.25
240.027	129.25
240.26	140.25
240.494	137.25
240.728	131.25
240.961	142.25
241.195	128.25
241.429	131.25
241.662	128.25
241.896	130.25
242.13	121.25
242.363	130.25
242.597	127.25
242.83	143.25
243.064	139.25
243.298	132.25
243.531	123.25
243.765	125.25
243.998	128.25
244.232	136.25
244.465	135.25
244.699	133.25
244.932	136.25
245.166	136.25
245.399	133.25
245.633	148.25
245.866	140.25
246.099	150.25
246.333	150.25
246.566	158.25
246.8	141.25
247.033	153.25
247.266	147.25
247.5	159.25
247.733	140.25
247.966	173.25
248.2	177.25
248.433	163.25
248.666	166.25
248.899	165.25
249.133	188.25
249.366	193.25
249.599	165.25
249.832	188.25
250.066	181.25
250.299	173.25
250.532	180.25
250.765	183.25
250.998	176.25
251.231	224.25
251.465	200.25
251.698	185.25
251.931	174.25
252.164	179.25
252.397	180.25
252.63	187.25
252.863	188.25
253.096	204.25
253.329	203.25
253.562	204.25
253.795	191.25
254.028	197.25
254.261	213.25
254.494	207.25
254.727	237.25
254.96	255.25
255.193	251.25
255.426	248.25
255.659	192.25
255.892	200.25
256.124	204.25
256.357	200.25
256.59	209.25
256.823	192.25
257.056	208.25
257.289	185.25
257.521	218.25
257.754	183.25
257.987	184.25
258.22	199.25
258.452	198.25
258.685	201.25
258.918	190.25
259.151	175.25
259.383	207.25
259.616	208.25
259.849	210.25
260.081	209.25
260.314	213.25
260.547	224.25
260.779	213.25
261.012	200.25
261.244	217.25
261.477	211.25
261.71	200.25
261.942	211.25
262.175	214.25
262.407	198.25
262.64	211.25
262.872	205.25
263.105	195.25
263.337	199.25
263.57	191.25
263.802	195.25
264.035	193.25
264.267	207.25
264.499	201.25
264.732	190.25
264.964	198.25
265.197	216.25
265.429	176.25
265.661	196.25
265.894	187.25
266.126	206.25
266.358	196.25
266.591	197.25
266.823	193.25
267.055	201.25
267.287	213.25
267.52	213.25
267.752	212.25
267.984	204.25
268.216	200.25
268.448	214.25
268.681	205.25
268.913	235.25
269.145	231.25
269.377	259.25
269.609	235.25
269.841	251.25
270.073	265.25
270.306	250.25
270.538	265.25
270.77	283.25
271.002	264.25
271.234	279.25
271.466	271.25
271.698	286.25
271.93	285.25
272.162	283.25
272.394	289.25
272.626	286.25
272.858	282.25
273.09	256.25
273.322	253.25
273.553	240.25
273.785	247.25
274.017	233.25
274.249	236.25
274.481	232.25
274.713	232.25
274.945	240.25
275.176	225.25
275.408	250.25
275.64	229.25
275.872	239.25
276.104	247.25
276.335	247.25
276.567	269.25
276.799	264.25
277.031	274.25
277.262	282.25
277.494	280.25
277.726	269.25
277.957	287.25
278.189	267.25
278.421	265.25
278.652	247.25
278.884	259.25
279.115	239.25
279.347	260.25
279.579	248.25
279.81	249.25
280.042	231.25
280.273	234.25
280.505	253.25
280.736	221.25
280.968	236.25
281.199	238.25
281.431	244.25
281.662	247.25
281.894	249.25
282.125	229.25
282.356	281.25
282.588	279.25
282.819	277.25
283.051	267.25
283.282	240.25
283.513	235.25
283.745	244.25
283.976	249.25
284.207	259.25
284.439	255.25
284.67	255.25
284.901	254.25
285.132	250.25
285.364	225.25
285.595	250.25
285.826	247.25
286.057	251.25
286.288	243.25
286.52	269.25
286.751	252.25
286.982	259.25
287.213	251.25
287.444	252.25
287.675	250.25
287.906	274.25
288.138	276.25
288.369	275.25
288.6	275.25
288.831	267.25
289.062	269.25
289.293	258.25
289.524	260.25
289.755	256.25
289.986	264.25
290.217	257.25
290.448	251.25
290.679	266.25
290.91	251.25
291.141	258.25
291.371	268.25
291.602	255.25
291.833	254.25
292.064	263.25
292.295	263.25
292.526	273.25
292.757	263.25
292.987	258.25
293.218	256.25
293.449	262.25
293.68	266.25
293.91	262.25
294.141	257.25
294.372	234.25
294.603	263.25
294.833	244.25
295.064	251.25
295.295	250.25
295.525	265.25
295.756	286.25
295.987	271.25
296.217	289.25
296.448	288.25
296.679	294.25
296.909	293.25
297.14	270.25
297.37	259.25
297.601	277.25
297.831	256.25
298.062	275.25
298.292	270.25
298.523	271.25
298.753	261.25
298.984	277.25
299.214	288.25
299.445	263.25
299.675	283.25
299.905	291.25
300.136	293.25
300.366	282.25
300.597	274.25
300.827	302.25
301.057	284.25
301.288	290.25
301.518	293.25
301.748	291.25
301.979	295.25
302.209	274.25
302.439	287.25
302.669	295.25
302.9	295.25
303.13	284.25
303.36	277.25
303.59	322.25
303.82	301.25
304.051	301.25
304.281	290.25
304.511	291.25
304.741	304.25
304.971	288.25
305.201	283.25
305.431	302.25
305.661	286.25
305.891	287.25
306.121	286.25
306.352	307.25
306.582	304.25
306.812	301.25
307.042	298.25
307.272	301.25
307.502	281.25
307.731	289.25
307.961	302.25
308.191	297.25
308.421	291.25
308.651	300.25
308.881	286.25
309.111	305.25
309.341	308.25
309.571	336.25
309.8	333.25
310.03	334.25
310.26	361.25
310.49	330.25
310.72	359.25
310.949	367.25
311.179	364.25
311.409	333.25
311.639	353.25
311.868	340.25
312.098	367.25
312.328	355.25
312.557	360.25
312.787	361.25
313.017	375.25
313.246	327.25
313.476	348.25
313.706	334.25
313.935	349.25
314.165	362.25
314.394	363.25
314.624	364.25
314.853	368.25
315.083	344.25
315.312	340.25
315.542	346.25
315.771	343.25
316.001	335.25
316.23	327.25
316.46	329.25
316.689	319.25
316.919	333.25
317.148	355.25
317.377	357.25
317.607	364.25
317.836	340.25
318.065	329.25
318.295	329.25
318.524	345.25
318.753	358.25
318.983	341.25
319.212	337.25
319.441	348.25
319.67	354.25
319.9	343.25
320.129	349.25
320.358	357.25
320.587	346.25
320.816	339.25
321.046	366.25
321.275	363.25
321.504	365.25
321.733	384.25
321.962	373.25
322.191	369.25
322.42	377.25
322.649	417.25
322.878	421.25
323.108	435.25
323.337	463.25
323.566	453.25
323.795	497.25
324.024	573.25
324.253	693.25
324.482	983.25
324.71	1514.25
324.939	1987.25
325.168	1656.25
325.397	859.25
325.626	614.25
325.855	511.25
326.084	482.25
326.313	457.25
326.542	465.25
326.77	509.25
326.999	625.25
327.228	878.25
327.457	1285.25
327.686	1469.25
327.914	1002.25
328.143	683.25
328.372	608.25
328.6	553.25
328.829	539.25
329.058	539.25
329.287	551.25
329.515	508.25
329.744	469.25
329.972	446.25
330.201	471.25
330.43	525.25
330.658	552.25
330.887	585.25
331.115	559.25
331.344	461.25
331.572	446.25
331.801	431.25
332.03	442.25
332.258	410.25
332.486	401.25
332.715	384.25
332.943	385.25
333.172	388.25
333.4	416.25
333.629	417.25
333.857	429.25
334.085	441.25
334.314	424.25
334.542	460.25
334.771	474.25
334.999	437.25
335.227	437.25
335.455	407.25
335.684	397.25
335.912	364.25
336.14	392.25
336.369	398.25
336.597	413.25
336.825	379.25
337.053	384.25
337.281	378.25
337.51	391.25
337.738	377.25
337.966	372.25
338.194	384.25
338.422	390.25
338.65	391.25
338.878	391.25
339.106	368.25
339.334	385.25
339.562	393.25
339.79	359.25
340.018	365.25
340.246	379.25
340.474	403.25
340.702	384.25
340.93	357.25
341.158	368.25
341.386	375.25
341.614	380.25
341.842	368.25
342.07	362.25
342.298	380.25
342.526	385.25
342.754	367.25
342.981	365.25
343.209	374.25
343.437	367.25
343.665	375.25
343.893	387.25
344.12	379.25
344.348	387.25
344.576	385.25
344.804	380.25
345.031	380.25
345.259	408.25
345.487	405.25
345.714	377.25
345.942	389.25
346.17	361.25
346.397	377.25
346.625	368.25
346.853	361.25
347.08	376.25
347.308	377.25
347.535	383.25
347.763	375.25
347.99	375.25
348.218	381.25
348.445	389.25
348.673	388.25
348.9	364.25
349.128	360.25
349.355	344.25
349.583	357.25
349.81	360.25
350.037	348.25
350.265	362.25
350.492	351.25
350.72	367.25
350.947	348.25
351.174	372.25
351.402	380.25
351.629	368.25
351.856	390.25
352.083	388.25
352.311	388.25
352.538	381.25
352.765	393.25
352.992	392.25
353.22	375.25
353.447	360.25
353.674	352.25
353.901	366.25
354.128	330.25
354.355	339.25
354.583	328.25
354.81	358.25
355.037	353.25
355.264	349.25
355.491	343.25
355.718	341.25
355.945	359.25
356.172	329.25
356.399	340.25
356.626	329.25
356.853	333.25
357.08	342.25
357.307	343.25
357.534	354.25
357.761	333.25
357.988	359.25
358.215	361.25
358.441	327.25
358.668	333.25
358.895	343.25
359.122	339.25
359.349	373.25
359.576	379.25
359.802	372.25
360.029	452.25
360.256	426.25
360.483	399.25
360.709	373.25
360.936	378.25
361.163	357.25
361.39	375.25
361.616	384.25
361.843	360.25
362.07	385.25
362.296	377.25
362.523	363.25
362.749	356.25
362.976	353.25
363.203	360.25
363.429	371.25
363.656	361.25
363.882	351.25
364.109	365.25
364.335	359.25
364.562	352.25
364.788	355.25
365.015	346.25
365.241	343.25
365.468	359.25
365.694	351.25
365.92	346.25
366.147	353.25
366.373	348.25
366.599	369.25
366.826	341.25
367.052	351.25
367.278	356.25
367.505	358.25
367.731	344.25
367.957	355.25
368.184	354.25
368.41	353.25
368.636	377.25
368.862	347.25
369.089	376.25
369.315	357.25
369.541	362.25
369.767	358.25
369.993	361.25
370.219	368.25
370.445	347.25
370.672	329.25
370.898	353.25
371.124	349.25
371.35	348.25
371.576	332.25
371.802	329.25
372.028	334.25
372.254	345.25
372.48	351.25
372.706	341.25
372.932	343.25
373.158	337.25
373.384	349.25
373.61	357.25
373.835	346.25
374.061	340.25
374.287	341.25
374.513	332.25
374.739	348.25
374.965	345.25
375.191	357.25
375.416	319.25
375.642	344.25
375.868	357.25
376.094	335.25
376.319	342.25
376.545	335.25
376.771	341.25
376.997	341.25
377.222	328.25
377.448	335.25
377.674	337.25
377.899	332.25
378.125	345.25
378.35	337.25
378.576	338.25
378.802	354.25
379.027	339.25
379.253	347.25
379.478	327.25
379.704	346.25
379.929	329.25
380.155	333.25
380.38	338.25
380.606	334.25
380.831	326.25
381.057	344.25
381.282	337.25
381.507	342.25
381.733	345.25
381.958	345.25
382.184	351.25
382.409	345.25
382.634	358.25
382.86	333.25
383.085	336.25
383.31	347.25
383.535	337.25
383.761	352.25
383.986	356.25
384.211	349.25
384.436	362.25
384.662	359.25
384.887	376.25
385.112	356.25
385.337	361.25
385.562	351.25
385.787	360.25
386.013	391.25
386.238	379.25
386.463	383.25
386.688	359.25
386.913	353.25
387.138	354.25
387.363	368.25
387.588	358.25
387.813	365.25
388.038	362.25
388.263	386.25
388.488	363.25
388.713	367.25
388.938	353.25
389.163	377.25
389.387	371.25
389.612	351.25
389.837	356.25
390.062	353.25
390.287	373.25
390.512	361.25
390.736	356.25
390.961	381.25
391.186	360.25
391.411	373.25
391.636	381.25
391.86	366.25
392.085	371.25
392.31	375.25
392.534	359.25
392.759	356.25
392.984	360.25
393.208	360.25
393.433	365.25
393.658	364.25
393.882	351.25
394.107	367.25
394.331	365.25
394.556	375.25
394.78	376.25
395.005	374.25
395.229	385.25
395.454	364.25
395.678	360.25
395.903	380.25
396.127	390.25
396.352	414.25
396.576	398.25
396.801	375.25
397.025	392.25
397.249	385.25
397.474	389.25
397.698	374.25
397.922	399.25
398.147	398.25
398.371	412.25
398.595	419.25
398.82	410.25
399.044	401.25
399.268	401.25
399.492	431.25
399.717	472.25
399.941	469.25
400.165	501.25
400.389	516.25
400.613	461.25
400.837	410.25
401.062	420.25
401.286	433.25
401.51	405.25
401.734	408.25
401.958	433.25
402.182	423.25
402.406	442.25
402.63	430.25
402.854	419.25
403.078	440.25
403.302	423.25
403.526	431.25
403.75	420.25
403.974	430.25
404.198	409.25
404.422	430.25
404.645	424.25
404.869	447.25
405.093	449.25
405.317	481.25
405.541	510.25
405.765	485.25
405.988	463.25
406.212	456.25
406.436	488.25
406.66	475.25
406.883	475.25
407.107	478.25
407.331	521.25
407.555	536.25
407.778	553.25
408.002	511.25
408.226	480.25
408.449	481.25
408.673	465.25
408.896	474.25
409.12	508.25
409.344	485.25
409.567	451.25
409.791	429.25
410.014	428.25
410.238	443.25
410.461	418.25
410.685	431.25
410.908	461.25
411.132	472.25
411.355	487.25
411.578	445.25
411.802	450.25
412.025	431.25
412.249	457.25
412.472	448.25
412.695	456.25
412.919	456.25
413.142	422.25
413.365	421.25
413.589	407.25
413.812	396.25
414.035	409.25
414.258	421.25
414.482	407.25
414.705	420.25
414.928	381.25
415.151	397.25
415.374	408.25
415.597	389.25
415.821	387.25
416.044	399.25
416.267	401.25
416.49	397.25
416.713	394.25
416.936	393.25
417.159	399.25
417.382	400.25
417.605	408.25
417.828	417.25
418.051	416.25
418.274	408.25
418.497	400.25
418.72	419.25
418.943	391.25
419.166	422.25
419.389	434.25
419.611	423.25
419.834	427.25
420.057	429.25
420.28	419.25
420.503	416.25
420.726	424.25
420.948	451.25
421.171	458.25
421.394	456.25
421.617	444.25
421.839	427.25
422.062	416.25
422.285	446.25
422.507	478.25
422.73	537.25
422.953	481.25
423.175	459.25
423.398	449.25
423.621	455.25
423.843	472.25
424.066	466.25
424.288	470.25
424.511	460.25
424.733	498.25
424.956	565.25
425.178	542.25
425.401	522.25
425.623	532.25
425.846	480.25
426.068	476.25
426.291	453.25
426.513	449.25
426.735	468.25
426.958	513.25
427.18	556.25
427.402	650.25
427.625	709.25
427.847	654.25
428.069	533.25
428.292	481.25
428.514	468.25
428.736	464.25
428.958	437.25
429.181	425.25
429.403	412.25
429.625	436.25
429.847	461.25
430.069	494.25
430.292	511.25
430.514	421.25
430.736	457.25
430.958	422.25
431.18	411.25
431.402	405.25
431.624	413.25
431.846	414.25
432.068	375.25
432.29	408.25
432.512	399.25
432.734	389.25
432.956	417.25
433.178	416.25
433.4	421.25
433.622	407.25
433.844	396.25
434.066	395.25
434.287	379.25
434.509	420.25
434.731	403.25
434.953	401.25
435.175	423.25
435.397	450.25
435.618	443.25
435.84	469.25
436.062	531.25
436.284	609.25
436.505	533.25
436.727	464.25
436.949	447.25
437.17	435.25
437.392	426.25
437.614	429.25
437.835	472.25
438.057	569.25
438.278	623.25
438.5	623.25
438.721	657.25
438.943	631.25
439.165	515.25
439.386	490.25
439.608	460.25
439.829	472.25
440.05	491.25
440.272	523.25
440.493	471.25
440.715	469.25
440.936	441.25
441.158	435.25
441.379	427.25
441.6	432.25
441.822	464.25
442.043	490.25
442.264	556.25
442.486	557.25
442.707	501.25
442.928	475.25
443.149	477.25
443.371	488.25
443.592	534.25
443.813	597.25
444.034	625.25
444.255	518.25
444.476	477.25
444.698	471.25
444.919	465.25
445.14	547.25
445.361	526.25
445.582	486.25
445.803	554.25
446.024	631.25
446.245	635.25
446.466	588.25
446.687	486.25
446.908	457.25
447.129	446.25
447.35	429.25
447.571	421.25
447.792	429.25
448.013	441.25
448.234	460.25
448.455	503.25
448.675	571.25
448.896	646.25
449.117	568.25
449.338	527.25
449.559	619.25
449.779	663.25
450	555.25
450.221	479.25
450.442	449.25
450.662	427.25
450.883	444.25
451.104	438.25
451.324	428.25
451.545	419.25
451.766	399.25
451.986	367.25
452.207	377.25
452.428	379.25
452.648	386.25
452.869	398.25
453.089	412.25
453.31	395.25
453.53	407.25
453.751	387.25
453.971	394.25
454.192	417.25
454.412	391.25
454.633	377.25
454.853	384.25
455.073	368.25
455.294	395.25
455.514	460.25
455.734	435.25
455.955	374.25
456.175	368.25
456.395	352.25
456.616	366.25
456.836	367.25
457.056	361.25
457.276	365.25
457.497	363.25
457.717	363.25
457.937	368.25
458.157	374.25
458.377	371.25
458.598	414.25
458.818	466.25
459.038	541.25
459.258	532.25
459.478	461.25
459.698	407.25
459.918	414.25
460.138	413.25
460.358	386.25
460.578	396.25
460.798	411.25
461.018	387.25
461.238	410.25
461.458	397.25
461.678	386.25
461.898	392.25
462.118	383.25
462.338	401.25
462.558	429.25
462.777	426.25
462.997	419.25
463.217	439.25
463.437	441.25
463.657	444.25
463.876	427.25
464.096	429.25
464.316	423.25
464.536	431.25
464.755	432.25
464.975	448.25
465.195	477.25
465.414	535.25
465.634	514.25
465.854	457.25
466.073	420.25
466.293	418.25
466.512	392.25
466.732	403.25
466.951	389.25
467.171	374.25
467.391	376.25
467.61	401.25
467.829	417.25
468.049	380.25
468.268	409.25
468.488	393.25
468.707	387.25
468.927	399.25
469.146	367.25
469.365	379.25
469.585	374.25
469.804	389.25
470.023	407.25
470.243	405.25
470.462	415.25
470.681	416.25
470.901	428.25
471.12	406.25
471.339	411.25
471.558	405.25
471.777	399.25
471.997	398.25
472.216	395.25
472.435	425.25
472.654	411.25
472.873	405.25
473.092	397.25
473.311	386.25
473.53	395.25
473.749	385.25
473.968	456.25
474.187	544.25
474.406	537.25
474.625	433.25
474.844	414.25
475.063	394.25
475.282	401.25
475.501	379.25
475.72	389.25
475.939	407.25
476.158	397.25
476.377	419.25
476.596	407.25
476.814	438.25
477.033	420.25
477.252	428.25
477.471	407.25
477.69	425.25
477.908	406.25
478.127	435.25
478.346	444.25
478.564	430.25
478.783	435.25
479.002	441.25
479.22	456.25
479.439	466.25
479.658	459.25
479.876	496.25
480.095	475.25
480.313	499.25
480.532	489.25
480.751	487.25
480.969	496.25
481.188	521.25
481.406	571.25
481.624	487.25
481.843	472.25
482.061	472.25
482.28	453.25
482.498	467.25
482.717	465.25
482.935	467.25
483.153	452.25
483.372	457.25
483.59	453.25
483.808	437.25
484.027	446.25
484.245	448.25
484.463	464.25
484.681	470.25
484.9	478.25
485.118	467.25
485.336	463.25
485.554	504.25
485.772	469.25
485.99	492.25
486.209	484.25
486.427	487.25
486.645	513.25
486.863	508.25
487.081	499.25
487.299	499.25
487.517	497.25
487.735	485.25
487.953	479.25
488.171	488.25
488.389	508.25
488.607	505.25
488.825	495.25
489.043	498.25
489.261	500.25
489.479	499.25
489.696	503.25
489.914	518.25
490.132	507.25
490.35	534.25
490.568	519.25
490.786	545.25
491.003	557.25
491.221	555.25
491.439	564.25
491.657	565.25
491.874	583.25
492.092	585.25
492.31	589.25
492.527	584.25
492.745	588.25
492.963	596.25
493.18	610.25
493.398	576.25
493.615	583.25
493.833	589.25
494.05	588.25
494.268	595.25
494.485	583.25
494.703	571.25
494.92	583.25
495.138	577.25
495.355	587.25
495.573	598.25
495.79	609.25
496.008	588.25
496.225	585.25
496.442	576.25
496.66	584.25
496.877	611.25
497.094	581.25
497.312	585.25
497.529	621.25
497.746	625.25
497.963	630.25
498.181	610.25
498.398	627.25
498.615	636.25
498.832	624.25
499.049	649.25
499.267	658.25
499.484	665.25
499.701	693.25
499.918	706.25
500.135	730.25
500.352	770.25
500.569	753.25
500.786	783.25
501.003	747.25
501.22	761.25
501.437	727.25
501.654	735.25
501.871	714.25
