Data from 1983.PennyLincolnUp.Lamp.En5.5.200Scan.071819.P1_HRD10591_16-54-01-965.txt Node
Date: Thu Jul 18 16:54:01 EDT 2019
User: cochatt
Spectrometer: HR+D1059
Trigger mode: 1
Integration Time (sec): 1.000000E-1
Scans to average: 1
Electric dark correction enabled: true
Nonlinearity correction enabled: false
Boxcar width: 0
XAxis mode: Wavelengths
Number of Pixels in Spectrum: 2048
>>>>>Begin Spectral Data<<<<<
223.165	-21.31
223.4	-21.31
223.635	-21.31
223.869	-11.31
224.104	-28.31
224.338	-24.31
224.573	-7.31
224.808	-12.31
225.042	-9.31
225.277	-14.31
225.511	2.69
225.746	14.69
225.98	16.69
226.215	2.69
226.449	7.69
226.683	30.69
226.918	32.69
227.152	20.69
227.387	19.69
227.621	30.69
227.856	43.69
228.09	43.69
228.324	36.69
228.559	60.69
228.793	74.69
229.027	96.69
229.262	103.69
229.496	101.69
229.73	120.69
229.964	137.69
230.199	121.69
230.433	100.69
230.667	112.69
230.901	112.69
231.136	107.69
231.37	107.69
231.604	100.69
231.838	102.69
232.072	106.69
232.306	94.69
232.541	97.69
232.775	117.69
233.009	103.69
233.243	106.69
233.477	99.69
233.711	107.69
233.945	100.69
234.179	95.69
234.413	110.69
234.647	117.69
234.881	102.69
235.115	117.69
235.349	116.69
235.583	119.69
235.817	120.69
236.051	113.69
236.285	124.69
236.519	109.69
236.753	125.69
236.987	128.69
237.221	165.69
237.455	209.69
237.689	168.69
237.922	132.69
238.156	138.69
238.39	128.69
238.624	130.69
238.858	117.69
239.091	126.69
239.325	118.69
239.559	118.69
239.793	119.69
240.027	116.69
240.26	122.69
240.494	131.69
240.728	128.69
240.961	155.69
241.195	122.69
241.429	123.69
241.662	132.69
241.896	119.69
242.13	101.69
242.363	112.69
242.597	130.69
242.83	125.69
243.064	126.69
243.298	116.69
243.531	123.69
243.765	132.69
243.998	114.69
244.232	133.69
244.465	139.69
244.699	144.69
244.932	133.69
245.166	116.69
245.399	124.69
245.633	130.69
245.866	145.69
246.099	141.69
246.333	150.69
246.566	148.69
246.8	146.69
247.033	153.69
247.266	151.69
247.5	150.69
247.733	165.69
247.966	148.69
248.2	145.69
248.433	143.69
248.666	154.69
248.899	164.69
249.133	183.69
249.366	180.69
249.599	167.69
249.832	168.69
250.066	168.69
250.299	152.69
250.532	164.69
250.765	180.69
250.998	196.69
251.231	182.69
251.465	193.69
251.698	179.69
251.931	166.69
252.164	193.69
252.397	181.69
252.63	178.69
252.863	171.69
253.096	192.69
253.329	216.69
253.562	186.69
253.795	211.69
254.028	189.69
254.261	192.69
254.494	192.69
254.727	217.69
254.96	265.69
255.193	235.69
255.426	207.69
255.659	204.69
255.892	196.69
256.124	205.69
256.357	209.69
256.59	199.69
256.823	179.69
257.056	194.69
257.289	169.69
257.521	203.69
257.754	210.69
257.987	178.69
258.22	196.69
258.452	182.69
258.685	188.69
258.918	192.69
259.151	196.69
259.383	189.69
259.616	202.69
259.849	202.69
260.081	210.69
260.314	220.69
260.547	234.69
260.779	221.69
261.012	212.69
261.244	202.69
261.477	194.69
261.71	194.69
261.942	209.69
262.175	213.69
262.407	208.69
262.64	200.69
262.872	195.69
263.105	188.69
263.337	196.69
263.57	186.69
263.802	214.69
264.035	192.69
264.267	190.69
264.499	201.69
264.732	186.69
264.964	205.69
265.197	198.69
265.429	199.69
265.661	195.69
265.894	205.69
266.126	182.69
266.358	204.69
266.591	204.69
266.823	197.69
267.055	195.69
267.287	208.69
267.52	201.69
267.752	204.69
267.984	212.69
268.216	209.69
268.448	196.69
268.681	226.69
268.913	215.69
269.145	221.69
269.377	258.69
269.609	262.69
269.841	243.69
270.073	243.69
270.306	256.69
270.538	284.69
270.77	267.69
271.002	263.69
271.234	254.69
271.466	273.69
271.698	259.69
271.93	280.69
272.162	290.69
272.394	305.69
272.626	266.69
272.858	243.69
273.09	259.69
273.322	246.69
273.553	237.69
273.785	223.69
274.017	221.69
274.249	235.69
274.481	228.69
274.713	221.69
274.945	237.69
275.176	242.69
275.408	240.69
275.64	229.69
275.872	245.69
276.104	229.69
276.335	237.69
276.567	237.69
276.799	259.69
277.031	276.69
277.262	279.69
277.494	287.69
277.726	260.69
277.957	252.69
278.189	240.69
278.421	255.69
278.652	235.69
278.884	246.69
279.115	223.69
279.347	240.69
279.579	253.69
279.81	244.69
280.042	224.69
280.273	234.69
280.505	229.69
280.736	232.69
280.968	242.69
281.199	227.69
281.431	223.69
281.662	221.69
281.894	235.69
282.125	225.69
282.356	252.69
282.588	268.69
282.819	270.69
283.051	245.69
283.282	246.69
283.513	241.69
283.745	233.69
283.976	248.69
284.207	242.69
284.439	235.69
284.67	226.69
284.901	241.69
285.132	241.69
285.364	240.69
285.595	242.69
285.826	261.69
286.057	249.69
286.288	248.69
286.52	237.69
286.751	244.69
286.982	240.69
287.213	242.69
287.444	248.69
287.675	257.69
287.906	270.69
288.138	269.69
288.369	270.69
288.6	276.69
288.831	270.69
289.062	264.69
289.293	270.69
289.524	270.69
289.755	260.69
289.986	270.69
290.217	248.69
290.448	251.69
290.679	261.69
290.91	249.69
291.141	259.69
291.371	243.69
291.602	252.69
291.833	266.69
292.064	250.69
292.295	242.69
292.526	260.69
292.757	255.69
292.987	253.69
293.218	254.69
293.449	251.69
293.68	242.69
293.91	266.69
294.141	259.69
294.372	272.69
294.603	254.69
294.833	240.69
295.064	270.69
295.295	254.69
295.525	248.69
295.756	289.69
295.987	271.69
296.217	290.69
296.448	317.69
296.679	265.69
296.909	261.69
297.14	268.69
297.37	256.69
297.601	260.69
297.831	254.69
298.062	247.69
298.292	282.69
298.523	259.69
298.753	274.69
298.984	267.69
299.214	267.69
299.445	283.69
299.675	276.69
299.905	270.69
300.136	258.69
300.366	274.69
300.597	278.69
300.827	265.69
301.057	288.69
301.288	285.69
301.518	276.69
301.748	297.69
301.979	282.69
302.209	280.69
302.439	279.69
302.669	298.69
302.9	292.69
303.13	285.69
303.36	289.69
303.59	288.69
303.82	294.69
304.051	292.69
304.281	301.69
304.511	296.69
304.741	293.69
304.971	276.69
305.201	290.69
305.431	285.69
305.661	268.69
305.891	285.69
306.121	290.69
306.352	282.69
306.582	276.69
306.812	287.69
307.042	284.69
307.272	302.69
307.502	297.69
307.731	282.69
307.961	299.69
308.191	290.69
308.421	298.69
308.651	289.69
308.881	310.69
309.111	309.69
309.341	317.69
309.571	329.69
309.8	315.69
310.03	316.69
310.26	324.69
310.49	328.69
310.72	318.69
310.949	360.69
311.179	356.69
311.409	348.69
311.639	325.69
311.868	331.69
312.098	343.69
312.328	349.69
312.557	355.69
312.787	376.69
313.017	359.69
313.246	360.69
313.476	334.69
313.706	333.69
313.935	321.69
314.165	363.69
314.394	355.69
314.624	365.69
314.853	349.69
315.083	356.69
315.312	338.69
315.542	327.69
315.771	330.69
316.001	324.69
316.23	324.69
316.46	329.69
316.689	336.69
316.919	340.69
317.148	330.69
317.377	326.69
317.607	323.69
317.836	347.69
318.065	340.69
318.295	327.69
318.524	327.69
318.753	316.69
318.983	336.69
319.212	327.69
319.441	326.69
319.67	328.69
319.9	330.69
320.129	327.69
320.358	325.69
320.587	343.69
320.816	356.69
321.046	342.69
321.275	360.69
321.504	355.69
321.733	358.69
321.962	356.69
322.191	375.69
322.42	386.69
322.649	402.69
322.878	434.69
323.108	414.69
323.337	463.69
323.566	464.69
323.795	513.69
324.024	550.69
324.253	694.69
324.482	971.69
324.71	1464.69
324.939	1974.69
325.168	1606.69
325.397	896.69
325.626	594.69
325.855	515.69
326.084	475.69
326.313	469.69
326.542	461.69
326.77	513.69
326.999	608.69
327.228	876.69
327.457	1254.69
327.686	1460.69
327.914	982.69
328.143	644.69
328.372	579.69
328.6	540.69
328.829	512.69
329.058	546.69
329.287	532.69
329.515	491.69
329.744	454.69
329.972	457.69
330.201	475.69
330.43	505.69
330.658	558.69
330.887	577.69
331.115	547.69
331.344	482.69
331.572	447.69
331.801	452.69
332.03	445.69
332.258	432.69
332.486	388.69
332.715	394.69
332.943	405.69
333.172	399.69
333.4	395.69
333.629	408.69
333.857	403.69
334.085	436.69
334.314	418.69
334.542	433.69
334.771	443.69
334.999	397.69
335.227	412.69
335.455	392.69
335.684	379.69
335.912	387.69
336.14	382.69
336.369	374.69
336.597	394.69
336.825	417.69
337.053	392.69
337.281	360.69
337.51	374.69
337.738	370.69
337.966	378.69
338.194	385.69
338.422	389.69
338.65	369.69
338.878	383.69
339.106	370.69
339.334	370.69
339.562	367.69
339.79	352.69
340.018	375.69
340.246	368.69
340.474	393.69
340.702	393.69
340.93	357.69
341.158	370.69
341.386	375.69
341.614	376.69
341.842	365.69
342.07	362.69
342.298	372.69
342.526	364.69
342.754	365.69
342.981	368.69
343.209	349.69
343.437	372.69
343.665	352.69
343.893	346.69
344.12	368.69
344.348	377.69
344.576	368.69
344.804	375.69
345.031	399.69
345.259	397.69
345.487	379.69
345.714	372.69
345.942	357.69
346.17	342.69
346.397	359.69
346.625	361.69
346.853	376.69
347.08	380.69
347.308	379.69
347.535	382.69
347.763	385.69
347.99	368.69
348.218	373.69
348.445	365.69
348.673	372.69
348.9	368.69
349.128	357.69
349.355	350.69
349.583	347.69
349.81	354.69
350.037	357.69
350.265	341.69
350.492	353.69
350.72	368.69
350.947	352.69
351.174	377.69
351.402	373.69
351.629	358.69
351.856	378.69
352.083	368.69
352.311	379.69
352.538	355.69
352.765	380.69
352.992	390.69
353.22	386.69
353.447	341.69
353.674	348.69
353.901	332.69
354.128	343.69
354.355	352.69
354.583	349.69
354.81	337.69
355.037	343.69
355.264	335.69
355.491	350.69
355.718	318.69
355.945	342.69
356.172	338.69
356.399	320.69
356.626	343.69
356.853	343.69
357.08	330.69
357.307	324.69
357.534	358.69
357.761	340.69
357.988	352.69
358.215	324.69
358.441	320.69
358.668	349.69
358.895	351.69
359.122	349.69
359.349	350.69
359.576	376.69
359.802	394.69
360.029	412.69
360.256	410.69
360.483	378.69
360.709	369.69
360.936	363.69
361.163	359.69
361.39	357.69
361.616	376.69
361.843	355.69
362.07	362.69
362.296	373.69
362.523	369.69
362.749	368.69
362.976	372.69
363.203	367.69
363.429	352.69
363.656	340.69
363.882	360.69
364.109	351.69
364.335	352.69
364.562	340.69
364.788	333.69
365.015	329.69
365.241	339.69
365.468	352.69
365.694	363.69
365.92	361.69
366.147	333.69
366.373	361.69
366.599	323.69
366.826	348.69
367.052	334.69
367.278	331.69
367.505	344.69
367.731	326.69
367.957	310.69
368.184	353.69
368.41	353.69
368.636	355.69
368.862	373.69
369.089	342.69
369.315	335.69
369.541	338.69
369.767	334.69
369.993	340.69
370.219	330.69
370.445	349.69
370.672	345.69
370.898	333.69
371.124	338.69
371.35	353.69
371.576	324.69
371.802	345.69
372.028	330.69
372.254	331.69
372.48	318.69
372.706	337.69
372.932	318.69
373.158	342.69
373.384	341.69
373.61	345.69
373.835	338.69
374.061	349.69
374.287	340.69
374.513	340.69
374.739	346.69
374.965	333.69
375.191	352.69
375.416	343.69
375.642	336.69
375.868	337.69
376.094	346.69
376.319	321.69
376.545	350.69
376.771	330.69
376.997	317.69
377.222	338.69
377.448	333.69
377.674	348.69
377.899	340.69
378.125	339.69
378.35	340.69
378.576	334.69
378.802	322.69
379.027	327.69
379.253	331.69
379.478	331.69
379.704	313.69
379.929	334.69
380.155	341.69
380.38	330.69
380.606	336.69
380.831	333.69
381.057	326.69
381.282	325.69
381.507	301.69
381.733	334.69
381.958	343.69
382.184	356.69
382.409	345.69
382.634	337.69
382.86	341.69
383.085	353.69
383.31	319.69
383.535	345.69
383.761	333.69
383.986	346.69
384.211	352.69
384.436	346.69
384.662	351.69
384.887	324.69
385.112	346.69
385.337	350.69
385.562	320.69
385.787	347.69
386.013	356.69
386.238	363.69
386.463	358.69
386.688	355.69
386.913	348.69
387.138	352.69
387.363	363.69
387.588	363.69
387.813	373.69
388.038	352.69
388.263	355.69
388.488	342.69
388.713	365.69
388.938	347.69
389.163	349.69
389.387	356.69
389.612	348.69
389.837	355.69
390.062	364.69
390.287	354.69
390.512	346.69
390.736	359.69
390.961	362.69
391.186	343.69
391.411	337.69
391.636	354.69
391.86	346.69
392.085	371.69
392.31	362.69
392.534	346.69
392.759	370.69
392.984	372.69
393.208	348.69
393.433	346.69
393.658	363.69
393.882	345.69
394.107	346.69
394.331	348.69
394.556	353.69
394.78	359.69
395.005	341.69
395.229	339.69
395.454	345.69
395.678	370.69
395.903	374.69
396.127	389.69
396.352	394.69
396.576	377.69
396.801	372.69
397.025	364.69
397.249	368.69
397.474	384.69
397.698	373.69
397.922	381.69
398.147	410.69
398.371	396.69
398.595	405.69
398.82	393.69
399.044	400.69
399.268	402.69
399.492	431.69
399.717	456.69
399.941	467.69
400.165	467.69
400.389	466.69
400.613	450.69
400.837	422.69
401.062	408.69
401.286	407.69
401.51	399.69
401.734	412.69
401.958	384.69
402.182	414.69
402.406	409.69
402.63	411.69
402.854	412.69
403.078	408.69
403.302	403.69
403.526	432.69
403.75	413.69
403.974	410.69
404.198	408.69
404.422	419.69
404.645	414.69
404.869	412.69
405.093	459.69
405.317	477.69
405.541	473.69
405.765	460.69
405.988	448.69
406.212	477.69
406.436	472.69
406.66	490.69
406.883	463.69
407.107	492.69
407.331	498.69
407.555	557.69
407.778	532.69
408.002	500.69
408.226	467.69
408.449	457.69
408.673	456.69
408.896	457.69
409.12	506.69
409.344	467.69
409.567	442.69
409.791	415.69
410.014	402.69
410.238	418.69
410.461	415.69
410.685	412.69
410.908	439.69
411.132	469.69
411.355	471.69
411.578	462.69
411.802	428.69
412.025	402.69
412.249	413.69
412.472	424.69
412.695	453.69
412.919	446.69
413.142	421.69
413.365	404.69
413.589	397.69
413.812	395.69
414.035	397.69
414.258	393.69
414.482	390.69
414.705	390.69
414.928	388.69
415.151	386.69
415.374	386.69
415.597	390.69
415.821	395.69
416.044	411.69
416.267	396.69
416.49	401.69
416.713	394.69
416.936	396.69
417.159	399.69
417.382	403.69
417.605	397.69
417.828	400.69
418.051	412.69
418.274	397.69
418.497	405.69
418.72	409.69
418.943	379.69
419.166	388.69
419.389	418.69
419.611	426.69
419.834	423.69
420.057	430.69
420.28	411.69
420.503	424.69
420.726	419.69
420.948	410.69
421.171	445.69
421.394	481.69
421.617	442.69
421.839	414.69
422.062	402.69
422.285	427.69
422.507	466.69
422.73	536.69
422.953	475.69
423.175	437.69
423.398	426.69
423.621	432.69
423.843	454.69
424.066	439.69
424.288	441.69
424.511	465.69
424.733	498.69
424.956	541.69
425.178	543.69
425.401	525.69
425.623	550.69
425.846	463.69
426.068	459.69
426.291	442.69
426.513	468.69
426.735	454.69
426.958	494.69
427.18	550.69
427.402	640.69
427.625	707.69
427.847	665.69
428.069	564.69
428.292	505.69
428.514	445.69
428.736	418.69
428.958	436.69
429.181	418.69
429.403	425.69
429.625	412.69
429.847	454.69
430.069	506.69
430.292	484.69
430.514	431.69
430.736	424.69
430.958	408.69
431.18	388.69
431.402	391.69
431.624	414.69
431.846	406.69
432.068	397.69
432.29	388.69
432.512	397.69
432.734	401.69
432.956	396.69
433.178	398.69
433.4	412.69
433.622	375.69
433.844	412.69
434.066	388.69
434.287	389.69
434.509	388.69
434.731	402.69
434.953	392.69
435.175	408.69
435.397	424.69
435.618	450.69
435.84	505.69
436.062	531.69
436.284	586.69
436.505	504.69
436.727	453.69
436.949	428.69
437.17	420.69
437.392	414.69
437.614	437.69
437.835	482.69
438.057	537.69
438.278	634.69
438.5	574.69
438.721	648.69
438.943	605.69
439.165	493.69
439.386	460.69
439.608	474.69
439.829	450.69
440.05	479.69
440.272	515.69
440.493	492.69
440.715	454.69
440.936	429.69
441.158	434.69
441.379	411.69
441.6	441.69
441.822	450.69
442.043	467.69
442.264	542.69
442.486	565.69
442.707	479.69
442.928	443.69
443.149	473.69
443.371	480.69
443.592	510.69
443.813	598.69
444.034	624.69
444.255	530.69
444.476	468.69
444.698	448.69
444.919	448.69
445.14	550.69
445.361	514.69
445.582	492.69
445.803	552.69
446.024	628.69
446.245	614.69
446.466	552.69
446.687	491.69
446.908	457.69
447.129	436.69
447.35	429.69
447.571	434.69
447.792	414.69
448.013	436.69
448.234	448.69
448.455	504.69
448.675	566.69
448.896	632.69
449.117	547.69
449.338	514.69
449.559	614.69
449.779	662.69
450	534.69
450.221	450.69
450.442	434.69
450.662	425.69
450.883	432.69
451.104	460.69
451.324	437.69
451.545	408.69
451.766	362.69
451.986	370.69
452.207	386.69
452.428	369.69
452.648	379.69
452.869	380.69
453.089	391.69
453.31	406.69
453.53	406.69
453.751	385.69
453.971	393.69
454.192	403.69
454.412	391.69
454.633	387.69
454.853	381.69
455.073	358.69
455.294	391.69
455.514	448.69
455.734	413.69
455.955	380.69
456.175	365.69
456.395	361.69
456.616	361.69
456.836	367.69
457.056	342.69
457.276	355.69
457.497	359.69
457.717	348.69
457.937	358.69
458.157	382.69
458.377	384.69
458.598	399.69
458.818	455.69
459.038	530.69
459.258	524.69
459.478	433.69
459.698	400.69
459.918	388.69
460.138	390.69
460.358	405.69
460.578	412.69
460.798	389.69
461.018	404.69
461.238	398.69
461.458	394.69
461.678	384.69
461.898	354.69
462.118	375.69
462.338	406.69
462.558	402.69
462.777	386.69
462.997	401.69
463.217	405.69
463.437	438.69
463.657	415.69
463.876	413.69
464.096	405.69
464.316	428.69
464.536	439.69
464.755	436.69
464.975	424.69
465.195	488.69
465.414	557.69
465.634	490.69
465.854	425.69
466.073	433.69
466.293	388.69
466.512	394.69
466.732	378.69
466.951	382.69
467.171	364.69
467.391	388.69
467.61	396.69
467.829	421.69
468.049	410.69
468.268	398.69
468.488	379.69
468.707	372.69
468.927	374.69
469.146	376.69
469.365	380.69
469.585	355.69
469.804	390.69
470.023	402.69
470.243	383.69
470.462	394.69
470.681	413.69
470.901	426.69
471.12	391.69
471.339	391.69
471.558	389.69
471.777	376.69
471.997	392.69
472.216	392.69
472.435	411.69
472.654	406.69
472.873	390.69
473.092	398.69
473.311	392.69
473.53	392.69
473.749	382.69
473.968	437.69
474.187	510.69
474.406	503.69
474.625	435.69
474.844	397.69
475.063	408.69
475.282	391.69
475.501	384.69
475.72	394.69
475.939	384.69
476.158	388.69
476.377	408.69
476.596	407.69
476.814	428.69
477.033	390.69
477.252	426.69
477.471	404.69
477.69	424.69
477.908	396.69
478.127	422.69
478.346	410.69
478.564	416.69
478.783	425.69
479.002	416.69
479.22	425.69
479.439	449.69
479.658	472.69
479.876	478.69
480.095	475.69
480.313	483.69
480.532	484.69
480.751	462.69
480.969	496.69
481.188	511.69
481.406	553.69
481.624	468.69
481.843	461.69
482.061	441.69
482.28	456.69
482.498	440.69
482.717	451.69
482.935	462.69
483.153	476.69
483.372	428.69
483.59	450.69
483.808	470.69
484.027	452.69
484.245	452.69
484.463	452.69
484.681	459.69
484.9	457.69
485.118	474.69
485.336	463.69
485.554	452.69
485.772	450.69
485.99	469.69
486.209	472.69
486.427	467.69
486.645	468.69
486.863	491.69
487.081	507.69
487.299	470.69
487.517	466.69
487.735	490.69
487.953	478.69
488.171	491.69
488.389	488.69
488.607	491.69
488.825	479.69
489.043	488.69
489.261	503.69
489.479	488.69
489.696	466.69
489.914	502.69
490.132	497.69
490.35	508.69
490.568	516.69
490.786	500.69
491.003	515.69
491.221	550.69
491.439	558.69
491.657	545.69
491.874	530.69
492.092	576.69
492.31	580.69
492.527	568.69
492.745	572.69
492.963	579.69
493.18	573.69
493.398	578.69
493.615	567.69
493.833	589.69
494.05	559.69
494.268	574.69
494.485	557.69
494.703	582.69
494.92	568.69
495.138	575.69
495.355	575.69
495.573	569.69
495.79	567.69
496.008	593.69
496.225	604.69
496.442	575.69
496.66	563.69
496.877	587.69
497.094	584.69
497.312	606.69
497.529	583.69
497.746	601.69
497.963	602.69
498.181	634.69
498.398	624.69
498.615	630.69
498.832	634.69
499.049	645.69
499.267	626.69
499.484	685.69
499.701	694.69
499.918	676.69
500.135	745.69
500.352	763.69
500.569	743.69
500.786	741.69
501.003	720.69
501.22	724.69
501.437	696.69
501.654	700.69
501.871	702.69
502.088	697.69
