Data from 1984.PennyLincolnUp.Lamp.En5.5.200Scan.071819.P1_HRD10591_16-59-17-973.txt Node
Date: Thu Jul 18 16:59:17 EDT 2019
User: cochatt
Spectrometer: HR+D1059
Trigger mode: 1
Integration Time (sec): 1.000000E-1
Scans to average: 1
Electric dark correction enabled: true
Nonlinearity correction enabled: false
Boxcar width: 0
XAxis mode: Wavelengths
Number of Pixels in Spectrum: 2048
>>>>>Begin Spectral Data<<<<<
223.165	-21.75
223.4	-21.75
223.635	-21.75
223.869	-5.75
224.104	-11.75
224.338	-5.75
224.573	-19.75
224.808	-19.75
225.042	-10.75
225.277	2.25
225.511	0.25
225.746	-4.75
225.98	4.25
226.215	14.25
226.449	13.25
226.683	17.25
226.918	15.25
227.152	33.25
227.387	36.25
227.621	53.25
227.856	35.25
228.09	48.25
228.324	46.25
228.559	55.25
228.793	59.25
229.027	77.25
229.262	84.25
229.496	92.25
229.73	110.25
229.964	116.25
230.199	101.25
230.433	104.25
230.667	96.25
230.901	108.25
231.136	117.25
231.37	96.25
231.604	104.25
231.838	102.25
232.072	93.25
232.306	103.25
232.541	120.25
232.775	103.25
233.009	99.25
233.243	116.25
233.477	114.25
233.711	118.25
233.945	121.25
234.179	100.25
234.413	112.25
234.647	129.25
234.881	120.25
235.115	95.25
235.349	112.25
235.583	116.25
235.817	120.25
236.051	116.25
236.285	108.25
236.519	112.25
236.753	116.25
236.987	126.25
237.221	152.25
237.455	173.25
237.689	143.25
237.922	126.25
238.156	120.25
238.39	118.25
238.624	125.25
238.858	111.25
239.091	112.25
239.325	127.25
239.559	129.25
239.793	125.25
240.027	134.25
240.26	124.25
240.494	132.25
240.728	139.25
240.961	144.25
241.195	142.25
241.429	148.25
241.662	116.25
241.896	123.25
242.13	137.25
242.363	129.25
242.597	132.25
242.83	128.25
243.064	130.25
243.298	131.25
243.531	127.25
243.765	132.25
243.998	132.25
244.232	130.25
244.465	146.25
244.699	150.25
244.932	130.25
245.166	138.25
245.399	124.25
245.633	134.25
245.866	135.25
246.099	141.25
246.333	146.25
246.566	132.25
246.8	131.25
247.033	160.25
247.266	146.25
247.5	143.25
247.733	155.25
247.966	161.25
248.2	146.25
248.433	157.25
248.666	155.25
248.899	167.25
249.133	161.25
249.366	176.25
249.599	166.25
249.832	166.25
250.066	161.25
250.299	169.25
250.532	170.25
250.765	221.25
250.998	205.25
251.231	197.25
251.465	181.25
251.698	195.25
251.931	172.25
252.164	164.25
252.397	174.25
252.63	176.25
252.863	170.25
253.096	197.25
253.329	201.25
253.562	193.25
253.795	208.25
254.028	193.25
254.261	193.25
254.494	193.25
254.727	216.25
254.96	219.25
255.193	229.25
255.426	225.25
255.659	225.25
255.892	232.25
256.124	250.25
256.357	272.25
256.59	225.25
256.823	215.25
257.056	194.25
257.289	213.25
257.521	203.25
257.754	190.25
257.987	195.25
258.22	201.25
258.452	205.25
258.685	201.25
258.918	192.25
259.151	199.25
259.383	194.25
259.616	189.25
259.849	199.25
260.081	206.25
260.314	212.25
260.547	220.25
260.779	229.25
261.012	220.25
261.244	201.25
261.477	206.25
261.71	209.25
261.942	214.25
262.175	203.25
262.407	210.25
262.64	186.25
262.872	194.25
263.105	185.25
263.337	185.25
263.57	188.25
263.802	186.25
264.035	209.25
264.267	207.25
264.499	199.25
264.732	209.25
264.964	195.25
265.197	210.25
265.429	199.25
265.661	195.25
265.894	200.25
266.126	199.25
266.358	198.25
266.591	212.25
266.823	198.25
267.055	213.25
267.287	201.25
267.52	206.25
267.752	219.25
267.984	200.25
268.216	199.25
268.448	206.25
268.681	219.25
268.913	235.25
269.145	231.25
269.377	253.25
269.609	238.25
269.841	222.25
270.073	226.25
270.306	260.25
270.538	270.25
270.77	279.25
271.002	256.25
271.234	244.25
271.466	259.25
271.698	278.25
271.93	278.25
272.162	274.25
272.394	265.25
272.626	256.25
272.858	243.25
273.09	256.25
273.322	254.25
273.553	245.25
273.785	227.25
274.017	237.25
274.249	233.25
274.481	248.25
274.713	266.25
274.945	260.25
275.176	260.25
275.408	255.25
275.64	234.25
275.872	247.25
276.104	255.25
276.335	248.25
276.567	243.25
276.799	260.25
277.031	278.25
277.262	284.25
277.494	292.25
277.726	262.25
277.957	250.25
278.189	271.25
278.421	265.25
278.652	245.25
278.884	272.25
279.115	266.25
279.347	256.25
279.579	250.25
279.81	238.25
280.042	256.25
280.273	253.25
280.505	254.25
280.736	274.25
280.968	267.25
281.199	285.25
281.431	272.25
281.662	261.25
281.894	269.25
282.125	265.25
282.356	273.25
282.588	296.25
282.819	316.25
283.051	268.25
283.282	267.25
283.513	278.25
283.745	265.25
283.976	278.25
284.207	258.25
284.439	292.25
284.67	278.25
284.901	278.25
285.132	262.25
285.364	268.25
285.595	254.25
285.826	275.25
286.057	288.25
286.288	281.25
286.52	294.25
286.751	277.25
286.982	276.25
287.213	272.25
287.444	277.25
287.675	270.25
287.906	283.25
288.138	287.25
288.369	294.25
288.6	300.25
288.831	293.25
289.062	275.25
289.293	293.25
289.524	293.25
289.755	271.25
289.986	296.25
290.217	269.25
290.448	286.25
290.679	288.25
290.91	278.25
291.141	289.25
291.371	294.25
291.602	272.25
291.833	288.25
292.064	288.25
292.295	276.25
292.526	281.25
292.757	280.25
292.987	291.25
293.218	270.25
293.449	296.25
293.68	277.25
293.91	299.25
294.141	286.25
294.372	276.25
294.603	277.25
294.833	277.25
295.064	281.25
295.295	288.25
295.525	295.25
295.756	291.25
295.987	302.25
296.217	308.25
296.448	298.25
296.679	301.25
296.909	290.25
297.14	291.25
297.37	295.25
297.601	314.25
297.831	292.25
298.062	294.25
298.292	314.25
298.523	309.25
298.753	285.25
298.984	313.25
299.214	289.25
299.445	297.25
299.675	300.25
299.905	307.25
300.136	306.25
300.366	322.25
300.597	311.25
300.827	302.25
301.057	332.25
301.288	324.25
301.518	308.25
301.748	300.25
301.979	329.25
302.209	325.25
302.439	336.25
302.669	322.25
302.9	300.25
303.13	307.25
303.36	314.25
303.59	344.25
303.82	336.25
304.051	315.25
304.281	304.25
304.511	329.25
304.741	325.25
304.971	309.25
305.201	330.25
305.431	306.25
305.661	326.25
305.891	342.25
306.121	328.25
306.352	322.25
306.582	312.25
306.812	315.25
307.042	329.25
307.272	295.25
307.502	318.25
307.731	341.25
307.961	333.25
308.191	333.25
308.421	328.25
308.651	332.25
308.881	329.25
309.111	338.25
309.341	330.25
309.571	338.25
309.8	336.25
310.03	331.25
310.26	346.25
310.49	349.25
310.72	344.25
310.949	348.25
311.179	344.25
311.409	332.25
311.639	332.25
311.868	354.25
312.098	349.25
312.328	365.25
312.557	364.25
312.787	355.25
313.017	378.25
313.246	356.25
313.476	337.25
313.706	352.25
313.935	357.25
314.165	353.25
314.394	368.25
314.624	360.25
314.853	353.25
315.083	337.25
315.312	340.25
315.542	359.25
315.771	362.25
316.001	343.25
316.23	360.25
316.46	360.25
316.689	357.25
316.919	355.25
317.148	362.25
317.377	378.25
317.607	353.25
317.836	342.25
318.065	363.25
318.295	361.25
318.524	356.25
318.753	315.25
318.983	336.25
319.212	337.25
319.441	345.25
319.67	371.25
319.9	348.25
320.129	347.25
320.358	362.25
320.587	336.25
320.816	344.25
321.046	351.25
321.275	372.25
321.504	362.25
321.733	366.25
321.962	380.25
322.191	378.25
322.42	385.25
322.649	388.25
322.878	392.25
323.108	393.25
323.337	423.25
323.566	384.25
323.795	456.25
324.024	466.25
324.253	555.25
324.482	713.25
324.71	1041.25
324.939	1444.25
325.168	1250.25
325.397	669.25
325.626	516.25
325.855	466.25
326.084	459.25
326.313	454.25
326.542	449.25
326.77	465.25
326.999	534.25
327.228	688.25
327.457	980.25
327.686	1146.25
327.914	802.25
328.143	586.25
328.372	553.25
328.6	526.25
328.829	499.25
329.058	482.25
329.287	476.25
329.515	485.25
329.744	468.25
329.972	514.25
330.201	554.25
330.43	601.25
330.658	568.25
330.887	541.25
331.115	502.25
331.344	489.25
331.572	454.25
331.801	448.25
332.03	459.25
332.258	444.25
332.486	457.25
332.715	452.25
332.943	464.25
333.172	470.25
333.4	480.25
333.629	486.25
333.857	528.25
334.085	550.25
334.314	603.25
334.542	661.25
334.771	678.25
334.999	574.25
335.227	528.25
335.455	469.25
335.684	475.25
335.912	458.25
336.14	450.25
336.369	435.25
336.597	436.25
336.825	432.25
337.053	438.25
337.281	438.25
337.51	420.25
337.738	429.25
337.966	416.25
338.194	416.25
338.422	403.25
338.65	400.25
338.878	424.25
339.106	413.25
339.334	413.25
339.562	401.25
339.79	384.25
340.018	398.25
340.246	396.25
340.474	394.25
340.702	404.25
340.93	390.25
341.158	389.25
341.386	397.25
341.614	387.25
341.842	387.25
342.07	375.25
342.298	384.25
342.526	396.25
342.754	382.25
342.981	380.25
343.209	392.25
343.437	421.25
343.665	406.25
343.893	442.25
344.12	418.25
344.348	425.25
344.576	410.25
344.804	413.25
345.031	409.25
345.259	405.25
345.487	413.25
345.714	374.25
345.942	398.25
346.17	377.25
346.397	373.25
346.625	374.25
346.853	371.25
347.08	383.25
347.308	385.25
347.535	385.25
347.763	382.25
347.99	381.25
348.218	385.25
348.445	390.25
348.673	374.25
348.9	400.25
349.128	358.25
349.355	376.25
349.583	353.25
349.81	345.25
350.037	359.25
350.265	366.25
350.492	396.25
350.72	360.25
350.947	365.25
351.174	380.25
351.402	382.25
351.629	366.25
351.856	382.25
352.083	386.25
352.311	356.25
352.538	373.25
352.765	375.25
352.992	372.25
353.22	368.25
353.447	371.25
353.674	384.25
353.901	364.25
354.128	365.25
354.355	351.25
354.583	350.25
354.81	357.25
355.037	357.25
355.264	357.25
355.491	347.25
355.718	343.25
355.945	353.25
356.172	363.25
356.399	376.25
356.626	347.25
356.853	330.25
357.08	339.25
357.307	358.25
357.534	348.25
357.761	338.25
357.988	362.25
358.215	356.25
358.441	352.25
358.668	356.25
358.895	372.25
359.122	361.25
359.349	370.25
359.576	359.25
359.802	388.25
360.029	392.25
360.256	401.25
360.483	391.25
360.709	374.25
360.936	355.25
361.163	377.25
361.39	358.25
361.616	358.25
361.843	356.25
362.07	371.25
362.296	360.25
362.523	367.25
362.749	353.25
362.976	370.25
363.203	352.25
363.429	345.25
363.656	353.25
363.882	345.25
364.109	370.25
364.335	364.25
364.562	361.25
364.788	347.25
365.015	356.25
365.241	332.25
365.468	342.25
365.694	353.25
365.92	334.25
366.147	346.25
366.373	353.25
366.599	363.25
366.826	342.25
367.052	338.25
367.278	365.25
367.505	354.25
367.731	357.25
367.957	336.25
368.184	354.25
368.41	348.25
368.636	376.25
368.862	377.25
369.089	345.25
369.315	349.25
369.541	357.25
369.767	349.25
369.993	365.25
370.219	370.25
370.445	350.25
370.672	373.25
370.898	350.25
371.124	374.25
371.35	340.25
371.576	352.25
371.802	357.25
372.028	342.25
372.254	362.25
372.48	344.25
372.706	373.25
372.932	372.25
373.158	386.25
373.384	372.25
373.61	370.25
373.835	357.25
374.061	358.25
374.287	368.25
374.513	379.25
374.739	383.25
374.965	377.25
375.191	380.25
375.416	388.25
375.642	394.25
375.868	388.25
376.094	390.25
376.319	350.25
376.545	370.25
376.771	361.25
376.997	365.25
377.222	364.25
377.448	370.25
377.674	362.25
377.899	372.25
378.125	346.25
378.35	368.25
378.576	365.25
378.802	345.25
379.027	352.25
379.253	356.25
379.478	352.25
379.704	373.25
379.929	360.25
380.155	352.25
380.38	358.25
380.606	375.25
380.831	364.25
381.057	376.25
381.282	367.25
381.507	370.25
381.733	368.25
381.958	362.25
382.184	361.25
382.409	385.25
382.634	362.25
382.86	358.25
383.085	381.25
383.31	375.25
383.535	370.25
383.761	374.25
383.986	380.25
384.211	372.25
384.436	392.25
384.662	400.25
384.887	409.25
385.112	404.25
385.337	400.25
385.562	391.25
385.787	413.25
386.013	424.25
386.238	418.25
386.463	411.25
386.688	411.25
386.913	415.25
387.138	406.25
387.363	408.25
387.588	397.25
387.813	398.25
388.038	410.25
388.263	397.25
388.488	400.25
388.713	394.25
388.938	402.25
389.163	398.25
389.387	405.25
389.612	390.25
389.837	411.25
390.062	395.25
390.287	410.25
390.512	398.25
390.736	413.25
390.961	426.25
391.186	416.25
391.411	409.25
391.636	422.25
391.86	448.25
392.085	463.25
392.31	436.25
392.534	425.25
392.759	420.25
392.984	432.25
393.208	434.25
393.433	412.25
393.658	413.25
393.882	423.25
394.107	438.25
394.331	403.25
394.556	418.25
394.78	429.25
395.005	403.25
395.229	422.25
395.454	418.25
395.678	435.25
395.903	450.25
396.127	433.25
396.352	442.25
396.576	417.25
396.801	423.25
397.025	417.25
397.249	427.25
397.474	438.25
397.698	438.25
397.922	440.25
398.147	455.25
398.371	454.25
398.595	477.25
398.82	471.25
399.044	489.25
399.268	518.25
399.492	589.25
399.717	625.25
399.941	658.25
400.165	631.25
400.389	585.25
400.613	547.25
400.837	512.25
401.062	489.25
401.286	487.25
401.51	482.25
401.734	483.25
401.958	487.25
402.182	490.25
402.406	483.25
402.63	527.25
402.854	486.25
403.078	509.25
403.302	520.25
403.526	525.25
403.75	527.25
403.974	485.25
404.198	557.25
404.422	531.25
404.645	529.25
404.869	561.25
405.093	570.25
405.317	585.25
405.541	633.25
405.765	568.25
405.988	553.25
406.212	535.25
406.436	544.25
406.66	568.25
406.883	541.25
407.107	573.25
407.331	597.25
407.555	635.25
407.778	638.25
408.002	587.25
408.226	566.25
408.449	547.25
408.673	557.25
408.896	558.25
409.12	574.25
409.344	555.25
409.567	543.25
409.791	538.25
410.014	504.25
410.238	479.25
410.461	512.25
410.685	524.25
410.908	515.25
411.132	528.25
411.355	573.25
411.578	523.25
411.802	532.25
412.025	508.25
412.249	524.25
412.472	549.25
412.695	606.25
412.919	593.25
413.142	545.25
413.365	513.25
413.589	510.25
413.812	491.25
414.035	496.25
414.258	484.25
414.482	476.25
414.705	475.25
414.928	461.25
415.151	474.25
415.374	479.25
415.597	475.25
415.821	466.25
416.044	481.25
416.267	472.25
416.49	468.25
416.713	459.25
416.936	466.25
417.159	468.25
417.382	479.25
417.605	472.25
417.828	481.25
418.051	498.25
418.274	475.25
418.497	453.25
418.72	474.25
418.943	481.25
419.166	507.25
419.389	529.25
419.611	537.25
419.834	500.25
420.057	536.25
420.28	549.25
420.503	518.25
420.726	502.25
420.948	521.25
421.171	514.25
421.394	515.25
421.617	512.25
421.839	465.25
422.062	480.25
422.285	495.25
422.507	496.25
422.73	559.25
422.953	540.25
423.175	506.25
423.398	516.25
423.621	494.25
423.843	532.25
424.066	518.25
424.288	492.25
424.511	529.25
424.733	556.25
424.956	583.25
425.178	546.25
425.401	578.25
425.623	587.25
425.846	523.25
426.068	477.25
426.291	449.25
426.513	504.25
426.735	480.25
426.958	522.25
427.18	585.25
427.402	649.25
427.625	694.25
427.847	627.25
428.069	586.25
428.292	534.25
428.514	483.25
428.736	455.25
428.958	456.25
429.181	455.25
429.403	442.25
429.625	440.25
429.847	465.25
430.069	518.25
430.292	484.25
430.514	452.25
430.736	444.25
430.958	434.25
431.18	427.25
431.402	421.25
431.624	429.25
431.846	422.25
432.068	440.25
432.29	424.25
432.512	438.25
432.734	440.25
432.956	444.25
433.178	467.25
433.4	453.25
433.622	439.25
433.844	429.25
434.066	438.25
434.287	444.25
434.509	443.25
434.731	464.25
434.953	460.25
435.175	490.25
435.397	478.25
435.618	475.25
435.84	519.25
436.062	561.25
436.284	575.25
436.505	517.25
436.727	476.25
436.949	455.25
437.17	435.25
437.392	436.25
437.614	457.25
437.835	445.25
438.057	517.25
438.278	568.25
438.5	587.25
438.721	614.25
438.943	586.25
439.165	475.25
439.386	470.25
439.608	487.25
439.829	475.25
440.05	497.25
440.272	513.25
440.493	480.25
440.715	461.25
440.936	467.25
441.158	449.25
441.379	458.25
441.6	468.25
441.822	483.25
442.043	510.25
442.264	547.25
442.486	589.25
442.707	542.25
442.928	502.25
443.149	491.25
443.371	502.25
443.592	538.25
443.813	595.25
444.034	615.25
444.255	572.25
444.476	512.25
444.698	515.25
444.919	533.25
445.14	612.25
445.361	565.25
445.582	526.25
445.803	550.25
446.024	609.25
446.245	598.25
446.466	556.25
446.687	481.25
446.908	464.25
447.129	453.25
447.35	431.25
447.571	420.25
447.792	435.25
448.013	440.25
448.234	442.25
448.455	471.25
448.675	544.25
448.896	616.25
449.117	500.25
449.338	493.25
449.559	576.25
449.779	626.25
450	505.25
450.221	430.25
450.442	425.25
450.662	420.25
450.883	418.25
451.104	439.25
451.324	427.25
451.545	419.25
451.766	403.25
451.986	417.25
452.207	390.25
452.428	396.25
452.648	390.25
452.869	402.25
453.089	406.25
453.31	414.25
453.53	405.25
453.751	388.25
453.971	394.25
454.192	404.25
454.412	418.25
454.633	382.25
454.853	390.25
455.073	386.25
455.294	410.25
455.514	434.25
455.734	410.25
455.955	401.25
456.175	390.25
456.395	352.25
456.616	365.25
456.836	370.25
457.056	384.25
457.276	368.25
457.497	393.25
457.717	370.25
457.937	396.25
458.157	370.25
458.377	382.25
458.598	396.25
458.818	425.25
459.038	493.25
459.258	475.25
459.478	445.25
459.698	435.25
459.918	440.25
460.138	449.25
460.358	452.25
460.578	462.25
460.798	468.25
461.018	471.25
461.238	486.25
461.458	473.25
461.678	453.25
461.898	465.25
462.118	474.25
462.338	488.25
462.558	491.25
462.777	495.25
462.997	542.25
463.217	560.25
463.437	554.25
463.657	545.25
463.876	520.25
464.096	531.25
464.316	531.25
464.536	512.25
464.755	516.25
464.975	510.25
465.195	513.25
465.414	517.25
465.634	478.25
465.854	442.25
466.073	453.25
466.293	438.25
466.512	408.25
466.732	406.25
466.951	402.25
467.171	419.25
467.391	412.25
467.61	417.25
467.829	434.25
468.049	421.25
468.268	442.25
468.488	406.25
468.707	416.25
468.927	386.25
469.146	382.25
469.365	403.25
469.585	420.25
469.804	402.25
470.023	418.25
470.243	430.25
470.462	418.25
470.681	428.25
470.901	457.25
471.12	445.25
471.339	414.25
471.558	425.25
471.777	426.25
471.997	427.25
472.216	436.25
472.435	492.25
472.654	490.25
472.873	456.25
473.092	414.25
473.311	412.25
473.53	432.25
473.749	410.25
473.968	445.25
474.187	509.25
474.406	491.25
474.625	457.25
474.844	410.25
475.063	421.25
475.282	425.25
475.501	419.25
475.72	421.25
475.939	424.25
476.158	426.25
476.377	419.25
476.596	409.25
476.814	437.25
477.033	428.25
477.252	436.25
477.471	433.25
477.69	428.25
477.908	451.25
478.127	481.25
478.346	449.25
478.564	458.25
478.783	465.25
479.002	488.25
479.22	476.25
479.439	485.25
479.658	485.25
479.876	490.25
480.095	496.25
480.313	532.25
480.532	529.25
480.751	535.25
480.969	572.25
481.188	650.25
481.406	727.25
481.624	584.25
481.843	536.25
482.061	494.25
482.28	491.25
482.498	490.25
482.717	478.25
482.935	491.25
483.153	465.25
483.372	490.25
483.59	484.25
483.808	481.25
484.027	486.25
484.245	482.25
484.463	476.25
484.681	487.25
484.9	461.25
485.118	482.25
485.336	482.25
485.554	503.25
485.772	492.25
485.99	490.25
486.209	466.25
486.427	500.25
486.645	504.25
486.863	510.25
487.081	515.25
487.299	486.25
487.517	524.25
487.735	507.25
487.953	496.25
488.171	499.25
488.389	512.25
488.607	492.25
488.825	500.25
489.043	488.25
489.261	525.25
489.479	536.25
489.696	527.25
489.914	516.25
490.132	532.25
490.35	526.25
490.568	537.25
490.786	532.25
491.003	504.25
491.221	537.25
491.439	576.25
491.657	579.25
491.874	581.25
492.092	581.25
492.31	593.25
492.527	589.25
492.745	606.25
492.963	605.25
493.18	608.25
493.398	593.25
493.615	599.25
493.833	591.25
494.05	586.25
494.268	592.25
494.485	573.25
494.703	566.25
494.92	564.25
495.138	589.25
495.355	579.25
495.573	580.25
495.79	555.25
496.008	566.25
496.225	581.25
496.442	571.25
496.66	603.25
496.877	576.25
497.094	580.25
497.312	609.25
497.529	605.25
497.746	632.25
497.963	639.25
498.181	636.25
498.398	637.25
498.615	701.25
498.832	700.25
499.049	717.25
499.267	776.25
499.484	810.25
499.701	888.25
499.918	931.25
500.135	985.25
500.352	1076.25
500.569	1134.25
500.786	1138.25
501.003	1094.25
501.22	1026.25
501.437	915.25
501.654	877.25
501.871	838.25
502.088	776.25
