Data from 1984.PennyLincolnUp.Lamp.En5.5.200Scan.071819.P1_HRD10591_16-58-46-968.txt Node
Date: Thu Jul 18 16:58:46 EDT 2019
User: cochatt
Spectrometer: HR+D1059
Trigger mode: 1
Integration Time (sec): 1.000000E-1
Scans to average: 1
Electric dark correction enabled: true
Nonlinearity correction enabled: false
Boxcar width: 0
XAxis mode: Wavelengths
Number of Pixels in Spectrum: 2048
>>>>>Begin Spectral Data<<<<<
223.165	-18.81
223.4	-18.81
223.635	-18.81
223.869	-13.81
224.104	-13.81
224.338	-10.81
224.573	-7.81
224.808	-14.81
225.042	-6.81
225.277	4.19
225.511	-1.81
225.746	-5.81
225.98	7.19
226.215	2.19
226.449	16.19
226.683	7.19
226.918	25.19
227.152	32.19
227.387	29.19
227.621	37.19
227.856	48.19
228.09	40.19
228.324	48.19
228.559	48.19
228.793	62.19
229.027	77.19
229.262	90.19
229.496	86.19
229.73	107.19
229.964	117.19
230.199	118.19
230.433	112.19
230.667	108.19
230.901	114.19
231.136	105.19
231.37	118.19
231.604	109.19
231.838	107.19
232.072	107.19
232.306	115.19
232.541	111.19
232.775	114.19
233.009	110.19
233.243	112.19
233.477	103.19
233.711	108.19
233.945	136.19
234.179	120.19
234.413	106.19
234.647	108.19
234.881	119.19
235.115	119.19
235.349	117.19
235.583	128.19
235.817	117.19
236.051	118.19
236.285	125.19
236.519	112.19
236.753	118.19
236.987	120.19
237.221	148.19
237.455	162.19
237.689	148.19
237.922	124.19
238.156	120.19
238.39	120.19
238.624	117.19
238.858	120.19
239.091	121.19
239.325	116.19
239.559	108.19
239.793	122.19
240.027	121.19
240.26	122.19
240.494	133.19
240.728	137.19
240.961	120.19
241.195	132.19
241.429	131.19
241.662	132.19
241.896	113.19
242.13	125.19
242.363	104.19
242.597	123.19
242.83	132.19
243.064	127.19
243.298	133.19
243.531	135.19
243.765	130.19
243.998	141.19
244.232	132.19
244.465	129.19
244.699	133.19
244.932	130.19
245.166	135.19
245.399	119.19
245.633	155.19
245.866	127.19
246.099	141.19
246.333	138.19
246.566	136.19
246.8	138.19
247.033	132.19
247.266	145.19
247.5	131.19
247.733	143.19
247.966	150.19
248.2	146.19
248.433	156.19
248.666	154.19
248.899	161.19
249.133	179.19
249.366	175.19
249.599	182.19
249.832	175.19
250.066	179.19
250.299	154.19
250.532	189.19
250.765	198.19
250.998	200.19
251.231	206.19
251.465	184.19
251.698	187.19
251.931	170.19
252.164	191.19
252.397	190.19
252.63	162.19
252.863	188.19
253.096	191.19
253.329	195.19
253.562	194.19
253.795	197.19
254.028	183.19
254.261	179.19
254.494	181.19
254.727	212.19
254.96	206.19
255.193	215.19
255.426	201.19
255.659	211.19
255.892	237.19
256.124	239.19
256.357	273.19
256.59	197.19
256.823	193.19
257.056	190.19
257.289	200.19
257.521	195.19
257.754	195.19
257.987	184.19
258.22	196.19
258.452	194.19
258.685	200.19
258.918	183.19
259.151	182.19
259.383	208.19
259.616	199.19
259.849	193.19
260.081	185.19
260.314	219.19
260.547	226.19
260.779	221.19
261.012	211.19
261.244	201.19
261.477	205.19
261.71	192.19
261.942	197.19
262.175	196.19
262.407	195.19
262.64	192.19
262.872	207.19
263.105	193.19
263.337	195.19
263.57	180.19
263.802	204.19
264.035	196.19
264.267	199.19
264.499	200.19
264.732	204.19
264.964	217.19
265.197	213.19
265.429	207.19
265.661	203.19
265.894	201.19
266.126	205.19
266.358	216.19
266.591	224.19
266.823	202.19
267.055	212.19
267.287	220.19
267.52	208.19
267.752	205.19
267.984	208.19
268.216	204.19
268.448	215.19
268.681	212.19
268.913	220.19
269.145	220.19
269.377	239.19
269.609	267.19
269.841	219.19
270.073	234.19
270.306	229.19
270.538	266.19
270.77	261.19
271.002	257.19
271.234	250.19
271.466	261.19
271.698	259.19
271.93	282.19
272.162	261.19
272.394	255.19
272.626	264.19
272.858	239.19
273.09	259.19
273.322	253.19
273.553	255.19
273.785	244.19
274.017	256.19
274.249	239.19
274.481	241.19
274.713	235.19
274.945	251.19
275.176	250.19
275.408	242.19
275.64	241.19
275.872	242.19
276.104	236.19
276.335	261.19
276.567	265.19
276.799	269.19
277.031	274.19
277.262	260.19
277.494	265.19
277.726	279.19
277.957	279.19
278.189	277.19
278.421	267.19
278.652	267.19
278.884	266.19
279.115	261.19
279.347	259.19
279.579	272.19
279.81	273.19
280.042	257.19
280.273	264.19
280.505	271.19
280.736	268.19
280.968	261.19
281.199	272.19
281.431	259.19
281.662	268.19
281.894	258.19
282.125	255.19
282.356	267.19
282.588	273.19
282.819	287.19
283.051	278.19
283.282	265.19
283.513	285.19
283.745	281.19
283.976	258.19
284.207	292.19
284.439	260.19
284.67	269.19
284.901	289.19
285.132	273.19
285.364	271.19
285.595	266.19
285.826	272.19
286.057	288.19
286.288	283.19
286.52	263.19
286.751	282.19
286.982	272.19
287.213	264.19
287.444	263.19
287.675	272.19
287.906	294.19
288.138	287.19
288.369	300.19
288.6	301.19
288.831	292.19
289.062	305.19
289.293	291.19
289.524	307.19
289.755	273.19
289.986	288.19
290.217	309.19
290.448	283.19
290.679	276.19
290.91	277.19
291.141	295.19
291.371	280.19
291.602	290.19
291.833	299.19
292.064	282.19
292.295	282.19
292.526	272.19
292.757	282.19
292.987	283.19
293.218	276.19
293.449	279.19
293.68	291.19
293.91	285.19
294.141	283.19
294.372	277.19
294.603	281.19
294.833	292.19
295.064	267.19
295.295	294.19
295.525	292.19
295.756	296.19
295.987	299.19
296.217	307.19
296.448	316.19
296.679	295.19
296.909	284.19
297.14	307.19
297.37	314.19
297.601	324.19
297.831	308.19
298.062	308.19
298.292	304.19
298.523	299.19
298.753	307.19
298.984	308.19
299.214	291.19
299.445	303.19
299.675	323.19
299.905	331.19
300.136	322.19
300.366	307.19
300.597	290.19
300.827	318.19
301.057	309.19
301.288	303.19
301.518	322.19
301.748	342.19
301.979	344.19
302.209	323.19
302.439	331.19
302.669	317.19
302.9	324.19
303.13	322.19
303.36	332.19
303.59	332.19
303.82	333.19
304.051	342.19
304.281	329.19
304.511	312.19
304.741	329.19
304.971	317.19
305.201	329.19
305.431	319.19
305.661	310.19
305.891	313.19
306.121	331.19
306.352	336.19
306.582	320.19
306.812	299.19
307.042	324.19
307.272	320.19
307.502	320.19
307.731	313.19
307.961	312.19
308.191	317.19
308.421	330.19
308.651	314.19
308.881	324.19
309.111	315.19
309.341	321.19
309.571	354.19
309.8	315.19
310.03	351.19
310.26	345.19
310.49	348.19
310.72	365.19
310.949	339.19
311.179	344.19
311.409	326.19
311.639	337.19
311.868	338.19
312.098	351.19
312.328	349.19
312.557	378.19
312.787	380.19
313.017	380.19
313.246	378.19
313.476	364.19
313.706	349.19
313.935	375.19
314.165	371.19
314.394	373.19
314.624	368.19
314.853	360.19
315.083	353.19
315.312	354.19
315.542	358.19
315.771	335.19
316.001	344.19
316.23	364.19
316.46	356.19
316.689	371.19
316.919	359.19
317.148	367.19
317.377	344.19
317.607	349.19
317.836	340.19
318.065	351.19
318.295	373.19
318.524	333.19
318.753	350.19
318.983	349.19
319.212	376.19
319.441	355.19
319.67	356.19
319.9	372.19
320.129	369.19
320.358	356.19
320.587	361.19
320.816	361.19
321.046	351.19
321.275	352.19
321.504	358.19
321.733	372.19
321.962	375.19
322.191	368.19
322.42	362.19
322.649	398.19
322.878	399.19
323.108	416.19
323.337	410.19
323.566	429.19
323.795	427.19
324.024	455.19
324.253	540.19
324.482	719.19
324.71	1049.19
324.939	1425.19
325.168	1252.19
325.397	692.19
325.626	541.19
325.855	448.19
326.084	460.19
326.313	449.19
326.542	445.19
326.77	482.19
326.999	532.19
327.228	705.19
327.457	967.19
327.686	1111.19
327.914	793.19
328.143	567.19
328.372	531.19
328.6	528.19
328.829	493.19
329.058	481.19
329.287	492.19
329.515	487.19
329.744	465.19
329.972	504.19
330.201	548.19
330.43	567.19
330.658	546.19
330.887	509.19
331.115	501.19
331.344	458.19
331.572	440.19
331.801	459.19
332.03	443.19
332.258	446.19
332.486	445.19
332.715	437.19
332.943	460.19
333.172	464.19
333.4	477.19
333.629	501.19
333.857	517.19
334.085	546.19
334.314	586.19
334.542	629.19
334.771	625.19
334.999	572.19
335.227	518.19
335.455	483.19
335.684	473.19
335.912	470.19
336.14	443.19
336.369	432.19
336.597	459.19
336.825	442.19
337.053	442.19
337.281	426.19
337.51	433.19
337.738	428.19
337.966	419.19
338.194	394.19
338.422	439.19
338.65	418.19
338.878	406.19
339.106	415.19
339.334	412.19
339.562	394.19
339.79	400.19
340.018	391.19
340.246	387.19
340.474	401.19
340.702	379.19
340.93	402.19
341.158	388.19
341.386	379.19
341.614	395.19
341.842	396.19
342.07	400.19
342.298	406.19
342.526	373.19
342.754	381.19
342.981	383.19
343.209	402.19
343.437	395.19
343.665	422.19
343.893	409.19
344.12	444.19
344.348	435.19
344.576	408.19
344.804	412.19
345.031	413.19
345.259	403.19
345.487	418.19
345.714	412.19
345.942	389.19
346.17	379.19
346.397	383.19
346.625	369.19
346.853	370.19
347.08	369.19
347.308	388.19
347.535	382.19
347.763	376.19
347.99	368.19
348.218	391.19
348.445	377.19
348.673	367.19
348.9	373.19
349.128	353.19
349.355	361.19
349.583	373.19
349.81	376.19
350.037	367.19
350.265	379.19
350.492	358.19
350.72	368.19
350.947	371.19
351.174	369.19
351.402	362.19
351.629	387.19
351.856	357.19
352.083	373.19
352.311	386.19
352.538	373.19
352.765	369.19
352.992	359.19
353.22	361.19
353.447	376.19
353.674	367.19
353.901	353.19
354.128	364.19
354.355	358.19
354.583	363.19
354.81	347.19
355.037	364.19
355.264	344.19
355.491	365.19
355.718	352.19
355.945	352.19
356.172	336.19
356.399	355.19
356.626	336.19
356.853	357.19
357.08	347.19
357.307	347.19
357.534	359.19
357.761	339.19
357.988	377.19
358.215	352.19
358.441	367.19
358.668	362.19
358.895	371.19
359.122	357.19
359.349	356.19
359.576	370.19
359.802	385.19
360.029	412.19
360.256	393.19
360.483	389.19
360.709	370.19
360.936	367.19
361.163	354.19
361.39	383.19
361.616	387.19
361.843	372.19
362.07	383.19
362.296	353.19
362.523	381.19
362.749	369.19
362.976	370.19
363.203	369.19
363.429	349.19
363.656	354.19
363.882	364.19
364.109	364.19
364.335	358.19
364.562	358.19
364.788	344.19
365.015	376.19
365.241	350.19
365.468	360.19
365.694	356.19
365.92	356.19
366.147	347.19
366.373	350.19
366.599	373.19
366.826	362.19
367.052	362.19
367.278	363.19
367.505	359.19
367.731	359.19
367.957	337.19
368.184	355.19
368.41	339.19
368.636	359.19
368.862	375.19
369.089	344.19
369.315	343.19
369.541	361.19
369.767	357.19
369.993	364.19
370.219	349.19
370.445	343.19
370.672	356.19
370.898	377.19
371.124	361.19
371.35	383.19
371.576	364.19
371.802	367.19
372.028	356.19
372.254	358.19
372.48	360.19
372.706	371.19
372.932	369.19
373.158	373.19
373.384	379.19
373.61	354.19
373.835	357.19
374.061	358.19
374.287	375.19
374.513	361.19
374.739	384.19
374.965	381.19
375.191	394.19
375.416	392.19
375.642	381.19
375.868	353.19
376.094	359.19
376.319	373.19
376.545	371.19
376.771	358.19
376.997	379.19
377.222	369.19
377.448	357.19
377.674	364.19
377.899	356.19
378.125	371.19
378.35	363.19
378.576	343.19
378.802	352.19
379.027	356.19
379.253	355.19
379.478	345.19
379.704	346.19
379.929	376.19
380.155	371.19
380.38	354.19
380.606	377.19
380.831	353.19
381.057	356.19
381.282	367.19
381.507	347.19
381.733	369.19
381.958	375.19
382.184	362.19
382.409	376.19
382.634	367.19
382.86	375.19
383.085	352.19
383.31	390.19
383.535	370.19
383.761	378.19
383.986	379.19
384.211	383.19
384.436	411.19
384.662	405.19
384.887	420.19
385.112	411.19
385.337	392.19
385.562	415.19
385.787	420.19
386.013	407.19
386.238	434.19
386.463	409.19
386.688	421.19
386.913	417.19
387.138	380.19
387.363	408.19
387.588	419.19
387.813	415.19
388.038	394.19
388.263	385.19
388.488	395.19
388.713	415.19
388.938	393.19
389.163	403.19
389.387	418.19
389.612	372.19
389.837	389.19
390.062	385.19
390.287	388.19
390.512	405.19
390.736	405.19
390.961	405.19
391.186	406.19
391.411	421.19
391.636	419.19
391.86	418.19
392.085	420.19
392.31	451.19
392.534	431.19
392.759	447.19
392.984	424.19
393.208	433.19
393.433	430.19
393.658	406.19
393.882	425.19
394.107	433.19
394.331	411.19
394.556	402.19
394.78	385.19
395.005	431.19
395.229	433.19
395.454	453.19
395.678	436.19
395.903	436.19
396.127	456.19
396.352	452.19
396.576	440.19
396.801	416.19
397.025	436.19
397.249	449.19
397.474	447.19
397.698	441.19
397.922	453.19
398.147	448.19
398.371	456.19
398.595	467.19
398.82	474.19
399.044	484.19
399.268	517.19
399.492	587.19
399.717	629.19
399.941	669.19
400.165	631.19
400.389	599.19
400.613	557.19
400.837	512.19
401.062	487.19
401.286	493.19
401.51	477.19
401.734	487.19
401.958	482.19
402.182	495.19
402.406	488.19
402.63	493.19
402.854	506.19
403.078	504.19
403.302	513.19
403.526	540.19
403.75	534.19
403.974	514.19
404.198	534.19
404.422	552.19
404.645	526.19
404.869	551.19
405.093	576.19
405.317	608.19
405.541	627.19
405.765	575.19
405.988	534.19
406.212	539.19
406.436	573.19
406.66	556.19
406.883	546.19
407.107	548.19
407.331	595.19
407.555	635.19
407.778	644.19
408.002	595.19
408.226	581.19
408.449	569.19
408.673	553.19
408.896	556.19
409.12	590.19
409.344	552.19
409.567	523.19
409.791	516.19
410.014	514.19
410.238	514.19
410.461	504.19
410.685	495.19
410.908	516.19
411.132	546.19
411.355	536.19
411.578	545.19
411.802	517.19
412.025	498.19
412.249	525.19
412.472	562.19
412.695	579.19
412.919	552.19
413.142	498.19
413.365	525.19
413.589	518.19
413.812	493.19
414.035	478.19
414.258	481.19
414.482	477.19
414.705	488.19
414.928	481.19
415.151	483.19
415.374	470.19
415.597	449.19
415.821	466.19
416.044	459.19
416.267	459.19
416.49	459.19
416.713	478.19
416.936	461.19
417.159	475.19
417.382	487.19
417.605	478.19
417.828	478.19
418.051	467.19
418.274	484.19
418.497	474.19
418.72	490.19
418.943	483.19
419.166	518.19
419.389	537.19
419.611	521.19
419.834	502.19
420.057	516.19
420.28	498.19
420.503	513.19
420.726	506.19
420.948	481.19
421.171	521.19
421.394	539.19
421.617	518.19
421.839	489.19
422.062	489.19
422.285	476.19
422.507	516.19
422.73	569.19
422.953	552.19
423.175	510.19
423.398	520.19
423.621	495.19
423.843	514.19
424.066	525.19
424.288	517.19
424.511	539.19
424.733	558.19
424.956	596.19
425.178	564.19
425.401	566.19
425.623	578.19
425.846	514.19
426.068	488.19
426.291	475.19
426.513	483.19
426.735	501.19
426.958	538.19
427.18	567.19
427.402	623.19
427.625	701.19
427.847	624.19
428.069	565.19
428.292	534.19
428.514	481.19
428.736	465.19
428.958	461.19
429.181	458.19
429.403	439.19
429.625	452.19
429.847	448.19
430.069	524.19
430.292	524.19
430.514	458.19
430.736	468.19
430.958	425.19
431.18	424.19
431.402	444.19
431.624	423.19
431.846	452.19
432.068	446.19
432.29	456.19
432.512	451.19
432.734	463.19
432.956	450.19
433.178	424.19
433.4	445.19
433.622	431.19
433.844	467.19
434.066	449.19
434.287	415.19
434.509	439.19
434.731	445.19
434.953	468.19
435.175	486.19
435.397	487.19
435.618	480.19
435.84	512.19
436.062	553.19
436.284	607.19
436.505	508.19
436.727	457.19
436.949	452.19
437.17	461.19
437.392	466.19
437.614	467.19
437.835	475.19
438.057	489.19
438.278	559.19
438.5	571.19
438.721	631.19
438.943	597.19
439.165	498.19
439.386	491.19
439.608	466.19
439.829	466.19
440.05	491.19
440.272	519.19
440.493	497.19
440.715	461.19
440.936	463.19
441.158	470.19
441.379	461.19
441.6	494.19
441.822	503.19
442.043	531.19
442.264	590.19
442.486	570.19
442.707	515.19
442.928	507.19
443.149	470.19
443.371	509.19
443.592	532.19
443.813	607.19
444.034	642.19
444.255	581.19
444.476	541.19
444.698	525.19
444.919	519.19
445.14	632.19
445.361	547.19
445.582	533.19
445.803	543.19
446.024	606.19
446.245	605.19
446.466	544.19
446.687	499.19
446.908	475.19
447.129	432.19
447.35	433.19
447.571	428.19
447.792	418.19
448.013	433.19
448.234	444.19
448.455	455.19
448.675	554.19
448.896	596.19
449.117	543.19
449.338	481.19
449.559	547.19
449.779	637.19
450	511.19
450.221	456.19
450.442	429.19
450.662	424.19
450.883	428.19
451.104	442.19
451.324	433.19
451.545	407.19
451.766	393.19
451.986	392.19
452.207	389.19
452.428	404.19
452.648	396.19
452.869	401.19
453.089	400.19
453.31	403.19
453.53	399.19
453.751	399.19
453.971	388.19
454.192	407.19
454.412	381.19
454.633	407.19
454.853	392.19
455.073	397.19
455.294	408.19
455.514	429.19
455.734	407.19
455.955	407.19
456.175	393.19
456.395	393.19
456.616	368.19
456.836	388.19
457.056	385.19
457.276	379.19
457.497	361.19
457.717	381.19
457.937	385.19
458.157	386.19
458.377	389.19
458.598	404.19
458.818	455.19
459.038	461.19
459.258	480.19
459.478	454.19
459.698	456.19
459.918	431.19
460.138	430.19
460.358	461.19
460.578	459.19
460.798	480.19
461.018	492.19
461.238	493.19
461.458	462.19
461.678	461.19
461.898	467.19
462.118	500.19
462.338	491.19
462.558	496.19
462.777	527.19
462.997	561.19
463.217	589.19
463.437	591.19
463.657	529.19
463.876	531.19
464.096	517.19
464.316	512.19
464.536	526.19
464.755	519.19
464.975	491.19
465.195	499.19
465.414	525.19
465.634	475.19
465.854	451.19
466.073	442.19
466.293	437.19
466.512	433.19
466.732	413.19
466.951	429.19
467.171	416.19
467.391	433.19
467.61	425.19
467.829	425.19
468.049	416.19
468.268	445.19
468.488	417.19
468.707	403.19
468.927	425.19
469.146	395.19
469.365	407.19
469.585	412.19
469.804	423.19
470.023	424.19
470.243	421.19
470.462	435.19
470.681	438.19
470.901	413.19
471.12	421.19
471.339	435.19
471.558	433.19
471.777	417.19
471.997	420.19
472.216	427.19
472.435	482.19
472.654	481.19
472.873	451.19
473.092	445.19
473.311	447.19
473.53	419.19
473.749	419.19
473.968	447.19
474.187	488.19
474.406	509.19
474.625	458.19
474.844	403.19
475.063	398.19
475.282	421.19
475.501	402.19
475.72	417.19
475.939	423.19
476.158	401.19
476.377	398.19
476.596	435.19
476.814	435.19
477.033	419.19
477.252	424.19
477.471	414.19
477.69	435.19
477.908	440.19
478.127	447.19
478.346	475.19
478.564	455.19
478.783	477.19
479.002	490.19
479.22	492.19
479.439	498.19
479.658	501.19
479.876	483.19
480.095	504.19
480.313	544.19
480.532	523.19
480.751	529.19
480.969	529.19
481.188	613.19
481.406	652.19
481.624	577.19
481.843	519.19
482.061	500.19
482.28	490.19
482.498	489.19
482.717	472.19
482.935	484.19
483.153	472.19
483.372	476.19
483.59	462.19
483.808	477.19
484.027	489.19
484.245	461.19
484.463	472.19
484.681	484.19
484.9	497.19
485.118	492.19
485.336	499.19
485.554	487.19
485.772	489.19
485.99	487.19
486.209	487.19
486.427	496.19
486.645	500.19
486.863	498.19
487.081	508.19
487.299	518.19
487.517	497.19
487.735	513.19
487.953	511.19
488.171	501.19
488.389	492.19
488.607	501.19
488.825	487.19
489.043	493.19
489.261	535.19
489.479	495.19
489.696	505.19
489.914	522.19
490.132	506.19
490.35	521.19
490.568	514.19
490.786	531.19
491.003	510.19
491.221	537.19
491.439	562.19
491.657	574.19
491.874	582.19
492.092	583.19
492.31	565.19
492.527	574.19
492.745	567.19
492.963	577.19
493.18	593.19
493.398	591.19
493.615	579.19
493.833	586.19
494.05	583.19
494.268	602.19
494.485	582.19
494.703	573.19
494.92	580.19
495.138	584.19
495.355	581.19
495.573	576.19
495.79	561.19
496.008	559.19
496.225	565.19
496.442	586.19
496.66	575.19
496.877	596.19
497.094	608.19
497.312	597.19
497.529	607.19
497.746	616.19
497.963	616.19
498.181	660.19
498.398	669.19
498.615	704.19
498.832	711.19
499.049	741.19
499.267	765.19
499.484	805.19
499.701	860.19
499.918	905.19
500.135	1004.19
500.352	1077.19
500.569	1119.19
500.786	1139.19
501.003	1092.19
501.22	1016.19
501.437	938.19
501.654	864.19
501.871	860.19
