Data from 1984.PennyLincolnUp.Lamp.En5.5.200Scan.071819.P1_HRD10591_16-59-13-968.txt Node
Date: Thu Jul 18 16:59:13 EDT 2019
User: cochatt
Spectrometer: HR+D1059
Trigger mode: 1
Integration Time (sec): 1.000000E-1
Scans to average: 1
Electric dark correction enabled: true
Nonlinearity correction enabled: false
Boxcar width: 0
XAxis mode: Wavelengths
Number of Pixels in Spectrum: 2048
>>>>>Begin Spectral Data<<<<<
223.165	-10.56
223.4	-10.56
223.635	-10.56
223.869	-9.56
224.104	-2.56
224.338	-21.56
224.573	-12.56
224.808	-17.56
225.042	5.44
225.277	-14.56
225.511	-8.56
225.746	2.44
225.98	-0.56
226.215	18.44
226.449	9.44
226.683	16.44
226.918	20.44
227.152	25.44
227.387	29.44
227.621	43.44
227.856	34.44
228.09	47.44
228.324	48.44
228.559	57.44
228.793	63.44
229.027	94.44
229.262	98.44
229.496	86.44
229.73	100.44
229.964	126.44
230.199	100.44
230.433	96.44
230.667	99.44
230.901	100.44
231.136	98.44
231.37	116.44
231.604	95.44
231.838	114.44
232.072	109.44
232.306	105.44
232.541	101.44
232.775	93.44
233.009	117.44
233.243	125.44
233.477	117.44
233.711	113.44
233.945	101.44
234.179	115.44
234.413	107.44
234.647	101.44
234.881	116.44
235.115	117.44
235.349	114.44
235.583	89.44
235.817	110.44
236.051	113.44
236.285	99.44
236.519	119.44
236.753	123.44
236.987	139.44
237.221	130.44
237.455	160.44
237.689	144.44
237.922	120.44
238.156	114.44
238.39	116.44
238.624	114.44
238.858	123.44
239.091	120.44
239.325	117.44
239.559	148.44
239.793	114.44
240.027	121.44
240.26	132.44
240.494	141.44
240.728	118.44
240.961	141.44
241.195	133.44
241.429	145.44
241.662	115.44
241.896	121.44
242.13	123.44
242.363	140.44
242.597	119.44
242.83	129.44
243.064	107.44
243.298	118.44
243.531	129.44
243.765	135.44
243.998	129.44
244.232	137.44
244.465	142.44
244.699	134.44
244.932	129.44
245.166	134.44
245.399	145.44
245.633	141.44
245.866	130.44
246.099	124.44
246.333	133.44
246.566	148.44
246.8	142.44
247.033	135.44
247.266	129.44
247.5	163.44
247.733	147.44
247.966	162.44
248.2	155.44
248.433	159.44
248.666	156.44
248.899	172.44
249.133	163.44
249.366	193.44
249.599	144.44
249.832	146.44
250.066	156.44
250.299	171.44
250.532	179.44
250.765	197.44
250.998	193.44
251.231	193.44
251.465	181.44
251.698	174.44
251.931	187.44
252.164	187.44
252.397	171.44
252.63	161.44
252.863	175.44
253.096	181.44
253.329	199.44
253.562	201.44
253.795	190.44
254.028	184.44
254.261	170.44
254.494	169.44
254.727	202.44
254.96	213.44
255.193	207.44
255.426	210.44
255.659	206.44
255.892	235.44
256.124	260.44
256.357	262.44
256.59	222.44
256.823	204.44
257.056	205.44
257.289	207.44
257.521	202.44
257.754	189.44
257.987	193.44
258.22	189.44
258.452	184.44
258.685	189.44
258.918	179.44
259.151	194.44
259.383	186.44
259.616	179.44
259.849	195.44
260.081	199.44
260.314	205.44
260.547	214.44
260.779	207.44
261.012	202.44
261.244	186.44
261.477	206.44
261.71	192.44
261.942	211.44
262.175	203.44
262.407	208.44
262.64	206.44
262.872	191.44
263.105	189.44
263.337	192.44
263.57	198.44
263.802	197.44
264.035	198.44
264.267	197.44
264.499	196.44
264.732	203.44
264.964	193.44
265.197	202.44
265.429	214.44
265.661	195.44
265.894	195.44
266.126	211.44
266.358	201.44
266.591	198.44
266.823	219.44
267.055	200.44
267.287	214.44
267.52	218.44
267.752	220.44
267.984	200.44
268.216	213.44
268.448	221.44
268.681	199.44
268.913	223.44
269.145	242.44
269.377	257.44
269.609	235.44
269.841	236.44
270.073	234.44
270.306	239.44
270.538	259.44
270.77	279.44
271.002	264.44
271.234	242.44
271.466	245.44
271.698	244.44
271.93	257.44
272.162	270.44
272.394	269.44
272.626	276.44
272.858	255.44
273.09	241.44
273.322	242.44
273.553	231.44
273.785	236.44
274.017	249.44
274.249	235.44
274.481	230.44
274.713	254.44
274.945	259.44
275.176	228.44
275.408	248.44
275.64	260.44
275.872	246.44
276.104	233.44
276.335	269.44
276.567	271.44
276.799	278.44
277.031	288.44
277.262	308.44
277.494	284.44
277.726	258.44
277.957	278.44
278.189	266.44
278.421	253.44
278.652	250.44
278.884	268.44
279.115	262.44
279.347	263.44
279.579	250.44
279.81	258.44
280.042	241.44
280.273	251.44
280.505	268.44
280.736	260.44
280.968	264.44
281.199	265.44
281.431	251.44
281.662	258.44
281.894	264.44
282.125	249.44
282.356	275.44
282.588	293.44
282.819	273.44
283.051	280.44
283.282	265.44
283.513	274.44
283.745	269.44
283.976	286.44
284.207	277.44
284.439	259.44
284.67	267.44
284.901	272.44
285.132	263.44
285.364	257.44
285.595	269.44
285.826	279.44
286.057	269.44
286.288	275.44
286.52	272.44
286.751	268.44
286.982	278.44
287.213	269.44
287.444	277.44
287.675	284.44
287.906	269.44
288.138	300.44
288.369	283.44
288.6	293.44
288.831	280.44
289.062	293.44
289.293	293.44
289.524	263.44
289.755	277.44
289.986	293.44
290.217	287.44
290.448	297.44
290.679	277.44
290.91	272.44
291.141	255.44
291.371	289.44
291.602	284.44
291.833	281.44
292.064	269.44
292.295	286.44
292.526	289.44
292.757	278.44
292.987	302.44
293.218	290.44
293.449	266.44
293.68	272.44
293.91	295.44
294.141	290.44
294.372	292.44
294.603	294.44
294.833	275.44
295.064	285.44
295.295	281.44
295.525	270.44
295.756	291.44
295.987	289.44
296.217	295.44
296.448	298.44
296.679	300.44
296.909	308.44
297.14	284.44
297.37	298.44
297.601	302.44
297.831	287.44
298.062	291.44
298.292	278.44
298.523	293.44
298.753	275.44
298.984	286.44
299.214	292.44
299.445	293.44
299.675	311.44
299.905	323.44
300.136	323.44
300.366	295.44
300.597	314.44
300.827	318.44
301.057	317.44
301.288	324.44
301.518	306.44
301.748	327.44
301.979	323.44
302.209	309.44
302.439	318.44
302.669	322.44
302.9	311.44
303.13	306.44
303.36	319.44
303.59	332.44
303.82	339.44
304.051	326.44
304.281	328.44
304.511	310.44
304.741	322.44
304.971	325.44
305.201	334.44
305.431	315.44
305.661	314.44
305.891	312.44
306.121	324.44
306.352	329.44
306.582	321.44
306.812	331.44
307.042	327.44
307.272	323.44
307.502	307.44
307.731	318.44
307.961	327.44
308.191	317.44
308.421	321.44
308.651	327.44
308.881	318.44
309.111	308.44
309.341	324.44
309.571	314.44
309.8	328.44
310.03	332.44
310.26	320.44
310.49	329.44
310.72	350.44
310.949	364.44
311.179	355.44
311.409	350.44
311.639	338.44
311.868	342.44
312.098	353.44
312.328	366.44
312.557	347.44
312.787	348.44
313.017	365.44
313.246	353.44
313.476	339.44
313.706	346.44
313.935	352.44
314.165	366.44
314.394	395.44
314.624	364.44
314.853	358.44
315.083	353.44
315.312	354.44
315.542	361.44
315.771	345.44
316.001	355.44
316.23	332.44
316.46	341.44
316.689	348.44
316.919	346.44
317.148	344.44
317.377	338.44
317.607	352.44
317.836	341.44
318.065	349.44
318.295	359.44
318.524	361.44
318.753	352.44
318.983	354.44
319.212	364.44
319.441	351.44
319.67	377.44
319.9	354.44
320.129	360.44
320.358	361.44
320.587	362.44
320.816	348.44
321.046	362.44
321.275	345.44
321.504	354.44
321.733	366.44
321.962	367.44
322.191	364.44
322.42	374.44
322.649	372.44
322.878	381.44
323.108	409.44
323.337	406.44
323.566	429.44
323.795	433.44
324.024	459.44
324.253	519.44
324.482	699.44
324.71	1062.44
324.939	1399.44
325.168	1248.44
325.397	699.44
325.626	499.44
325.855	459.44
326.084	444.44
326.313	409.44
326.542	431.44
326.77	457.44
326.999	541.44
327.228	681.44
327.457	938.44
327.686	1147.44
327.914	788.44
328.143	596.44
328.372	548.44
328.6	516.44
328.829	508.44
329.058	486.44
329.287	494.44
329.515	475.44
329.744	483.44
329.972	465.44
330.201	537.44
330.43	564.44
330.658	582.44
330.887	509.44
331.115	508.44
331.344	479.44
331.572	457.44
331.801	462.44
332.03	465.44
332.258	437.44
332.486	439.44
332.715	439.44
332.943	465.44
333.172	467.44
333.4	457.44
333.629	469.44
333.857	500.44
334.085	541.44
334.314	573.44
334.542	646.44
334.771	667.44
334.999	565.44
335.227	483.44
335.455	463.44
335.684	466.44
335.912	449.44
336.14	441.44
336.369	454.44
336.597	417.44
336.825	417.44
337.053	413.44
337.281	445.44
337.51	422.44
337.738	422.44
337.966	417.44
338.194	403.44
338.422	429.44
338.65	402.44
338.878	435.44
339.106	425.44
339.334	398.44
339.562	383.44
339.79	392.44
340.018	369.44
340.246	397.44
340.474	396.44
340.702	407.44
340.93	387.44
341.158	380.44
341.386	382.44
341.614	399.44
341.842	384.44
342.07	377.44
342.298	371.44
342.526	387.44
342.754	385.44
342.981	387.44
343.209	378.44
343.437	411.44
343.665	396.44
343.893	422.44
344.12	424.44
344.348	437.44
344.576	402.44
344.804	411.44
345.031	385.44
345.259	403.44
345.487	397.44
345.714	382.44
345.942	375.44
346.17	370.44
346.397	361.44
346.625	375.44
346.853	383.44
347.08	388.44
347.308	367.44
347.535	364.44
347.763	386.44
347.99	375.44
348.218	389.44
348.445	358.44
348.673	385.44
348.9	366.44
349.128	363.44
349.355	344.44
349.583	372.44
349.81	352.44
350.037	349.44
350.265	396.44
350.492	340.44
350.72	366.44
350.947	361.44
351.174	381.44
351.402	383.44
351.629	376.44
351.856	371.44
352.083	362.44
352.311	390.44
352.538	358.44
352.765	373.44
352.992	365.44
353.22	358.44
353.447	351.44
353.674	386.44
353.901	362.44
354.128	334.44
354.355	360.44
354.583	358.44
354.81	349.44
355.037	350.44
355.264	348.44
355.491	348.44
355.718	369.44
355.945	339.44
356.172	357.44
356.399	371.44
356.626	347.44
356.853	334.44
357.08	340.44
357.307	357.44
357.534	366.44
357.761	368.44
357.988	347.44
358.215	357.44
358.441	360.44
358.668	361.44
358.895	353.44
359.122	366.44
359.349	351.44
359.576	362.44
359.802	366.44
360.029	372.44
360.256	393.44
360.483	389.44
360.709	372.44
360.936	375.44
361.163	376.44
361.39	362.44
361.616	380.44
361.843	369.44
362.07	371.44
362.296	365.44
362.523	366.44
362.749	345.44
362.976	346.44
363.203	372.44
363.429	339.44
363.656	353.44
363.882	342.44
364.109	361.44
364.335	356.44
364.562	344.44
364.788	349.44
365.015	371.44
365.241	349.44
365.468	337.44
365.694	345.44
365.92	341.44
366.147	335.44
366.373	338.44
366.599	331.44
366.826	346.44
367.052	351.44
367.278	346.44
367.505	345.44
367.731	365.44
367.957	339.44
368.184	339.44
368.41	386.44
368.636	342.44
368.862	358.44
369.089	350.44
369.315	357.44
369.541	354.44
369.767	363.44
369.993	362.44
370.219	341.44
370.445	353.44
370.672	353.44
370.898	362.44
371.124	366.44
371.35	364.44
371.576	377.44
371.802	355.44
372.028	371.44
372.254	361.44
372.48	358.44
372.706	389.44
372.932	363.44
373.158	389.44
373.384	355.44
373.61	343.44
373.835	376.44
374.061	364.44
374.287	358.44
374.513	366.44
374.739	381.44
374.965	370.44
375.191	350.44
375.416	370.44
375.642	366.44
375.868	389.44
376.094	361.44
376.319	381.44
376.545	361.44
376.771	355.44
376.997	360.44
377.222	369.44
377.448	367.44
377.674	363.44
377.899	363.44
378.125	357.44
378.35	339.44
378.576	327.44
378.802	349.44
379.027	356.44
379.253	370.44
379.478	342.44
379.704	342.44
379.929	343.44
380.155	347.44
380.38	331.44
380.606	348.44
380.831	355.44
381.057	367.44
381.282	369.44
381.507	355.44
381.733	350.44
381.958	371.44
382.184	359.44
382.409	352.44
382.634	381.44
382.86	352.44
383.085	374.44
383.31	370.44
383.535	387.44
383.761	368.44
383.986	376.44
384.211	386.44
384.436	384.44
384.662	399.44
384.887	382.44
385.112	400.44
385.337	391.44
385.562	383.44
385.787	426.44
386.013	401.44
386.238	401.44
386.463	409.44
386.688	403.44
386.913	396.44
387.138	402.44
387.363	415.44
387.588	393.44
387.813	408.44
388.038	376.44
388.263	422.44
388.488	406.44
388.713	396.44
388.938	391.44
389.163	405.44
389.387	392.44
389.612	405.44
389.837	392.44
390.062	407.44
390.287	391.44
390.512	390.44
390.736	400.44
390.961	407.44
391.186	421.44
391.411	430.44
391.636	434.44
391.86	417.44
392.085	433.44
392.31	422.44
392.534	431.44
392.759	430.44
392.984	410.44
393.208	403.44
393.433	405.44
393.658	394.44
393.882	403.44
394.107	405.44
394.331	410.44
394.556	419.44
394.78	407.44
395.005	410.44
395.229	408.44
395.454	435.44
395.678	449.44
395.903	446.44
396.127	445.44
396.352	436.44
396.576	399.44
396.801	411.44
397.025	410.44
397.249	407.44
397.474	430.44
397.698	440.44
397.922	438.44
398.147	434.44
398.371	444.44
398.595	471.44
398.82	459.44
399.044	481.44
399.268	535.44
399.492	563.44
399.717	602.44
399.941	622.44
400.165	599.44
400.389	578.44
400.613	536.44
400.837	505.44
401.062	505.44
401.286	488.44
401.51	498.44
401.734	471.44
401.958	470.44
402.182	472.44
402.406	493.44
402.63	509.44
402.854	493.44
403.078	495.44
403.302	498.44
403.526	512.44
403.75	528.44
403.974	536.44
404.198	505.44
404.422	539.44
404.645	522.44
404.869	520.44
405.093	546.44
405.317	577.44
405.541	617.44
405.765	561.44
405.988	526.44
406.212	533.44
406.436	537.44
406.66	515.44
406.883	507.44
407.107	562.44
407.331	609.44
407.555	639.44
407.778	641.44
408.002	610.44
408.226	558.44
408.449	534.44
408.673	559.44
408.896	557.44
409.12	576.44
409.344	553.44
409.567	515.44
409.791	521.44
410.014	485.44
410.238	483.44
410.461	497.44
410.685	492.44
410.908	494.44
411.132	534.44
411.355	527.44
411.578	526.44
411.802	502.44
412.025	491.44
412.249	522.44
412.472	548.44
412.695	582.44
412.919	564.44
413.142	500.44
413.365	505.44
413.589	513.44
413.812	503.44
414.035	478.44
414.258	457.44
414.482	480.44
414.705	462.44
414.928	466.44
415.151	477.44
415.374	473.44
415.597	460.44
415.821	467.44
416.044	467.44
416.267	459.44
416.49	447.44
416.713	472.44
416.936	470.44
417.159	464.44
417.382	455.44
417.605	477.44
417.828	490.44
418.051	481.44
418.274	471.44
418.497	469.44
418.72	483.44
418.943	466.44
419.166	481.44
419.389	517.44
419.611	525.44
419.834	471.44
420.057	496.44
420.28	512.44
420.503	487.44
420.726	490.44
420.948	519.44
421.171	503.44
421.394	506.44
421.617	510.44
421.839	475.44
422.062	460.44
422.285	485.44
422.507	526.44
422.73	548.44
422.953	526.44
423.175	506.44
423.398	526.44
423.621	513.44
423.843	508.44
424.066	509.44
424.288	502.44
424.511	532.44
424.733	548.44
424.956	586.44
425.178	573.44
425.401	528.44
425.623	559.44
425.846	502.44
426.068	490.44
426.291	477.44
426.513	477.44
426.735	482.44
426.958	509.44
427.18	572.44
427.402	635.44
427.625	665.44
427.847	581.44
428.069	551.44
428.292	515.44
428.514	473.44
428.736	463.44
428.958	441.44
429.181	427.44
429.403	445.44
429.625	447.44
429.847	457.44
430.069	495.44
430.292	487.44
430.514	451.44
430.736	435.44
430.958	420.44
431.18	439.44
431.402	403.44
431.624	413.44
431.846	431.44
432.068	441.44
432.29	422.44
432.512	443.44
432.734	424.44
432.956	433.44
433.178	433.44
433.4	436.44
433.622	425.44
433.844	423.44
434.066	422.44
434.287	419.44
434.509	442.44
434.731	466.44
434.953	467.44
435.175	477.44
435.397	475.44
435.618	454.44
435.84	513.44
436.062	531.44
436.284	587.44
436.505	483.44
436.727	450.44
436.949	444.44
437.17	423.44
437.392	435.44
437.614	445.44
437.835	462.44
438.057	511.44
438.278	581.44
438.5	561.44
438.721	618.44
438.943	585.44
439.165	491.44
439.386	453.44
439.608	481.44
439.829	469.44
440.05	467.44
440.272	499.44
440.493	476.44
440.715	469.44
440.936	457.44
441.158	462.44
441.379	466.44
441.6	468.44
441.822	468.44
442.043	501.44
442.264	546.44
442.486	578.44
442.707	501.44
442.928	473.44
443.149	486.44
443.371	509.44
443.592	537.44
443.813	586.44
444.034	598.44
444.255	555.44
444.476	523.44
444.698	540.44
444.919	525.44
445.14	605.44
445.361	545.44
445.582	521.44
445.803	526.44
446.024	575.44
446.245	566.44
446.466	546.44
446.687	486.44
446.908	479.44
447.129	456.44
447.35	441.44
447.571	431.44
447.792	454.44
448.013	417.44
448.234	439.44
448.455	453.44
448.675	515.44
448.896	589.44
449.117	498.44
449.338	466.44
449.559	548.44
449.779	631.44
450	542.44
450.221	450.44
450.442	413.44
450.662	415.44
450.883	419.44
451.104	421.44
451.324	430.44
451.545	385.44
451.766	389.44
451.986	398.44
452.207	381.44
452.428	403.44
452.648	417.44
452.869	401.44
453.089	390.44
453.31	376.44
453.53	391.44
453.751	389.44
453.971	378.44
454.192	397.44
454.412	384.44
454.633	389.44
454.853	376.44
455.073	390.44
455.294	397.44
455.514	429.44
455.734	423.44
455.955	388.44
456.175	379.44
456.395	375.44
456.616	378.44
456.836	353.44
457.056	355.44
457.276	372.44
457.497	369.44
457.717	383.44
457.937	375.44
458.157	392.44
458.377	374.44
458.598	399.44
458.818	403.44
459.038	460.44
459.258	458.44
459.478	446.44
459.698	439.44
459.918	434.44
460.138	462.44
460.358	453.44
460.578	447.44
460.798	464.44
461.018	453.44
461.238	470.44
461.458	469.44
461.678	455.44
461.898	451.44
462.118	467.44
462.338	487.44
462.558	497.44
462.777	501.44
462.997	536.44
463.217	562.44
463.437	554.44
463.657	537.44
463.876	511.44
464.096	479.44
464.316	503.44
464.536	494.44
464.755	522.44
464.975	486.44
465.195	503.44
465.414	524.44
465.634	456.44
465.854	452.44
466.073	430.44
466.293	432.44
466.512	429.44
466.732	422.44
466.951	415.44
467.171	411.44
467.391	425.44
467.61	413.44
467.829	422.44
468.049	425.44
468.268	424.44
468.488	426.44
468.707	400.44
468.927	390.44
469.146	398.44
469.365	398.44
469.585	395.44
469.804	395.44
470.023	423.44
470.243	421.44
470.462	414.44
470.681	439.44
470.901	425.44
471.12	410.44
471.339	431.44
471.558	422.44
471.777	436.44
471.997	401.44
472.216	434.44
472.435	494.44
472.654	466.44
472.873	435.44
473.092	427.44
473.311	414.44
473.53	409.44
473.749	414.44
473.968	432.44
474.187	478.44
474.406	485.44
474.625	421.44
474.844	422.44
475.063	400.44
475.282	379.44
475.501	400.44
475.72	414.44
475.939	406.44
476.158	408.44
476.377	418.44
476.596	420.44
476.814	433.44
477.033	412.44
477.252	435.44
477.471	439.44
477.69	449.44
477.908	460.44
478.127	450.44
478.346	449.44
478.564	473.44
478.783	469.44
479.002	466.44
479.22	484.44
479.439	481.44
479.658	490.44
479.876	512.44
480.095	518.44
480.313	526.44
480.532	534.44
480.751	543.44
480.969	563.44
481.188	618.44
481.406	688.44
481.624	583.44
481.843	522.44
482.061	485.44
482.28	483.44
482.498	483.44
482.717	473.44
482.935	461.44
483.153	459.44
483.372	467.44
483.59	463.44
483.808	468.44
484.027	457.44
484.245	461.44
484.463	463.44
484.681	468.44
484.9	484.44
485.118	456.44
485.336	480.44
485.554	495.44
485.772	490.44
485.99	483.44
486.209	482.44
486.427	499.44
486.645	469.44
486.863	497.44
487.081	481.44
487.299	479.44
487.517	504.44
487.735	502.44
487.953	500.44
488.171	500.44
488.389	479.44
488.607	482.44
488.825	490.44
489.043	491.44
489.261	506.44
489.479	509.44
489.696	501.44
489.914	505.44
490.132	493.44
490.35	526.44
490.568	510.44
490.786	531.44
491.003	521.44
491.221	546.44
491.439	528.44
491.657	552.44
491.874	549.44
492.092	535.44
492.31	557.44
492.527	575.44
492.745	579.44
492.963	601.44
493.18	591.44
493.398	562.44
493.615	574.44
493.833	594.44
494.05	572.44
494.268	589.44
494.485	579.44
494.703	597.44
494.92	572.44
495.138	577.44
495.355	568.44
495.573	573.44
495.79	564.44
496.008	562.44
496.225	551.44
496.442	586.44
496.66	589.44
496.877	579.44
497.094	581.44
497.312	578.44
497.529	604.44
497.746	565.44
497.963	607.44
498.181	653.44
498.398	643.44
498.615	665.44
498.832	699.44
499.049	703.44
499.267	724.44
499.484	814.44
499.701	843.44
499.918	899.44
500.135	956.44
500.352	1047.44
500.569	1094.44
500.786	1104.44
501.003	1035.44
501.22	987.44
501.437	891.44
501.654	844.44
501.871	816.44
502.088	775.44
