Data from 1984.PennyLincolnUp.Lamp.En5.5.200Scan.071819.P1_HRD10591_16-57-26-967.txt Node
Date: Thu Jul 18 16:57:26 EDT 2019
User: cochatt
Spectrometer: HR+D1059
Trigger mode: 1
Integration Time (sec): 1.000000E-1
Scans to average: 1
Electric dark correction enabled: true
Nonlinearity correction enabled: false
Boxcar width: 0
XAxis mode: Wavelengths
Number of Pixels in Spectrum: 2048
>>>>>Begin Spectral Data<<<<<
223.165	-12.12
223.4	-12.12
223.635	-12.12
223.869	-16.12
224.104	-20.12
224.338	-2.12
224.573	-11.12
224.808	-12.12
225.042	-2.12
225.277	-10.12
225.511	-8.12
225.746	-6.12
225.98	12.88
226.215	14.88
226.449	13.88
226.683	16.88
226.918	14.88
227.152	26.88
227.387	42.88
227.621	27.88
227.856	41.88
228.09	47.88
228.324	46.88
228.559	64.88
228.793	70.88
229.027	80.88
229.262	89.88
229.496	93.88
229.73	107.88
229.964	120.88
230.199	112.88
230.433	86.88
230.667	108.88
230.901	100.88
231.136	99.88
231.37	109.88
231.604	106.88
231.838	103.88
232.072	110.88
232.306	103.88
232.541	109.88
232.775	107.88
233.009	116.88
233.243	97.88
233.477	112.88
233.711	117.88
233.945	115.88
234.179	126.88
234.413	114.88
234.647	98.88
234.881	98.88
235.115	81.88
235.349	97.88
235.583	113.88
235.817	106.88
236.051	98.88
236.285	109.88
236.519	109.88
236.753	114.88
236.987	126.88
237.221	137.88
237.455	151.88
237.689	124.88
237.922	127.88
238.156	124.88
238.39	111.88
238.624	125.88
238.858	125.88
239.091	106.88
239.325	117.88
239.559	134.88
239.793	105.88
240.027	125.88
240.26	124.88
240.494	119.88
240.728	122.88
240.961	128.88
241.195	129.88
241.429	122.88
241.662	127.88
241.896	116.88
242.13	122.88
242.363	140.88
242.597	123.88
242.83	123.88
243.064	122.88
243.298	118.88
243.531	126.88
243.765	136.88
243.998	133.88
244.232	137.88
244.465	129.88
244.699	126.88
244.932	133.88
245.166	127.88
245.399	129.88
245.633	141.88
245.866	133.88
246.099	138.88
246.333	139.88
246.566	116.88
246.8	138.88
247.033	145.88
247.266	113.88
247.5	134.88
247.733	158.88
247.966	167.88
248.2	151.88
248.433	133.88
248.666	139.88
248.899	148.88
249.133	154.88
249.366	164.88
249.599	166.88
249.832	143.88
250.066	141.88
250.299	146.88
250.532	153.88
250.765	162.88
250.998	171.88
251.231	171.88
251.465	175.88
251.698	164.88
251.931	162.88
252.164	157.88
252.397	161.88
252.63	180.88
252.863	178.88
253.096	179.88
253.329	187.88
253.562	170.88
253.795	175.88
254.028	185.88
254.261	195.88
254.494	185.88
254.727	173.88
254.96	197.88
255.193	190.88
255.426	197.88
255.659	178.88
255.892	171.88
256.124	179.88
256.357	181.88
256.59	172.88
256.823	179.88
257.056	179.88
257.289	191.88
257.521	185.88
257.754	182.88
257.987	170.88
258.22	183.88
258.452	183.88
258.685	161.88
258.918	177.88
259.151	195.88
259.383	186.88
259.616	182.88
259.849	191.88
260.081	197.88
260.314	192.88
260.547	201.88
260.779	181.88
261.012	184.88
261.244	177.88
261.477	189.88
261.71	189.88
261.942	192.88
262.175	188.88
262.407	195.88
262.64	193.88
262.872	180.88
263.105	181.88
263.337	178.88
263.57	177.88
263.802	187.88
264.035	183.88
264.267	185.88
264.499	187.88
264.732	199.88
264.964	195.88
265.197	196.88
265.429	195.88
265.661	183.88
265.894	189.88
266.126	197.88
266.358	208.88
266.591	191.88
266.823	197.88
267.055	206.88
267.287	199.88
267.52	183.88
267.752	205.88
267.984	204.88
268.216	213.88
268.448	224.88
268.681	188.88
268.913	203.88
269.145	214.88
269.377	241.88
269.609	230.88
269.841	225.88
270.073	230.88
270.306	235.88
270.538	238.88
270.77	252.88
271.002	233.88
271.234	222.88
271.466	241.88
271.698	248.88
271.93	231.88
272.162	243.88
272.394	246.88
272.626	237.88
272.858	220.88
273.09	236.88
273.322	231.88
273.553	228.88
273.785	238.88
274.017	208.88
274.249	224.88
274.481	245.88
274.713	221.88
274.945	228.88
275.176	233.88
275.408	228.88
275.64	225.88
275.872	224.88
276.104	238.88
276.335	242.88
276.567	233.88
276.799	221.88
277.031	248.88
277.262	260.88
277.494	261.88
277.726	265.88
277.957	232.88
278.189	243.88
278.421	265.88
278.652	235.88
278.884	227.88
279.115	236.88
279.347	235.88
279.579	225.88
279.81	237.88
280.042	250.88
280.273	239.88
280.505	228.88
280.736	237.88
280.968	231.88
281.199	238.88
281.431	259.88
281.662	248.88
281.894	259.88
282.125	253.88
282.356	262.88
282.588	249.88
282.819	256.88
283.051	244.88
283.282	253.88
283.513	255.88
283.745	252.88
283.976	255.88
284.207	233.88
284.439	255.88
284.67	270.88
284.901	258.88
285.132	259.88
285.364	241.88
285.595	244.88
285.826	254.88
286.057	261.88
286.288	257.88
286.52	248.88
286.751	253.88
286.982	264.88
287.213	266.88
287.444	285.88
287.675	259.88
287.906	254.88
288.138	271.88
288.369	284.88
288.6	298.88
288.831	275.88
289.062	275.88
289.293	280.88
289.524	274.88
289.755	293.88
289.986	275.88
290.217	272.88
290.448	261.88
290.679	265.88
290.91	275.88
291.141	284.88
291.371	269.88
291.602	263.88
291.833	286.88
292.064	255.88
292.295	284.88
292.526	262.88
292.757	261.88
292.987	277.88
293.218	284.88
293.449	261.88
293.68	264.88
293.91	275.88
294.141	266.88
294.372	264.88
294.603	280.88
294.833	282.88
295.064	278.88
295.295	282.88
295.525	281.88
295.756	279.88
295.987	279.88
296.217	287.88
296.448	293.88
296.679	267.88
296.909	314.88
297.14	277.88
297.37	289.88
297.601	296.88
297.831	302.88
298.062	285.88
298.292	285.88
298.523	279.88
298.753	296.88
298.984	279.88
299.214	295.88
299.445	287.88
299.675	269.88
299.905	293.88
300.136	291.88
300.366	287.88
300.597	260.88
300.827	287.88
301.057	308.88
301.288	297.88
301.518	299.88
301.748	300.88
301.979	295.88
302.209	328.88
302.439	311.88
302.669	310.88
302.9	291.88
303.13	317.88
303.36	299.88
303.59	296.88
303.82	285.88
304.051	314.88
304.281	299.88
304.511	301.88
304.741	315.88
304.971	294.88
305.201	290.88
305.431	308.88
305.661	302.88
305.891	295.88
306.121	271.88
306.352	298.88
306.582	297.88
306.812	297.88
307.042	287.88
307.272	289.88
307.502	311.88
307.731	301.88
307.961	314.88
308.191	299.88
308.421	299.88
308.651	310.88
308.881	327.88
309.111	298.88
309.341	316.88
309.571	315.88
309.8	336.88
310.03	333.88
310.26	305.88
310.49	301.88
310.72	319.88
310.949	312.88
311.179	311.88
311.409	316.88
311.639	315.88
311.868	329.88
312.098	326.88
312.328	327.88
312.557	340.88
312.787	338.88
313.017	339.88
313.246	328.88
313.476	328.88
313.706	339.88
313.935	345.88
314.165	334.88
314.394	329.88
314.624	341.88
314.853	363.88
315.083	315.88
315.312	315.88
315.542	330.88
315.771	334.88
316.001	332.88
316.23	329.88
316.46	316.88
316.689	323.88
316.919	328.88
317.148	324.88
317.377	330.88
317.607	342.88
317.836	328.88
318.065	317.88
318.295	323.88
318.524	335.88
318.753	319.88
318.983	330.88
319.212	331.88
319.441	330.88
319.67	318.88
319.9	325.88
320.129	317.88
320.358	328.88
320.587	336.88
320.816	327.88
321.046	326.88
321.275	324.88
321.504	343.88
321.733	332.88
321.962	341.88
322.191	319.88
322.42	329.88
322.649	345.88
322.878	354.88
323.108	365.88
323.337	374.88
323.566	369.88
323.795	391.88
324.024	393.88
324.253	459.88
324.482	577.88
324.71	786.88
324.939	1065.88
325.168	919.88
325.397	540.88
325.626	435.88
325.855	383.88
326.084	366.88
326.313	380.88
326.542	365.88
326.77	404.88
326.999	429.88
327.228	540.88
327.457	739.88
327.686	821.88
327.914	593.88
328.143	458.88
328.372	411.88
328.6	409.88
328.829	375.88
329.058	391.88
329.287	405.88
329.515	387.88
329.744	383.88
329.972	372.88
330.201	384.88
330.43	366.88
330.658	398.88
330.887	405.88
331.115	412.88
331.344	400.88
331.572	400.88
331.801	404.88
332.03	393.88
332.258	399.88
332.486	375.88
332.715	390.88
332.943	404.88
333.172	414.88
333.4	419.88
333.629	427.88
333.857	445.88
334.085	425.88
334.314	426.88
334.542	435.88
334.771	399.88
334.999	420.88
335.227	404.88
335.455	408.88
335.684	419.88
335.912	434.88
336.14	412.88
336.369	415.88
336.597	391.88
336.825	390.88
337.053	418.88
337.281	395.88
337.51	402.88
337.738	403.88
337.966	382.88
338.194	397.88
338.422	399.88
338.65	375.88
338.878	376.88
339.106	374.88
339.334	381.88
339.562	375.88
339.79	373.88
340.018	379.88
340.246	365.88
340.474	369.88
340.702	364.88
340.93	364.88
341.158	383.88
341.386	361.88
341.614	383.88
341.842	366.88
342.07	372.88
342.298	351.88
342.526	354.88
342.754	369.88
342.981	362.88
343.209	365.88
343.437	377.88
343.665	387.88
343.893	420.88
344.12	415.88
344.348	411.88
344.576	364.88
344.804	384.88
345.031	395.88
345.259	381.88
345.487	367.88
345.714	339.88
345.942	355.88
346.17	357.88
346.397	341.88
346.625	341.88
346.853	331.88
347.08	358.88
347.308	350.88
347.535	331.88
347.763	348.88
347.99	356.88
348.218	358.88
348.445	345.88
348.673	350.88
348.9	365.88
349.128	345.88
349.355	355.88
349.583	350.88
349.81	343.88
350.037	335.88
350.265	343.88
350.492	345.88
350.72	348.88
350.947	349.88
351.174	338.88
351.402	350.88
351.629	329.88
351.856	353.88
352.083	362.88
352.311	348.88
352.538	358.88
352.765	341.88
352.992	329.88
353.22	331.88
353.447	334.88
353.674	338.88
353.901	358.88
354.128	358.88
354.355	325.88
354.583	322.88
354.81	351.88
355.037	338.88
355.264	340.88
355.491	348.88
355.718	335.88
355.945	327.88
356.172	318.88
356.399	332.88
356.626	328.88
356.853	346.88
357.08	343.88
357.307	344.88
357.534	337.88
357.761	347.88
357.988	353.88
358.215	335.88
358.441	338.88
358.668	324.88
358.895	327.88
359.122	332.88
359.349	351.88
359.576	343.88
359.802	362.88
360.029	370.88
360.256	333.88
360.483	363.88
360.709	345.88
360.936	342.88
361.163	365.88
361.39	358.88
361.616	330.88
361.843	331.88
362.07	331.88
362.296	350.88
362.523	348.88
362.749	330.88
362.976	355.88
363.203	348.88
363.429	329.88
363.656	328.88
363.882	338.88
364.109	346.88
364.335	331.88
364.562	335.88
364.788	345.88
365.015	334.88
365.241	343.88
365.468	333.88
365.694	332.88
365.92	333.88
366.147	341.88
366.373	333.88
366.599	334.88
366.826	327.88
367.052	335.88
367.278	330.88
367.505	346.88
367.731	332.88
367.957	327.88
368.184	349.88
368.41	353.88
368.636	342.88
368.862	334.88
369.089	338.88
369.315	342.88
369.541	339.88
369.767	334.88
369.993	329.88
370.219	333.88
370.445	354.88
370.672	327.88
370.898	341.88
371.124	350.88
371.35	337.88
371.576	343.88
371.802	354.88
372.028	342.88
372.254	340.88
372.48	363.88
372.706	338.88
372.932	352.88
373.158	346.88
373.384	354.88
373.61	337.88
373.835	341.88
374.061	337.88
374.287	345.88
374.513	330.88
374.739	357.88
374.965	365.88
375.191	370.88
375.416	357.88
375.642	359.88
375.868	382.88
376.094	372.88
376.319	342.88
376.545	353.88
376.771	342.88
376.997	351.88
377.222	344.88
377.448	374.88
377.674	342.88
377.899	323.88
378.125	329.88
378.35	354.88
378.576	365.88
378.802	343.88
379.027	340.88
379.253	343.88
379.478	348.88
379.704	342.88
379.929	340.88
380.155	335.88
380.38	339.88
380.606	329.88
380.831	327.88
381.057	349.88
381.282	353.88
381.507	335.88
381.733	334.88
381.958	335.88
382.184	349.88
382.409	348.88
382.634	359.88
382.86	365.88
383.085	349.88
383.31	377.88
383.535	374.88
383.761	382.88
383.986	366.88
384.211	393.88
384.436	379.88
384.662	389.88
384.887	374.88
385.112	366.88
385.337	391.88
385.562	393.88
385.787	396.88
386.013	401.88
386.238	382.88
386.463	398.88
386.688	385.88
386.913	389.88
387.138	397.88
387.363	379.88
387.588	397.88
387.813	376.88
388.038	394.88
388.263	393.88
388.488	396.88
388.713	383.88
388.938	386.88
389.163	410.88
389.387	391.88
389.612	375.88
389.837	365.88
390.062	369.88
390.287	385.88
390.512	381.88
390.736	380.88
390.961	406.88
391.186	378.88
391.411	396.88
391.636	417.88
391.86	417.88
392.085	432.88
392.31	435.88
392.534	407.88
392.759	401.88
392.984	394.88
393.208	393.88
393.433	417.88
393.658	398.88
393.882	401.88
394.107	391.88
394.331	398.88
394.556	421.88
394.78	393.88
395.005	418.88
395.229	394.88
395.454	417.88
395.678	415.88
395.903	424.88
396.127	441.88
396.352	436.88
396.576	423.88
396.801	414.88
397.025	415.88
397.249	400.88
397.474	403.88
397.698	418.88
397.922	409.88
398.147	420.88
398.371	431.88
398.595	481.88
398.82	438.88
399.044	465.88
399.268	515.88
399.492	546.88
399.717	611.88
399.941	610.88
400.165	583.88
400.389	545.88
400.613	522.88
400.837	499.88
401.062	481.88
401.286	460.88
401.51	474.88
401.734	460.88
401.958	456.88
402.182	472.88
402.406	489.88
402.63	462.88
402.854	494.88
403.078	482.88
403.302	463.88
403.526	479.88
403.75	506.88
403.974	482.88
404.198	485.88
404.422	488.88
404.645	501.88
404.869	511.88
405.093	501.88
405.317	501.88
405.541	518.88
405.765	505.88
405.988	493.88
406.212	486.88
406.436	499.88
406.66	540.88
406.883	505.88
407.107	549.88
407.331	565.88
407.555	590.88
407.778	596.88
408.002	561.88
408.226	537.88
408.449	521.88
408.673	518.88
408.896	537.88
409.12	543.88
409.344	534.88
409.567	477.88
409.791	492.88
410.014	479.88
410.238	475.88
410.461	468.88
410.685	481.88
410.908	480.88
411.132	499.88
411.355	510.88
411.578	489.88
411.802	454.88
412.025	481.88
412.249	483.88
412.472	464.88
412.695	473.88
412.919	479.88
413.142	442.88
413.365	444.88
413.589	448.88
413.812	460.88
414.035	462.88
414.258	444.88
414.482	456.88
414.705	458.88
414.928	446.88
415.151	460.88
415.374	459.88
415.597	453.88
415.821	442.88
416.044	448.88
416.267	449.88
416.49	427.88
416.713	428.88
416.936	430.88
417.159	436.88
417.382	423.88
417.605	442.88
417.828	442.88
418.051	441.88
418.274	447.88
418.497	457.88
418.72	453.88
418.943	440.88
419.166	469.88
419.389	495.88
419.611	485.88
419.834	471.88
420.057	444.88
420.28	469.88
420.503	478.88
420.726	446.88
420.948	444.88
421.171	473.88
421.394	478.88
421.617	461.88
421.839	444.88
422.062	445.88
422.285	473.88
422.507	498.88
422.73	525.88
422.953	507.88
423.175	481.88
423.398	480.88
423.621	467.88
423.843	482.88
424.066	477.88
424.288	483.88
424.511	474.88
424.733	491.88
424.956	534.88
425.178	528.88
425.401	526.88
425.623	547.88
425.846	474.88
426.068	449.88
426.291	447.88
426.513	478.88
426.735	459.88
426.958	469.88
427.18	505.88
427.402	583.88
427.625	602.88
427.847	526.88
428.069	471.88
428.292	450.88
428.514	436.88
428.736	421.88
428.958	428.88
429.181	430.88
429.403	409.88
429.625	415.88
429.847	443.88
430.069	463.88
430.292	457.88
430.514	441.88
430.736	426.88
430.958	408.88
431.18	410.88
431.402	391.88
431.624	400.88
431.846	421.88
432.068	434.88
432.29	414.88
432.512	422.88
432.734	400.88
432.956	417.88
433.178	412.88
433.4	421.88
433.622	431.88
433.844	415.88
434.066	399.88
434.287	398.88
434.509	440.88
434.731	449.88
434.953	463.88
435.175	447.88
435.397	458.88
435.618	439.88
435.84	468.88
436.062	496.88
436.284	530.88
436.505	487.88
436.727	451.88
436.949	426.88
437.17	437.88
437.392	403.88
437.614	433.88
437.835	426.88
438.057	471.88
438.278	528.88
438.5	526.88
438.721	565.88
438.943	553.88
439.165	466.88
439.386	449.88
439.608	435.88
439.829	443.88
440.05	451.88
440.272	464.88
440.493	465.88
440.715	421.88
440.936	411.88
441.158	414.88
441.379	432.88
441.6	460.88
441.822	451.88
442.043	461.88
442.264	509.88
442.486	506.88
442.707	490.88
442.928	455.88
443.149	454.88
443.371	481.88
443.592	496.88
443.813	529.88
444.034	559.88
444.255	512.88
444.476	513.88
444.698	501.88
444.919	514.88
445.14	642.88
445.361	545.88
445.582	487.88
445.803	504.88
446.024	551.88
446.245	528.88
446.466	509.88
446.687	451.88
446.908	411.88
447.129	435.88
447.35	425.88
447.571	420.88
447.792	380.88
448.013	422.88
448.234	404.88
448.455	430.88
448.675	481.88
448.896	548.88
449.117	476.88
449.338	442.88
449.559	502.88
449.779	565.88
450	492.88
450.221	422.88
450.442	420.88
450.662	381.88
450.883	386.88
451.104	399.88
451.324	401.88
451.545	385.88
451.766	391.88
451.986	360.88
452.207	375.88
452.428	376.88
452.648	384.88
452.869	382.88
453.089	386.88
453.31	365.88
453.53	377.88
453.751	357.88
453.971	371.88
454.192	383.88
454.412	372.88
454.633	356.88
454.853	349.88
455.073	381.88
455.294	374.88
455.514	381.88
455.734	404.88
455.955	384.88
456.175	366.88
456.395	363.88
456.616	364.88
456.836	370.88
457.056	343.88
457.276	373.88
457.497	383.88
457.717	371.88
457.937	355.88
458.157	361.88
458.377	372.88
458.598	370.88
458.818	399.88
459.038	441.88
459.258	455.88
459.478	433.88
459.698	425.88
459.918	416.88
460.138	415.88
460.358	411.88
460.578	445.88
460.798	436.88
461.018	443.88
461.238	445.88
461.458	443.88
461.678	439.88
461.898	463.88
462.118	439.88
462.338	481.88
462.558	487.88
462.777	494.88
462.997	495.88
463.217	539.88
463.437	535.88
463.657	510.88
463.876	521.88
464.096	513.88
464.316	504.88
464.536	482.88
464.755	488.88
464.975	463.88
465.195	468.88
465.414	472.88
465.634	459.88
465.854	423.88
466.073	414.88
466.293	411.88
466.512	397.88
466.732	367.88
466.951	379.88
467.171	401.88
467.391	379.88
467.61	408.88
467.829	411.88
468.049	376.88
468.268	388.88
468.488	386.88
468.707	370.88
468.927	376.88
469.146	382.88
469.365	393.88
469.585	382.88
469.804	395.88
470.023	414.88
470.243	393.88
470.462	370.88
470.681	400.88
470.901	388.88
471.12	410.88
471.339	406.88
471.558	381.88
471.777	389.88
471.997	373.88
472.216	375.88
472.435	371.88
472.654	371.88
472.873	374.88
473.092	385.88
473.311	356.88
473.53	375.88
473.749	379.88
473.968	422.88
474.187	441.88
474.406	445.88
474.625	389.88
474.844	373.88
475.063	391.88
475.282	391.88
475.501	387.88
475.72	413.88
475.939	385.88
476.158	380.88
476.377	393.88
476.596	402.88
476.814	399.88
477.033	406.88
477.252	399.88
477.471	408.88
477.69	397.88
477.908	407.88
478.127	423.88
478.346	421.88
478.564	451.88
478.783	440.88
479.002	453.88
479.22	457.88
479.439	453.88
479.658	455.88
479.876	451.88
480.095	466.88
480.313	503.88
480.532	500.88
480.751	481.88
480.969	476.88
481.188	471.88
481.406	467.88
481.624	450.88
481.843	437.88
482.061	446.88
482.28	441.88
482.498	447.88
482.717	431.88
482.935	441.88
483.153	452.88
483.372	446.88
483.59	408.88
483.808	443.88
484.027	421.88
484.245	438.88
484.463	421.88
484.681	453.88
484.9	435.88
485.118	439.88
485.336	445.88
485.554	466.88
485.772	467.88
485.99	466.88
486.209	449.88
486.427	430.88
486.645	464.88
486.863	446.88
487.081	476.88
487.299	458.88
487.517	466.88
487.735	454.88
487.953	445.88
488.171	461.88
488.389	461.88
488.607	453.88
488.825	467.88
489.043	451.88
489.261	474.88
489.479	462.88
489.696	460.88
489.914	461.88
490.132	471.88
490.35	454.88
490.568	465.88
490.786	490.88
491.003	483.88
491.221	470.88
491.439	494.88
491.657	479.88
491.874	508.88
492.092	494.88
492.31	485.88
492.527	509.88
492.745	492.88
492.963	503.88
493.18	494.88
493.398	502.88
493.615	527.88
493.833	504.88
494.05	513.88
494.268	498.88
494.485	511.88
494.703	530.88
494.92	516.88
495.138	531.88
495.355	539.88
495.573	520.88
495.79	529.88
496.008	519.88
496.225	499.88
496.442	515.88
496.66	525.88
496.877	540.88
497.094	525.88
497.312	552.88
497.529	561.88
497.746	581.88
497.963	579.88
498.181	595.88
498.398	606.88
498.615	630.88
498.832	641.88
499.049	683.88
499.267	713.88
499.484	762.88
499.701	837.88
499.918	861.88
500.135	951.88
500.352	1005.88
500.569	1051.88
500.786	1053.88
501.003	997.88
501.22	949.88
501.437	887.88
501.654	817.88
501.871	775.88
502.088	727.88
