Data from 1984.PennyLincolnUp.Lamp.En5.5.200Scan.071819.P1_HRD10591_16-57-34-967.txt Node
Date: Thu Jul 18 16:57:34 EDT 2019
User: cochatt
Spectrometer: HR+D1059
Trigger mode: 1
Integration Time (sec): 1.000000E-1
Scans to average: 1
Electric dark correction enabled: true
Nonlinearity correction enabled: false
Boxcar width: 0
XAxis mode: Wavelengths
Number of Pixels in Spectrum: 2048
>>>>>Begin Spectral Data<<<<<
223.165	-11.44
223.4	-11.44
223.635	-11.44
223.869	-6.44
224.104	-18.44
224.338	-8.44
224.573	-4.44
224.808	-13.44
225.042	-7.44
225.277	2.56
225.511	-6.44
225.746	1.56
225.98	-8.44
226.215	12.56
226.449	13.56
226.683	9.56
226.918	24.56
227.152	20.56
227.387	25.56
227.621	37.56
227.856	36.56
228.09	56.56
228.324	51.56
228.559	48.56
228.793	63.56
229.027	78.56
229.262	77.56
229.496	101.56
229.73	98.56
229.964	102.56
230.199	103.56
230.433	90.56
230.667	94.56
230.901	109.56
231.136	105.56
231.37	101.56
231.604	98.56
231.838	111.56
232.072	106.56
232.306	102.56
232.541	85.56
232.775	101.56
233.009	96.56
233.243	106.56
233.477	103.56
233.711	103.56
233.945	100.56
234.179	119.56
234.413	106.56
234.647	103.56
234.881	108.56
235.115	97.56
235.349	112.56
235.583	112.56
235.817	112.56
236.051	105.56
236.285	110.56
236.519	113.56
236.753	114.56
236.987	120.56
237.221	137.56
237.455	162.56
237.689	140.56
237.922	125.56
238.156	119.56
238.39	123.56
238.624	128.56
238.858	132.56
239.091	117.56
239.325	110.56
239.559	103.56
239.793	118.56
240.027	119.56
240.26	129.56
240.494	143.56
240.728	117.56
240.961	126.56
241.195	125.56
241.429	118.56
241.662	112.56
241.896	112.56
242.13	131.56
242.363	119.56
242.597	135.56
242.83	140.56
243.064	131.56
243.298	128.56
243.531	117.56
243.765	132.56
243.998	114.56
244.232	136.56
244.465	125.56
244.699	138.56
244.932	129.56
245.166	133.56
245.399	120.56
245.633	152.56
245.866	146.56
246.099	131.56
246.333	128.56
246.566	136.56
246.8	117.56
247.033	132.56
247.266	132.56
247.5	152.56
247.733	151.56
247.966	150.56
248.2	170.56
248.433	158.56
248.666	144.56
248.899	142.56
249.133	158.56
249.366	168.56
249.599	151.56
249.832	150.56
250.066	154.56
250.299	158.56
250.532	151.56
250.765	172.56
250.998	171.56
251.231	170.56
251.465	174.56
251.698	164.56
251.931	173.56
252.164	159.56
252.397	156.56
252.63	162.56
252.863	162.56
253.096	178.56
253.329	172.56
253.562	172.56
253.795	154.56
254.028	176.56
254.261	166.56
254.494	174.56
254.727	200.56
254.96	212.56
255.193	198.56
255.426	194.56
255.659	186.56
255.892	166.56
256.124	175.56
256.357	154.56
256.59	174.56
256.823	176.56
257.056	180.56
257.289	186.56
257.521	172.56
257.754	178.56
257.987	161.56
258.22	174.56
258.452	167.56
258.685	167.56
258.918	179.56
259.151	190.56
259.383	184.56
259.616	184.56
259.849	184.56
260.081	220.56
260.314	206.56
260.547	200.56
260.779	198.56
261.012	212.56
261.244	200.56
261.477	200.56
261.71	207.56
261.942	210.56
262.175	213.56
262.407	187.56
262.64	183.56
262.872	188.56
263.105	198.56
263.337	190.56
263.57	192.56
263.802	185.56
264.035	182.56
264.267	194.56
264.499	183.56
264.732	192.56
264.964	188.56
265.197	199.56
265.429	194.56
265.661	197.56
265.894	194.56
266.126	200.56
266.358	185.56
266.591	198.56
266.823	216.56
267.055	203.56
267.287	206.56
267.52	205.56
267.752	195.56
267.984	197.56
268.216	226.56
268.448	195.56
268.681	212.56
268.913	227.56
269.145	216.56
269.377	218.56
269.609	218.56
269.841	218.56
270.073	229.56
270.306	222.56
270.538	241.56
270.77	260.56
271.002	244.56
271.234	232.56
271.466	254.56
271.698	252.56
271.93	227.56
272.162	257.56
272.394	242.56
272.626	251.56
272.858	240.56
273.09	240.56
273.322	228.56
273.553	247.56
273.785	228.56
274.017	223.56
274.249	236.56
274.481	218.56
274.713	238.56
274.945	254.56
275.176	224.56
275.408	219.56
275.64	239.56
275.872	228.56
276.104	242.56
276.335	248.56
276.567	224.56
276.799	244.56
277.031	248.56
277.262	256.56
277.494	248.56
277.726	261.56
277.957	233.56
278.189	243.56
278.421	240.56
278.652	225.56
278.884	245.56
279.115	239.56
279.347	250.56
279.579	251.56
279.81	259.56
280.042	234.56
280.273	238.56
280.505	247.56
280.736	244.56
280.968	247.56
281.199	244.56
281.431	235.56
281.662	245.56
281.894	258.56
282.125	253.56
282.356	263.56
282.588	253.56
282.819	269.56
283.051	240.56
283.282	242.56
283.513	252.56
283.745	255.56
283.976	266.56
284.207	279.56
284.439	270.56
284.67	258.56
284.901	251.56
285.132	272.56
285.364	232.56
285.595	256.56
285.826	267.56
286.057	271.56
286.288	247.56
286.52	257.56
286.751	267.56
286.982	264.56
287.213	262.56
287.444	265.56
287.675	251.56
287.906	247.56
288.138	287.56
288.369	265.56
288.6	297.56
288.831	263.56
289.062	275.56
289.293	273.56
289.524	260.56
289.755	276.56
289.986	276.56
290.217	308.56
290.448	270.56
290.679	261.56
290.91	270.56
291.141	266.56
291.371	276.56
291.602	286.56
291.833	280.56
292.064	276.56
292.295	275.56
292.526	267.56
292.757	272.56
292.987	264.56
293.218	266.56
293.449	289.56
293.68	270.56
293.91	289.56
294.141	264.56
294.372	262.56
294.603	272.56
294.833	290.56
295.064	284.56
295.295	297.56
295.525	266.56
295.756	274.56
295.987	274.56
296.217	300.56
296.448	296.56
296.679	289.56
296.909	272.56
297.14	277.56
297.37	287.56
297.601	268.56
297.831	275.56
298.062	278.56
298.292	295.56
298.523	288.56
298.753	282.56
298.984	289.56
299.214	296.56
299.445	281.56
299.675	295.56
299.905	297.56
300.136	293.56
300.366	304.56
300.597	301.56
300.827	309.56
301.057	308.56
301.288	316.56
301.518	311.56
301.748	320.56
301.979	312.56
302.209	324.56
302.439	308.56
302.669	315.56
302.9	297.56
303.13	291.56
303.36	307.56
303.59	303.56
303.82	327.56
304.051	321.56
304.281	304.56
304.511	309.56
304.741	321.56
304.971	295.56
305.201	302.56
305.431	307.56
305.661	320.56
305.891	309.56
306.121	310.56
306.352	306.56
306.582	311.56
306.812	297.56
307.042	306.56
307.272	312.56
307.502	288.56
307.731	298.56
307.961	326.56
308.191	308.56
308.421	312.56
308.651	317.56
308.881	298.56
309.111	304.56
309.341	330.56
309.571	315.56
309.8	330.56
310.03	326.56
310.26	318.56
310.49	310.56
310.72	329.56
310.949	313.56
311.179	327.56
311.409	326.56
311.639	310.56
311.868	328.56
312.098	329.56
312.328	336.56
312.557	327.56
312.787	343.56
313.017	328.56
313.246	312.56
313.476	317.56
313.706	346.56
313.935	350.56
314.165	342.56
314.394	338.56
314.624	342.56
314.853	336.56
315.083	319.56
315.312	334.56
315.542	334.56
315.771	342.56
316.001	340.56
316.23	334.56
316.46	334.56
316.689	334.56
316.919	346.56
317.148	342.56
317.377	329.56
317.607	333.56
317.836	347.56
318.065	331.56
318.295	348.56
318.524	337.56
318.753	343.56
318.983	335.56
319.212	331.56
319.441	337.56
319.67	331.56
319.9	346.56
320.129	347.56
320.358	327.56
320.587	341.56
320.816	353.56
321.046	355.56
321.275	336.56
321.504	359.56
321.733	347.56
321.962	338.56
322.191	374.56
322.42	366.56
322.649	368.56
322.878	354.56
323.108	376.56
323.337	362.56
323.566	374.56
323.795	382.56
324.024	409.56
324.253	447.56
324.482	587.56
324.71	827.56
324.939	1106.56
325.168	998.56
325.397	570.56
325.626	443.56
325.855	388.56
326.084	400.56
326.313	382.56
326.542	390.56
326.77	404.56
326.999	432.56
327.228	549.56
327.457	793.56
327.686	873.56
327.914	642.56
328.143	483.56
328.372	438.56
328.6	412.56
328.829	405.56
329.058	402.56
329.287	408.56
329.515	396.56
329.744	397.56
329.972	373.56
330.201	396.56
330.43	402.56
330.658	423.56
330.887	420.56
331.115	410.56
331.344	407.56
331.572	392.56
331.801	409.56
332.03	421.56
332.258	417.56
332.486	405.56
332.715	401.56
332.943	407.56
333.172	445.56
333.4	420.56
333.629	436.56
333.857	453.56
334.085	441.56
334.314	411.56
334.542	430.56
334.771	421.56
334.999	430.56
335.227	402.56
335.455	426.56
335.684	406.56
335.912	406.56
336.14	407.56
336.369	404.56
336.597	412.56
336.825	404.56
337.053	383.56
337.281	395.56
337.51	391.56
337.738	417.56
337.966	390.56
338.194	380.56
338.422	384.56
338.65	391.56
338.878	383.56
339.106	400.56
339.334	392.56
339.562	365.56
339.79	372.56
340.018	370.56
340.246	394.56
340.474	396.56
340.702	374.56
340.93	377.56
341.158	383.56
341.386	396.56
341.614	367.56
341.842	374.56
342.07	383.56
342.298	371.56
342.526	368.56
342.754	350.56
342.981	352.56
343.209	363.56
343.437	369.56
343.665	384.56
343.893	427.56
344.12	439.56
344.348	404.56
344.576	400.56
344.804	396.56
345.031	388.56
345.259	378.56
345.487	391.56
345.714	351.56
345.942	363.56
346.17	348.56
346.397	346.56
346.625	353.56
346.853	348.56
347.08	354.56
347.308	355.56
347.535	356.56
347.763	366.56
347.99	369.56
348.218	384.56
348.445	361.56
348.673	346.56
348.9	360.56
349.128	338.56
349.355	349.56
349.583	341.56
349.81	352.56
350.037	359.56
350.265	348.56
350.492	352.56
350.72	355.56
350.947	342.56
351.174	338.56
351.402	346.56
351.629	348.56
351.856	356.56
352.083	366.56
352.311	342.56
352.538	354.56
352.765	350.56
352.992	344.56
353.22	348.56
353.447	363.56
353.674	343.56
353.901	355.56
354.128	339.56
354.355	329.56
354.583	352.56
354.81	337.56
355.037	344.56
355.264	340.56
355.491	325.56
355.718	330.56
355.945	341.56
356.172	346.56
356.399	344.56
356.626	341.56
356.853	338.56
357.08	353.56
357.307	321.56
357.534	357.56
357.761	349.56
357.988	350.56
358.215	337.56
358.441	344.56
358.668	343.56
358.895	329.56
359.122	338.56
359.349	364.56
359.576	359.56
359.802	372.56
360.029	349.56
360.256	361.56
360.483	342.56
360.709	340.56
360.936	343.56
361.163	342.56
361.39	349.56
361.616	346.56
361.843	358.56
362.07	363.56
362.296	332.56
362.523	350.56
362.749	365.56
362.976	343.56
363.203	342.56
363.429	354.56
363.656	333.56
363.882	340.56
364.109	333.56
364.335	331.56
364.562	338.56
364.788	324.56
365.015	351.56
365.241	324.56
365.468	338.56
365.694	328.56
365.92	333.56
366.147	332.56
366.373	343.56
366.599	321.56
366.826	334.56
367.052	345.56
367.278	332.56
367.505	328.56
367.731	344.56
367.957	346.56
368.184	341.56
368.41	358.56
368.636	356.56
368.862	345.56
369.089	329.56
369.315	331.56
369.541	336.56
369.767	342.56
369.993	352.56
370.219	340.56
370.445	353.56
370.672	336.56
370.898	329.56
371.124	347.56
371.35	350.56
371.576	359.56
371.802	356.56
372.028	356.56
372.254	347.56
372.48	349.56
372.706	365.56
372.932	353.56
373.158	349.56
373.384	347.56
373.61	353.56
373.835	348.56
374.061	347.56
374.287	339.56
374.513	348.56
374.739	374.56
374.965	356.56
375.191	376.56
375.416	374.56
375.642	360.56
375.868	362.56
376.094	362.56
376.319	361.56
376.545	345.56
376.771	362.56
376.997	358.56
377.222	377.56
377.448	342.56
377.674	338.56
377.899	344.56
378.125	338.56
378.35	354.56
378.576	348.56
378.802	322.56
379.027	352.56
379.253	340.56
379.478	341.56
379.704	339.56
379.929	333.56
380.155	336.56
380.38	322.56
380.606	333.56
380.831	348.56
381.057	369.56
381.282	356.56
381.507	345.56
381.733	352.56
381.958	357.56
382.184	375.56
382.409	364.56
382.634	349.56
382.86	364.56
383.085	349.56
383.31	370.56
383.535	344.56
383.761	362.56
383.986	388.56
384.211	360.56
384.436	390.56
384.662	385.56
384.887	389.56
385.112	385.56
385.337	393.56
385.562	382.56
385.787	404.56
386.013	394.56
386.238	400.56
386.463	405.56
386.688	403.56
386.913	374.56
387.138	389.56
387.363	391.56
387.588	409.56
387.813	381.56
388.038	396.56
388.263	377.56
388.488	393.56
388.713	384.56
388.938	377.56
389.163	400.56
389.387	382.56
389.612	388.56
389.837	384.56
390.062	396.56
390.287	383.56
390.512	401.56
390.736	377.56
390.961	410.56
391.186	392.56
391.411	397.56
391.636	391.56
391.86	426.56
392.085	424.56
392.31	416.56
392.534	407.56
392.759	395.56
392.984	392.56
393.208	408.56
393.433	393.56
393.658	403.56
393.882	397.56
394.107	396.56
394.331	395.56
394.556	407.56
394.78	404.56
395.005	395.56
395.229	376.56
395.454	412.56
395.678	425.56
395.903	423.56
396.127	433.56
396.352	411.56
396.576	428.56
396.801	423.56
397.025	416.56
397.249	409.56
397.474	426.56
397.698	425.56
397.922	452.56
398.147	440.56
398.371	435.56
398.595	452.56
398.82	463.56
399.044	484.56
399.268	515.56
399.492	558.56
399.717	608.56
399.941	637.56
400.165	584.56
400.389	576.56
400.613	505.56
400.837	490.56
401.062	481.56
401.286	475.56
401.51	452.56
401.734	480.56
401.958	458.56
402.182	467.56
402.406	454.56
402.63	475.56
402.854	495.56
403.078	487.56
403.302	487.56
403.526	489.56
403.75	497.56
403.974	508.56
404.198	511.56
404.422	516.56
404.645	493.56
404.869	472.56
405.093	496.56
405.317	513.56
405.541	505.56
405.765	514.56
405.988	484.56
406.212	491.56
406.436	488.56
406.66	515.56
406.883	527.56
407.107	545.56
407.331	580.56
407.555	607.56
407.778	612.56
408.002	586.56
408.226	562.56
408.449	530.56
408.673	535.56
408.896	514.56
409.12	549.56
409.344	499.56
409.567	498.56
409.791	468.56
410.014	490.56
410.238	502.56
410.461	469.56
410.685	487.56
410.908	476.56
411.132	512.56
411.355	532.56
411.578	523.56
411.802	474.56
412.025	487.56
412.249	471.56
412.472	481.56
412.695	462.56
412.919	461.56
413.142	452.56
413.365	438.56
413.589	455.56
413.812	448.56
414.035	443.56
414.258	455.56
414.482	457.56
414.705	460.56
414.928	434.56
415.151	456.56
415.374	453.56
415.597	459.56
415.821	458.56
416.044	441.56
416.267	425.56
416.49	429.56
416.713	432.56
416.936	466.56
417.159	447.56
417.382	450.56
417.605	435.56
417.828	458.56
418.051	458.56
418.274	450.56
418.497	443.56
418.72	460.56
418.943	462.56
419.166	477.56
419.389	486.56
419.611	499.56
419.834	489.56
420.057	462.56
420.28	432.56
420.503	456.56
420.726	453.56
420.948	466.56
421.171	474.56
421.394	511.56
421.617	468.56
421.839	491.56
422.062	460.56
422.285	453.56
422.507	475.56
422.73	543.56
422.953	535.56
423.175	468.56
423.398	471.56
423.621	470.56
423.843	481.56
424.066	494.56
424.288	483.56
424.511	503.56
424.733	515.56
424.956	530.56
425.178	534.56
425.401	533.56
425.623	546.56
425.846	478.56
426.068	444.56
426.291	476.56
426.513	478.56
426.735	464.56
426.958	488.56
427.18	520.56
427.402	590.56
427.625	612.56
427.847	548.56
428.069	490.56
428.292	465.56
428.514	429.56
428.736	438.56
428.958	445.56
429.181	417.56
429.403	413.56
429.625	413.56
429.847	449.56
430.069	484.56
430.292	484.56
430.514	425.56
430.736	442.56
430.958	399.56
431.18	417.56
431.402	427.56
431.624	416.56
431.846	430.56
432.068	437.56
432.29	434.56
432.512	413.56
432.734	435.56
432.956	424.56
433.178	412.56
433.4	420.56
433.622	433.56
433.844	414.56
434.066	433.56
434.287	430.56
434.509	443.56
434.731	438.56
434.953	440.56
435.175	429.56
435.397	468.56
435.618	466.56
435.84	482.56
436.062	512.56
436.284	560.56
436.505	474.56
436.727	449.56
436.949	412.56
437.17	420.56
437.392	434.56
437.614	444.56
437.835	449.56
438.057	473.56
438.278	541.56
438.5	536.56
438.721	534.56
438.943	556.56
439.165	465.56
439.386	448.56
439.608	462.56
439.829	462.56
440.05	473.56
440.272	459.56
440.493	472.56
440.715	450.56
440.936	435.56
441.158	436.56
441.379	432.56
441.6	477.56
441.822	481.56
442.043	464.56
442.264	523.56
442.486	552.56
442.707	485.56
442.928	468.56
443.149	461.56
443.371	494.56
443.592	504.56
443.813	533.56
444.034	576.56
444.255	508.56
444.476	490.56
444.698	488.56
444.919	517.56
445.14	608.56
445.361	542.56
445.582	511.56
445.803	499.56
446.024	556.56
446.245	545.56
446.466	500.56
446.687	462.56
446.908	446.56
447.129	407.56
447.35	428.56
447.571	400.56
447.792	403.56
448.013	421.56
448.234	421.56
448.455	433.56
448.675	496.56
448.896	565.56
449.117	482.56
449.338	469.56
449.559	521.56
449.779	591.56
450	489.56
450.221	434.56
450.442	405.56
450.662	405.56
450.883	381.56
451.104	404.56
451.324	387.56
451.545	377.56
451.766	384.56
451.986	377.56
452.207	398.56
452.428	398.56
452.648	380.56
452.869	389.56
453.089	381.56
453.31	386.56
453.53	386.56
453.751	372.56
453.971	377.56
454.192	373.56
454.412	384.56
454.633	361.56
454.853	357.56
455.073	356.56
455.294	382.56
455.514	396.56
455.734	404.56
455.955	368.56
456.175	378.56
456.395	345.56
456.616	376.56
456.836	350.56
457.056	359.56
457.276	368.56
457.497	348.56
457.717	357.56
457.937	356.56
458.157	382.56
458.377	387.56
458.598	388.56
458.818	409.56
459.038	433.56
459.258	474.56
459.478	420.56
459.698	420.56
459.918	419.56
460.138	424.56
460.358	442.56
460.578	465.56
460.798	465.56
461.018	472.56
461.238	446.56
461.458	435.56
461.678	436.56
461.898	453.56
462.118	451.56
462.338	464.56
462.558	484.56
462.777	493.56
462.997	514.56
463.217	560.56
463.437	547.56
463.657	512.56
463.876	517.56
464.096	490.56
464.316	489.56
464.536	492.56
464.755	502.56
464.975	461.56
465.195	483.56
465.414	469.56
465.634	453.56
465.854	439.56
466.073	419.56
466.293	411.56
466.512	422.56
466.732	385.56
466.951	393.56
467.171	401.56
467.391	389.56
467.61	410.56
467.829	413.56
468.049	403.56
468.268	404.56
468.488	401.56
468.707	401.56
468.927	405.56
469.146	380.56
469.365	394.56
469.585	383.56
469.804	390.56
470.023	409.56
470.243	392.56
470.462	392.56
470.681	429.56
470.901	402.56
471.12	387.56
471.339	382.56
471.558	376.56
471.777	409.56
471.997	401.56
472.216	394.56
472.435	379.56
472.654	397.56
472.873	369.56
473.092	386.56
473.311	369.56
473.53	390.56
473.749	383.56
473.968	404.56
474.187	460.56
474.406	460.56
474.625	407.56
474.844	397.56
475.063	379.56
475.282	379.56
475.501	405.56
475.72	395.56
475.939	413.56
476.158	402.56
476.377	409.56
476.596	398.56
476.814	395.56
477.033	410.56
477.252	416.56
477.471	419.56
477.69	449.56
477.908	435.56
478.127	438.56
478.346	452.56
478.564	449.56
478.783	458.56
479.002	489.56
479.22	466.56
479.439	462.56
479.658	464.56
479.876	463.56
480.095	481.56
480.313	499.56
480.532	513.56
480.751	493.56
480.969	456.56
481.188	491.56
481.406	484.56
481.624	464.56
481.843	450.56
482.061	455.56
482.28	423.56
482.498	442.56
482.717	441.56
482.935	453.56
483.153	436.56
483.372	436.56
483.59	429.56
483.808	445.56
484.027	461.56
484.245	440.56
484.463	454.56
484.681	477.56
484.9	454.56
485.118	454.56
485.336	471.56
485.554	439.56
485.772	440.56
485.99	472.56
486.209	454.56
486.427	459.56
486.645	468.56
486.863	472.56
487.081	467.56
487.299	472.56
487.517	475.56
487.735	450.56
487.953	453.56
488.171	468.56
488.389	474.56
488.607	474.56
488.825	449.56
489.043	456.56
489.261	463.56
489.479	479.56
489.696	474.56
489.914	473.56
490.132	487.56
490.35	476.56
490.568	472.56
490.786	479.56
491.003	468.56
491.221	487.56
491.439	489.56
491.657	498.56
491.874	512.56
492.092	495.56
492.31	500.56
492.527	517.56
492.745	502.56
492.963	526.56
493.18	507.56
493.398	525.56
493.615	546.56
493.833	512.56
494.05	504.56
494.268	530.56
494.485	530.56
494.703	533.56
494.92	539.56
495.138	515.56
495.355	537.56
495.573	500.56
495.79	528.56
496.008	518.56
496.225	549.56
496.442	542.56
496.66	533.56
496.877	527.56
497.094	554.56
497.312	545.56
497.529	534.56
497.746	553.56
497.963	578.56
498.181	600.56
498.398	638.56
498.615	660.56
498.832	640.56
499.049	676.56
499.267	729.56
499.484	764.56
499.701	834.56
499.918	887.56
500.135	936.56
500.352	1015.56
500.569	1088.56
500.786	1049.56
501.003	1026.56
501.22	977.56
501.437	894.56
501.654	820.56
501.871	806.56
502.088	724.56
