Data from 1984.PennyLincolnUp.Lamp.En5.5.200Scan.071819.P1_HRD10591_16-57-29-967.txt Node
Date: Thu Jul 18 16:57:29 EDT 2019
User: cochatt
Spectrometer: HR+D1059
Trigger mode: 1
Integration Time (sec): 1.000000E-1
Scans to average: 1
Electric dark correction enabled: true
Nonlinearity correction enabled: false
Boxcar width: 0
XAxis mode: Wavelengths
Number of Pixels in Spectrum: 2048
>>>>>Begin Spectral Data<<<<<
223.165	-10.25
223.4	-10.25
223.635	-10.25
223.869	-12.25
224.104	-19.25
224.338	-13.25
224.573	-11.25
224.808	-5.25
225.042	-11.25
225.277	-14.25
225.511	0.75
225.746	-9.25
225.98	7.75
226.215	9.75
226.449	10.75
226.683	16.75
226.918	30.75
227.152	29.75
227.387	40.75
227.621	48.75
227.856	55.75
228.09	43.75
228.324	41.75
228.559	39.75
228.793	57.75
229.027	83.75
229.262	92.75
229.496	100.75
229.73	88.75
229.964	109.75
230.199	110.75
230.433	94.75
230.667	102.75
230.901	77.75
231.136	77.75
231.37	109.75
231.604	102.75
231.838	106.75
232.072	100.75
232.306	112.75
232.541	99.75
232.775	97.75
233.009	101.75
233.243	93.75
233.477	117.75
233.711	104.75
233.945	97.75
234.179	104.75
234.413	103.75
234.647	106.75
234.881	119.75
235.115	109.75
235.349	95.75
235.583	121.75
235.817	113.75
236.051	104.75
236.285	105.75
236.519	110.75
236.753	109.75
236.987	121.75
237.221	124.75
237.455	148.75
237.689	137.75
237.922	110.75
238.156	101.75
238.39	100.75
238.624	125.75
238.858	105.75
239.091	117.75
239.325	101.75
239.559	102.75
239.793	116.75
240.027	119.75
240.26	127.75
240.494	130.75
240.728	128.75
240.961	121.75
241.195	113.75
241.429	112.75
241.662	112.75
241.896	117.75
242.13	111.75
242.363	117.75
242.597	123.75
242.83	120.75
243.064	115.75
243.298	131.75
243.531	129.75
243.765	122.75
243.998	118.75
244.232	137.75
244.465	117.75
244.699	126.75
244.932	122.75
245.166	113.75
245.399	140.75
245.633	119.75
245.866	142.75
246.099	124.75
246.333	131.75
246.566	139.75
246.8	123.75
247.033	121.75
247.266	123.75
247.5	130.75
247.733	124.75
247.966	156.75
248.2	146.75
248.433	141.75
248.666	149.75
248.899	152.75
249.133	167.75
249.366	164.75
249.599	140.75
249.832	149.75
250.066	149.75
250.299	146.75
250.532	151.75
250.765	155.75
250.998	167.75
251.231	168.75
251.465	165.75
251.698	154.75
251.931	165.75
252.164	145.75
252.397	167.75
252.63	159.75
252.863	166.75
253.096	169.75
253.329	190.75
253.562	174.75
253.795	192.75
254.028	161.75
254.261	181.75
254.494	167.75
254.727	196.75
254.96	204.75
255.193	189.75
255.426	183.75
255.659	197.75
255.892	175.75
256.124	174.75
256.357	179.75
256.59	188.75
256.823	169.75
257.056	170.75
257.289	166.75
257.521	165.75
257.754	186.75
257.987	163.75
258.22	179.75
258.452	179.75
258.685	160.75
258.918	174.75
259.151	167.75
259.383	181.75
259.616	176.75
259.849	194.75
260.081	203.75
260.314	200.75
260.547	203.75
260.779	198.75
261.012	195.75
261.244	179.75
261.477	199.75
261.71	190.75
261.942	168.75
262.175	185.75
262.407	192.75
262.64	179.75
262.872	187.75
263.105	181.75
263.337	186.75
263.57	200.75
263.802	193.75
264.035	183.75
264.267	177.75
264.499	177.75
264.732	198.75
264.964	195.75
265.197	189.75
265.429	175.75
265.661	186.75
265.894	197.75
266.126	193.75
266.358	197.75
266.591	177.75
266.823	206.75
267.055	197.75
267.287	199.75
267.52	197.75
267.752	200.75
267.984	209.75
268.216	214.75
268.448	203.75
268.681	201.75
268.913	196.75
269.145	198.75
269.377	198.75
269.609	224.75
269.841	221.75
270.073	212.75
270.306	225.75
270.538	242.75
270.77	221.75
271.002	237.75
271.234	235.75
271.466	237.75
271.698	235.75
271.93	238.75
272.162	244.75
272.394	255.75
272.626	222.75
272.858	225.75
273.09	224.75
273.322	244.75
273.553	227.75
273.785	216.75
274.017	228.75
274.249	235.75
274.481	229.75
274.713	213.75
274.945	230.75
275.176	223.75
275.408	221.75
275.64	218.75
275.872	221.75
276.104	240.75
276.335	233.75
276.567	224.75
276.799	257.75
277.031	247.75
277.262	237.75
277.494	246.75
277.726	267.75
277.957	230.75
278.189	249.75
278.421	240.75
278.652	241.75
278.884	255.75
279.115	252.75
279.347	224.75
279.579	226.75
279.81	257.75
280.042	239.75
280.273	241.75
280.505	247.75
280.736	260.75
280.968	237.75
281.199	231.75
281.431	240.75
281.662	230.75
281.894	253.75
282.125	235.75
282.356	256.75
282.588	262.75
282.819	255.75
283.051	247.75
283.282	245.75
283.513	267.75
283.745	257.75
283.976	253.75
284.207	224.75
284.439	267.75
284.67	247.75
284.901	262.75
285.132	244.75
285.364	247.75
285.595	258.75
285.826	256.75
286.057	248.75
286.288	244.75
286.52	257.75
286.751	260.75
286.982	249.75
287.213	241.75
287.444	264.75
287.675	269.75
287.906	264.75
288.138	263.75
288.369	277.75
288.6	243.75
288.831	269.75
289.062	271.75
289.293	280.75
289.524	267.75
289.755	259.75
289.986	262.75
290.217	263.75
290.448	272.75
290.679	275.75
290.91	258.75
291.141	283.75
291.371	271.75
291.602	276.75
291.833	257.75
292.064	261.75
292.295	256.75
292.526	259.75
292.757	266.75
292.987	270.75
293.218	252.75
293.449	285.75
293.68	255.75
293.91	258.75
294.141	282.75
294.372	272.75
294.603	267.75
294.833	278.75
295.064	271.75
295.295	283.75
295.525	264.75
295.756	274.75
295.987	280.75
296.217	282.75
296.448	282.75
296.679	280.75
296.909	309.75
297.14	280.75
297.37	291.75
297.601	273.75
297.831	286.75
298.062	285.75
298.292	275.75
298.523	284.75
298.753	279.75
298.984	288.75
299.214	277.75
299.445	277.75
299.675	270.75
299.905	282.75
300.136	288.75
300.366	283.75
300.597	287.75
300.827	312.75
301.057	303.75
301.288	295.75
301.518	298.75
301.748	311.75
301.979	298.75
302.209	313.75
302.439	304.75
302.669	316.75
302.9	299.75
303.13	297.75
303.36	295.75
303.59	312.75
303.82	303.75
304.051	309.75
304.281	318.75
304.511	301.75
304.741	279.75
304.971	299.75
305.201	285.75
305.431	291.75
305.661	289.75
305.891	299.75
306.121	316.75
306.352	306.75
306.582	322.75
306.812	291.75
307.042	301.75
307.272	289.75
307.502	290.75
307.731	305.75
307.961	297.75
308.191	303.75
308.421	291.75
308.651	304.75
308.881	303.75
309.111	291.75
309.341	297.75
309.571	306.75
309.8	313.75
310.03	315.75
310.26	312.75
310.49	310.75
310.72	316.75
310.949	314.75
311.179	305.75
311.409	335.75
311.639	322.75
311.868	327.75
312.098	321.75
312.328	329.75
312.557	340.75
312.787	331.75
313.017	343.75
313.246	335.75
313.476	326.75
313.706	329.75
313.935	330.75
314.165	345.75
314.394	329.75
314.624	313.75
314.853	310.75
315.083	339.75
315.312	337.75
315.542	309.75
315.771	307.75
316.001	348.75
316.23	307.75
316.46	320.75
316.689	346.75
316.919	336.75
317.148	327.75
317.377	329.75
317.607	326.75
317.836	312.75
318.065	309.75
318.295	324.75
318.524	326.75
318.753	309.75
318.983	330.75
319.212	313.75
319.441	317.75
319.67	329.75
319.9	322.75
320.129	326.75
320.358	305.75
320.587	323.75
320.816	332.75
321.046	330.75
321.275	335.75
321.504	329.75
321.733	343.75
321.962	353.75
322.191	326.75
322.42	322.75
322.649	356.75
322.878	365.75
323.108	357.75
323.337	369.75
323.566	358.75
323.795	373.75
324.024	399.75
324.253	434.75
324.482	557.75
324.71	793.75
324.939	1055.75
325.168	931.75
325.397	548.75
325.626	433.75
325.855	397.75
326.084	388.75
326.313	365.75
326.542	397.75
326.77	390.75
326.999	426.75
327.228	546.75
327.457	746.75
327.686	838.75
327.914	598.75
328.143	437.75
328.372	404.75
328.6	388.75
328.829	394.75
329.058	398.75
329.287	398.75
329.515	385.75
329.744	391.75
329.972	371.75
330.201	391.75
330.43	393.75
330.658	415.75
330.887	418.75
331.115	400.75
331.344	410.75
331.572	380.75
331.801	384.75
332.03	406.75
332.258	388.75
332.486	394.75
332.715	397.75
332.943	421.75
333.172	403.75
333.4	421.75
333.629	441.75
333.857	421.75
334.085	424.75
334.314	419.75
334.542	425.75
334.771	446.75
334.999	405.75
335.227	417.75
335.455	425.75
335.684	415.75
335.912	407.75
336.14	380.75
336.369	389.75
336.597	401.75
336.825	411.75
337.053	390.75
337.281	381.75
337.51	369.75
337.738	390.75
337.966	385.75
338.194	370.75
338.422	382.75
338.65	367.75
338.878	373.75
339.106	366.75
339.334	379.75
339.562	382.75
339.79	357.75
340.018	347.75
340.246	354.75
340.474	361.75
340.702	359.75
340.93	380.75
341.158	363.75
341.386	358.75
341.614	367.75
341.842	383.75
342.07	379.75
342.298	357.75
342.526	352.75
342.754	361.75
342.981	360.75
343.209	351.75
343.437	377.75
343.665	401.75
343.893	409.75
344.12	397.75
344.348	388.75
344.576	379.75
344.804	350.75
345.031	375.75
345.259	365.75
345.487	359.75
345.714	383.75
345.942	368.75
346.17	362.75
346.397	354.75
346.625	339.75
346.853	354.75
347.08	341.75
347.308	339.75
347.535	378.75
347.763	365.75
347.99	336.75
348.218	347.75
348.445	349.75
348.673	362.75
348.9	353.75
349.128	344.75
349.355	326.75
349.583	351.75
349.81	350.75
350.037	327.75
350.265	344.75
350.492	328.75
350.72	335.75
350.947	346.75
351.174	325.75
351.402	339.75
351.629	338.75
351.856	353.75
352.083	342.75
352.311	347.75
352.538	324.75
352.765	351.75
352.992	352.75
353.22	321.75
353.447	333.75
353.674	331.75
353.901	347.75
354.128	329.75
354.355	334.75
354.583	323.75
354.81	318.75
355.037	341.75
355.264	324.75
355.491	320.75
355.718	345.75
355.945	331.75
356.172	334.75
356.399	335.75
356.626	344.75
356.853	335.75
357.08	319.75
357.307	338.75
357.534	321.75
357.761	330.75
357.988	343.75
358.215	328.75
358.441	320.75
358.668	328.75
358.895	341.75
359.122	322.75
359.349	329.75
359.576	345.75
359.802	343.75
360.029	349.75
360.256	354.75
360.483	347.75
360.709	329.75
360.936	324.75
361.163	326.75
361.39	313.75
361.616	347.75
361.843	338.75
362.07	326.75
362.296	345.75
362.523	343.75
362.749	342.75
362.976	312.75
363.203	325.75
363.429	337.75
363.656	319.75
363.882	327.75
364.109	318.75
364.335	317.75
364.562	317.75
364.788	317.75
365.015	335.75
365.241	334.75
365.468	322.75
365.694	332.75
365.92	335.75
366.147	318.75
366.373	308.75
366.599	329.75
366.826	312.75
367.052	339.75
367.278	319.75
367.505	325.75
367.731	319.75
367.957	321.75
368.184	296.75
368.41	340.75
368.636	328.75
368.862	339.75
369.089	330.75
369.315	318.75
369.541	336.75
369.767	331.75
369.993	322.75
370.219	328.75
370.445	329.75
370.672	326.75
370.898	327.75
371.124	334.75
371.35	351.75
371.576	329.75
371.802	322.75
372.028	335.75
372.254	340.75
372.48	328.75
372.706	341.75
372.932	342.75
373.158	338.75
373.384	361.75
373.61	343.75
373.835	346.75
374.061	335.75
374.287	353.75
374.513	355.75
374.739	354.75
374.965	365.75
375.191	362.75
375.416	359.75
375.642	341.75
375.868	337.75
376.094	366.75
376.319	342.75
376.545	330.75
376.771	345.75
376.997	342.75
377.222	344.75
377.448	350.75
377.674	325.75
377.899	323.75
378.125	337.75
378.35	329.75
378.576	323.75
378.802	324.75
379.027	346.75
379.253	338.75
379.478	350.75
379.704	323.75
379.929	352.75
380.155	324.75
380.38	321.75
380.606	352.75
380.831	354.75
381.057	335.75
381.282	325.75
381.507	337.75
381.733	338.75
381.958	338.75
382.184	343.75
382.409	357.75
382.634	346.75
382.86	330.75
383.085	353.75
383.31	349.75
383.535	357.75
383.761	367.75
383.986	356.75
384.211	358.75
384.436	371.75
384.662	397.75
384.887	423.75
385.112	379.75
385.337	381.75
385.562	365.75
385.787	393.75
386.013	365.75
386.238	394.75
386.463	399.75
386.688	388.75
386.913	391.75
387.138	380.75
387.363	384.75
387.588	386.75
387.813	373.75
388.038	369.75
388.263	395.75
388.488	377.75
388.713	389.75
388.938	388.75
389.163	366.75
389.387	382.75
389.612	362.75
389.837	365.75
390.062	365.75
390.287	379.75
390.512	380.75
390.736	384.75
390.961	385.75
391.186	389.75
391.411	387.75
391.636	401.75
391.86	416.75
392.085	401.75
392.31	393.75
392.534	407.75
392.759	395.75
392.984	423.75
393.208	397.75
393.433	391.75
393.658	391.75
393.882	371.75
394.107	389.75
394.331	407.75
394.556	395.75
394.78	422.75
395.005	430.75
395.229	399.75
395.454	399.75
395.678	397.75
395.903	401.75
396.127	417.75
396.352	413.75
396.576	405.75
396.801	416.75
397.025	379.75
397.249	426.75
397.474	441.75
397.698	413.75
397.922	418.75
398.147	439.75
398.371	435.75
398.595	418.75
398.82	446.75
399.044	459.75
399.268	509.75
399.492	529.75
399.717	601.75
399.941	610.75
400.165	575.75
400.389	566.75
400.613	517.75
400.837	493.75
401.062	462.75
401.286	478.75
401.51	459.75
401.734	456.75
401.958	451.75
402.182	457.75
402.406	450.75
402.63	453.75
402.854	467.75
403.078	474.75
403.302	482.75
403.526	472.75
403.75	486.75
403.974	497.75
404.198	494.75
404.422	497.75
404.645	473.75
404.869	485.75
405.093	482.75
405.317	490.75
405.541	500.75
405.765	469.75
405.988	472.75
406.212	471.75
406.436	498.75
406.66	488.75
406.883	521.75
407.107	519.75
407.331	542.75
407.555	592.75
407.778	596.75
408.002	564.75
408.226	533.75
408.449	504.75
408.673	509.75
408.896	533.75
409.12	543.75
409.344	509.75
409.567	481.75
409.791	457.75
410.014	487.75
410.238	463.75
410.461	481.75
410.685	467.75
410.908	490.75
411.132	473.75
411.355	503.75
411.578	507.75
411.802	496.75
412.025	469.75
412.249	468.75
412.472	452.75
412.695	459.75
412.919	451.75
413.142	457.75
413.365	452.75
413.589	451.75
413.812	434.75
414.035	451.75
414.258	418.75
414.482	445.75
414.705	460.75
414.928	442.75
415.151	452.75
415.374	438.75
415.597	444.75
415.821	438.75
416.044	463.75
416.267	446.75
416.49	435.75
416.713	437.75
416.936	443.75
417.159	426.75
417.382	427.75
417.605	445.75
417.828	433.75
418.051	458.75
418.274	438.75
418.497	434.75
418.72	440.75
418.943	461.75
419.166	469.75
419.389	485.75
419.611	473.75
419.834	462.75
420.057	469.75
420.28	443.75
420.503	456.75
420.726	432.75
420.948	436.75
421.171	457.75
421.394	497.75
421.617	449.75
421.839	453.75
422.062	450.75
422.285	459.75
422.507	470.75
422.73	513.75
422.953	517.75
423.175	498.75
423.398	468.75
423.621	490.75
423.843	467.75
424.066	494.75
424.288	461.75
424.511	477.75
424.733	514.75
424.956	535.75
425.178	521.75
425.401	520.75
425.623	519.75
425.846	478.75
426.068	442.75
426.291	452.75
426.513	440.75
426.735	438.75
426.958	470.75
427.18	511.75
427.402	565.75
427.625	607.75
427.847	521.75
428.069	471.75
428.292	438.75
428.514	425.75
428.736	436.75
428.958	427.75
429.181	397.75
429.403	407.75
429.625	423.75
429.847	439.75
430.069	465.75
430.292	463.75
430.514	433.75
430.736	413.75
430.958	407.75
431.18	394.75
431.402	415.75
431.624	415.75
431.846	407.75
432.068	411.75
432.29	441.75
432.512	423.75
432.734	400.75
432.956	387.75
433.178	418.75
433.4	401.75
433.622	411.75
433.844	422.75
434.066	439.75
434.287	413.75
434.509	417.75
434.731	452.75
434.953	431.75
435.175	435.75
435.397	468.75
435.618	452.75
435.84	474.75
436.062	490.75
436.284	526.75
436.505	475.75
436.727	451.75
436.949	431.75
437.17	419.75
437.392	399.75
437.614	414.75
437.835	438.75
438.057	461.75
438.278	513.75
438.5	523.75
438.721	572.75
438.943	540.75
439.165	464.75
439.386	432.75
439.608	439.75
439.829	398.75
440.05	435.75
440.272	470.75
440.493	449.75
440.715	429.75
440.936	423.75
441.158	419.75
441.379	416.75
441.6	448.75
441.822	423.75
442.043	470.75
442.264	495.75
442.486	541.75
442.707	472.75
442.928	467.75
443.149	469.75
443.371	478.75
443.592	486.75
443.813	527.75
444.034	568.75
444.255	531.75
444.476	478.75
444.698	509.75
444.919	531.75
445.14	634.75
445.361	548.75
445.582	484.75
445.803	483.75
446.024	531.75
446.245	514.75
446.466	512.75
446.687	458.75
446.908	447.75
447.129	415.75
447.35	425.75
447.571	414.75
447.792	398.75
448.013	425.75
448.234	409.75
448.455	419.75
448.675	471.75
448.896	511.75
449.117	459.75
449.338	451.75
449.559	519.75
449.779	555.75
450	508.75
450.221	429.75
450.442	388.75
450.662	390.75
450.883	392.75
451.104	403.75
451.324	381.75
451.545	385.75
451.766	377.75
451.986	365.75
452.207	374.75
452.428	378.75
452.648	359.75
452.869	385.75
453.089	379.75
453.31	376.75
453.53	363.75
453.751	354.75
453.971	365.75
454.192	391.75
454.412	352.75
454.633	365.75
454.853	358.75
455.073	365.75
455.294	373.75
455.514	403.75
455.734	383.75
455.955	369.75
456.175	353.75
456.395	369.75
456.616	357.75
456.836	360.75
457.056	353.75
457.276	360.75
457.497	354.75
457.717	354.75
457.937	355.75
458.157	365.75
458.377	365.75
458.598	380.75
458.818	385.75
459.038	406.75
459.258	455.75
459.478	422.75
459.698	403.75
459.918	406.75
460.138	429.75
460.358	431.75
460.578	446.75
460.798	431.75
461.018	442.75
461.238	463.75
461.458	431.75
461.678	433.75
461.898	462.75
462.118	433.75
462.338	465.75
462.558	485.75
462.777	475.75
462.997	508.75
463.217	539.75
463.437	548.75
463.657	470.75
463.876	486.75
464.096	493.75
464.316	473.75
464.536	490.75
464.755	479.75
464.975	463.75
465.195	484.75
465.414	468.75
465.634	435.75
465.854	405.75
466.073	397.75
466.293	408.75
466.512	413.75
466.732	376.75
466.951	385.75
467.171	385.75
467.391	382.75
467.61	396.75
467.829	365.75
468.049	394.75
468.268	361.75
468.488	374.75
468.707	375.75
468.927	385.75
469.146	343.75
469.365	369.75
469.585	379.75
469.804	382.75
470.023	383.75
470.243	395.75
470.462	393.75
470.681	400.75
470.901	414.75
471.12	370.75
471.339	396.75
471.558	381.75
471.777	389.75
471.997	399.75
472.216	401.75
472.435	374.75
472.654	372.75
472.873	372.75
473.092	375.75
473.311	357.75
473.53	371.75
473.749	366.75
473.968	401.75
474.187	435.75
474.406	443.75
474.625	406.75
474.844	381.75
475.063	370.75
475.282	397.75
475.501	373.75
475.72	390.75
475.939	397.75
476.158	368.75
476.377	388.75
476.596	376.75
476.814	408.75
477.033	392.75
477.252	396.75
477.471	410.75
477.69	391.75
477.908	421.75
478.127	434.75
478.346	426.75
478.564	434.75
478.783	438.75
479.002	441.75
479.22	449.75
479.439	456.75
479.658	469.75
479.876	457.75
480.095	463.75
480.313	475.75
480.532	471.75
480.751	488.75
480.969	483.75
481.188	473.75
481.406	457.75
481.624	449.75
481.843	440.75
482.061	429.75
482.28	425.75
482.498	445.75
482.717	445.75
482.935	423.75
483.153	430.75
483.372	441.75
483.59	419.75
483.808	444.75
484.027	440.75
484.245	427.75
484.463	431.75
484.681	450.75
484.9	435.75
485.118	439.75
485.336	441.75
485.554	441.75
485.772	473.75
485.99	449.75
486.209	439.75
486.427	438.75
486.645	439.75
486.863	465.75
487.081	464.75
487.299	463.75
487.517	442.75
487.735	448.75
487.953	459.75
488.171	463.75
488.389	464.75
488.607	446.75
488.825	450.75
489.043	462.75
489.261	463.75
489.479	438.75
489.696	449.75
489.914	450.75
490.132	448.75
490.35	459.75
490.568	459.75
490.786	459.75
491.003	480.75
491.221	472.75
491.439	493.75
491.657	488.75
491.874	494.75
492.092	488.75
492.31	493.75
492.527	469.75
492.745	484.75
492.963	486.75
493.18	497.75
493.398	497.75
493.615	513.75
493.833	505.75
494.05	503.75
494.268	509.75
494.485	489.75
494.703	523.75
494.92	512.75
495.138	513.75
495.355	510.75
495.573	493.75
495.79	518.75
496.008	504.75
496.225	509.75
496.442	519.75
496.66	558.75
496.877	523.75
497.094	547.75
497.312	554.75
497.529	561.75
497.746	575.75
497.963	576.75
498.181	601.75
498.398	626.75
498.615	630.75
498.832	658.75
499.049	663.75
499.267	694.75
499.484	749.75
499.701	840.75
499.918	848.75
500.135	926.75
500.352	1041.75
500.569	1039.75
500.786	1054.75
501.003	993.75
501.22	933.75
501.437	851.75
501.654	781.75
501.871	775.75
502.088	750.75
