Data from 1984.PennyLincolnUp.Lamp.En5.5.200Scan.071819.P1_HRD10591_17-00-15-974.txt Node
Date: Thu Jul 18 17:00:15 EDT 2019
User: cochatt
Spectrometer: HR+D1059
Trigger mode: 1
Integration Time (sec): 1.000000E-1
Scans to average: 1
Electric dark correction enabled: true
Nonlinearity correction enabled: false
Boxcar width: 0
XAxis mode: Wavelengths
Number of Pixels in Spectrum: 2048
>>>>>Begin Spectral Data<<<<<
223.165	-13.88
223.4	-13.88
223.635	-13.88
223.869	-9.88
224.104	-17.88
224.338	-5.88
224.573	-12.88
224.808	-13.88
225.042	-11.88
225.277	-8.88
225.511	-3.88
225.746	-3.88
225.98	8.12
226.215	13.12
226.449	11.12
226.683	14.12
226.918	18.12
227.152	38.12
227.387	27.12
227.621	31.12
227.856	30.12
228.09	52.12
228.324	48.12
228.559	52.12
228.793	60.12
229.027	91.12
229.262	110.12
229.496	104.12
229.73	106.12
229.964	110.12
230.199	109.12
230.433	100.12
230.667	97.12
230.901	95.12
231.136	105.12
231.37	108.12
231.604	119.12
231.838	107.12
232.072	105.12
232.306	112.12
232.541	100.12
232.775	115.12
233.009	108.12
233.243	115.12
233.477	112.12
233.711	125.12
233.945	105.12
234.179	111.12
234.413	125.12
234.647	113.12
234.881	108.12
235.115	95.12
235.349	104.12
235.583	106.12
235.817	115.12
236.051	128.12
236.285	120.12
236.519	115.12
236.753	118.12
236.987	116.12
237.221	144.12
237.455	157.12
237.689	142.12
237.922	113.12
238.156	118.12
238.39	121.12
238.624	122.12
238.858	123.12
239.091	116.12
239.325	110.12
239.559	119.12
239.793	110.12
240.027	122.12
240.26	124.12
240.494	133.12
240.728	137.12
240.961	132.12
241.195	127.12
241.429	134.12
241.662	133.12
241.896	128.12
242.13	123.12
242.363	141.12
242.597	133.12
242.83	123.12
243.064	149.12
243.298	150.12
243.531	133.12
243.765	133.12
243.998	136.12
244.232	124.12
244.465	140.12
244.699	158.12
244.932	141.12
245.166	116.12
245.399	132.12
245.633	134.12
245.866	144.12
246.099	122.12
246.333	134.12
246.566	142.12
246.8	149.12
247.033	134.12
247.266	144.12
247.5	148.12
247.733	146.12
247.966	155.12
248.2	150.12
248.433	155.12
248.666	148.12
248.899	160.12
249.133	165.12
249.366	181.12
249.599	171.12
249.832	154.12
250.066	165.12
250.299	168.12
250.532	198.12
250.765	214.12
250.998	227.12
251.231	199.12
251.465	186.12
251.698	193.12
251.931	170.12
252.164	169.12
252.397	178.12
252.63	177.12
252.863	182.12
253.096	172.12
253.329	181.12
253.562	185.12
253.795	199.12
254.028	189.12
254.261	178.12
254.494	186.12
254.727	202.12
254.96	200.12
255.193	208.12
255.426	196.12
255.659	219.12
255.892	259.12
256.124	256.12
256.357	282.12
256.59	243.12
256.823	212.12
257.056	211.12
257.289	198.12
257.521	193.12
257.754	193.12
257.987	193.12
258.22	184.12
258.452	189.12
258.685	182.12
258.918	190.12
259.151	193.12
259.383	210.12
259.616	190.12
259.849	198.12
260.081	221.12
260.314	212.12
260.547	201.12
260.779	228.12
261.012	216.12
261.244	216.12
261.477	204.12
261.71	190.12
261.942	197.12
262.175	198.12
262.407	193.12
262.64	192.12
262.872	204.12
263.105	205.12
263.337	197.12
263.57	196.12
263.802	200.12
264.035	203.12
264.267	195.12
264.499	192.12
264.732	187.12
264.964	187.12
265.197	195.12
265.429	205.12
265.661	215.12
265.894	198.12
266.126	206.12
266.358	212.12
266.591	212.12
266.823	221.12
267.055	196.12
267.287	226.12
267.52	203.12
267.752	200.12
267.984	204.12
268.216	211.12
268.448	209.12
268.681	205.12
268.913	221.12
269.145	221.12
269.377	230.12
269.609	256.12
269.841	250.12
270.073	233.12
270.306	233.12
270.538	262.12
270.77	269.12
271.002	242.12
271.234	261.12
271.466	246.12
271.698	270.12
271.93	276.12
272.162	264.12
272.394	253.12
272.626	247.12
272.858	258.12
273.09	246.12
273.322	249.12
273.553	230.12
273.785	240.12
274.017	233.12
274.249	240.12
274.481	236.12
274.713	235.12
274.945	246.12
275.176	256.12
275.408	254.12
275.64	246.12
275.872	242.12
276.104	240.12
276.335	258.12
276.567	270.12
276.799	256.12
277.031	268.12
277.262	271.12
277.494	286.12
277.726	266.12
277.957	278.12
278.189	268.12
278.421	263.12
278.652	255.12
278.884	258.12
279.115	261.12
279.347	244.12
279.579	263.12
279.81	278.12
280.042	264.12
280.273	263.12
280.505	256.12
280.736	247.12
280.968	264.12
281.199	275.12
281.431	277.12
281.662	284.12
281.894	246.12
282.125	245.12
282.356	279.12
282.588	279.12
282.819	271.12
283.051	269.12
283.282	249.12
283.513	261.12
283.745	272.12
283.976	268.12
284.207	256.12
284.439	293.12
284.67	288.12
284.901	263.12
285.132	268.12
285.364	252.12
285.595	269.12
285.826	280.12
286.057	266.12
286.288	279.12
286.52	284.12
286.751	256.12
286.982	276.12
287.213	277.12
287.444	285.12
287.675	274.12
287.906	287.12
288.138	278.12
288.369	284.12
288.6	283.12
288.831	294.12
289.062	282.12
289.293	313.12
289.524	281.12
289.755	281.12
289.986	277.12
290.217	285.12
290.448	250.12
290.679	281.12
290.91	284.12
291.141	298.12
291.371	291.12
291.602	304.12
291.833	290.12
292.064	277.12
292.295	285.12
292.526	266.12
292.757	278.12
292.987	293.12
293.218	280.12
293.449	292.12
293.68	282.12
293.91	285.12
294.141	281.12
294.372	284.12
294.603	290.12
294.833	284.12
295.064	284.12
295.295	271.12
295.525	284.12
295.756	302.12
295.987	290.12
296.217	303.12
296.448	312.12
296.679	295.12
296.909	279.12
297.14	307.12
297.37	316.12
297.601	292.12
297.831	309.12
298.062	292.12
298.292	285.12
298.523	297.12
298.753	284.12
298.984	305.12
299.214	308.12
299.445	320.12
299.675	313.12
299.905	308.12
300.136	319.12
300.366	292.12
300.597	289.12
300.827	310.12
301.057	309.12
301.288	323.12
301.518	346.12
301.748	330.12
301.979	311.12
302.209	325.12
302.439	324.12
302.669	319.12
302.9	314.12
303.13	310.12
303.36	331.12
303.59	329.12
303.82	311.12
304.051	333.12
304.281	304.12
304.511	322.12
304.741	324.12
304.971	333.12
305.201	321.12
305.431	320.12
305.661	332.12
305.891	317.12
306.121	326.12
306.352	317.12
306.582	314.12
306.812	323.12
307.042	326.12
307.272	308.12
307.502	315.12
307.731	339.12
307.961	322.12
308.191	315.12
308.421	333.12
308.651	325.12
308.881	310.12
309.111	329.12
309.341	314.12
309.571	349.12
309.8	329.12
310.03	336.12
310.26	347.12
310.49	336.12
310.72	338.12
310.949	349.12
311.179	353.12
311.409	336.12
311.639	348.12
311.868	330.12
312.098	335.12
312.328	344.12
312.557	349.12
312.787	342.12
313.017	358.12
313.246	356.12
313.476	356.12
313.706	355.12
313.935	382.12
314.165	368.12
314.394	353.12
314.624	348.12
314.853	341.12
315.083	359.12
315.312	349.12
315.542	330.12
315.771	340.12
316.001	346.12
316.23	350.12
316.46	341.12
316.689	358.12
316.919	360.12
317.148	347.12
317.377	332.12
317.607	349.12
317.836	358.12
318.065	348.12
318.295	381.12
318.524	370.12
318.753	361.12
318.983	362.12
319.212	362.12
319.441	350.12
319.67	351.12
319.9	336.12
320.129	348.12
320.358	342.12
320.587	365.12
320.816	365.12
321.046	357.12
321.275	372.12
321.504	348.12
321.733	376.12
321.962	368.12
322.191	372.12
322.42	387.12
322.649	386.12
322.878	380.12
323.108	383.12
323.337	412.12
323.566	398.12
323.795	443.12
324.024	469.12
324.253	552.12
324.482	701.12
324.71	1038.12
324.939	1403.12
325.168	1214.12
325.397	674.12
325.626	512.12
325.855	458.12
326.084	452.12
326.313	440.12
326.542	453.12
326.77	466.12
326.999	533.12
327.228	657.12
327.457	970.12
327.686	1139.12
327.914	824.12
328.143	624.12
328.372	566.12
328.6	556.12
328.829	492.12
329.058	492.12
329.287	501.12
329.515	482.12
329.744	504.12
329.972	556.12
330.201	617.12
330.43	686.12
330.658	648.12
330.887	540.12
331.115	518.12
331.344	474.12
331.572	450.12
331.801	456.12
332.03	460.12
332.258	442.12
332.486	455.12
332.715	460.12
332.943	457.12
333.172	469.12
333.4	494.12
333.629	504.12
333.857	547.12
334.085	591.12
334.314	673.12
334.542	775.12
334.771	784.12
334.999	648.12
335.227	556.12
335.455	501.12
335.684	487.12
335.912	472.12
336.14	436.12
336.369	439.12
336.597	462.12
336.825	424.12
337.053	430.12
337.281	440.12
337.51	414.12
337.738	427.12
337.966	409.12
338.194	432.12
338.422	412.12
338.65	392.12
338.878	395.12
339.106	397.12
339.334	423.12
339.562	411.12
339.79	378.12
340.018	397.12
340.246	395.12
340.474	399.12
340.702	398.12
340.93	397.12
341.158	380.12
341.386	395.12
341.614	385.12
341.842	381.12
342.07	391.12
342.298	383.12
342.526	386.12
342.754	388.12
342.981	392.12
343.209	382.12
343.437	374.12
343.665	423.12
343.893	402.12
344.12	434.12
344.348	417.12
344.576	393.12
344.804	383.12
345.031	397.12
345.259	408.12
345.487	384.12
345.714	379.12
345.942	372.12
346.17	371.12
346.397	369.12
346.625	360.12
346.853	377.12
347.08	372.12
347.308	376.12
347.535	363.12
347.763	366.12
347.99	378.12
348.218	380.12
348.445	381.12
348.673	380.12
348.9	349.12
349.128	364.12
349.355	353.12
349.583	355.12
349.81	362.12
350.037	354.12
350.265	355.12
350.492	355.12
350.72	366.12
350.947	371.12
351.174	374.12
351.402	366.12
351.629	356.12
351.856	359.12
352.083	383.12
352.311	374.12
352.538	362.12
352.765	362.12
352.992	369.12
353.22	351.12
353.447	350.12
353.674	355.12
353.901	344.12
354.128	364.12
354.355	345.12
354.583	344.12
354.81	333.12
355.037	338.12
355.264	344.12
355.491	327.12
355.718	335.12
355.945	344.12
356.172	344.12
356.399	349.12
356.626	352.12
356.853	357.12
357.08	348.12
357.307	353.12
357.534	356.12
357.761	321.12
357.988	338.12
358.215	336.12
358.441	328.12
358.668	340.12
358.895	344.12
359.122	355.12
359.349	360.12
359.576	345.12
359.802	374.12
360.029	380.12
360.256	386.12
360.483	373.12
360.709	362.12
360.936	374.12
361.163	357.12
361.39	336.12
361.616	345.12
361.843	350.12
362.07	347.12
362.296	333.12
362.523	374.12
362.749	357.12
362.976	360.12
363.203	356.12
363.429	339.12
363.656	351.12
363.882	340.12
364.109	356.12
364.335	359.12
364.562	352.12
364.788	355.12
365.015	342.12
365.241	345.12
365.468	351.12
365.694	343.12
365.92	376.12
366.147	357.12
366.373	370.12
366.599	360.12
366.826	343.12
367.052	338.12
367.278	347.12
367.505	341.12
367.731	352.12
367.957	345.12
368.184	341.12
368.41	356.12
368.636	363.12
368.862	357.12
369.089	344.12
369.315	370.12
369.541	365.12
369.767	357.12
369.993	327.12
370.219	333.12
370.445	361.12
370.672	360.12
370.898	361.12
371.124	371.12
371.35	340.12
371.576	360.12
371.802	364.12
372.028	359.12
372.254	350.12
372.48	371.12
372.706	363.12
372.932	352.12
373.158	358.12
373.384	357.12
373.61	349.12
373.835	358.12
374.061	325.12
374.287	348.12
374.513	362.12
374.739	390.12
374.965	358.12
375.191	357.12
375.416	374.12
375.642	381.12
375.868	369.12
376.094	360.12
376.319	355.12
376.545	361.12
376.771	355.12
376.997	354.12
377.222	353.12
377.448	335.12
377.674	349.12
377.899	343.12
378.125	349.12
378.35	366.12
378.576	349.12
378.802	339.12
379.027	361.12
379.253	349.12
379.478	337.12
379.704	341.12
379.929	339.12
380.155	351.12
380.38	336.12
380.606	346.12
380.831	340.12
381.057	358.12
381.282	340.12
381.507	370.12
381.733	358.12
381.958	343.12
382.184	366.12
382.409	357.12
382.634	373.12
382.86	368.12
383.085	374.12
383.31	376.12
383.535	380.12
383.761	364.12
383.986	362.12
384.211	388.12
384.436	370.12
384.662	389.12
384.887	416.12
385.112	397.12
385.337	388.12
385.562	408.12
385.787	401.12
386.013	405.12
386.238	398.12
386.463	403.12
386.688	398.12
386.913	392.12
387.138	394.12
387.363	392.12
387.588	403.12
387.813	397.12
388.038	391.12
388.263	396.12
388.488	373.12
388.713	416.12
388.938	378.12
389.163	420.12
389.387	396.12
389.612	381.12
389.837	406.12
390.062	394.12
390.287	400.12
390.512	410.12
390.736	384.12
390.961	388.12
391.186	394.12
391.411	406.12
391.636	404.12
391.86	419.12
392.085	409.12
392.31	435.12
392.534	436.12
392.759	417.12
392.984	414.12
393.208	406.12
393.433	429.12
393.658	412.12
393.882	422.12
394.107	408.12
394.331	402.12
394.556	418.12
394.78	406.12
395.005	407.12
395.229	429.12
395.454	424.12
395.678	407.12
395.903	422.12
396.127	437.12
396.352	430.12
396.576	420.12
396.801	412.12
397.025	426.12
397.249	405.12
397.474	428.12
397.698	427.12
397.922	430.12
398.147	439.12
398.371	469.12
398.595	455.12
398.82	484.12
399.044	489.12
399.268	515.12
399.492	573.12
399.717	631.12
399.941	621.12
400.165	624.12
400.389	596.12
400.613	510.12
400.837	484.12
401.062	492.12
401.286	483.12
401.51	482.12
401.734	465.12
401.958	478.12
402.182	476.12
402.406	485.12
402.63	478.12
402.854	500.12
403.078	500.12
403.302	498.12
403.526	512.12
403.75	544.12
403.974	505.12
404.198	519.12
404.422	525.12
404.645	545.12
404.869	548.12
405.093	583.12
405.317	608.12
405.541	640.12
405.765	583.12
405.988	564.12
406.212	563.12
406.436	522.12
406.66	560.12
406.883	532.12
407.107	557.12
407.331	605.12
407.555	644.12
407.778	630.12
408.002	594.12
408.226	553.12
408.449	553.12
408.673	542.12
408.896	545.12
409.12	566.12
409.344	567.12
409.567	516.12
409.791	518.12
410.014	502.12
410.238	492.12
410.461	496.12
410.685	507.12
410.908	498.12
411.132	523.12
411.355	523.12
411.578	498.12
411.802	501.12
412.025	496.12
412.249	518.12
412.472	550.12
412.695	590.12
412.919	605.12
413.142	562.12
413.365	520.12
413.589	510.12
413.812	485.12
414.035	493.12
414.258	459.12
414.482	473.12
414.705	480.12
414.928	481.12
415.151	474.12
415.374	456.12
415.597	474.12
415.821	450.12
416.044	474.12
416.267	471.12
416.49	444.12
416.713	453.12
416.936	445.12
417.159	457.12
417.382	470.12
417.605	463.12
417.828	461.12
418.051	471.12
418.274	466.12
418.497	471.12
418.72	497.12
418.943	453.12
419.166	498.12
419.389	506.12
419.611	536.12
419.834	536.12
420.057	522.12
420.28	522.12
420.503	505.12
420.726	525.12
420.948	514.12
421.171	530.12
421.394	529.12
421.617	512.12
421.839	470.12
422.062	480.12
422.285	471.12
422.507	512.12
422.73	576.12
422.953	538.12
423.175	502.12
423.398	493.12
423.621	493.12
423.843	509.12
424.066	491.12
424.288	501.12
424.511	521.12
424.733	540.12
424.956	585.12
425.178	552.12
425.401	541.12
425.623	550.12
425.846	516.12
426.068	475.12
426.291	475.12
426.513	459.12
426.735	485.12
426.958	500.12
427.18	547.12
427.402	626.12
427.625	696.12
427.847	612.12
428.069	573.12
428.292	520.12
428.514	474.12
428.736	465.12
428.958	460.12
429.181	439.12
429.403	431.12
429.625	433.12
429.847	451.12
430.069	508.12
430.292	458.12
430.514	456.12
430.736	440.12
430.958	434.12
431.18	428.12
431.402	450.12
431.624	424.12
431.846	422.12
432.068	427.12
432.29	442.12
432.512	428.12
432.734	416.12
432.956	424.12
433.178	426.12
433.4	439.12
433.622	413.12
433.844	431.12
434.066	433.12
434.287	414.12
434.509	446.12
434.731	451.12
434.953	468.12
435.175	464.12
435.397	486.12
435.618	473.12
435.84	475.12
436.062	546.12
436.284	578.12
436.505	508.12
436.727	460.12
436.949	445.12
437.17	450.12
437.392	422.12
437.614	428.12
437.835	472.12
438.057	485.12
438.278	540.12
438.5	564.12
438.721	604.12
438.943	571.12
439.165	499.12
439.386	450.12
439.608	484.12
439.829	460.12
440.05	467.12
440.272	509.12
440.493	474.12
440.715	452.12
440.936	439.12
441.158	468.12
441.379	449.12
441.6	465.12
441.822	465.12
442.043	509.12
442.264	570.12
442.486	564.12
442.707	492.12
442.928	496.12
443.149	470.12
443.371	490.12
443.592	539.12
443.813	571.12
444.034	615.12
444.255	560.12
444.476	527.12
444.698	546.12
444.919	520.12
445.14	644.12
445.361	579.12
445.582	512.12
445.803	545.12
446.024	579.12
446.245	601.12
446.466	549.12
446.687	487.12
446.908	465.12
447.129	427.12
447.35	417.12
447.571	444.12
447.792	404.12
448.013	438.12
448.234	437.12
448.455	458.12
448.675	497.12
448.896	575.12
449.117	506.12
449.338	505.12
449.559	543.12
449.779	614.12
450	504.12
450.221	446.12
450.442	418.12
450.662	404.12
450.883	406.12
451.104	440.12
451.324	411.12
451.545	413.12
451.766	405.12
451.986	397.12
452.207	369.12
452.428	404.12
452.648	387.12
452.869	377.12
453.089	398.12
453.31	385.12
453.53	396.12
453.751	399.12
453.971	392.12
454.192	394.12
454.412	370.12
454.633	386.12
454.853	352.12
455.073	380.12
455.294	408.12
455.514	395.12
455.734	410.12
455.955	371.12
456.175	358.12
456.395	380.12
456.616	356.12
456.836	384.12
457.056	365.12
457.276	363.12
457.497	365.12
457.717	373.12
457.937	364.12
458.157	360.12
458.377	387.12
458.598	404.12
458.818	430.12
459.038	470.12
459.258	494.12
459.478	441.12
459.698	426.12
459.918	444.12
460.138	444.12
460.358	445.12
460.578	460.12
460.798	463.12
461.018	479.12
461.238	443.12
461.458	479.12
461.678	459.12
461.898	447.12
462.118	463.12
462.338	472.12
462.558	462.12
462.777	480.12
462.997	530.12
463.217	564.12
463.437	572.12
463.657	519.12
463.876	524.12
464.096	514.12
464.316	500.12
464.536	488.12
464.755	478.12
464.975	476.12
465.195	472.12
465.414	522.12
465.634	469.12
465.854	448.12
466.073	432.12
466.293	419.12
466.512	422.12
466.732	421.12
466.951	414.12
467.171	405.12
467.391	411.12
467.61	414.12
467.829	442.12
468.049	425.12
468.268	456.12
468.488	430.12
468.707	402.12
468.927	387.12
469.146	393.12
469.365	407.12
469.585	393.12
469.804	410.12
470.023	416.12
470.243	423.12
470.462	427.12
470.681	428.12
470.901	421.12
471.12	420.12
471.339	431.12
471.558	408.12
471.777	404.12
471.997	416.12
472.216	449.12
472.435	534.12
472.654	525.12
472.873	442.12
473.092	414.12
473.311	419.12
473.53	420.12
473.749	420.12
473.968	416.12
474.187	498.12
474.406	491.12
474.625	442.12
474.844	403.12
475.063	412.12
475.282	402.12
475.501	402.12
475.72	419.12
475.939	426.12
476.158	416.12
476.377	416.12
476.596	414.12
476.814	426.12
477.033	424.12
477.252	427.12
477.471	446.12
477.69	437.12
477.908	428.12
478.127	450.12
478.346	442.12
478.564	442.12
478.783	477.12
479.002	502.12
479.22	484.12
479.439	490.12
479.658	487.12
479.876	496.12
480.095	493.12
480.313	510.12
480.532	522.12
480.751	519.12
480.969	557.12
481.188	704.12
481.406	794.12
481.624	641.12
481.843	541.12
482.061	513.12
482.28	514.12
482.498	476.12
482.717	493.12
482.935	473.12
483.153	475.12
483.372	460.12
483.59	465.12
483.808	487.12
484.027	472.12
484.245	470.12
484.463	504.12
484.681	485.12
484.9	476.12
485.118	474.12
485.336	490.12
485.554	470.12
485.772	495.12
485.99	493.12
486.209	496.12
486.427	485.12
486.645	508.12
486.863	522.12
487.081	496.12
487.299	508.12
487.517	498.12
487.735	504.12
487.953	480.12
488.171	490.12
488.389	499.12
488.607	494.12
488.825	487.12
489.043	491.12
489.261	499.12
489.479	524.12
489.696	518.12
489.914	471.12
490.132	514.12
490.35	502.12
490.568	525.12
490.786	563.12
491.003	538.12
491.221	560.12
491.439	586.12
491.657	580.12
491.874	570.12
492.092	613.12
492.31	618.12
492.527	595.12
492.745	609.12
492.963	598.12
493.18	605.12
493.398	603.12
493.615	598.12
493.833	605.12
494.05	588.12
494.268	595.12
494.485	570.12
494.703	588.12
494.92	600.12
495.138	569.12
495.355	617.12
495.573	587.12
495.79	594.12
496.008	582.12
496.225	574.12
496.442	585.12
496.66	579.12
496.877	562.12
497.094	568.12
497.312	581.12
497.529	598.12
497.746	607.12
497.963	637.12
498.181	636.12
498.398	644.12
498.615	673.12
498.832	697.12
499.049	700.12
499.267	756.12
499.484	804.12
499.701	850.12
499.918	867.12
500.135	967.12
500.352	1068.12
500.569	1094.12
500.786	1115.12
501.003	1076.12
501.22	1008.12
501.437	899.12
501.654	854.12
501.871	811.12
