Data from 1984.PennyLincolnUp.Lamp.En5.5.200Scan.071819.P1_HRD10591_16-57-22-967.txt Node
Date: Thu Jul 18 16:57:22 EDT 2019
User: cochatt
Spectrometer: HR+D1059
Trigger mode: 1
Integration Time (sec): 1.000000E-1
Scans to average: 1
Electric dark correction enabled: true
Nonlinearity correction enabled: false
Boxcar width: 0
XAxis mode: Wavelengths
Number of Pixels in Spectrum: 2048
>>>>>Begin Spectral Data<<<<<
223.165	-18.5
223.4	-18.5
223.635	-18.5
223.869	-17.5
224.104	-9.5
224.338	-10.5
224.573	-8.5
224.808	-5.5
225.042	-9.5
225.277	-6.5
225.511	2.5
225.746	-0.5
225.98	1.5
226.215	8.5
226.449	8.5
226.683	14.5
226.918	30.5
227.152	20.5
227.387	33.5
227.621	53.5
227.856	59.5
228.09	52.5
228.324	49.5
228.559	62.5
228.793	72.5
229.027	83.5
229.262	90.5
229.496	104.5
229.73	116.5
229.964	112.5
230.199	109.5
230.433	90.5
230.667	95.5
230.901	95.5
231.136	111.5
231.37	115.5
231.604	121.5
231.838	109.5
232.072	102.5
232.306	112.5
232.541	103.5
232.775	112.5
233.009	126.5
233.243	104.5
233.477	110.5
233.711	106.5
233.945	121.5
234.179	111.5
234.413	112.5
234.647	106.5
234.881	111.5
235.115	113.5
235.349	119.5
235.583	123.5
235.817	106.5
236.051	103.5
236.285	121.5
236.519	104.5
236.753	128.5
236.987	138.5
237.221	125.5
237.455	136.5
237.689	132.5
237.922	114.5
238.156	120.5
238.39	120.5
238.624	110.5
238.858	110.5
239.091	126.5
239.325	116.5
239.559	120.5
239.793	118.5
240.027	119.5
240.26	125.5
240.494	126.5
240.728	121.5
240.961	142.5
241.195	128.5
241.429	128.5
241.662	113.5
241.896	113.5
242.13	117.5
242.363	127.5
242.597	113.5
242.83	124.5
243.064	130.5
243.298	128.5
243.531	129.5
243.765	122.5
243.998	142.5
244.232	129.5
244.465	136.5
244.699	130.5
244.932	141.5
245.166	136.5
245.399	128.5
245.633	143.5
245.866	151.5
246.099	146.5
246.333	129.5
246.566	139.5
246.8	130.5
247.033	141.5
247.266	140.5
247.5	134.5
247.733	138.5
247.966	157.5
248.2	158.5
248.433	156.5
248.666	146.5
248.899	164.5
249.133	162.5
249.366	162.5
249.599	160.5
249.832	152.5
250.066	156.5
250.299	171.5
250.532	143.5
250.765	165.5
250.998	162.5
251.231	188.5
251.465	176.5
251.698	160.5
251.931	136.5
252.164	153.5
252.397	169.5
252.63	167.5
252.863	157.5
253.096	180.5
253.329	192.5
253.562	182.5
253.795	178.5
254.028	167.5
254.261	170.5
254.494	185.5
254.727	180.5
254.96	193.5
255.193	201.5
255.426	193.5
255.659	163.5
255.892	170.5
256.124	152.5
256.357	168.5
256.59	184.5
256.823	176.5
257.056	175.5
257.289	164.5
257.521	169.5
257.754	193.5
257.987	175.5
258.22	188.5
258.452	181.5
258.685	186.5
258.918	180.5
259.151	187.5
259.383	186.5
259.616	174.5
259.849	184.5
260.081	201.5
260.314	189.5
260.547	179.5
260.779	188.5
261.012	189.5
261.244	197.5
261.477	186.5
261.71	185.5
261.942	192.5
262.175	186.5
262.407	204.5
262.64	181.5
262.872	182.5
263.105	192.5
263.337	188.5
263.57	175.5
263.802	185.5
264.035	189.5
264.267	174.5
264.499	177.5
264.732	172.5
264.964	199.5
265.197	187.5
265.429	191.5
265.661	179.5
265.894	185.5
266.126	205.5
266.358	184.5
266.591	187.5
266.823	192.5
267.055	210.5
267.287	211.5
267.52	214.5
267.752	204.5
267.984	196.5
268.216	200.5
268.448	210.5
268.681	220.5
268.913	208.5
269.145	219.5
269.377	216.5
269.609	210.5
269.841	219.5
270.073	216.5
270.306	237.5
270.538	245.5
270.77	235.5
271.002	252.5
271.234	234.5
271.466	238.5
271.698	246.5
271.93	226.5
272.162	246.5
272.394	230.5
272.626	256.5
272.858	241.5
273.09	216.5
273.322	238.5
273.553	241.5
273.785	233.5
274.017	216.5
274.249	236.5
274.481	230.5
274.713	220.5
274.945	236.5
275.176	214.5
275.408	244.5
275.64	235.5
275.872	231.5
276.104	225.5
276.335	236.5
276.567	239.5
276.799	234.5
277.031	236.5
277.262	239.5
277.494	242.5
277.726	271.5
277.957	240.5
278.189	246.5
278.421	232.5
278.652	232.5
278.884	223.5
279.115	250.5
279.347	245.5
279.579	226.5
279.81	252.5
280.042	245.5
280.273	241.5
280.505	239.5
280.736	252.5
280.968	225.5
281.199	239.5
281.431	237.5
281.662	263.5
281.894	262.5
282.125	246.5
282.356	254.5
282.588	262.5
282.819	262.5
283.051	247.5
283.282	264.5
283.513	258.5
283.745	249.5
283.976	273.5
284.207	260.5
284.439	244.5
284.67	248.5
284.901	265.5
285.132	264.5
285.364	254.5
285.595	248.5
285.826	256.5
286.057	265.5
286.288	281.5
286.52	256.5
286.751	263.5
286.982	265.5
287.213	270.5
287.444	274.5
287.675	268.5
287.906	268.5
288.138	268.5
288.369	255.5
288.6	284.5
288.831	270.5
289.062	276.5
289.293	261.5
289.524	258.5
289.755	260.5
289.986	260.5
290.217	272.5
290.448	270.5
290.679	294.5
290.91	280.5
291.141	292.5
291.371	289.5
291.602	266.5
291.833	270.5
292.064	271.5
292.295	274.5
292.526	273.5
292.757	263.5
292.987	263.5
293.218	287.5
293.449	271.5
293.68	290.5
293.91	268.5
294.141	256.5
294.372	265.5
294.603	282.5
294.833	287.5
295.064	277.5
295.295	292.5
295.525	286.5
295.756	299.5
295.987	272.5
296.217	284.5
296.448	294.5
296.679	281.5
296.909	285.5
297.14	280.5
297.37	276.5
297.601	285.5
297.831	294.5
298.062	282.5
298.292	299.5
298.523	287.5
298.753	290.5
298.984	297.5
299.214	272.5
299.445	276.5
299.675	309.5
299.905	291.5
300.136	281.5
300.366	281.5
300.597	296.5
300.827	300.5
301.057	309.5
301.288	308.5
301.518	301.5
301.748	303.5
301.979	317.5
302.209	301.5
302.439	305.5
302.669	299.5
302.9	271.5
303.13	296.5
303.36	303.5
303.59	305.5
303.82	305.5
304.051	305.5
304.281	290.5
304.511	292.5
304.741	305.5
304.971	329.5
305.201	301.5
305.431	275.5
305.661	312.5
305.891	305.5
306.121	318.5
306.352	308.5
306.582	300.5
306.812	317.5
307.042	305.5
307.272	298.5
307.502	294.5
307.731	298.5
307.961	308.5
308.191	293.5
308.421	278.5
308.651	314.5
308.881	322.5
309.111	311.5
309.341	311.5
309.571	312.5
309.8	308.5
310.03	295.5
310.26	324.5
310.49	316.5
310.72	318.5
310.949	321.5
311.179	319.5
311.409	324.5
311.639	305.5
311.868	312.5
312.098	328.5
312.328	337.5
312.557	344.5
312.787	320.5
313.017	337.5
313.246	352.5
313.476	323.5
313.706	313.5
313.935	312.5
314.165	345.5
314.394	322.5
314.624	313.5
314.853	328.5
315.083	337.5
315.312	328.5
315.542	338.5
315.771	331.5
316.001	318.5
316.23	336.5
316.46	322.5
316.689	327.5
316.919	334.5
317.148	342.5
317.377	326.5
317.607	344.5
317.836	334.5
318.065	322.5
318.295	330.5
318.524	342.5
318.753	331.5
318.983	340.5
319.212	300.5
319.441	343.5
319.67	346.5
319.9	333.5
320.129	319.5
320.358	329.5
320.587	318.5
320.816	343.5
321.046	340.5
321.275	332.5
321.504	326.5
321.733	345.5
321.962	345.5
322.191	349.5
322.42	357.5
322.649	360.5
322.878	364.5
323.108	351.5
323.337	378.5
323.566	376.5
323.795	392.5
324.024	391.5
324.253	414.5
324.482	526.5
324.71	731.5
324.939	973.5
325.168	844.5
325.397	519.5
325.626	418.5
325.855	383.5
326.084	391.5
326.313	379.5
326.542	365.5
326.77	400.5
326.999	440.5
327.228	516.5
327.457	672.5
327.686	748.5
327.914	574.5
328.143	430.5
328.372	418.5
328.6	385.5
328.829	369.5
329.058	385.5
329.287	396.5
329.515	402.5
329.744	390.5
329.972	378.5
330.201	386.5
330.43	377.5
330.658	406.5
330.887	408.5
331.115	404.5
331.344	376.5
331.572	375.5
331.801	392.5
332.03	393.5
332.258	415.5
332.486	396.5
332.715	394.5
332.943	424.5
333.172	412.5
333.4	448.5
333.629	428.5
333.857	438.5
334.085	422.5
334.314	421.5
334.542	431.5
334.771	426.5
334.999	416.5
335.227	412.5
335.455	415.5
335.684	412.5
335.912	412.5
336.14	405.5
336.369	408.5
336.597	385.5
336.825	409.5
337.053	374.5
337.281	395.5
337.51	396.5
337.738	402.5
337.966	386.5
338.194	388.5
338.422	376.5
338.65	363.5
338.878	384.5
339.106	392.5
339.334	383.5
339.562	382.5
339.79	378.5
340.018	385.5
340.246	376.5
340.474	374.5
340.702	365.5
340.93	372.5
341.158	370.5
341.386	376.5
341.614	364.5
341.842	378.5
342.07	358.5
342.298	355.5
342.526	369.5
342.754	377.5
342.981	355.5
343.209	359.5
343.437	361.5
343.665	386.5
343.893	408.5
344.12	418.5
344.348	418.5
344.576	393.5
344.804	386.5
345.031	365.5
345.259	390.5
345.487	364.5
345.714	367.5
345.942	347.5
346.17	349.5
346.397	344.5
346.625	361.5
346.853	353.5
347.08	354.5
347.308	349.5
347.535	357.5
347.763	346.5
347.99	345.5
348.218	385.5
348.445	363.5
348.673	350.5
348.9	332.5
349.128	352.5
349.355	351.5
349.583	351.5
349.81	360.5
350.037	349.5
350.265	350.5
350.492	345.5
350.72	331.5
350.947	342.5
351.174	359.5
351.402	353.5
351.629	338.5
351.856	346.5
352.083	340.5
352.311	352.5
352.538	368.5
352.765	329.5
352.992	313.5
353.22	342.5
353.447	339.5
353.674	349.5
353.901	337.5
354.128	344.5
354.355	345.5
354.583	317.5
354.81	325.5
355.037	325.5
355.264	326.5
355.491	322.5
355.718	327.5
355.945	334.5
356.172	354.5
356.399	327.5
356.626	322.5
356.853	313.5
357.08	339.5
357.307	342.5
357.534	319.5
357.761	346.5
357.988	329.5
358.215	338.5
358.441	349.5
358.668	347.5
358.895	330.5
359.122	318.5
359.349	350.5
359.576	346.5
359.802	362.5
360.029	356.5
360.256	333.5
360.483	358.5
360.709	369.5
360.936	340.5
361.163	334.5
361.39	337.5
361.616	328.5
361.843	338.5
362.07	354.5
362.296	357.5
362.523	333.5
362.749	340.5
362.976	333.5
363.203	343.5
363.429	344.5
363.656	321.5
363.882	338.5
364.109	346.5
364.335	329.5
364.562	339.5
364.788	329.5
365.015	332.5
365.241	333.5
365.468	350.5
365.694	313.5
365.92	338.5
366.147	327.5
366.373	329.5
366.599	336.5
366.826	331.5
367.052	322.5
367.278	329.5
367.505	337.5
367.731	333.5
367.957	322.5
368.184	324.5
368.41	329.5
368.636	349.5
368.862	348.5
369.089	328.5
369.315	324.5
369.541	341.5
369.767	351.5
369.993	358.5
370.219	331.5
370.445	322.5
370.672	345.5
370.898	322.5
371.124	342.5
371.35	349.5
371.576	342.5
371.802	344.5
372.028	351.5
372.254	339.5
372.48	334.5
372.706	344.5
372.932	375.5
373.158	360.5
373.384	342.5
373.61	349.5
373.835	353.5
374.061	349.5
374.287	345.5
374.513	366.5
374.739	359.5
374.965	382.5
375.191	356.5
375.416	364.5
375.642	357.5
375.868	346.5
376.094	345.5
376.319	345.5
376.545	356.5
376.771	336.5
376.997	344.5
377.222	332.5
377.448	340.5
377.674	334.5
377.899	325.5
378.125	350.5
378.35	340.5
378.576	345.5
378.802	362.5
379.027	341.5
379.253	344.5
379.478	347.5
379.704	335.5
379.929	326.5
380.155	345.5
380.38	345.5
380.606	338.5
380.831	358.5
381.057	366.5
381.282	348.5
381.507	358.5
381.733	342.5
381.958	361.5
382.184	353.5
382.409	343.5
382.634	360.5
382.86	352.5
383.085	357.5
383.31	353.5
383.535	364.5
383.761	361.5
383.986	380.5
384.211	370.5
384.436	385.5
384.662	385.5
384.887	384.5
385.112	376.5
385.337	390.5
385.562	386.5
385.787	386.5
386.013	406.5
386.238	402.5
386.463	396.5
386.688	386.5
386.913	377.5
387.138	385.5
387.363	418.5
387.588	377.5
387.813	392.5
388.038	380.5
388.263	389.5
388.488	406.5
388.713	381.5
388.938	385.5
389.163	364.5
389.387	377.5
389.612	380.5
389.837	380.5
390.062	389.5
390.287	380.5
390.512	403.5
390.736	385.5
390.961	390.5
391.186	397.5
391.411	402.5
391.636	417.5
391.86	424.5
392.085	403.5
392.31	409.5
392.534	414.5
392.759	411.5
392.984	404.5
393.208	398.5
393.433	401.5
393.658	408.5
393.882	392.5
394.107	393.5
394.331	390.5
394.556	408.5
394.78	405.5
395.005	412.5
395.229	408.5
395.454	416.5
395.678	433.5
395.903	416.5
396.127	415.5
396.352	439.5
396.576	411.5
396.801	399.5
397.025	403.5
397.249	394.5
397.474	411.5
397.698	414.5
397.922	427.5
398.147	436.5
398.371	445.5
398.595	438.5
398.82	448.5
399.044	463.5
399.268	486.5
399.492	566.5
399.717	612.5
399.941	613.5
400.165	576.5
400.389	539.5
400.613	521.5
400.837	486.5
401.062	457.5
401.286	480.5
401.51	452.5
401.734	472.5
401.958	457.5
402.182	478.5
402.406	473.5
402.63	478.5
402.854	499.5
403.078	479.5
403.302	469.5
403.526	487.5
403.75	482.5
403.974	495.5
404.198	505.5
404.422	491.5
404.645	487.5
404.869	494.5
405.093	509.5
405.317	495.5
405.541	512.5
405.765	502.5
405.988	486.5
406.212	483.5
406.436	496.5
406.66	506.5
406.883	491.5
407.107	522.5
407.331	560.5
407.555	568.5
407.778	615.5
408.002	568.5
408.226	525.5
408.449	528.5
408.673	511.5
408.896	521.5
409.12	524.5
409.344	514.5
409.567	483.5
409.791	489.5
410.014	473.5
410.238	474.5
410.461	479.5
410.685	467.5
410.908	466.5
411.132	495.5
411.355	505.5
411.578	485.5
411.802	456.5
412.025	458.5
412.249	470.5
412.472	464.5
412.695	454.5
412.919	455.5
413.142	447.5
413.365	453.5
413.589	453.5
413.812	449.5
414.035	457.5
414.258	458.5
414.482	468.5
414.705	433.5
414.928	448.5
415.151	463.5
415.374	449.5
415.597	434.5
415.821	437.5
416.044	442.5
416.267	450.5
416.49	433.5
416.713	436.5
416.936	432.5
417.159	436.5
417.382	442.5
417.605	435.5
417.828	460.5
418.051	445.5
418.274	468.5
418.497	464.5
418.72	466.5
418.943	465.5
419.166	466.5
419.389	482.5
419.611	466.5
419.834	463.5
420.057	496.5
420.28	464.5
420.503	428.5
420.726	420.5
420.948	458.5
421.171	475.5
421.394	496.5
421.617	473.5
421.839	452.5
422.062	448.5
422.285	438.5
422.507	485.5
422.73	517.5
422.953	499.5
423.175	463.5
423.398	485.5
423.621	473.5
423.843	487.5
424.066	495.5
424.288	483.5
424.511	500.5
424.733	516.5
424.956	543.5
425.178	503.5
425.401	494.5
425.623	497.5
425.846	476.5
426.068	444.5
426.291	447.5
426.513	454.5
426.735	470.5
426.958	488.5
427.18	484.5
427.402	555.5
427.625	599.5
427.847	509.5
428.069	470.5
428.292	460.5
428.514	436.5
428.736	437.5
428.958	440.5
429.181	434.5
429.403	400.5
429.625	431.5
429.847	433.5
430.069	440.5
430.292	455.5
430.514	423.5
430.736	427.5
430.958	430.5
431.18	406.5
431.402	400.5
431.624	382.5
431.846	409.5
432.068	410.5
432.29	431.5
432.512	418.5
432.734	418.5
432.956	417.5
433.178	416.5
433.4	422.5
433.622	398.5
433.844	399.5
434.066	432.5
434.287	436.5
434.509	442.5
434.731	457.5
434.953	451.5
435.175	436.5
435.397	457.5
435.618	456.5
435.84	463.5
436.062	516.5
436.284	540.5
436.505	459.5
436.727	436.5
436.949	417.5
437.17	406.5
437.392	406.5
437.614	411.5
437.835	424.5
438.057	461.5
438.278	518.5
438.5	495.5
438.721	534.5
438.943	522.5
439.165	443.5
439.386	424.5
439.608	448.5
439.829	436.5
440.05	445.5
440.272	440.5
440.493	467.5
440.715	440.5
440.936	420.5
441.158	429.5
441.379	430.5
441.6	460.5
441.822	439.5
442.043	484.5
442.264	492.5
442.486	529.5
442.707	478.5
442.928	454.5
443.149	458.5
443.371	479.5
443.592	479.5
443.813	537.5
444.034	561.5
444.255	509.5
444.476	501.5
444.698	510.5
444.919	501.5
445.14	588.5
445.361	524.5
445.582	476.5
445.803	479.5
446.024	528.5
446.245	536.5
446.466	480.5
446.687	449.5
446.908	433.5
447.129	432.5
447.35	419.5
447.571	410.5
447.792	404.5
448.013	410.5
448.234	406.5
448.455	438.5
448.675	467.5
448.896	527.5
449.117	464.5
449.338	449.5
449.559	517.5
449.779	537.5
450	470.5
450.221	418.5
450.442	391.5
450.662	390.5
450.883	375.5
451.104	378.5
451.324	385.5
451.545	398.5
451.766	380.5
451.986	366.5
452.207	380.5
452.428	360.5
452.648	369.5
452.869	366.5
453.089	357.5
453.31	373.5
453.53	361.5
453.751	364.5
453.971	374.5
454.192	385.5
454.412	354.5
454.633	369.5
454.853	376.5
455.073	356.5
455.294	380.5
455.514	390.5
455.734	374.5
455.955	382.5
456.175	351.5
456.395	372.5
456.616	363.5
456.836	360.5
457.056	370.5
457.276	343.5
457.497	347.5
457.717	348.5
457.937	343.5
458.157	354.5
458.377	379.5
458.598	372.5
458.818	401.5
459.038	422.5
459.258	444.5
459.478	412.5
459.698	418.5
459.918	428.5
460.138	428.5
460.358	433.5
460.578	422.5
460.798	429.5
461.018	471.5
461.238	426.5
461.458	448.5
461.678	424.5
461.898	444.5
462.118	442.5
462.338	464.5
462.558	468.5
462.777	490.5
462.997	506.5
463.217	538.5
463.437	560.5
463.657	513.5
463.876	510.5
464.096	497.5
464.316	488.5
464.536	494.5
464.755	489.5
464.975	462.5
465.195	471.5
465.414	484.5
465.634	423.5
465.854	410.5
466.073	406.5
466.293	398.5
466.512	380.5
466.732	397.5
466.951	405.5
467.171	374.5
467.391	406.5
467.61	383.5
467.829	394.5
468.049	380.5
468.268	361.5
468.488	372.5
468.707	388.5
468.927	377.5
469.146	373.5
469.365	368.5
469.585	398.5
469.804	390.5
470.023	392.5
470.243	425.5
470.462	391.5
470.681	396.5
470.901	396.5
471.12	408.5
471.339	416.5
471.558	385.5
471.777	388.5
471.997	369.5
472.216	384.5
472.435	373.5
472.654	388.5
472.873	375.5
473.092	364.5
473.311	386.5
473.53	383.5
473.749	393.5
473.968	408.5
474.187	413.5
474.406	454.5
474.625	393.5
474.844	386.5
475.063	373.5
475.282	388.5
475.501	387.5
475.72	385.5
475.939	392.5
476.158	388.5
476.377	388.5
476.596	405.5
476.814	382.5
477.033	383.5
477.252	416.5
477.471	417.5
477.69	425.5
477.908	422.5
478.127	433.5
478.346	434.5
478.564	434.5
478.783	448.5
479.002	461.5
479.22	443.5
479.439	462.5
479.658	464.5
479.876	455.5
480.095	470.5
480.313	489.5
480.532	486.5
480.751	485.5
480.969	477.5
481.188	454.5
481.406	464.5
481.624	436.5
481.843	440.5
482.061	453.5
482.28	440.5
482.498	426.5
482.717	420.5
482.935	433.5
483.153	418.5
483.372	441.5
483.59	436.5
483.808	419.5
484.027	436.5
484.245	445.5
484.463	431.5
484.681	459.5
484.9	425.5
485.118	446.5
485.336	441.5
485.554	448.5
485.772	440.5
485.99	449.5
486.209	466.5
486.427	472.5
486.645	456.5
486.863	463.5
487.081	468.5
487.299	472.5
487.517	455.5
487.735	468.5
487.953	440.5
488.171	434.5
488.389	456.5
488.607	458.5
488.825	457.5
489.043	485.5
489.261	447.5
489.479	459.5
489.696	481.5
489.914	468.5
490.132	457.5
490.35	462.5
490.568	463.5
490.786	472.5
491.003	478.5
491.221	475.5
491.439	485.5
491.657	482.5
491.874	475.5
492.092	496.5
492.31	484.5
492.527	458.5
492.745	487.5
492.963	484.5
493.18	498.5
493.398	513.5
493.615	490.5
493.833	503.5
494.05	518.5
494.268	512.5
494.485	512.5
494.703	503.5
494.92	505.5
495.138	506.5
495.355	493.5
495.573	489.5
495.79	528.5
496.008	530.5
496.225	528.5
496.442	531.5
496.66	520.5
496.877	532.5
497.094	516.5
497.312	541.5
497.529	548.5
497.746	561.5
497.963	542.5
498.181	577.5
498.398	612.5
498.615	604.5
498.832	657.5
499.049	702.5
499.267	712.5
499.484	756.5
499.701	795.5
499.918	880.5
500.135	920.5
500.352	1007.5
500.569	1076.5
500.786	1062.5
501.003	972.5
501.22	937.5
501.437	877.5
501.654	837.5
501.871	778.5
502.088	707.5
502.305	692.5
502.522	665.5
502.739	666.5
502.956	614.5
503.172	583.5
503.389	561.5
503.606	574.5
503.823	580.5
504.04	560.5
504.256	558.5
504.473	574.5
504.69	582.5
504.907	572.5
505.123	546.5
505.34	518.5
505.557	510.5
505.773	504.5
505.99	487.5
506.207	488.5
506.423	502.5
506.64	475.5
506.856	467.5
507.073	450.5
507.289	466.5
507.506	444.5
507.722	471.5
507.939	475.5
508.155	475.5
508.372	458.5
508.588	432.5
508.805	458.5
509.021	457.5
509.238	454.5
509.454	456.5
509.67	458.5
509.887	428.5
510.103	440.5
510.319	437.5
510.536	493.5
510.752	607.5
510.968	544.5
511.184	461.5
511.401	424.5
511.617	427.5
511.833	424.5
512.049	438.5
512.265	424.5
512.481	448.5
512.698	438.5
512.914	430.5
513.13	429.5
513.346	432.5
513.562	416.5
513.778	417.5
513.994	425.5
514.21	436.5
514.426	428.5
514.642	433.5
514.858	448.5
515.074	463.5
515.29	502.5
515.506	600.5
515.721	529.5
515.937	467.5
516.153	455.5
516.369	449.5
516.585	491.5
516.801	477.5
517.016	475.5
517.232	502.5
517.448	506.5
517.664	530.5
517.879	527.5
518.095	503.5
518.311	509.5
518.527	508.5
518.742	489.5
518.958	495.5
519.173	458.5
519.389	467.5
519.605	440.5
519.82	439.5
520.036	444.5
