Data from 1984.PennyLincolnUp.Lamp.En5.5.200Scan.071819.P1_HRD10591_16-57-15-967.txt Node
Date: Thu Jul 18 16:57:15 EDT 2019
User: cochatt
Spectrometer: HR+D1059
Trigger mode: 1
Integration Time (sec): 1.000000E-1
Scans to average: 1
Electric dark correction enabled: true
Nonlinearity correction enabled: false
Boxcar width: 0
XAxis mode: Wavelengths
Number of Pixels in Spectrum: 2048
>>>>>Begin Spectral Data<<<<<
223.165	-14.69
223.4	-14.69
223.635	-14.69
223.869	-3.69
224.104	-26.69
224.338	-10.69
224.573	-12.69
224.808	-23.69
225.042	-6.69
225.277	-7.69
225.511	14.31
225.746	13.31
225.98	3.31
226.215	9.31
226.449	15.31
226.683	11.31
226.918	9.31
227.152	30.31
227.387	28.31
227.621	39.31
227.856	39.31
228.09	31.31
228.324	44.31
228.559	53.31
228.793	58.31
229.027	64.31
229.262	87.31
229.496	83.31
229.73	99.31
229.964	117.31
230.199	84.31
230.433	88.31
230.667	103.31
230.901	98.31
231.136	105.31
231.37	98.31
231.604	91.31
231.838	98.31
232.072	101.31
232.306	113.31
232.541	104.31
232.775	116.31
233.009	114.31
233.243	95.31
233.477	95.31
233.711	98.31
233.945	102.31
234.179	105.31
234.413	113.31
234.647	112.31
234.881	107.31
235.115	105.31
235.349	87.31
235.583	101.31
235.817	104.31
236.051	120.31
236.285	120.31
236.519	100.31
236.753	109.31
236.987	113.31
237.221	125.31
237.455	133.31
237.689	119.31
237.922	118.31
238.156	103.31
238.39	88.31
238.624	106.31
238.858	92.31
239.091	116.31
239.325	112.31
239.559	92.31
239.793	132.31
240.027	115.31
240.26	111.31
240.494	121.31
240.728	113.31
240.961	111.31
241.195	118.31
241.429	114.31
241.662	108.31
241.896	127.31
242.13	119.31
242.363	114.31
242.597	120.31
242.83	122.31
243.064	118.31
243.298	106.31
243.531	98.31
243.765	127.31
243.998	124.31
244.232	124.31
244.465	125.31
244.699	118.31
244.932	127.31
245.166	128.31
245.399	124.31
245.633	124.31
245.866	128.31
246.099	121.31
246.333	127.31
246.566	123.31
246.8	126.31
247.033	128.31
247.266	124.31
247.5	136.31
247.733	128.31
247.966	123.31
248.2	143.31
248.433	139.31
248.666	137.31
248.899	135.31
249.133	139.31
249.366	148.31
249.599	150.31
249.832	142.31
250.066	149.31
250.299	160.31
250.532	149.31
250.765	146.31
250.998	161.31
251.231	157.31
251.465	159.31
251.698	165.31
251.931	167.31
252.164	150.31
252.397	152.31
252.63	172.31
252.863	153.31
253.096	161.31
253.329	164.31
253.562	167.31
253.795	167.31
254.028	152.31
254.261	159.31
254.494	157.31
254.727	175.31
254.96	183.31
255.193	177.31
255.426	167.31
255.659	170.31
255.892	178.31
256.124	163.31
256.357	173.31
256.59	181.31
256.823	161.31
257.056	153.31
257.289	168.31
257.521	173.31
257.754	177.31
257.987	184.31
258.22	162.31
258.452	175.31
258.685	162.31
258.918	170.31
259.151	164.31
259.383	175.31
259.616	177.31
259.849	180.31
260.081	193.31
260.314	187.31
260.547	196.31
260.779	180.31
261.012	168.31
261.244	172.31
261.477	177.31
261.71	181.31
261.942	175.31
262.175	185.31
262.407	159.31
262.64	166.31
262.872	175.31
263.105	156.31
263.337	173.31
263.57	183.31
263.802	175.31
264.035	164.31
264.267	161.31
264.499	179.31
264.732	176.31
264.964	188.31
265.197	199.31
265.429	195.31
265.661	187.31
265.894	169.31
266.126	175.31
266.358	186.31
266.591	167.31
266.823	186.31
267.055	186.31
267.287	181.31
267.52	181.31
267.752	187.31
267.984	187.31
268.216	189.31
268.448	196.31
268.681	201.31
268.913	192.31
269.145	203.31
269.377	227.31
269.609	213.31
269.841	217.31
270.073	209.31
270.306	229.31
270.538	214.31
270.77	199.31
271.002	224.31
271.234	213.31
271.466	226.31
271.698	216.31
271.93	229.31
272.162	241.31
272.394	227.31
272.626	220.31
272.858	212.31
273.09	212.31
273.322	230.31
273.553	219.31
273.785	219.31
274.017	224.31
274.249	211.31
274.481	206.31
274.713	212.31
274.945	217.31
275.176	213.31
275.408	213.31
275.64	218.31
275.872	199.31
276.104	220.31
276.335	214.31
276.567	230.31
276.799	232.31
277.031	236.31
277.262	231.31
277.494	252.31
277.726	231.31
277.957	230.31
278.189	236.31
278.421	226.31
278.652	221.31
278.884	247.31
279.115	235.31
279.347	235.31
279.579	232.31
279.81	220.31
280.042	208.31
280.273	210.31
280.505	208.31
280.736	221.31
280.968	228.31
281.199	223.31
281.431	227.31
281.662	246.31
281.894	244.31
282.125	236.31
282.356	242.31
282.588	249.31
282.819	247.31
283.051	232.31
283.282	233.31
283.513	230.31
283.745	243.31
283.976	248.31
284.207	234.31
284.439	239.31
284.67	261.31
284.901	257.31
285.132	243.31
285.364	247.31
285.595	248.31
285.826	253.31
286.057	253.31
286.288	259.31
286.52	242.31
286.751	234.31
286.982	243.31
287.213	263.31
287.444	257.31
287.675	257.31
287.906	266.31
288.138	261.31
288.369	265.31
288.6	267.31
288.831	249.31
289.062	244.31
289.293	257.31
289.524	249.31
289.755	243.31
289.986	254.31
290.217	261.31
290.448	257.31
290.679	252.31
290.91	252.31
291.141	247.31
291.371	245.31
291.602	246.31
291.833	263.31
292.064	256.31
292.295	270.31
292.526	243.31
292.757	259.31
292.987	250.31
293.218	262.31
293.449	250.31
293.68	247.31
293.91	259.31
294.141	253.31
294.372	249.31
294.603	260.31
294.833	252.31
295.064	261.31
295.295	261.31
295.525	263.31
295.756	268.31
295.987	276.31
296.217	261.31
296.448	268.31
296.679	269.31
296.909	292.31
297.14	287.31
297.37	275.31
297.601	243.31
297.831	292.31
298.062	276.31
298.292	265.31
298.523	283.31
298.753	272.31
298.984	261.31
299.214	284.31
299.445	264.31
299.675	269.31
299.905	284.31
300.136	293.31
300.366	283.31
300.597	281.31
300.827	292.31
301.057	285.31
301.288	316.31
301.518	288.31
301.748	270.31
301.979	301.31
302.209	270.31
302.439	283.31
302.669	287.31
302.9	299.31
303.13	265.31
303.36	285.31
303.59	263.31
303.82	287.31
304.051	297.31
304.281	310.31
304.511	271.31
304.741	304.31
304.971	285.31
305.201	282.31
305.431	286.31
305.661	289.31
305.891	294.31
306.121	293.31
306.352	271.31
306.582	290.31
306.812	296.31
307.042	290.31
307.272	295.31
307.502	283.31
307.731	287.31
307.961	289.31
308.191	286.31
308.421	288.31
308.651	310.31
308.881	295.31
309.111	290.31
309.341	293.31
309.571	291.31
309.8	272.31
310.03	288.31
310.26	287.31
310.49	307.31
310.72	300.31
310.949	309.31
311.179	305.31
311.409	284.31
311.639	287.31
311.868	308.31
312.098	295.31
312.328	304.31
312.557	315.31
312.787	311.31
313.017	304.31
313.246	314.31
313.476	327.31
313.706	300.31
313.935	307.31
314.165	309.31
314.394	315.31
314.624	320.31
314.853	316.31
315.083	312.31
315.312	305.31
315.542	313.31
315.771	295.31
316.001	312.31
316.23	311.31
316.46	297.31
316.689	287.31
316.919	312.31
317.148	321.31
317.377	331.31
317.607	325.31
317.836	289.31
318.065	313.31
318.295	317.31
318.524	311.31
318.753	312.31
318.983	295.31
319.212	311.31
319.441	332.31
319.67	323.31
319.9	312.31
320.129	323.31
320.358	331.31
320.587	339.31
320.816	314.31
321.046	307.31
321.275	320.31
321.504	319.31
321.733	304.31
321.962	312.31
322.191	318.31
322.42	310.31
322.649	330.31
322.878	324.31
323.108	325.31
323.337	351.31
323.566	330.31
323.795	356.31
324.024	349.31
324.253	395.31
324.482	459.31
324.71	610.31
324.939	810.31
325.168	740.31
325.397	451.31
325.626	379.31
325.855	360.31
326.084	356.31
326.313	350.31
326.542	359.31
326.77	357.31
326.999	378.31
327.228	443.31
327.457	580.31
327.686	673.31
327.914	497.31
328.143	394.31
328.372	376.31
328.6	356.31
328.829	362.31
329.058	360.31
329.287	343.31
329.515	362.31
329.744	370.31
329.972	347.31
330.201	340.31
330.43	347.31
330.658	355.31
330.887	393.31
331.115	368.31
331.344	362.31
331.572	374.31
331.801	373.31
332.03	357.31
332.258	364.31
332.486	375.31
332.715	367.31
332.943	377.31
333.172	382.31
333.4	381.31
333.629	409.31
333.857	389.31
334.085	408.31
334.314	415.31
334.542	392.31
334.771	388.31
334.999	399.31
335.227	388.31
335.455	390.31
335.684	395.31
335.912	392.31
336.14	380.31
336.369	374.31
336.597	385.31
336.825	371.31
337.053	377.31
337.281	360.31
337.51	371.31
337.738	369.31
337.966	363.31
338.194	362.31
338.422	378.31
338.65	374.31
338.878	363.31
339.106	354.31
339.334	346.31
339.562	355.31
339.79	351.31
340.018	362.31
340.246	363.31
340.474	361.31
340.702	331.31
340.93	340.31
341.158	354.31
341.386	359.31
341.614	335.31
341.842	336.31
342.07	345.31
342.298	343.31
342.526	358.31
342.754	332.31
342.981	354.31
343.209	350.31
343.437	336.31
343.665	361.31
343.893	386.31
344.12	373.31
344.348	370.31
344.576	375.31
344.804	363.31
345.031	353.31
345.259	371.31
345.487	344.31
345.714	337.31
345.942	329.31
346.17	338.31
346.397	333.31
346.625	339.31
346.853	323.31
347.08	333.31
347.308	333.31
347.535	334.31
347.763	333.31
347.99	323.31
348.218	337.31
348.445	337.31
348.673	314.31
348.9	315.31
349.128	300.31
349.355	333.31
349.583	326.31
349.81	325.31
350.037	334.31
350.265	316.31
350.492	331.31
350.72	293.31
350.947	312.31
351.174	324.31
351.402	320.31
351.629	323.31
351.856	322.31
352.083	327.31
352.311	313.31
352.538	303.31
352.765	315.31
352.992	332.31
353.22	307.31
353.447	330.31
353.674	333.31
353.901	339.31
354.128	320.31
354.355	323.31
354.583	324.31
354.81	310.31
355.037	307.31
355.264	310.31
355.491	316.31
355.718	309.31
355.945	318.31
356.172	322.31
356.399	329.31
356.626	301.31
356.853	319.31
357.08	324.31
357.307	335.31
357.534	338.31
357.761	312.31
357.988	324.31
358.215	333.31
358.441	303.31
358.668	336.31
358.895	325.31
359.122	324.31
359.349	316.31
359.576	328.31
359.802	321.31
360.029	321.31
360.256	338.31
360.483	331.31
360.709	320.31
360.936	330.31
361.163	308.31
361.39	313.31
361.616	305.31
361.843	325.31
362.07	314.31
362.296	325.31
362.523	313.31
362.749	314.31
362.976	320.31
363.203	323.31
363.429	309.31
363.656	323.31
363.882	316.31
364.109	329.31
364.335	317.31
364.562	309.31
364.788	318.31
365.015	307.31
365.241	311.31
365.468	330.31
365.694	307.31
365.92	311.31
366.147	329.31
366.373	335.31
366.599	315.31
366.826	307.31
367.052	299.31
367.278	317.31
367.505	312.31
367.731	320.31
367.957	309.31
368.184	333.31
368.41	322.31
368.636	321.31
368.862	312.31
369.089	317.31
369.315	291.31
369.541	315.31
369.767	320.31
369.993	306.31
370.219	331.31
370.445	323.31
370.672	319.31
370.898	309.31
371.124	301.31
371.35	323.31
371.576	331.31
371.802	331.31
372.028	331.31
372.254	342.31
372.48	327.31
372.706	331.31
372.932	339.31
373.158	346.31
373.384	343.31
373.61	327.31
373.835	316.31
374.061	316.31
374.287	341.31
374.513	325.31
374.739	339.31
374.965	351.31
375.191	368.31
375.416	341.31
375.642	338.31
375.868	349.31
376.094	337.31
376.319	346.31
376.545	325.31
376.771	337.31
376.997	316.31
377.222	335.31
377.448	338.31
377.674	330.31
377.899	318.31
378.125	335.31
378.35	345.31
378.576	305.31
378.802	333.31
379.027	319.31
379.253	319.31
379.478	308.31
379.704	321.31
379.929	347.31
380.155	331.31
380.38	334.31
380.606	337.31
380.831	325.31
381.057	334.31
381.282	332.31
381.507	331.31
381.733	319.31
381.958	329.31
382.184	330.31
382.409	343.31
382.634	331.31
382.86	346.31
383.085	349.31
383.31	349.31
383.535	340.31
383.761	370.31
383.986	356.31
384.211	356.31
384.436	364.31
384.662	357.31
384.887	365.31
385.112	372.31
385.337	387.31
385.562	368.31
385.787	369.31
386.013	371.31
386.238	380.31
386.463	383.31
386.688	373.31
386.913	378.31
387.138	358.31
387.363	376.31
387.588	379.31
387.813	375.31
388.038	358.31
388.263	360.31
388.488	377.31
388.713	354.31
388.938	379.31
389.163	368.31
389.387	387.31
389.612	354.31
389.837	353.31
390.062	354.31
390.287	358.31
390.512	374.31
390.736	386.31
390.961	375.31
391.186	379.31
391.411	377.31
391.636	383.31
391.86	392.31
392.085	398.31
392.31	403.31
392.534	389.31
392.759	383.31
392.984	368.31
393.208	374.31
393.433	391.31
393.658	400.31
393.882	382.31
394.107	371.31
394.331	391.31
394.556	379.31
394.78	389.31
395.005	378.31
395.229	372.31
395.454	391.31
395.678	399.31
395.903	400.31
396.127	395.31
396.352	403.31
396.576	389.31
396.801	389.31
397.025	386.31
397.249	394.31
397.474	384.31
397.698	414.31
397.922	398.31
398.147	408.31
398.371	401.31
398.595	398.31
398.82	437.31
399.044	456.31
399.268	480.31
399.492	533.31
399.717	573.31
399.941	592.31
400.165	582.31
400.389	517.31
400.613	464.31
400.837	455.31
401.062	444.31
401.286	434.31
401.51	433.31
401.734	427.31
401.958	459.31
402.182	424.31
402.406	433.31
402.63	438.31
402.854	447.31
403.078	458.31
403.302	461.31
403.526	450.31
403.75	458.31
403.974	482.31
404.198	456.31
404.422	470.31
404.645	482.31
404.869	476.31
405.093	454.31
405.317	468.31
405.541	473.31
405.765	478.31
405.988	475.31
406.212	451.31
406.436	477.31
406.66	455.31
406.883	479.31
407.107	511.31
407.331	528.31
407.555	577.31
407.778	565.31
408.002	517.31
408.226	512.31
408.449	512.31
408.673	488.31
408.896	516.31
409.12	513.31
409.344	499.31
409.567	461.31
409.791	463.31
410.014	449.31
410.238	473.31
410.461	451.31
410.685	467.31
410.908	452.31
411.132	437.31
411.355	471.31
411.578	464.31
411.802	445.31
412.025	446.31
412.249	435.31
412.472	436.31
412.695	427.31
412.919	407.31
413.142	417.31
413.365	424.31
413.589	426.31
413.812	422.31
414.035	422.31
414.258	437.31
414.482	435.31
414.705	427.31
414.928	428.31
415.151	427.31
415.374	452.31
415.597	414.31
415.821	425.31
416.044	436.31
416.267	409.31
416.49	427.31
416.713	415.31
416.936	413.31
417.159	404.31
417.382	424.31
417.605	423.31
417.828	417.31
418.051	432.31
418.274	451.31
418.497	423.31
418.72	419.31
418.943	421.31
419.166	432.31
419.389	462.31
419.611	463.31
419.834	460.31
420.057	451.31
420.28	431.31
420.503	408.31
420.726	428.31
420.948	427.31
421.171	425.31
421.394	451.31
421.617	449.31
421.839	432.31
422.062	440.31
422.285	412.31
422.507	479.31
422.73	485.31
422.953	469.31
423.175	455.31
423.398	445.31
423.621	431.31
423.843	448.31
424.066	450.31
424.288	447.31
424.511	460.31
424.733	453.31
424.956	482.31
425.178	484.31
425.401	466.31
425.623	473.31
425.846	441.31
426.068	437.31
426.291	429.31
426.513	435.31
426.735	447.31
426.958	433.31
427.18	451.31
427.402	529.31
427.625	556.31
427.847	488.31
428.069	431.31
428.292	405.31
428.514	411.31
428.736	406.31
428.958	388.31
429.181	383.31
429.403	411.31
429.625	393.31
429.847	404.31
430.069	429.31
430.292	425.31
430.514	407.31
430.736	385.31
430.958	383.31
431.18	400.31
431.402	374.31
431.624	392.31
431.846	403.31
432.068	393.31
432.29	397.31
432.512	394.31
432.734	383.31
432.956	389.31
433.178	383.31
433.4	414.31
433.622	392.31
433.844	413.31
434.066	403.31
434.287	374.31
434.509	405.31
434.731	421.31
434.953	418.31
435.175	425.31
435.397	432.31
435.618	425.31
435.84	448.31
436.062	467.31
436.284	504.31
436.505	427.31
436.727	416.31
436.949	393.31
437.17	394.31
437.392	379.31
437.614	422.31
437.835	395.31
438.057	425.31
438.278	463.31
438.5	477.31
438.721	483.31
438.943	480.31
439.165	430.31
439.386	399.31
439.608	406.31
439.829	397.31
440.05	415.31
440.272	431.31
440.493	412.31
440.715	415.31
440.936	409.31
441.158	411.31
441.379	403.31
441.6	416.31
441.822	424.31
442.043	445.31
442.264	468.31
442.486	458.31
442.707	449.31
442.928	429.31
443.149	420.31
443.371	436.31
443.592	467.31
443.813	497.31
444.034	519.31
444.255	485.31
444.476	470.31
444.698	476.31
444.919	490.31
445.14	584.31
445.361	486.31
445.582	447.31
445.803	470.31
446.024	461.31
446.245	469.31
446.466	440.31
446.687	408.31
446.908	416.31
447.129	381.31
447.35	377.31
447.571	384.31
447.792	365.31
448.013	371.31
448.234	391.31
448.455	389.31
448.675	433.31
448.896	507.31
449.117	447.31
449.338	432.31
449.559	462.31
449.779	495.31
450	426.31
450.221	395.31
450.442	361.31
450.662	371.31
450.883	377.31
451.104	360.31
451.324	366.31
451.545	361.31
451.766	369.31
451.986	343.31
452.207	327.31
452.428	368.31
452.648	354.31
452.869	354.31
453.089	345.31
453.31	340.31
453.53	343.31
453.751	336.31
453.971	328.31
454.192	350.31
454.412	342.31
454.633	323.31
454.853	344.31
455.073	339.31
455.294	349.31
455.514	374.31
455.734	369.31
455.955	331.31
456.175	339.31
456.395	339.31
456.616	342.31
456.836	333.31
457.056	328.31
457.276	344.31
457.497	332.31
457.717	349.31
457.937	339.31
458.157	336.31
458.377	340.31
458.598	347.31
458.818	355.31
459.038	411.31
459.258	393.31
459.478	383.31
459.698	391.31
459.918	403.31
460.138	377.31
460.358	414.31
460.578	413.31
460.798	411.31
461.018	442.31
461.238	444.31
461.458	439.31
461.678	422.31
461.898	426.31
462.118	432.31
462.338	439.31
462.558	444.31
462.777	454.31
462.997	495.31
463.217	509.31
463.437	519.31
463.657	511.31
463.876	453.31
464.096	466.31
464.316	467.31
464.536	473.31
464.755	473.31
464.975	452.31
465.195	417.31
465.414	424.31
465.634	385.31
465.854	420.31
466.073	411.31
466.293	394.31
466.512	379.31
466.732	356.31
466.951	387.31
467.171	377.31
467.391	376.31
467.61	371.31
467.829	365.31
468.049	359.31
468.268	359.31
468.488	358.31
468.707	348.31
468.927	352.31
469.146	376.31
469.365	374.31
469.585	337.31
469.804	355.31
470.023	386.31
470.243	388.31
470.462	394.31
470.681	390.31
470.901	391.31
471.12	384.31
471.339	376.31
471.558	365.31
471.777	367.31
471.997	355.31
472.216	358.31
472.435	368.31
472.654	349.31
472.873	350.31
473.092	349.31
473.311	359.31
473.53	368.31
473.749	372.31
473.968	380.31
474.187	396.31
474.406	408.31
474.625	379.31
474.844	350.31
475.063	373.31
475.282	347.31
475.501	355.31
475.72	379.31
475.939	357.31
476.158	367.31
476.377	363.31
476.596	362.31
476.814	388.31
477.033	395.31
477.252	373.31
477.471	383.31
477.69	396.31
477.908	386.31
478.127	404.31
478.346	415.31
478.564	395.31
478.783	431.31
479.002	434.31
479.22	423.31
479.439	432.31
479.658	436.31
479.876	442.31
480.095	462.31
480.313	458.31
480.532	469.31
480.751	469.31
480.969	448.31
481.188	432.31
481.406	420.31
481.624	437.31
481.843	416.31
482.061	395.31
482.28	405.31
482.498	417.31
482.717	398.31
482.935	416.31
483.153	412.31
483.372	421.31
483.59	425.31
483.808	418.31
484.027	407.31
484.245	404.31
484.463	407.31
484.681	426.31
484.9	424.31
485.118	429.31
485.336	438.31
485.554	421.31
485.772	438.31
485.99	449.31
486.209	433.31
486.427	416.31
486.645	447.31
486.863	434.31
487.081	434.31
487.299	438.31
487.517	422.31
487.735	447.31
487.953	416.31
488.171	433.31
488.389	440.31
488.607	445.31
488.825	438.31
489.043	415.31
489.261	418.31
489.479	447.31
489.696	426.31
489.914	457.31
490.132	453.31
490.35	430.31
490.568	413.31
490.786	412.31
491.003	454.31
491.221	462.31
491.439	451.31
491.657	441.31
491.874	447.31
492.092	455.31
492.31	465.31
492.527	465.31
492.745	460.31
492.963	451.31
493.18	474.31
493.398	461.31
493.615	460.31
493.833	488.31
494.05	481.31
494.268	486.31
494.485	487.31
494.703	477.31
494.92	474.31
495.138	458.31
495.355	476.31
495.573	465.31
495.79	471.31
496.008	465.31
496.225	487.31
496.442	472.31
496.66	502.31
496.877	485.31
497.094	500.31
497.312	533.31
497.529	519.31
497.746	535.31
497.963	552.31
498.181	552.31
498.398	554.31
498.615	589.31
498.832	631.31
499.049	645.31
499.267	674.31
499.484	723.31
499.701	792.31
499.918	819.31
500.135	898.31
500.352	987.31
500.569	984.31
500.786	992.31
501.003	965.31
501.22	903.31
501.437	838.31
501.654	762.31
501.871	725.31
502.088	685.31
502.305	666.31
