Data from 1984.PennyLincolnUp.Lamp.En5.5.200Scan.071819.P1_HRD10591_16-58-15-971.txt Node
Date: Thu Jul 18 16:58:15 EDT 2019
User: cochatt
Spectrometer: HR+D1059
Trigger mode: 1
Integration Time (sec): 1.000000E-1
Scans to average: 1
Electric dark correction enabled: true
Nonlinearity correction enabled: false
Boxcar width: 0
XAxis mode: Wavelengths
Number of Pixels in Spectrum: 2048
>>>>>Begin Spectral Data<<<<<
223.165	-30.12
223.4	-30.12
223.635	-30.12
223.869	-8.12
224.104	-20.12
224.338	-26.12
224.573	-8.12
224.808	-15.12
225.042	4.88
225.277	-1.12
225.511	-4.12
225.746	6.88
225.98	20.88
226.215	14.88
226.449	3.88
226.683	17.88
226.918	10.88
227.152	32.88
227.387	16.88
227.621	38.88
227.856	32.88
228.09	51.88
228.324	39.88
228.559	49.88
228.793	68.88
229.027	88.88
229.262	88.88
229.496	83.88
229.73	97.88
229.964	127.88
230.199	103.88
230.433	101.88
230.667	83.88
230.901	93.88
231.136	84.88
231.37	97.88
231.604	111.88
231.838	98.88
232.072	99.88
232.306	106.88
232.541	102.88
232.775	115.88
233.009	117.88
233.243	110.88
233.477	111.88
233.711	100.88
233.945	112.88
234.179	104.88
234.413	121.88
234.647	109.88
234.881	99.88
235.115	111.88
235.349	111.88
235.583	105.88
235.817	100.88
236.051	104.88
236.285	107.88
236.519	110.88
236.753	121.88
236.987	130.88
237.221	152.88
237.455	159.88
237.689	155.88
237.922	129.88
238.156	123.88
238.39	112.88
238.624	121.88
238.858	87.88
239.091	108.88
239.325	115.88
239.559	119.88
239.793	111.88
240.027	122.88
240.26	104.88
240.494	122.88
240.728	103.88
240.961	121.88
241.195	105.88
241.429	136.88
241.662	117.88
241.896	119.88
242.13	120.88
242.363	127.88
242.597	129.88
242.83	143.88
243.064	113.88
243.298	123.88
243.531	133.88
243.765	131.88
243.998	143.88
244.232	125.88
244.465	127.88
244.699	151.88
244.932	126.88
245.166	137.88
245.399	138.88
245.633	125.88
245.866	126.88
246.099	133.88
246.333	127.88
246.566	140.88
246.8	147.88
247.033	136.88
247.266	136.88
247.5	132.88
247.733	143.88
247.966	134.88
248.2	164.88
248.433	155.88
248.666	142.88
248.899	162.88
249.133	162.88
249.366	176.88
249.599	187.88
249.832	150.88
250.066	155.88
250.299	171.88
250.532	177.88
250.765	188.88
250.998	173.88
251.231	169.88
251.465	175.88
251.698	162.88
251.931	161.88
252.164	173.88
252.397	163.88
252.63	168.88
252.863	176.88
253.096	175.88
253.329	171.88
253.562	200.88
253.795	176.88
254.028	166.88
254.261	185.88
254.494	195.88
254.727	191.88
254.96	215.88
255.193	220.88
255.426	205.88
255.659	199.88
255.892	209.88
256.124	223.88
256.357	231.88
256.59	213.88
256.823	183.88
257.056	190.88
257.289	197.88
257.521	168.88
257.754	179.88
257.987	171.88
258.22	178.88
258.452	193.88
258.685	193.88
258.918	182.88
259.151	170.88
259.383	181.88
259.616	183.88
259.849	176.88
260.081	199.88
260.314	205.88
260.547	211.88
260.779	209.88
261.012	212.88
261.244	205.88
261.477	194.88
261.71	198.88
261.942	184.88
262.175	202.88
262.407	203.88
262.64	167.88
262.872	188.88
263.105	189.88
263.337	191.88
263.57	180.88
263.802	188.88
264.035	191.88
264.267	177.88
264.499	187.88
264.732	183.88
264.964	189.88
265.197	187.88
265.429	190.88
265.661	195.88
265.894	200.88
266.126	198.88
266.358	191.88
266.591	200.88
266.823	216.88
267.055	205.88
267.287	203.88
267.52	204.88
267.752	205.88
267.984	201.88
268.216	214.88
268.448	207.88
268.681	222.88
268.913	215.88
269.145	223.88
269.377	247.88
269.609	240.88
269.841	238.88
270.073	245.88
270.306	238.88
270.538	249.88
270.77	240.88
271.002	244.88
271.234	245.88
271.466	243.88
271.698	252.88
271.93	271.88
272.162	257.88
272.394	269.88
272.626	279.88
272.858	264.88
273.09	219.88
273.322	215.88
273.553	219.88
273.785	225.88
274.017	243.88
274.249	236.88
274.481	214.88
274.713	250.88
274.945	244.88
275.176	243.88
275.408	232.88
275.64	239.88
275.872	237.88
276.104	242.88
276.335	228.88
276.567	243.88
276.799	243.88
277.031	256.88
277.262	263.88
277.494	276.88
277.726	252.88
277.957	255.88
278.189	243.88
278.421	233.88
278.652	240.88
278.884	245.88
279.115	243.88
279.347	261.88
279.579	242.88
279.81	245.88
280.042	231.88
280.273	252.88
280.505	271.88
280.736	260.88
280.968	239.88
281.199	255.88
281.431	244.88
281.662	241.88
281.894	254.88
282.125	256.88
282.356	260.88
282.588	264.88
282.819	270.88
283.051	249.88
283.282	246.88
283.513	256.88
283.745	251.88
283.976	254.88
284.207	255.88
284.439	236.88
284.67	264.88
284.901	268.88
285.132	263.88
285.364	268.88
285.595	254.88
285.826	268.88
286.057	263.88
286.288	258.88
286.52	263.88
286.751	284.88
286.982	269.88
287.213	272.88
287.444	269.88
287.675	284.88
287.906	280.88
288.138	281.88
288.369	272.88
288.6	269.88
288.831	279.88
289.062	265.88
289.293	268.88
289.524	267.88
289.755	288.88
289.986	269.88
290.217	278.88
290.448	272.88
290.679	277.88
290.91	268.88
291.141	260.88
291.371	265.88
291.602	256.88
291.833	278.88
292.064	271.88
292.295	269.88
292.526	287.88
292.757	275.88
292.987	280.88
293.218	283.88
293.449	279.88
293.68	277.88
293.91	283.88
294.141	291.88
294.372	263.88
294.603	256.88
294.833	290.88
295.064	281.88
295.295	288.88
295.525	278.88
295.756	281.88
295.987	280.88
296.217	312.88
296.448	299.88
296.679	296.88
296.909	291.88
297.14	275.88
297.37	289.88
297.601	290.88
297.831	292.88
298.062	298.88
298.292	289.88
298.523	302.88
298.753	303.88
298.984	275.88
299.214	292.88
299.445	289.88
299.675	304.88
299.905	282.88
300.136	296.88
300.366	284.88
300.597	308.88
300.827	298.88
301.057	303.88
301.288	311.88
301.518	304.88
301.748	294.88
301.979	309.88
302.209	301.88
302.439	324.88
302.669	327.88
302.9	300.88
303.13	315.88
303.36	309.88
303.59	305.88
303.82	328.88
304.051	319.88
304.281	319.88
304.511	329.88
304.741	301.88
304.971	323.88
305.201	300.88
305.431	316.88
305.661	312.88
305.891	307.88
306.121	313.88
306.352	310.88
306.582	294.88
306.812	310.88
307.042	310.88
307.272	311.88
307.502	323.88
307.731	313.88
307.961	311.88
308.191	307.88
308.421	317.88
308.651	330.88
308.881	305.88
309.111	321.88
309.341	314.88
309.571	330.88
309.8	307.88
310.03	327.88
310.26	325.88
310.49	337.88
310.72	332.88
310.949	334.88
311.179	333.88
311.409	321.88
311.639	318.88
311.868	333.88
312.098	336.88
312.328	332.88
312.557	347.88
312.787	356.88
313.017	361.88
313.246	354.88
313.476	323.88
313.706	343.88
313.935	350.88
314.165	357.88
314.394	342.88
314.624	343.88
314.853	330.88
315.083	361.88
315.312	350.88
315.542	343.88
315.771	340.88
316.001	337.88
316.23	334.88
316.46	319.88
316.689	335.88
316.919	337.88
317.148	337.88
317.377	358.88
317.607	346.88
317.836	348.88
318.065	345.88
318.295	321.88
318.524	332.88
318.753	324.88
318.983	358.88
319.212	337.88
319.441	339.88
319.67	355.88
319.9	358.88
320.129	332.88
320.358	372.88
320.587	355.88
320.816	359.88
321.046	369.88
321.275	356.88
321.504	356.88
321.733	351.88
321.962	352.88
322.191	363.88
322.42	365.88
322.649	391.88
322.878	372.88
323.108	378.88
323.337	404.88
323.566	410.88
323.795	451.88
324.024	445.88
324.253	513.88
324.482	683.88
324.71	1000.88
324.939	1364.88
325.168	1209.88
325.397	639.88
325.626	495.88
325.855	453.88
326.084	418.88
326.313	428.88
326.542	428.88
326.77	448.88
326.999	513.88
327.228	636.88
327.457	885.88
327.686	1063.88
327.914	737.88
328.143	558.88
328.372	503.88
328.6	470.88
328.829	453.88
329.058	456.88
329.287	445.88
329.515	454.88
329.744	437.88
329.972	445.88
330.201	469.88
330.43	518.88
330.658	493.88
330.887	467.88
331.115	472.88
331.344	439.88
331.572	423.88
331.801	418.88
332.03	435.88
332.258	437.88
332.486	424.88
332.715	429.88
332.943	444.88
333.172	448.88
333.4	439.88
333.629	457.88
333.857	468.88
334.085	491.88
334.314	515.88
334.542	532.88
334.771	551.88
334.999	493.88
335.227	447.88
335.455	431.88
335.684	427.88
335.912	438.88
336.14	437.88
336.369	411.88
336.597	437.88
336.825	409.88
337.053	414.88
337.281	412.88
337.51	417.88
337.738	374.88
337.966	386.88
338.194	399.88
338.422	389.88
338.65	407.88
338.878	396.88
339.106	395.88
339.334	383.88
339.562	389.88
339.79	380.88
340.018	371.88
340.246	392.88
340.474	385.88
340.702	374.88
340.93	375.88
341.158	375.88
341.386	381.88
341.614	372.88
341.842	385.88
342.07	371.88
342.298	391.88
342.526	355.88
342.754	368.88
342.981	361.88
343.209	379.88
343.437	399.88
343.665	403.88
343.893	402.88
344.12	422.88
344.348	419.88
344.576	388.88
344.804	410.88
345.031	385.88
345.259	385.88
345.487	396.88
345.714	367.88
345.942	363.88
346.17	388.88
346.397	357.88
346.625	377.88
346.853	383.88
347.08	377.88
347.308	354.88
347.535	364.88
347.763	359.88
347.99	353.88
348.218	376.88
348.445	379.88
348.673	392.88
348.9	358.88
349.128	367.88
349.355	352.88
349.583	367.88
349.81	371.88
350.037	342.88
350.265	357.88
350.492	338.88
350.72	330.88
350.947	363.88
351.174	347.88
351.402	378.88
351.629	343.88
351.856	366.88
352.083	341.88
352.311	361.88
352.538	370.88
352.765	369.88
352.992	373.88
353.22	369.88
353.447	325.88
353.674	344.88
353.901	351.88
354.128	351.88
354.355	356.88
354.583	369.88
354.81	369.88
355.037	358.88
355.264	342.88
355.491	342.88
355.718	312.88
355.945	351.88
356.172	350.88
356.399	332.88
356.626	341.88
356.853	333.88
357.08	348.88
357.307	356.88
357.534	347.88
357.761	357.88
357.988	328.88
358.215	340.88
358.441	353.88
358.668	340.88
358.895	324.88
359.122	333.88
359.349	357.88
359.576	367.88
359.802	346.88
360.029	371.88
360.256	383.88
360.483	355.88
360.709	348.88
360.936	351.88
361.163	328.88
361.39	351.88
361.616	361.88
361.843	345.88
362.07	347.88
362.296	343.88
362.523	357.88
362.749	351.88
362.976	349.88
363.203	352.88
363.429	358.88
363.656	343.88
363.882	349.88
364.109	344.88
364.335	334.88
364.562	360.88
364.788	341.88
365.015	354.88
365.241	343.88
365.468	352.88
365.694	344.88
365.92	342.88
366.147	350.88
366.373	337.88
366.599	342.88
366.826	345.88
367.052	343.88
367.278	349.88
367.505	343.88
367.731	342.88
367.957	351.88
368.184	353.88
368.41	335.88
368.636	352.88
368.862	357.88
369.089	354.88
369.315	341.88
369.541	331.88
369.767	342.88
369.993	344.88
370.219	356.88
370.445	356.88
370.672	365.88
370.898	356.88
371.124	356.88
371.35	352.88
371.576	349.88
371.802	355.88
372.028	351.88
372.254	354.88
372.48	365.88
372.706	376.88
372.932	366.88
373.158	349.88
373.384	367.88
373.61	365.88
373.835	352.88
374.061	359.88
374.287	379.88
374.513	341.88
374.739	356.88
374.965	383.88
375.191	355.88
375.416	384.88
375.642	345.88
375.868	355.88
376.094	356.88
376.319	359.88
376.545	344.88
376.771	365.88
376.997	361.88
377.222	342.88
377.448	348.88
377.674	344.88
377.899	338.88
378.125	338.88
378.35	355.88
378.576	331.88
378.802	340.88
379.027	353.88
379.253	352.88
379.478	339.88
379.704	359.88
379.929	361.88
380.155	336.88
380.38	346.88
380.606	345.88
380.831	369.88
381.057	357.88
381.282	327.88
381.507	353.88
381.733	347.88
381.958	354.88
382.184	328.88
382.409	356.88
382.634	361.88
382.86	364.88
383.085	368.88
383.31	356.88
383.535	362.88
383.761	385.88
383.986	386.88
384.211	383.88
384.436	376.88
384.662	401.88
384.887	403.88
385.112	377.88
385.337	405.88
385.562	387.88
385.787	370.88
386.013	405.88
386.238	399.88
386.463	391.88
386.688	391.88
386.913	398.88
387.138	390.88
387.363	389.88
387.588	389.88
387.813	402.88
388.038	396.88
388.263	409.88
388.488	393.88
388.713	396.88
388.938	403.88
389.163	413.88
389.387	387.88
389.612	388.88
389.837	384.88
390.062	383.88
390.287	397.88
390.512	385.88
390.736	389.88
390.961	398.88
391.186	396.88
391.411	404.88
391.636	422.88
391.86	418.88
392.085	415.88
392.31	425.88
392.534	386.88
392.759	413.88
392.984	412.88
393.208	405.88
393.433	411.88
393.658	405.88
393.882	399.88
394.107	390.88
394.331	419.88
394.556	395.88
394.78	399.88
395.005	415.88
395.229	415.88
395.454	406.88
395.678	414.88
395.903	429.88
396.127	438.88
396.352	446.88
396.576	404.88
396.801	412.88
397.025	418.88
397.249	413.88
397.474	412.88
397.698	417.88
397.922	438.88
398.147	445.88
398.371	451.88
398.595	463.88
398.82	473.88
399.044	479.88
399.268	531.88
399.492	571.88
399.717	602.88
399.941	644.88
400.165	591.88
400.389	574.88
400.613	535.88
400.837	481.88
401.062	475.88
401.286	464.88
401.51	478.88
401.734	478.88
401.958	480.88
402.182	468.88
402.406	478.88
402.63	472.88
402.854	478.88
403.078	492.88
403.302	481.88
403.526	511.88
403.75	502.88
403.974	514.88
404.198	505.88
404.422	516.88
404.645	520.88
404.869	521.88
405.093	532.88
405.317	564.88
405.541	565.88
405.765	521.88
405.988	499.88
406.212	514.88
406.436	541.88
406.66	555.88
406.883	536.88
407.107	547.88
407.331	586.88
407.555	662.88
407.778	629.88
408.002	578.88
408.226	542.88
408.449	519.88
408.673	518.88
408.896	531.88
409.12	554.88
409.344	553.88
409.567	509.88
409.791	502.88
410.014	499.88
410.238	485.88
410.461	495.88
410.685	499.88
410.908	482.88
411.132	522.88
411.355	518.88
411.578	538.88
411.802	521.88
412.025	469.88
412.249	518.88
412.472	522.88
412.695	547.88
412.919	527.88
413.142	504.88
413.365	491.88
413.589	469.88
413.812	443.88
414.035	448.88
414.258	449.88
414.482	450.88
414.705	455.88
414.928	468.88
415.151	457.88
415.374	455.88
415.597	451.88
415.821	446.88
416.044	446.88
416.267	463.88
416.49	465.88
416.713	449.88
416.936	449.88
417.159	453.88
417.382	464.88
417.605	442.88
417.828	484.88
418.051	468.88
418.274	474.88
418.497	471.88
418.72	470.88
418.943	463.88
419.166	489.88
419.389	515.88
419.611	505.88
419.834	492.88
420.057	492.88
420.28	496.88
420.503	490.88
420.726	491.88
420.948	479.88
421.171	493.88
421.394	517.88
421.617	505.88
421.839	496.88
422.062	493.88
422.285	460.88
422.507	517.88
422.73	544.88
422.953	527.88
423.175	511.88
423.398	476.88
423.621	496.88
423.843	509.88
424.066	505.88
424.288	470.88
424.511	501.88
424.733	535.88
424.956	603.88
425.178	575.88
425.401	559.88
425.623	560.88
425.846	508.88
426.068	486.88
426.291	476.88
426.513	475.88
426.735	461.88
426.958	511.88
427.18	520.88
427.402	621.88
427.625	672.88
427.847	598.88
428.069	543.88
428.292	479.88
428.514	468.88
428.736	445.88
428.958	440.88
429.181	447.88
429.403	441.88
429.625	457.88
429.847	461.88
430.069	496.88
430.292	485.88
430.514	430.88
430.736	439.88
430.958	436.88
431.18	425.88
431.402	433.88
431.624	412.88
431.846	436.88
432.068	431.88
432.29	443.88
432.512	427.88
432.734	428.88
432.956	430.88
433.178	420.88
433.4	451.88
433.622	427.88
433.844	417.88
434.066	429.88
434.287	442.88
434.509	440.88
434.731	445.88
434.953	455.88
435.175	475.88
435.397	474.88
435.618	475.88
435.84	477.88
436.062	521.88
436.284	576.88
436.505	507.88
436.727	455.88
436.949	440.88
437.17	443.88
437.392	443.88
437.614	436.88
437.835	432.88
438.057	486.88
438.278	537.88
438.5	538.88
438.721	603.88
438.943	606.88
439.165	483.88
439.386	465.88
439.608	453.88
439.829	447.88
440.05	461.88
440.272	479.88
440.493	448.88
440.715	465.88
440.936	455.88
441.158	437.88
441.379	435.88
441.6	471.88
441.822	478.88
442.043	493.88
442.264	543.88
442.486	558.88
442.707	517.88
442.928	491.88
443.149	491.88
443.371	501.88
443.592	527.88
443.813	585.88
444.034	602.88
444.255	548.88
444.476	524.88
444.698	534.88
444.919	509.88
445.14	612.88
445.361	548.88
445.582	497.88
445.803	552.88
446.024	565.88
446.245	578.88
446.466	529.88
446.687	463.88
446.908	446.88
447.129	433.88
447.35	424.88
447.571	435.88
447.792	419.88
448.013	419.88
448.234	415.88
448.455	446.88
448.675	500.88
448.896	592.88
449.117	509.88
449.338	476.88
449.559	548.88
449.779	611.88
450	509.88
450.221	436.88
450.442	438.88
450.662	407.88
450.883	421.88
451.104	424.88
451.324	406.88
451.545	396.88
451.766	391.88
451.986	390.88
452.207	388.88
452.428	390.88
452.648	390.88
452.869	390.88
453.089	400.88
453.31	396.88
453.53	404.88
453.751	388.88
453.971	388.88
454.192	408.88
454.412	379.88
454.633	381.88
454.853	363.88
455.073	373.88
455.294	397.88
455.514	420.88
455.734	412.88
455.955	382.88
456.175	366.88
456.395	369.88
456.616	386.88
456.836	363.88
457.056	354.88
457.276	357.88
457.497	376.88
457.717	391.88
457.937	391.88
458.157	375.88
458.377	371.88
458.598	390.88
458.818	415.88
459.038	438.88
459.258	488.88
459.478	442.88
459.698	439.88
459.918	448.88
460.138	430.88
460.358	437.88
460.578	446.88
460.798	464.88
461.018	456.88
461.238	467.88
461.458	461.88
461.678	450.88
461.898	446.88
462.118	453.88
462.338	471.88
462.558	477.88
462.777	487.88
462.997	527.88
463.217	557.88
463.437	561.88
463.657	527.88
463.876	494.88
464.096	513.88
464.316	516.88
464.536	513.88
464.755	499.88
464.975	500.88
465.195	491.88
465.414	465.88
465.634	459.88
465.854	425.88
466.073	414.88
466.293	419.88
466.512	408.88
466.732	403.88
466.951	410.88
467.171	370.88
467.391	400.88
467.61	393.88
467.829	408.88
468.049	414.88
468.268	405.88
468.488	417.88
468.707	395.88
468.927	402.88
469.146	367.88
469.365	380.88
469.585	389.88
469.804	407.88
470.023	410.88
470.243	412.88
470.462	418.88
470.681	418.88
470.901	411.88
471.12	417.88
471.339	402.88
471.558	395.88
471.777	398.88
471.997	387.88
472.216	415.88
472.435	439.88
472.654	421.88
472.873	405.88
473.092	386.88
473.311	395.88
473.53	391.88
473.749	400.88
473.968	417.88
474.187	459.88
474.406	476.88
474.625	411.88
474.844	389.88
475.063	427.88
475.282	392.88
475.501	374.88
475.72	397.88
475.939	392.88
476.158	399.88
476.377	397.88
476.596	407.88
476.814	412.88
477.033	424.88
477.252	429.88
477.471	436.88
477.69	430.88
477.908	432.88
478.127	458.88
478.346	450.88
478.564	454.88
478.783	468.88
479.002	493.88
479.22	475.88
479.439	483.88
479.658	480.88
479.876	486.88
480.095	506.88
480.313	511.88
480.532	514.88
480.751	528.88
480.969	507.88
481.188	557.88
481.406	585.88
481.624	525.88
481.843	498.88
482.061	479.88
482.28	483.88
482.498	464.88
482.717	459.88
482.935	460.88
483.153	449.88
483.372	467.88
483.59	464.88
483.808	433.88
484.027	475.88
484.245	469.88
484.463	453.88
484.681	447.88
484.9	460.88
485.118	470.88
485.336	463.88
485.554	489.88
485.772	459.88
485.99	485.88
486.209	473.88
486.427	467.88
486.645	469.88
486.863	481.88
487.081	478.88
487.299	463.88
487.517	477.88
487.735	503.88
487.953	475.88
488.171	468.88
488.389	462.88
488.607	465.88
488.825	477.88
489.043	460.88
489.261	473.88
489.479	492.88
489.696	477.88
489.914	476.88
490.132	481.88
490.35	486.88
490.568	505.88
490.786	525.88
491.003	516.88
491.221	519.88
491.439	523.88
491.657	524.88
491.874	558.88
492.092	553.88
492.31	547.88
492.527	549.88
492.745	561.88
492.963	541.88
493.18	550.88
493.398	533.88
493.615	559.88
493.833	568.88
494.05	549.88
494.268	540.88
494.485	536.88
494.703	547.88
494.92	559.88
495.138	569.88
495.355	543.88
495.573	563.88
495.79	566.88
496.008	561.88
496.225	551.88
496.442	556.88
496.66	555.88
496.877	561.88
497.094	565.88
497.312	599.88
497.529	582.88
497.746	603.88
497.963	613.88
498.181	620.88
498.398	646.88
498.615	658.88
498.832	678.88
499.049	682.88
499.267	751.88
499.484	809.88
499.701	842.88
499.918	891.88
500.135	978.88
500.352	1073.88
500.569	1120.88
500.786	1090.88
501.003	1056.88
501.22	957.88
501.437	917.88
501.654	868.88
501.871	808.88
502.088	754.88
