Data from 1984.PennyLincolnUp.Lamp.En5.5.200Scan.071819.P1_HRD10591_17-00-16-969.txt Node
Date: Thu Jul 18 17:00:16 EDT 2019
User: cochatt
Spectrometer: HR+D1059
Trigger mode: 1
Integration Time (sec): 1.000000E-1
Scans to average: 1
Electric dark correction enabled: true
Nonlinearity correction enabled: false
Boxcar width: 0
XAxis mode: Wavelengths
Number of Pixels in Spectrum: 2048
>>>>>Begin Spectral Data<<<<<
223.165	-15.56
223.4	-15.56
223.635	-15.56
223.869	-24.56
224.104	-7.56
224.338	-13.56
224.573	-7.56
224.808	-7.56
225.042	7.44
225.277	-3.56
225.511	-1.56
225.746	-6.56
225.98	9.44
226.215	11.44
226.449	11.44
226.683	9.44
226.918	11.44
227.152	27.44
227.387	35.44
227.621	30.44
227.856	49.44
228.09	47.44
228.324	52.44
228.559	41.44
228.793	74.44
229.027	88.44
229.262	93.44
229.496	103.44
229.73	104.44
229.964	108.44
230.199	96.44
230.433	105.44
230.667	100.44
230.901	108.44
231.136	96.44
231.37	111.44
231.604	103.44
231.838	105.44
232.072	104.44
232.306	84.44
232.541	108.44
232.775	115.44
233.009	108.44
233.243	111.44
233.477	119.44
233.711	117.44
233.945	112.44
234.179	114.44
234.413	110.44
234.647	112.44
234.881	99.44
235.115	114.44
235.349	107.44
235.583	106.44
235.817	123.44
236.051	113.44
236.285	114.44
236.519	103.44
236.753	113.44
236.987	125.44
237.221	138.44
237.455	169.44
237.689	147.44
237.922	136.44
238.156	115.44
238.39	129.44
238.624	112.44
238.858	114.44
239.091	127.44
239.325	114.44
239.559	100.44
239.793	105.44
240.027	116.44
240.26	119.44
240.494	127.44
240.728	138.44
240.961	121.44
241.195	124.44
241.429	136.44
241.662	119.44
241.896	125.44
242.13	128.44
242.363	134.44
242.597	119.44
242.83	129.44
243.064	123.44
243.298	132.44
243.531	121.44
243.765	119.44
243.998	129.44
244.232	136.44
244.465	145.44
244.699	125.44
244.932	140.44
245.166	147.44
245.399	131.44
245.633	123.44
245.866	133.44
246.099	155.44
246.333	139.44
246.566	129.44
246.8	133.44
247.033	124.44
247.266	151.44
247.5	128.44
247.733	149.44
247.966	152.44
248.2	152.44
248.433	153.44
248.666	160.44
248.899	157.44
249.133	172.44
249.366	176.44
249.599	169.44
249.832	159.44
250.066	167.44
250.299	184.44
250.532	207.44
250.765	194.44
250.998	188.44
251.231	192.44
251.465	185.44
251.698	175.44
251.931	187.44
252.164	163.44
252.397	174.44
252.63	167.44
252.863	177.44
253.096	181.44
253.329	184.44
253.562	204.44
253.795	182.44
254.028	193.44
254.261	191.44
254.494	199.44
254.727	210.44
254.96	220.44
255.193	213.44
255.426	220.44
255.659	215.44
255.892	250.44
256.124	281.44
256.357	287.44
256.59	272.44
256.823	226.44
257.056	224.44
257.289	194.44
257.521	210.44
257.754	195.44
257.987	188.44
258.22	199.44
258.452	189.44
258.685	209.44
258.918	197.44
259.151	188.44
259.383	197.44
259.616	207.44
259.849	207.44
260.081	215.44
260.314	226.44
260.547	221.44
260.779	211.44
261.012	204.44
261.244	204.44
261.477	204.44
261.71	187.44
261.942	196.44
262.175	207.44
262.407	225.44
262.64	193.44
262.872	180.44
263.105	203.44
263.337	197.44
263.57	195.44
263.802	199.44
264.035	189.44
264.267	208.44
264.499	198.44
264.732	207.44
264.964	199.44
265.197	213.44
265.429	196.44
265.661	198.44
265.894	201.44
266.126	199.44
266.358	210.44
266.591	200.44
266.823	215.44
267.055	200.44
267.287	204.44
267.52	205.44
267.752	205.44
267.984	211.44
268.216	209.44
268.448	197.44
268.681	203.44
268.913	212.44
269.145	215.44
269.377	231.44
269.609	237.44
269.841	234.44
270.073	240.44
270.306	251.44
270.538	265.44
270.77	260.44
271.002	255.44
271.234	232.44
271.466	248.44
271.698	264.44
271.93	258.44
272.162	260.44
272.394	276.44
272.626	265.44
272.858	246.44
273.09	237.44
273.322	239.44
273.553	245.44
273.785	254.44
274.017	229.44
274.249	243.44
274.481	246.44
274.713	243.44
274.945	258.44
275.176	239.44
275.408	240.44
275.64	257.44
275.872	240.44
276.104	232.44
276.335	243.44
276.567	240.44
276.799	259.44
277.031	276.44
277.262	288.44
277.494	272.44
277.726	249.44
277.957	242.44
278.189	260.44
278.421	254.44
278.652	266.44
278.884	253.44
279.115	248.44
279.347	266.44
279.579	250.44
279.81	252.44
280.042	279.44
280.273	266.44
280.505	268.44
280.736	264.44
280.968	252.44
281.199	263.44
281.431	277.44
281.662	271.44
281.894	251.44
282.125	263.44
282.356	244.44
282.588	286.44
282.819	284.44
283.051	266.44
283.282	265.44
283.513	269.44
283.745	260.44
283.976	275.44
284.207	273.44
284.439	260.44
284.67	256.44
284.901	251.44
285.132	275.44
285.364	251.44
285.595	264.44
285.826	279.44
286.057	272.44
286.288	280.44
286.52	270.44
286.751	275.44
286.982	291.44
287.213	275.44
287.444	274.44
287.675	280.44
287.906	289.44
288.138	289.44
288.369	283.44
288.6	296.44
288.831	292.44
289.062	289.44
289.293	282.44
289.524	273.44
289.755	307.44
289.986	293.44
290.217	275.44
290.448	285.44
290.679	307.44
290.91	290.44
291.141	280.44
291.371	293.44
291.602	293.44
291.833	283.44
292.064	259.44
292.295	296.44
292.526	275.44
292.757	280.44
292.987	278.44
293.218	281.44
293.449	297.44
293.68	278.44
293.91	285.44
294.141	303.44
294.372	293.44
294.603	285.44
294.833	283.44
295.064	285.44
295.295	272.44
295.525	285.44
295.756	310.44
295.987	295.44
296.217	328.44
296.448	332.44
296.679	297.44
296.909	286.44
297.14	293.44
297.37	295.44
297.601	286.44
297.831	278.44
298.062	298.44
298.292	283.44
298.523	291.44
298.753	314.44
298.984	297.44
299.214	318.44
299.445	277.44
299.675	289.44
299.905	315.44
300.136	310.44
300.366	312.44
300.597	293.44
300.827	311.44
301.057	293.44
301.288	312.44
301.518	308.44
301.748	313.44
301.979	333.44
302.209	323.44
302.439	321.44
302.669	337.44
302.9	323.44
303.13	303.44
303.36	319.44
303.59	313.44
303.82	312.44
304.051	326.44
304.281	320.44
304.511	324.44
304.741	297.44
304.971	304.44
305.201	311.44
305.431	335.44
305.661	321.44
305.891	323.44
306.121	312.44
306.352	326.44
306.582	337.44
306.812	333.44
307.042	306.44
307.272	310.44
307.502	309.44
307.731	344.44
307.961	340.44
308.191	315.44
308.421	321.44
308.651	316.44
308.881	310.44
309.111	330.44
309.341	327.44
309.571	334.44
309.8	339.44
310.03	323.44
310.26	327.44
310.49	346.44
310.72	339.44
310.949	346.44
311.179	344.44
311.409	340.44
311.639	343.44
311.868	327.44
312.098	339.44
312.328	360.44
312.557	374.44
312.787	364.44
313.017	361.44
313.246	357.44
313.476	362.44
313.706	337.44
313.935	352.44
314.165	369.44
314.394	353.44
314.624	381.44
314.853	369.44
315.083	345.44
315.312	342.44
315.542	367.44
315.771	345.44
316.001	340.44
316.23	332.44
316.46	349.44
316.689	351.44
316.919	349.44
317.148	348.44
317.377	371.44
317.607	347.44
317.836	362.44
318.065	358.44
318.295	352.44
318.524	348.44
318.753	349.44
318.983	345.44
319.212	340.44
319.441	339.44
319.67	353.44
319.9	370.44
320.129	339.44
320.358	357.44
320.587	351.44
320.816	355.44
321.046	355.44
321.275	349.44
321.504	373.44
321.733	364.44
321.962	371.44
322.191	391.44
322.42	380.44
322.649	383.44
322.878	377.44
323.108	395.44
323.337	425.44
323.566	415.44
323.795	429.44
324.024	490.44
324.253	549.44
324.482	728.44
324.71	1017.44
324.939	1386.44
325.168	1200.44
325.397	689.44
325.626	538.44
325.855	469.44
326.084	443.44
326.313	430.44
326.542	455.44
326.77	459.44
326.999	531.44
327.228	683.44
327.457	944.44
327.686	1094.44
327.914	822.44
328.143	599.44
328.372	580.44
328.6	539.44
328.829	516.44
329.058	496.44
329.287	511.44
329.515	498.44
329.744	498.44
329.972	555.44
330.201	600.44
330.43	679.44
330.658	627.44
330.887	556.44
331.115	535.44
331.344	478.44
331.572	451.44
331.801	458.44
332.03	470.44
332.258	452.44
332.486	446.44
332.715	475.44
332.943	474.44
333.172	484.44
333.4	489.44
333.629	519.44
333.857	540.44
334.085	615.44
334.314	649.44
334.542	763.44
334.771	756.44
334.999	611.44
335.227	536.44
335.455	500.44
335.684	476.44
335.912	454.44
336.14	458.44
336.369	450.44
336.597	442.44
336.825	449.44
337.053	434.44
337.281	419.44
337.51	424.44
337.738	402.44
337.966	407.44
338.194	392.44
338.422	419.44
338.65	386.44
338.878	404.44
339.106	415.44
339.334	395.44
339.562	407.44
339.79	395.44
340.018	428.44
340.246	396.44
340.474	407.44
340.702	383.44
340.93	394.44
341.158	389.44
341.386	394.44
341.614	385.44
341.842	395.44
342.07	384.44
342.298	397.44
342.526	376.44
342.754	396.44
342.981	374.44
343.209	390.44
343.437	401.44
343.665	407.44
343.893	419.44
344.12	426.44
344.348	423.44
344.576	428.44
344.804	407.44
345.031	420.44
345.259	405.44
345.487	409.44
345.714	400.44
345.942	385.44
346.17	380.44
346.397	369.44
346.625	383.44
346.853	356.44
347.08	380.44
347.308	384.44
347.535	383.44
347.763	377.44
347.99	363.44
348.218	389.44
348.445	373.44
348.673	371.44
348.9	363.44
349.128	371.44
349.355	347.44
349.583	343.44
349.81	385.44
350.037	391.44
350.265	351.44
350.492	372.44
350.72	360.44
350.947	357.44
351.174	359.44
351.402	361.44
351.629	341.44
351.856	375.44
352.083	380.44
352.311	376.44
352.538	369.44
352.765	362.44
352.992	338.44
353.22	368.44
353.447	367.44
353.674	364.44
353.901	362.44
354.128	356.44
354.355	370.44
354.583	349.44
354.81	349.44
355.037	346.44
355.264	336.44
355.491	349.44
355.718	356.44
355.945	332.44
356.172	349.44
356.399	355.44
356.626	343.44
356.853	330.44
357.08	345.44
357.307	355.44
357.534	341.44
357.761	341.44
357.988	347.44
358.215	353.44
358.441	365.44
358.668	358.44
358.895	347.44
359.122	358.44
359.349	354.44
359.576	348.44
359.802	347.44
360.029	375.44
360.256	364.44
360.483	377.44
360.709	363.44
360.936	361.44
361.163	367.44
361.39	377.44
361.616	374.44
361.843	360.44
362.07	361.44
362.296	352.44
362.523	357.44
362.749	343.44
362.976	367.44
363.203	360.44
363.429	339.44
363.656	358.44
363.882	358.44
364.109	363.44
364.335	358.44
364.562	338.44
364.788	359.44
365.015	351.44
365.241	362.44
365.468	356.44
365.694	370.44
365.92	360.44
366.147	347.44
366.373	368.44
366.599	341.44
366.826	348.44
367.052	363.44
367.278	348.44
367.505	351.44
367.731	350.44
367.957	342.44
368.184	350.44
368.41	358.44
368.636	358.44
368.862	371.44
369.089	353.44
369.315	339.44
369.541	345.44
369.767	363.44
369.993	344.44
370.219	367.44
370.445	346.44
370.672	349.44
370.898	349.44
371.124	346.44
371.35	343.44
371.576	375.44
371.802	375.44
372.028	362.44
372.254	363.44
372.48	354.44
372.706	352.44
372.932	352.44
373.158	351.44
373.384	346.44
373.61	346.44
373.835	367.44
374.061	377.44
374.287	359.44
374.513	358.44
374.739	373.44
374.965	383.44
375.191	363.44
375.416	388.44
375.642	367.44
375.868	379.44
376.094	376.44
376.319	360.44
376.545	353.44
376.771	378.44
376.997	353.44
377.222	365.44
377.448	347.44
377.674	339.44
377.899	346.44
378.125	352.44
378.35	354.44
378.576	351.44
378.802	344.44
379.027	346.44
379.253	364.44
379.478	344.44
379.704	339.44
379.929	343.44
380.155	361.44
380.38	352.44
380.606	354.44
380.831	358.44
381.057	346.44
381.282	347.44
381.507	346.44
381.733	353.44
381.958	367.44
382.184	358.44
382.409	371.44
382.634	382.44
382.86	370.44
383.085	368.44
383.31	367.44
383.535	381.44
383.761	397.44
383.986	386.44
384.211	368.44
384.436	377.44
384.662	380.44
384.887	408.44
385.112	394.44
385.337	418.44
385.562	424.44
385.787	401.44
386.013	396.44
386.238	400.44
386.463	423.44
386.688	413.44
386.913	399.44
387.138	399.44
387.363	403.44
387.588	405.44
387.813	418.44
388.038	402.44
388.263	405.44
388.488	410.44
388.713	396.44
388.938	401.44
389.163	404.44
389.387	370.44
389.612	403.44
389.837	402.44
390.062	390.44
390.287	416.44
390.512	398.44
390.736	405.44
390.961	389.44
391.186	391.44
391.411	412.44
391.636	419.44
391.86	437.44
392.085	433.44
392.31	428.44
392.534	409.44
392.759	407.44
392.984	404.44
393.208	399.44
393.433	405.44
393.658	410.44
393.882	394.44
394.107	418.44
394.331	405.44
394.556	430.44
394.78	423.44
395.005	428.44
395.229	437.44
395.454	420.44
395.678	439.44
395.903	419.44
396.127	437.44
396.352	446.44
396.576	435.44
396.801	435.44
397.025	426.44
397.249	409.44
397.474	428.44
397.698	427.44
397.922	451.44
398.147	439.44
398.371	452.44
398.595	476.44
398.82	460.44
399.044	489.44
399.268	532.44
399.492	556.44
399.717	612.44
399.941	644.44
400.165	583.44
400.389	599.44
400.613	562.44
400.837	515.44
401.062	509.44
401.286	465.44
401.51	479.44
401.734	470.44
401.958	480.44
402.182	490.44
402.406	479.44
402.63	488.44
402.854	500.44
403.078	487.44
403.302	523.44
403.526	505.44
403.75	533.44
403.974	529.44
404.198	507.44
404.422	532.44
404.645	528.44
404.869	539.44
405.093	561.44
405.317	615.44
405.541	648.44
405.765	563.44
405.988	537.44
406.212	537.44
406.436	528.44
406.66	534.44
406.883	552.44
407.107	584.44
407.331	595.44
407.555	647.44
407.778	636.44
408.002	611.44
408.226	553.44
408.449	548.44
408.673	533.44
408.896	556.44
409.12	576.44
409.344	550.44
409.567	493.44
409.791	517.44
410.014	503.44
410.238	511.44
410.461	490.44
410.685	503.44
410.908	492.44
411.132	521.44
411.355	527.44
411.578	517.44
411.802	476.44
412.025	487.44
412.249	555.44
412.472	560.44
412.695	582.44
412.919	590.44
413.142	556.44
413.365	542.44
413.589	500.44
413.812	497.44
414.035	489.44
414.258	485.44
414.482	458.44
414.705	482.44
414.928	492.44
415.151	471.44
415.374	462.44
415.597	473.44
415.821	474.44
416.044	478.44
416.267	461.44
416.49	443.44
416.713	451.44
416.936	447.44
417.159	445.44
417.382	466.44
417.605	471.44
417.828	480.44
418.051	496.44
418.274	479.44
418.497	468.44
418.72	467.44
418.943	460.44
419.166	483.44
419.389	513.44
419.611	519.44
419.834	497.44
420.057	530.44
420.28	512.44
420.503	520.44
420.726	515.44
420.948	512.44
421.171	519.44
421.394	536.44
421.617	506.44
421.839	496.44
422.062	479.44
422.285	485.44
422.507	515.44
422.73	562.44
422.953	535.44
423.175	518.44
423.398	509.44
423.621	488.44
423.843	488.44
424.066	497.44
424.288	504.44
424.511	501.44
424.733	545.44
424.956	573.44
425.178	554.44
425.401	567.44
425.623	551.44
425.846	515.44
426.068	498.44
426.291	473.44
426.513	484.44
426.735	472.44
426.958	530.44
427.18	541.44
427.402	605.44
427.625	690.44
427.847	637.44
428.069	582.44
428.292	519.44
428.514	482.44
428.736	466.44
428.958	432.44
429.181	442.44
429.403	456.44
429.625	447.44
429.847	449.44
430.069	491.44
430.292	480.44
430.514	441.44
430.736	434.44
430.958	429.44
431.18	440.44
431.402	435.44
431.624	407.44
431.846	423.44
432.068	425.44
432.29	438.44
432.512	424.44
432.734	411.44
432.956	437.44
433.178	450.44
433.4	441.44
433.622	411.44
433.844	422.44
434.066	407.44
434.287	436.44
434.509	447.44
434.731	455.44
434.953	459.44
435.175	459.44
435.397	474.44
435.618	484.44
435.84	474.44
436.062	551.44
436.284	587.44
436.505	503.44
436.727	476.44
436.949	440.44
437.17	432.44
437.392	428.44
437.614	450.44
437.835	458.44
438.057	514.44
438.278	561.44
438.5	574.44
438.721	611.44
438.943	592.44
439.165	497.44
439.386	457.44
439.608	456.44
439.829	452.44
440.05	465.44
440.272	487.44
440.493	486.44
440.715	435.44
440.936	451.44
441.158	441.44
441.379	436.44
441.6	473.44
441.822	485.44
442.043	498.44
442.264	550.44
442.486	524.44
442.707	499.44
442.928	472.44
443.149	468.44
443.371	471.44
443.592	514.44
443.813	579.44
444.034	607.44
444.255	550.44
444.476	517.44
444.698	511.44
444.919	497.44
445.14	656.44
445.361	571.44
445.582	535.44
445.803	560.44
446.024	581.44
446.245	573.44
446.466	551.44
446.687	484.44
446.908	474.44
447.129	444.44
447.35	433.44
447.571	433.44
447.792	416.44
448.013	433.44
448.234	416.44
448.455	459.44
448.675	510.44
448.896	581.44
449.117	507.44
449.338	504.44
449.559	561.44
449.779	604.44
450	516.44
450.221	452.44
450.442	415.44
450.662	401.44
450.883	435.44
451.104	422.44
451.324	405.44
451.545	426.44
451.766	387.44
451.986	393.44
452.207	391.44
452.428	392.44
452.648	375.44
452.869	376.44
453.089	397.44
453.31	401.44
453.53	394.44
453.751	381.44
453.971	369.44
454.192	413.44
454.412	402.44
454.633	363.44
454.853	383.44
455.073	379.44
455.294	403.44
455.514	434.44
455.734	416.44
455.955	364.44
456.175	372.44
456.395	383.44
456.616	344.44
456.836	384.44
457.056	355.44
457.276	379.44
457.497	387.44
457.717	363.44
457.937	359.44
458.157	390.44
458.377	379.44
458.598	383.44
458.818	446.44
459.038	469.44
459.258	466.44
459.478	448.44
459.698	441.44
459.918	427.44
460.138	431.44
460.358	436.44
460.578	464.44
460.798	455.44
461.018	445.44
461.238	450.44
461.458	465.44
461.678	449.44
461.898	481.44
462.118	460.44
462.338	483.44
462.558	469.44
462.777	510.44
462.997	529.44
463.217	556.44
463.437	552.44
463.657	530.44
463.876	515.44
464.096	509.44
464.316	491.44
464.536	522.44
464.755	506.44
464.975	494.44
465.195	479.44
465.414	508.44
465.634	468.44
465.854	450.44
466.073	427.44
466.293	416.44
466.512	407.44
466.732	415.44
466.951	414.44
467.171	406.44
467.391	392.44
467.61	421.44
467.829	415.44
468.049	425.44
468.268	458.44
468.488	410.44
468.707	400.44
468.927	400.44
469.146	408.44
469.365	417.44
469.585	403.44
469.804	390.44
470.023	424.44
470.243	417.44
470.462	422.44
470.681	441.44
470.901	445.44
471.12	412.44
471.339	405.44
471.558	412.44
471.777	432.44
471.997	418.44
472.216	468.44
472.435	547.44
472.654	503.44
472.873	462.44
473.092	415.44
473.311	433.44
473.53	416.44
473.749	427.44
473.968	427.44
474.187	473.44
474.406	473.44
474.625	413.44
474.844	415.44
475.063	416.44
475.282	408.44
475.501	391.44
475.72	411.44
475.939	427.44
476.158	428.44
476.377	435.44
476.596	406.44
476.814	429.44
477.033	426.44
477.252	443.44
477.471	427.44
477.69	436.44
477.908	427.44
478.127	429.44
478.346	467.44
478.564	460.44
478.783	461.44
479.002	486.44
479.22	461.44
479.439	477.44
479.658	497.44
479.876	480.44
480.095	526.44
480.313	525.44
480.532	539.44
480.751	513.44
480.969	559.44
481.188	716.44
481.406	797.44
481.624	641.44
481.843	567.44
482.061	540.44
482.28	503.44
482.498	479.44
482.717	483.44
482.935	496.44
483.153	465.44
483.372	473.44
483.59	478.44
483.808	468.44
484.027	460.44
484.245	484.44
484.463	462.44
484.681	475.44
484.9	466.44
485.118	465.44
485.336	457.44
485.554	456.44
485.772	468.44
485.99	485.44
486.209	496.44
486.427	487.44
486.645	459.44
486.863	481.44
487.081	488.44
487.299	509.44
487.517	479.44
487.735	512.44
487.953	491.44
488.171	508.44
488.389	480.44
488.607	489.44
488.825	489.44
489.043	504.44
489.261	487.44
489.479	493.44
489.696	508.44
489.914	518.44
490.132	488.44
490.35	511.44
490.568	513.44
490.786	540.44
491.003	533.44
491.221	538.44
491.439	564.44
491.657	581.44
491.874	564.44
492.092	598.44
492.31	590.44
492.527	615.44
492.745	612.44
492.963	604.44
493.18	579.44
493.398	610.44
493.615	598.44
493.833	581.44
494.05	581.44
494.268	602.44
494.485	593.44
494.703	568.44
494.92	578.44
495.138	591.44
495.355	569.44
495.573	577.44
495.79	560.44
496.008	566.44
496.225	587.44
496.442	564.44
496.66	582.44
496.877	595.44
497.094	589.44
497.312	587.44
497.529	600.44
497.746	607.44
497.963	642.44
498.181	619.44
498.398	650.44
498.615	685.44
498.832	685.44
499.049	713.44
499.267	763.44
499.484	799.44
499.701	848.44
499.918	873.44
500.135	994.44
500.352	1068.44
500.569	1113.44
500.786	1101.44
501.003	1100.44
501.22	998.44
501.437	947.44
501.654	869.44
501.871	825.44
502.088	744.44
