Data from 1984.PennyLincolnUp.Lamp.En5.5.200Scan.071819.P1_HRD10591_16-59-30-970.txt Node
Date: Thu Jul 18 16:59:30 EDT 2019
User: cochatt
Spectrometer: HR+D1059
Trigger mode: 1
Integration Time (sec): 1.000000E-1
Scans to average: 1
Electric dark correction enabled: true
Nonlinearity correction enabled: false
Boxcar width: 0
XAxis mode: Wavelengths
Number of Pixels in Spectrum: 2048
>>>>>Begin Spectral Data<<<<<
223.165	-18.06
223.4	-18.06
223.635	-18.06
223.869	-22.06
224.104	-18.06
224.338	-11.06
224.573	-7.06
224.808	-1.06
225.042	-25.06
225.277	-14.06
225.511	-18.06
225.746	4.94
225.98	8.94
226.215	3.94
226.449	16.94
226.683	34.94
226.918	37.94
227.152	26.94
227.387	17.94
227.621	32.94
227.856	45.94
228.09	33.94
228.324	40.94
228.559	56.94
228.793	61.94
229.027	78.94
229.262	85.94
229.496	99.94
229.73	109.94
229.964	119.94
230.199	108.94
230.433	99.94
230.667	87.94
230.901	95.94
231.136	104.94
231.37	113.94
231.604	92.94
231.838	97.94
232.072	95.94
232.306	106.94
232.541	97.94
232.775	109.94
233.009	103.94
233.243	92.94
233.477	97.94
233.711	118.94
233.945	111.94
234.179	103.94
234.413	98.94
234.647	110.94
234.881	84.94
235.115	104.94
235.349	121.94
235.583	100.94
235.817	102.94
236.051	112.94
236.285	127.94
236.519	115.94
236.753	121.94
236.987	122.94
237.221	131.94
237.455	162.94
237.689	141.94
237.922	123.94
238.156	122.94
238.39	113.94
238.624	110.94
238.858	113.94
239.091	125.94
239.325	130.94
239.559	100.94
239.793	122.94
240.027	118.94
240.26	126.94
240.494	133.94
240.728	121.94
240.961	128.94
241.195	131.94
241.429	126.94
241.662	104.94
241.896	119.94
242.13	118.94
242.363	109.94
242.597	107.94
242.83	121.94
243.064	132.94
243.298	127.94
243.531	128.94
243.765	139.94
243.998	122.94
244.232	121.94
244.465	119.94
244.699	140.94
244.932	121.94
245.166	131.94
245.399	141.94
245.633	126.94
245.866	139.94
246.099	134.94
246.333	122.94
246.566	131.94
246.8	127.94
247.033	145.94
247.266	150.94
247.5	141.94
247.733	129.94
247.966	138.94
248.2	139.94
248.433	133.94
248.666	147.94
248.899	157.94
249.133	171.94
249.366	159.94
249.599	169.94
249.832	171.94
250.066	162.94
250.299	161.94
250.532	182.94
250.765	198.94
250.998	169.94
251.231	187.94
251.465	172.94
251.698	160.94
251.931	158.94
252.164	157.94
252.397	183.94
252.63	172.94
252.863	185.94
253.096	172.94
253.329	196.94
253.562	186.94
253.795	178.94
254.028	167.94
254.261	161.94
254.494	197.94
254.727	207.94
254.96	221.94
255.193	215.94
255.426	211.94
255.659	200.94
255.892	214.94
256.124	225.94
256.357	257.94
256.59	250.94
256.823	207.94
257.056	202.94
257.289	191.94
257.521	182.94
257.754	192.94
257.987	181.94
258.22	208.94
258.452	187.94
258.685	179.94
258.918	181.94
259.151	194.94
259.383	203.94
259.616	205.94
259.849	190.94
260.081	206.94
260.314	220.94
260.547	212.94
260.779	216.94
261.012	207.94
261.244	193.94
261.477	193.94
261.71	192.94
261.942	213.94
262.175	195.94
262.407	171.94
262.64	198.94
262.872	183.94
263.105	187.94
263.337	215.94
263.57	184.94
263.802	209.94
264.035	209.94
264.267	174.94
264.499	183.94
264.732	183.94
264.964	184.94
265.197	196.94
265.429	198.94
265.661	175.94
265.894	193.94
266.126	194.94
266.358	208.94
266.591	199.94
266.823	210.94
267.055	201.94
267.287	214.94
267.52	218.94
267.752	219.94
267.984	221.94
268.216	226.94
268.448	209.94
268.681	219.94
268.913	224.94
269.145	232.94
269.377	245.94
269.609	232.94
269.841	243.94
270.073	229.94
270.306	251.94
270.538	261.94
270.77	259.94
271.002	255.94
271.234	242.94
271.466	254.94
271.698	241.94
271.93	268.94
272.162	277.94
272.394	262.94
272.626	250.94
272.858	247.94
273.09	248.94
273.322	255.94
273.553	213.94
273.785	233.94
274.017	236.94
274.249	235.94
274.481	248.94
274.713	255.94
274.945	243.94
275.176	242.94
275.408	249.94
275.64	231.94
275.872	254.94
276.104	247.94
276.335	257.94
276.567	261.94
276.799	247.94
277.031	260.94
277.262	266.94
277.494	278.94
277.726	258.94
277.957	277.94
278.189	250.94
278.421	254.94
278.652	257.94
278.884	259.94
279.115	234.94
279.347	255.94
279.579	241.94
279.81	249.94
280.042	242.94
280.273	257.94
280.505	244.94
280.736	251.94
280.968	234.94
281.199	258.94
281.431	254.94
281.662	260.94
281.894	255.94
282.125	256.94
282.356	266.94
282.588	279.94
282.819	264.94
283.051	269.94
283.282	248.94
283.513	268.94
283.745	266.94
283.976	256.94
284.207	273.94
284.439	262.94
284.67	274.94
284.901	265.94
285.132	264.94
285.364	271.94
285.595	270.94
285.826	282.94
286.057	279.94
286.288	265.94
286.52	262.94
286.751	281.94
286.982	265.94
287.213	267.94
287.444	285.94
287.675	264.94
287.906	279.94
288.138	268.94
288.369	288.94
288.6	280.94
288.831	280.94
289.062	305.94
289.293	290.94
289.524	264.94
289.755	263.94
289.986	290.94
290.217	275.94
290.448	266.94
290.679	269.94
290.91	290.94
291.141	304.94
291.371	278.94
291.602	261.94
291.833	266.94
292.064	278.94
292.295	280.94
292.526	278.94
292.757	251.94
292.987	257.94
293.218	280.94
293.449	281.94
293.68	292.94
293.91	273.94
294.141	275.94
294.372	272.94
294.603	266.94
294.833	281.94
295.064	291.94
295.295	285.94
295.525	272.94
295.756	266.94
295.987	308.94
296.217	317.94
296.448	312.94
296.679	298.94
296.909	286.94
297.14	265.94
297.37	305.94
297.601	289.94
297.831	286.94
298.062	272.94
298.292	296.94
298.523	304.94
298.753	307.94
298.984	302.94
299.214	291.94
299.445	292.94
299.675	307.94
299.905	295.94
300.136	303.94
300.366	288.94
300.597	296.94
300.827	307.94
301.057	313.94
301.288	321.94
301.518	331.94
301.748	307.94
301.979	336.94
302.209	305.94
302.439	330.94
302.669	313.94
302.9	322.94
303.13	312.94
303.36	329.94
303.59	323.94
303.82	327.94
304.051	326.94
304.281	318.94
304.511	320.94
304.741	322.94
304.971	301.94
305.201	294.94
305.431	323.94
305.661	326.94
305.891	323.94
306.121	294.94
306.352	319.94
306.582	319.94
306.812	327.94
307.042	328.94
307.272	328.94
307.502	324.94
307.731	313.94
307.961	318.94
308.191	312.94
308.421	308.94
308.651	311.94
308.881	315.94
309.111	313.94
309.341	328.94
309.571	315.94
309.8	325.94
310.03	319.94
310.26	328.94
310.49	325.94
310.72	338.94
310.949	330.94
311.179	340.94
311.409	356.94
311.639	330.94
311.868	324.94
312.098	344.94
312.328	345.94
312.557	354.94
312.787	342.94
313.017	350.94
313.246	352.94
313.476	347.94
313.706	333.94
313.935	361.94
314.165	358.94
314.394	346.94
314.624	353.94
314.853	344.94
315.083	371.94
315.312	357.94
315.542	342.94
315.771	356.94
316.001	331.94
316.23	355.94
316.46	339.94
316.689	348.94
316.919	346.94
317.148	345.94
317.377	349.94
317.607	361.94
317.836	360.94
318.065	339.94
318.295	358.94
318.524	326.94
318.753	345.94
318.983	349.94
319.212	334.94
319.441	363.94
319.67	347.94
319.9	345.94
320.129	345.94
320.358	357.94
320.587	360.94
320.816	370.94
321.046	344.94
321.275	369.94
321.504	352.94
321.733	337.94
321.962	368.94
322.191	346.94
322.42	358.94
322.649	392.94
322.878	383.94
323.108	392.94
323.337	399.94
323.566	413.94
323.795	430.94
324.024	471.94
324.253	536.94
324.482	713.94
324.71	1047.94
324.939	1413.94
325.168	1213.94
325.397	699.94
325.626	513.94
325.855	468.94
326.084	437.94
326.313	438.94
326.542	433.94
326.77	452.94
326.999	526.94
327.228	661.94
327.457	963.94
327.686	1138.94
327.914	803.94
328.143	586.94
328.372	529.94
328.6	495.94
328.829	478.94
329.058	481.94
329.287	499.94
329.515	465.94
329.744	464.94
329.972	492.94
330.201	537.94
330.43	589.94
330.658	588.94
330.887	522.94
331.115	513.94
331.344	469.94
331.572	453.94
331.801	413.94
332.03	433.94
332.258	449.94
332.486	431.94
332.715	451.94
332.943	441.94
333.172	458.94
333.4	462.94
333.629	507.94
333.857	511.94
334.085	550.94
334.314	649.94
334.542	663.94
334.771	663.94
334.999	573.94
335.227	501.94
335.455	468.94
335.684	434.94
335.912	423.94
336.14	422.94
336.369	439.94
336.597	418.94
336.825	424.94
337.053	424.94
337.281	410.94
337.51	408.94
337.738	408.94
337.966	418.94
338.194	429.94
338.422	427.94
338.65	395.94
338.878	404.94
339.106	393.94
339.334	393.94
339.562	404.94
339.79	375.94
340.018	397.94
340.246	399.94
340.474	401.94
340.702	400.94
340.93	388.94
341.158	399.94
341.386	384.94
341.614	387.94
341.842	405.94
342.07	382.94
342.298	377.94
342.526	390.94
342.754	382.94
342.981	378.94
343.209	375.94
343.437	397.94
343.665	423.94
343.893	414.94
344.12	421.94
344.348	426.94
344.576	426.94
344.804	396.94
345.031	380.94
345.259	425.94
345.487	394.94
345.714	381.94
345.942	389.94
346.17	384.94
346.397	350.94
346.625	364.94
346.853	355.94
347.08	375.94
347.308	374.94
347.535	367.94
347.763	374.94
347.99	374.94
348.218	376.94
348.445	356.94
348.673	389.94
348.9	369.94
349.128	360.94
349.355	349.94
349.583	344.94
349.81	355.94
350.037	360.94
350.265	366.94
350.492	363.94
350.72	387.94
350.947	351.94
351.174	369.94
351.402	367.94
351.629	333.94
351.856	391.94
352.083	391.94
352.311	367.94
352.538	369.94
352.765	351.94
352.992	359.94
353.22	366.94
353.447	358.94
353.674	346.94
353.901	352.94
354.128	369.94
354.355	326.94
354.583	361.94
354.81	353.94
355.037	328.94
355.264	358.94
355.491	354.94
355.718	345.94
355.945	350.94
356.172	342.94
356.399	358.94
356.626	347.94
356.853	341.94
357.08	328.94
357.307	330.94
357.534	358.94
357.761	347.94
357.988	355.94
358.215	331.94
358.441	342.94
358.668	345.94
358.895	344.94
359.122	325.94
359.349	358.94
359.576	354.94
359.802	362.94
360.029	378.94
360.256	355.94
360.483	387.94
360.709	363.94
360.936	365.94
361.163	373.94
361.39	356.94
361.616	354.94
361.843	354.94
362.07	351.94
362.296	353.94
362.523	368.94
362.749	337.94
362.976	357.94
363.203	362.94
363.429	341.94
363.656	354.94
363.882	343.94
364.109	348.94
364.335	357.94
364.562	349.94
364.788	345.94
365.015	358.94
365.241	331.94
365.468	359.94
365.694	368.94
365.92	343.94
366.147	347.94
366.373	350.94
366.599	346.94
366.826	355.94
367.052	344.94
367.278	339.94
367.505	355.94
367.731	356.94
367.957	356.94
368.184	336.94
368.41	354.94
368.636	356.94
368.862	365.94
369.089	360.94
369.315	351.94
369.541	358.94
369.767	327.94
369.993	357.94
370.219	355.94
370.445	352.94
370.672	338.94
370.898	362.94
371.124	350.94
371.35	365.94
371.576	361.94
371.802	351.94
372.028	365.94
372.254	365.94
372.48	372.94
372.706	366.94
372.932	362.94
373.158	386.94
373.384	369.94
373.61	365.94
373.835	378.94
374.061	356.94
374.287	357.94
374.513	352.94
374.739	358.94
374.965	377.94
375.191	393.94
375.416	359.94
375.642	345.94
375.868	375.94
376.094	354.94
376.319	359.94
376.545	355.94
376.771	346.94
376.997	374.94
377.222	365.94
377.448	365.94
377.674	362.94
377.899	347.94
378.125	354.94
378.35	328.94
378.576	349.94
378.802	341.94
379.027	356.94
379.253	352.94
379.478	349.94
379.704	336.94
379.929	348.94
380.155	358.94
380.38	354.94
380.606	358.94
380.831	362.94
381.057	379.94
381.282	347.94
381.507	379.94
381.733	345.94
381.958	377.94
382.184	363.94
382.409	370.94
382.634	372.94
382.86	377.94
383.085	349.94
383.31	370.94
383.535	357.94
383.761	371.94
383.986	364.94
384.211	405.94
384.436	375.94
384.662	377.94
384.887	399.94
385.112	417.94
385.337	405.94
385.562	395.94
385.787	385.94
386.013	399.94
386.238	392.94
386.463	394.94
386.688	415.94
386.913	404.94
387.138	394.94
387.363	395.94
387.588	380.94
387.813	383.94
388.038	402.94
388.263	419.94
388.488	383.94
388.713	394.94
388.938	411.94
389.163	405.94
389.387	395.94
389.612	409.94
389.837	392.94
390.062	382.94
390.287	391.94
390.512	375.94
390.736	389.94
390.961	398.94
391.186	412.94
391.411	409.94
391.636	418.94
391.86	405.94
392.085	433.94
392.31	427.94
392.534	429.94
392.759	421.94
392.984	423.94
393.208	400.94
393.433	389.94
393.658	402.94
393.882	425.94
394.107	413.94
394.331	408.94
394.556	410.94
394.78	408.94
395.005	427.94
395.229	409.94
395.454	407.94
395.678	431.94
395.903	436.94
396.127	471.94
396.352	429.94
396.576	422.94
396.801	429.94
397.025	421.94
397.249	417.94
397.474	421.94
397.698	434.94
397.922	447.94
398.147	453.94
398.371	457.94
398.595	457.94
398.82	474.94
399.044	505.94
399.268	513.94
399.492	552.94
399.717	616.94
399.941	641.94
400.165	610.94
400.389	581.94
400.613	528.94
400.837	491.94
401.062	490.94
401.286	488.94
401.51	457.94
401.734	455.94
401.958	467.94
402.182	467.94
402.406	485.94
402.63	505.94
402.854	494.94
403.078	496.94
403.302	493.94
403.526	519.94
403.75	513.94
403.974	526.94
404.198	540.94
404.422	510.94
404.645	534.94
404.869	509.94
405.093	547.94
405.317	579.94
405.541	649.94
405.765	576.94
405.988	537.94
406.212	523.94
406.436	547.94
406.66	534.94
406.883	533.94
407.107	567.94
407.331	593.94
407.555	639.94
407.778	637.94
408.002	603.94
408.226	576.94
408.449	532.94
408.673	515.94
408.896	550.94
409.12	590.94
409.344	546.94
409.567	529.94
409.791	500.94
410.014	502.94
410.238	482.94
410.461	509.94
410.685	505.94
410.908	485.94
411.132	521.94
411.355	531.94
411.578	527.94
411.802	486.94
412.025	484.94
412.249	510.94
412.472	563.94
412.695	600.94
412.919	586.94
413.142	529.94
413.365	515.94
413.589	482.94
413.812	475.94
414.035	465.94
414.258	475.94
414.482	481.94
414.705	472.94
414.928	480.94
415.151	453.94
415.374	466.94
415.597	459.94
415.821	451.94
416.044	448.94
416.267	484.94
416.49	478.94
416.713	445.94
416.936	449.94
417.159	435.94
417.382	473.94
417.605	454.94
417.828	455.94
418.051	486.94
418.274	471.94
418.497	480.94
418.72	463.94
418.943	466.94
419.166	478.94
419.389	536.94
419.611	493.94
419.834	520.94
420.057	496.94
420.28	522.94
420.503	509.94
420.726	506.94
420.948	511.94
421.171	509.94
421.394	530.94
421.617	463.94
421.839	483.94
422.062	465.94
422.285	484.94
422.507	532.94
422.73	572.94
422.953	536.94
423.175	523.94
423.398	503.94
423.621	472.94
423.843	486.94
424.066	495.94
424.288	513.94
424.511	493.94
424.733	551.94
424.956	593.94
425.178	557.94
425.401	557.94
425.623	592.94
425.846	506.94
426.068	485.94
426.291	470.94
426.513	450.94
426.735	479.94
426.958	512.94
427.18	559.94
427.402	625.94
427.625	664.94
427.847	583.94
428.069	580.94
428.292	512.94
428.514	480.94
428.736	478.94
428.958	442.94
429.181	434.94
429.403	419.94
429.625	433.94
429.847	477.94
430.069	490.94
430.292	485.94
430.514	464.94
430.736	435.94
430.958	421.94
431.18	434.94
431.402	409.94
431.624	409.94
431.846	436.94
432.068	434.94
432.29	455.94
432.512	431.94
432.734	418.94
432.956	451.94
433.178	446.94
433.4	435.94
433.622	457.94
433.844	421.94
434.066	419.94
434.287	425.94
434.509	455.94
434.731	456.94
434.953	458.94
435.175	441.94
435.397	462.94
435.618	476.94
435.84	476.94
436.062	546.94
436.284	579.94
436.505	507.94
436.727	485.94
436.949	447.94
437.17	461.94
437.392	439.94
437.614	440.94
437.835	445.94
438.057	522.94
438.278	560.94
438.5	571.94
438.721	609.94
438.943	622.94
439.165	501.94
439.386	489.94
439.608	461.94
439.829	474.94
440.05	482.94
440.272	506.94
440.493	507.94
440.715	465.94
440.936	447.94
441.158	457.94
441.379	445.94
441.6	480.94
441.822	495.94
442.043	478.94
442.264	537.94
442.486	574.94
442.707	513.94
442.928	507.94
443.149	487.94
443.371	513.94
443.592	527.94
443.813	561.94
444.034	610.94
444.255	543.94
444.476	513.94
444.698	503.94
444.919	514.94
445.14	601.94
445.361	535.94
445.582	504.94
445.803	549.94
446.024	583.94
446.245	607.94
446.466	527.94
446.687	450.94
446.908	462.94
447.129	433.94
447.35	419.94
447.571	431.94
447.792	425.94
448.013	460.94
448.234	423.94
448.455	471.94
448.675	542.94
448.896	602.94
449.117	516.94
449.338	506.94
449.559	585.94
449.779	599.94
450	495.94
450.221	440.94
450.442	433.94
450.662	417.94
450.883	427.94
451.104	426.94
451.324	405.94
451.545	395.94
451.766	386.94
451.986	379.94
452.207	390.94
452.428	380.94
452.648	395.94
452.869	387.94
453.089	401.94
453.31	390.94
453.53	406.94
453.751	379.94
453.971	373.94
454.192	391.94
454.412	368.94
454.633	377.94
454.853	367.94
455.073	387.94
455.294	388.94
455.514	422.94
455.734	423.94
455.955	392.94
456.175	369.94
456.395	400.94
456.616	367.94
456.836	379.94
457.056	376.94
457.276	372.94
457.497	379.94
457.717	388.94
457.937	396.94
458.157	381.94
458.377	393.94
458.598	382.94
458.818	417.94
459.038	464.94
459.258	479.94
459.478	459.94
459.698	466.94
459.918	442.94
460.138	440.94
460.358	459.94
460.578	458.94
460.798	462.94
461.018	472.94
461.238	469.94
461.458	469.94
461.678	458.94
461.898	468.94
462.118	485.94
462.338	482.94
462.558	481.94
462.777	477.94
462.997	534.94
463.217	532.94
463.437	569.94
463.657	522.94
463.876	507.94
464.096	508.94
464.316	486.94
464.536	528.94
464.755	514.94
464.975	498.94
465.195	510.94
465.414	511.94
465.634	474.94
465.854	464.94
466.073	445.94
466.293	438.94
466.512	417.94
466.732	424.94
466.951	396.94
467.171	416.94
467.391	405.94
467.61	411.94
467.829	403.94
468.049	432.94
468.268	431.94
468.488	386.94
468.707	405.94
468.927	373.94
469.146	390.94
469.365	391.94
469.585	410.94
469.804	410.94
470.023	413.94
470.243	397.94
470.462	437.94
470.681	449.94
470.901	424.94
471.12	418.94
471.339	418.94
471.558	400.94
471.777	415.94
471.997	411.94
472.216	435.94
472.435	508.94
472.654	484.94
472.873	441.94
473.092	434.94
473.311	408.94
473.53	419.94
473.749	427.94
473.968	424.94
474.187	464.94
474.406	482.94
474.625	430.94
474.844	405.94
475.063	432.94
475.282	407.94
475.501	406.94
475.72	402.94
475.939	418.94
476.158	418.94
476.377	424.94
476.596	409.94
476.814	420.94
477.033	431.94
477.252	439.94
477.471	438.94
477.69	436.94
477.908	431.94
478.127	439.94
478.346	453.94
478.564	465.94
478.783	452.94
479.002	474.94
479.22	456.94
479.439	492.94
479.658	475.94
479.876	486.94
480.095	521.94
480.313	519.94
480.532	516.94
480.751	544.94
480.969	508.94
481.188	656.94
481.406	717.94
481.624	611.94
481.843	539.94
482.061	519.94
482.28	479.94
482.498	479.94
482.717	466.94
482.935	478.94
483.153	459.94
483.372	467.94
483.59	461.94
483.808	451.94
484.027	475.94
484.245	477.94
484.463	463.94
484.681	479.94
484.9	466.94
485.118	462.94
485.336	477.94
485.554	477.94
485.772	465.94
485.99	475.94
486.209	494.94
486.427	474.94
486.645	472.94
486.863	494.94
487.081	478.94
487.299	494.94
487.517	484.94
487.735	474.94
487.953	474.94
488.171	490.94
488.389	501.94
488.607	503.94
488.825	514.94
489.043	499.94
489.261	510.94
489.479	505.94
489.696	509.94
489.914	518.94
490.132	523.94
490.35	505.94
490.568	529.94
490.786	540.94
491.003	537.94
491.221	552.94
491.439	570.94
491.657	567.94
491.874	558.94
492.092	562.94
492.31	566.94
492.527	584.94
492.745	583.94
492.963	601.94
493.18	587.94
493.398	590.94
493.615	571.94
493.833	608.94
494.05	560.94
494.268	574.94
494.485	561.94
494.703	580.94
494.92	569.94
495.138	568.94
495.355	553.94
495.573	568.94
495.79	581.94
496.008	570.94
496.225	577.94
496.442	563.94
496.66	579.94
496.877	579.94
497.094	577.94
497.312	569.94
497.529	583.94
497.746	616.94
497.963	615.94
498.181	659.94
498.398	641.94
498.615	681.94
498.832	694.94
499.049	719.94
499.267	768.94
499.484	806.94
499.701	856.94
499.918	928.94
500.135	1002.94
500.352	1082.94
500.569	1107.94
500.786	1087.94
501.003	1060.94
501.22	974.94
501.437	929.94
501.654	862.94
501.871	813.94
502.088	772.94
