Data from 1984.PennyLincolnUp.Lamp.En5.5.200Scan.071819.P1_HRD10591_17-00-24-970.txt Node
Date: Thu Jul 18 17:00:24 EDT 2019
User: cochatt
Spectrometer: HR+D1059
Trigger mode: 1
Integration Time (sec): 1.000000E-1
Scans to average: 1
Electric dark correction enabled: true
Nonlinearity correction enabled: false
Boxcar width: 0
XAxis mode: Wavelengths
Number of Pixels in Spectrum: 2048
>>>>>Begin Spectral Data<<<<<
223.165	-13.19
223.4	-13.19
223.635	-13.19
223.869	-17.19
224.104	-26.19
224.338	-25.19
224.573	-6.19
224.808	-4.19
225.042	-10.19
225.277	1.81
225.511	-14.19
225.746	8.81
225.98	9.81
226.215	9.81
226.449	14.81
226.683	14.81
226.918	31.81
227.152	24.81
227.387	27.81
227.621	41.81
227.856	44.81
228.09	54.81
228.324	67.81
228.559	68.81
228.793	52.81
229.027	75.81
229.262	101.81
229.496	104.81
229.73	109.81
229.964	125.81
230.199	102.81
230.433	109.81
230.667	111.81
230.901	98.81
231.136	95.81
231.37	109.81
231.604	110.81
231.838	98.81
232.072	121.81
232.306	113.81
232.541	115.81
232.775	115.81
233.009	108.81
233.243	121.81
233.477	117.81
233.711	124.81
233.945	110.81
234.179	107.81
234.413	115.81
234.647	100.81
234.881	109.81
235.115	123.81
235.349	119.81
235.583	108.81
235.817	124.81
236.051	102.81
236.285	102.81
236.519	111.81
236.753	110.81
236.987	131.81
237.221	142.81
237.455	157.81
237.689	155.81
237.922	119.81
238.156	110.81
238.39	129.81
238.624	127.81
238.858	125.81
239.091	118.81
239.325	123.81
239.559	118.81
239.793	108.81
240.027	113.81
240.26	125.81
240.494	139.81
240.728	130.81
240.961	123.81
241.195	123.81
241.429	146.81
241.662	129.81
241.896	118.81
242.13	138.81
242.363	126.81
242.597	142.81
242.83	122.81
243.064	136.81
243.298	142.81
243.531	131.81
243.765	144.81
243.998	132.81
244.232	138.81
244.465	151.81
244.699	138.81
244.932	151.81
245.166	152.81
245.399	140.81
245.633	131.81
245.866	144.81
246.099	135.81
246.333	139.81
246.566	145.81
246.8	137.81
247.033	137.81
247.266	150.81
247.5	151.81
247.733	135.81
247.966	148.81
248.2	148.81
248.433	141.81
248.666	158.81
248.899	169.81
249.133	169.81
249.366	182.81
249.599	186.81
249.832	171.81
250.066	183.81
250.299	165.81
250.532	202.81
250.765	205.81
250.998	204.81
251.231	204.81
251.465	189.81
251.698	187.81
251.931	173.81
252.164	181.81
252.397	181.81
252.63	180.81
252.863	185.81
253.096	182.81
253.329	192.81
253.562	186.81
253.795	188.81
254.028	190.81
254.261	196.81
254.494	202.81
254.727	208.81
254.96	223.81
255.193	216.81
255.426	222.81
255.659	211.81
255.892	257.81
256.124	294.81
256.357	319.81
256.59	267.81
256.823	244.81
257.056	227.81
257.289	226.81
257.521	194.81
257.754	198.81
257.987	212.81
258.22	197.81
258.452	200.81
258.685	193.81
258.918	205.81
259.151	214.81
259.383	202.81
259.616	209.81
259.849	198.81
260.081	199.81
260.314	217.81
260.547	221.81
260.779	204.81
261.012	217.81
261.244	185.81
261.477	206.81
261.71	219.81
261.942	210.81
262.175	205.81
262.407	204.81
262.64	199.81
262.872	202.81
263.105	204.81
263.337	211.81
263.57	211.81
263.802	200.81
264.035	201.81
264.267	201.81
264.499	201.81
264.732	212.81
264.964	205.81
265.197	203.81
265.429	206.81
265.661	219.81
265.894	201.81
266.126	212.81
266.358	199.81
266.591	224.81
266.823	222.81
267.055	209.81
267.287	210.81
267.52	211.81
267.752	208.81
267.984	213.81
268.216	227.81
268.448	241.81
268.681	214.81
268.913	215.81
269.145	236.81
269.377	241.81
269.609	251.81
269.841	242.81
270.073	248.81
270.306	241.81
270.538	260.81
270.77	272.81
271.002	276.81
271.234	260.81
271.466	281.81
271.698	257.81
271.93	258.81
272.162	281.81
272.394	273.81
272.626	242.81
272.858	249.81
273.09	249.81
273.322	260.81
273.553	245.81
273.785	236.81
274.017	242.81
274.249	257.81
274.481	257.81
274.713	259.81
274.945	263.81
275.176	260.81
275.408	243.81
275.64	259.81
275.872	258.81
276.104	245.81
276.335	250.81
276.567	252.81
276.799	281.81
277.031	293.81
277.262	301.81
277.494	303.81
277.726	300.81
277.957	284.81
278.189	282.81
278.421	259.81
278.652	279.81
278.884	298.81
279.115	271.81
279.347	273.81
279.579	261.81
279.81	265.81
280.042	270.81
280.273	278.81
280.505	279.81
280.736	270.81
280.968	276.81
281.199	279.81
281.431	264.81
281.662	279.81
281.894	281.81
282.125	279.81
282.356	295.81
282.588	286.81
282.819	292.81
283.051	275.81
283.282	277.81
283.513	275.81
283.745	278.81
283.976	294.81
284.207	296.81
284.439	290.81
284.67	277.81
284.901	269.81
285.132	278.81
285.364	263.81
285.595	282.81
285.826	277.81
286.057	284.81
286.288	268.81
286.52	277.81
286.751	290.81
286.982	278.81
287.213	290.81
287.444	270.81
287.675	274.81
287.906	286.81
288.138	303.81
288.369	326.81
288.6	310.81
288.831	308.81
289.062	298.81
289.293	297.81
289.524	299.81
289.755	277.81
289.986	293.81
290.217	289.81
290.448	306.81
290.679	295.81
290.91	315.81
291.141	284.81
291.371	285.81
291.602	306.81
291.833	291.81
292.064	302.81
292.295	287.81
292.526	293.81
292.757	313.81
292.987	296.81
293.218	285.81
293.449	308.81
293.68	313.81
293.91	298.81
294.141	317.81
294.372	276.81
294.603	295.81
294.833	282.81
295.064	310.81
295.295	290.81
295.525	297.81
295.756	307.81
295.987	302.81
296.217	297.81
296.448	301.81
296.679	289.81
296.909	305.81
297.14	322.81
297.37	307.81
297.601	317.81
297.831	295.81
298.062	308.81
298.292	316.81
298.523	322.81
298.753	311.81
298.984	321.81
299.214	311.81
299.445	313.81
299.675	330.81
299.905	336.81
300.136	314.81
300.366	306.81
300.597	319.81
300.827	345.81
301.057	322.81
301.288	339.81
301.518	325.81
301.748	337.81
301.979	354.81
302.209	353.81
302.439	312.81
302.669	334.81
302.9	335.81
303.13	325.81
303.36	327.81
303.59	329.81
303.82	337.81
304.051	343.81
304.281	349.81
304.511	334.81
304.741	332.81
304.971	322.81
305.201	333.81
305.431	321.81
305.661	317.81
305.891	325.81
306.121	326.81
306.352	317.81
306.582	310.81
306.812	352.81
307.042	331.81
307.272	338.81
307.502	339.81
307.731	327.81
307.961	325.81
308.191	332.81
308.421	338.81
308.651	305.81
308.881	327.81
309.111	343.81
309.341	345.81
309.571	345.81
309.8	352.81
310.03	330.81
310.26	374.81
310.49	348.81
310.72	363.81
310.949	367.81
311.179	373.81
311.409	366.81
311.639	349.81
311.868	363.81
312.098	356.81
312.328	347.81
312.557	370.81
312.787	374.81
313.017	360.81
313.246	367.81
313.476	356.81
313.706	364.81
313.935	355.81
314.165	346.81
314.394	378.81
314.624	373.81
314.853	354.81
315.083	369.81
315.312	365.81
315.542	370.81
315.771	356.81
316.001	343.81
316.23	341.81
316.46	370.81
316.689	366.81
316.919	379.81
317.148	387.81
317.377	374.81
317.607	379.81
317.836	359.81
318.065	363.81
318.295	357.81
318.524	369.81
318.753	362.81
318.983	389.81
319.212	363.81
319.441	359.81
319.67	364.81
319.9	359.81
320.129	372.81
320.358	360.81
320.587	360.81
320.816	380.81
321.046	366.81
321.275	361.81
321.504	388.81
321.733	371.81
321.962	387.81
322.191	387.81
322.42	388.81
322.649	408.81
322.878	421.81
323.108	434.81
323.337	410.81
323.566	417.81
323.795	443.81
324.024	516.81
324.253	567.81
324.482	785.81
324.71	1126.81
324.939	1563.81
325.168	1346.81
325.397	751.81
325.626	555.81
325.855	494.81
326.084	460.81
326.313	441.81
326.542	449.81
326.77	491.81
326.999	555.81
327.228	744.81
327.457	1041.81
327.686	1226.81
327.914	874.81
328.143	665.81
328.372	614.81
328.6	569.81
328.829	542.81
329.058	532.81
329.287	540.81
329.515	537.81
329.744	544.81
329.972	582.81
330.201	651.81
330.43	717.81
330.658	665.81
330.887	603.81
331.115	563.81
331.344	516.81
331.572	494.81
331.801	494.81
332.03	478.81
332.258	501.81
332.486	482.81
332.715	490.81
332.943	495.81
333.172	509.81
333.4	525.81
333.629	544.81
333.857	584.81
334.085	655.81
334.314	726.81
334.542	878.81
334.771	885.81
334.999	686.81
335.227	568.81
335.455	537.81
335.684	496.81
335.912	484.81
336.14	481.81
336.369	471.81
336.597	474.81
336.825	459.81
337.053	454.81
337.281	446.81
337.51	435.81
337.738	421.81
337.966	419.81
338.194	430.81
338.422	437.81
338.65	420.81
338.878	428.81
339.106	419.81
339.334	406.81
339.562	391.81
339.79	397.81
340.018	402.81
340.246	393.81
340.474	401.81
340.702	409.81
340.93	384.81
341.158	404.81
341.386	392.81
341.614	403.81
341.842	398.81
342.07	385.81
342.298	409.81
342.526	397.81
342.754	402.81
342.981	406.81
343.209	399.81
343.437	401.81
343.665	417.81
343.893	437.81
344.12	426.81
344.348	437.81
344.576	419.81
344.804	427.81
345.031	430.81
345.259	427.81
345.487	417.81
345.714	418.81
345.942	395.81
346.17	392.81
346.397	392.81
346.625	397.81
346.853	401.81
347.08	368.81
347.308	396.81
347.535	420.81
347.763	385.81
347.99	397.81
348.218	385.81
348.445	400.81
348.673	378.81
348.9	370.81
349.128	374.81
349.355	377.81
349.583	381.81
349.81	384.81
350.037	373.81
350.265	367.81
350.492	372.81
350.72	374.81
350.947	368.81
351.174	396.81
351.402	393.81
351.629	374.81
351.856	380.81
352.083	404.81
352.311	359.81
352.538	389.81
352.765	395.81
352.992	374.81
353.22	384.81
353.447	383.81
353.674	370.81
353.901	349.81
354.128	367.81
354.355	374.81
354.583	377.81
354.81	334.81
355.037	364.81
355.264	385.81
355.491	349.81
355.718	357.81
355.945	350.81
356.172	361.81
356.399	339.81
356.626	369.81
356.853	367.81
357.08	358.81
357.307	363.81
357.534	359.81
357.761	369.81
357.988	348.81
358.215	373.81
358.441	364.81
358.668	367.81
358.895	379.81
359.122	373.81
359.349	370.81
359.576	358.81
359.802	383.81
360.029	366.81
360.256	398.81
360.483	396.81
360.709	371.81
360.936	377.81
361.163	358.81
361.39	376.81
361.616	372.81
361.843	366.81
362.07	394.81
362.296	385.81
362.523	392.81
362.749	363.81
362.976	359.81
363.203	386.81
363.429	371.81
363.656	371.81
363.882	363.81
364.109	371.81
364.335	353.81
364.562	375.81
364.788	378.81
365.015	352.81
365.241	375.81
365.468	383.81
365.694	360.81
365.92	368.81
366.147	366.81
366.373	351.81
366.599	362.81
366.826	354.81
367.052	345.81
367.278	358.81
367.505	355.81
367.731	355.81
367.957	370.81
368.184	362.81
368.41	357.81
368.636	382.81
368.862	386.81
369.089	369.81
369.315	368.81
369.541	375.81
369.767	362.81
369.993	387.81
370.219	378.81
370.445	367.81
370.672	381.81
370.898	373.81
371.124	392.81
371.35	378.81
371.576	374.81
371.802	360.81
372.028	361.81
372.254	380.81
372.48	371.81
372.706	377.81
372.932	363.81
373.158	384.81
373.384	363.81
373.61	367.81
373.835	375.81
374.061	370.81
374.287	379.81
374.513	385.81
374.739	388.81
374.965	409.81
375.191	407.81
375.416	381.81
375.642	369.81
375.868	401.81
376.094	383.81
376.319	369.81
376.545	376.81
376.771	387.81
376.997	350.81
377.222	394.81
377.448	350.81
377.674	357.81
377.899	373.81
378.125	364.81
378.35	381.81
378.576	361.81
378.802	357.81
379.027	361.81
379.253	360.81
379.478	362.81
379.704	351.81
379.929	381.81
380.155	370.81
380.38	363.81
380.606	375.81
380.831	372.81
381.057	373.81
381.282	379.81
381.507	374.81
381.733	370.81
381.958	369.81
382.184	381.81
382.409	374.81
382.634	362.81
382.86	369.81
383.085	356.81
383.31	377.81
383.535	388.81
383.761	393.81
383.986	411.81
384.211	411.81
384.436	382.81
384.662	373.81
384.887	400.81
385.112	405.81
385.337	410.81
385.562	411.81
385.787	421.81
386.013	409.81
386.238	434.81
386.463	419.81
386.688	418.81
386.913	403.81
387.138	415.81
387.363	427.81
387.588	400.81
387.813	448.81
388.038	416.81
388.263	415.81
388.488	423.81
388.713	415.81
388.938	424.81
389.163	412.81
389.387	398.81
389.612	395.81
389.837	405.81
390.062	406.81
390.287	409.81
390.512	403.81
390.736	412.81
390.961	421.81
391.186	400.81
391.411	430.81
391.636	457.81
391.86	425.81
392.085	436.81
392.31	437.81
392.534	438.81
392.759	418.81
392.984	427.81
393.208	409.81
393.433	403.81
393.658	425.81
393.882	407.81
394.107	401.81
394.331	423.81
394.556	434.81
394.78	436.81
395.005	418.81
395.229	433.81
395.454	435.81
395.678	445.81
395.903	459.81
396.127	447.81
396.352	468.81
396.576	408.81
396.801	419.81
397.025	433.81
397.249	451.81
397.474	444.81
397.698	451.81
397.922	448.81
398.147	446.81
398.371	474.81
398.595	467.81
398.82	492.81
399.044	503.81
399.268	553.81
399.492	577.81
399.717	652.81
399.941	629.81
400.165	642.81
400.389	597.81
400.613	543.81
400.837	514.81
401.062	533.81
401.286	497.81
401.51	489.81
401.734	477.81
401.958	490.81
402.182	506.81
402.406	509.81
402.63	485.81
402.854	509.81
403.078	531.81
403.302	534.81
403.526	512.81
403.75	543.81
403.974	539.81
404.198	536.81
404.422	551.81
404.645	563.81
404.869	570.81
405.093	605.81
405.317	637.81
405.541	665.81
405.765	622.81
405.988	571.81
406.212	565.81
406.436	550.81
406.66	554.81
406.883	568.81
407.107	588.81
407.331	610.81
407.555	677.81
407.778	649.81
408.002	641.81
408.226	590.81
408.449	583.81
408.673	561.81
408.896	567.81
409.12	592.81
409.344	570.81
409.567	524.81
409.791	531.81
410.014	525.81
410.238	526.81
410.461	517.81
410.685	517.81
410.908	525.81
411.132	546.81
411.355	557.81
411.578	554.81
411.802	519.81
412.025	543.81
412.249	531.81
412.472	595.81
412.695	633.81
412.919	623.81
413.142	573.81
413.365	544.81
413.589	540.81
413.812	489.81
414.035	497.81
414.258	490.81
414.482	478.81
414.705	506.81
414.928	463.81
415.151	492.81
415.374	491.81
415.597	487.81
415.821	468.81
416.044	477.81
416.267	509.81
416.49	479.81
416.713	458.81
416.936	496.81
417.159	479.81
417.382	462.81
417.605	507.81
417.828	486.81
418.051	510.81
418.274	481.81
418.497	486.81
418.72	524.81
418.943	490.81
419.166	533.81
419.389	538.81
419.611	537.81
419.834	523.81
420.057	519.81
420.28	554.81
420.503	546.81
420.726	526.81
420.948	531.81
421.171	550.81
421.394	531.81
421.617	525.81
421.839	492.81
422.062	488.81
422.285	497.81
422.507	527.81
422.73	585.81
422.953	569.81
423.175	531.81
423.398	528.81
423.621	513.81
423.843	541.81
424.066	524.81
424.288	515.81
424.511	503.81
424.733	566.81
424.956	593.81
425.178	577.81
425.401	582.81
425.623	605.81
425.846	534.81
426.068	508.81
426.291	502.81
426.513	503.81
426.735	521.81
426.958	542.81
427.18	569.81
427.402	625.81
427.625	728.81
427.847	655.81
428.069	610.81
428.292	559.81
428.514	483.81
428.736	498.81
428.958	462.81
429.181	457.81
429.403	452.81
429.625	458.81
429.847	468.81
430.069	527.81
430.292	513.81
430.514	474.81
430.736	457.81
430.958	444.81
431.18	447.81
431.402	452.81
431.624	450.81
431.846	479.81
432.068	463.81
432.29	444.81
432.512	443.81
432.734	436.81
432.956	452.81
433.178	443.81
433.4	456.81
433.622	451.81
433.844	465.81
434.066	430.81
434.287	444.81
434.509	459.81
434.731	473.81
434.953	488.81
435.175	465.81
435.397	474.81
435.618	498.81
435.84	519.81
436.062	558.81
436.284	617.81
436.505	523.81
436.727	500.81
436.949	481.81
437.17	439.81
437.392	460.81
437.614	471.81
437.835	459.81
438.057	497.81
438.278	576.81
438.5	565.81
438.721	619.81
438.943	616.81
439.165	515.81
439.386	484.81
439.608	497.81
439.829	477.81
440.05	496.81
440.272	510.81
440.493	517.81
440.715	485.81
440.936	474.81
441.158	461.81
441.379	469.81
441.6	501.81
441.822	520.81
442.043	535.81
442.264	555.81
442.486	623.81
442.707	541.81
442.928	485.81
443.149	500.81
443.371	531.81
443.592	560.81
443.813	609.81
444.034	651.81
444.255	562.81
444.476	509.81
444.698	554.81
444.919	550.81
445.14	668.81
445.361	597.81
445.582	539.81
445.803	564.81
446.024	590.81
446.245	619.81
446.466	582.81
446.687	500.81
446.908	494.81
447.129	459.81
447.35	444.81
447.571	442.81
447.792	443.81
448.013	444.81
448.234	439.81
448.455	488.81
448.675	542.81
448.896	614.81
449.117	549.81
449.338	538.81
449.559	554.81
449.779	652.81
450	513.81
450.221	456.81
450.442	433.81
450.662	433.81
450.883	436.81
451.104	455.81
451.324	431.81
451.545	411.81
451.766	431.81
451.986	395.81
452.207	416.81
452.428	392.81
452.648	417.81
452.869	409.81
453.089	411.81
453.31	409.81
453.53	411.81
453.751	397.81
453.971	405.81
454.192	411.81
454.412	398.81
454.633	397.81
454.853	397.81
455.073	403.81
455.294	414.81
455.514	445.81
455.734	451.81
455.955	388.81
456.175	371.81
456.395	390.81
456.616	381.81
456.836	399.81
457.056	378.81
457.276	387.81
457.497	392.81
457.717	393.81
457.937	389.81
458.157	390.81
458.377	405.81
458.598	438.81
458.818	442.81
459.038	483.81
459.258	521.81
459.478	457.81
459.698	432.81
459.918	456.81
460.138	450.81
460.358	472.81
460.578	476.81
460.798	499.81
461.018	483.81
461.238	487.81
461.458	476.81
461.678	473.81
461.898	475.81
462.118	469.81
462.338	505.81
462.558	486.81
462.777	513.81
462.997	528.81
463.217	555.81
463.437	575.81
463.657	543.81
463.876	511.81
464.096	531.81
464.316	526.81
464.536	522.81
464.755	533.81
464.975	494.81
465.195	526.81
465.414	554.81
465.634	493.81
465.854	460.81
466.073	456.81
466.293	445.81
466.512	450.81
466.732	422.81
466.951	429.81
467.171	425.81
467.391	436.81
467.61	445.81
467.829	450.81
468.049	444.81
468.268	491.81
468.488	465.81
468.707	431.81
468.927	417.81
469.146	400.81
469.365	435.81
469.585	413.81
469.804	419.81
470.023	461.81
470.243	424.81
470.462	426.81
470.681	457.81
470.901	461.81
471.12	434.81
471.339	435.81
471.558	438.81
471.777	443.81
471.997	439.81
472.216	493.81
472.435	625.81
472.654	575.81
472.873	497.81
473.092	452.81
473.311	443.81
473.53	448.81
473.749	432.81
473.968	449.81
474.187	502.81
474.406	512.81
474.625	448.81
474.844	445.81
475.063	415.81
475.282	425.81
475.501	426.81
475.72	438.81
475.939	445.81
476.158	446.81
476.377	413.81
476.596	440.81
476.814	435.81
477.033	454.81
477.252	446.81
477.471	443.81
477.69	455.81
477.908	470.81
478.127	483.81
478.346	482.81
478.564	487.81
478.783	470.81
479.002	486.81
479.22	480.81
479.439	515.81
479.658	509.81
479.876	529.81
480.095	531.81
480.313	540.81
480.532	543.81
480.751	579.81
480.969	605.81
481.188	783.81
481.406	890.81
481.624	703.81
481.843	619.81
482.061	556.81
482.28	536.81
482.498	531.81
482.717	516.81
482.935	514.81
483.153	500.81
483.372	489.81
483.59	523.81
483.808	488.81
484.027	491.81
484.245	486.81
484.463	501.81
484.681	497.81
484.9	485.81
485.118	480.81
485.336	507.81
485.554	539.81
485.772	506.81
485.99	484.81
486.209	516.81
486.427	500.81
486.645	505.81
486.863	547.81
487.081	531.81
487.299	519.81
487.517	538.81
487.735	517.81
487.953	519.81
488.171	529.81
488.389	512.81
488.607	517.81
488.825	519.81
489.043	523.81
489.261	510.81
489.479	515.81
489.696	515.81
489.914	541.81
490.132	549.81
490.35	559.81
490.568	530.81
490.786	568.81
491.003	573.81
491.221	588.81
491.439	603.81
491.657	606.81
491.874	591.81
492.092	610.81
492.31	610.81
492.527	608.81
492.745	640.81
492.963	630.81
493.18	660.81
493.398	627.81
493.615	620.81
493.833	631.81
494.05	597.81
494.268	621.81
494.485	605.81
494.703	618.81
494.92	645.81
495.138	612.81
495.355	591.81
495.573	606.81
495.79	594.81
496.008	581.81
496.225	588.81
496.442	602.81
496.66	605.81
496.877	591.81
497.094	600.81
497.312	605.81
497.529	620.81
497.746	645.81
497.963	637.81
498.181	663.81
498.398	678.81
498.615	709.81
498.832	716.81
499.049	746.81
499.267	804.81
499.484	862.81
499.701	924.81
499.918	916.81
500.135	1011.81
500.352	1065.81
500.569	1139.81
500.786	1168.81
501.003	1141.81
501.22	1031.81
501.437	924.81
501.654	901.81
501.871	876.81
