Data from 1984.PennyLincolnUp.Lamp.En5.5.200Scan.071819.P1_HRD10591_16-59-59-968.txt Node
Date: Thu Jul 18 16:59:59 EDT 2019
User: cochatt
Spectrometer: HR+D1059
Trigger mode: 1
Integration Time (sec): 1.000000E-1
Scans to average: 1
Electric dark correction enabled: true
Nonlinearity correction enabled: false
Boxcar width: 0
XAxis mode: Wavelengths
Number of Pixels in Spectrum: 2048
>>>>>Begin Spectral Data<<<<<
223.165	-8.19
223.4	-8.19
223.635	-8.19
223.869	-13.19
224.104	-22.19
224.338	-10.19
224.573	-16.19
224.808	-24.19
225.042	5.81
225.277	-7.19
225.511	-17.19
225.746	0.81
225.98	16.81
226.215	2.81
226.449	21.81
226.683	26.81
226.918	29.81
227.152	13.81
227.387	23.81
227.621	53.81
227.856	46.81
228.09	47.81
228.324	56.81
228.559	70.81
228.793	62.81
229.027	90.81
229.262	97.81
229.496	88.81
229.73	102.81
229.964	123.81
230.199	120.81
230.433	106.81
230.667	118.81
230.901	106.81
231.136	105.81
231.37	111.81
231.604	101.81
231.838	118.81
232.072	115.81
232.306	110.81
232.541	117.81
232.775	108.81
233.009	121.81
233.243	115.81
233.477	95.81
233.711	116.81
233.945	108.81
234.179	109.81
234.413	109.81
234.647	107.81
234.881	111.81
235.115	117.81
235.349	115.81
235.583	127.81
235.817	112.81
236.051	116.81
236.285	118.81
236.519	123.81
236.753	122.81
236.987	127.81
237.221	147.81
237.455	182.81
237.689	149.81
237.922	130.81
238.156	116.81
238.39	129.81
238.624	130.81
238.858	110.81
239.091	111.81
239.325	107.81
239.559	126.81
239.793	120.81
240.027	129.81
240.26	125.81
240.494	143.81
240.728	130.81
240.961	132.81
241.195	132.81
241.429	114.81
241.662	116.81
241.896	117.81
242.13	134.81
242.363	119.81
242.597	130.81
242.83	138.81
243.064	131.81
243.298	121.81
243.531	128.81
243.765	142.81
243.998	140.81
244.232	143.81
244.465	143.81
244.699	138.81
244.932	151.81
245.166	123.81
245.399	142.81
245.633	150.81
245.866	135.81
246.099	139.81
246.333	144.81
246.566	162.81
246.8	150.81
247.033	147.81
247.266	126.81
247.5	148.81
247.733	161.81
247.966	153.81
248.2	147.81
248.433	173.81
248.666	182.81
248.899	168.81
249.133	184.81
249.366	190.81
249.599	183.81
249.832	172.81
250.066	186.81
250.299	182.81
250.532	179.81
250.765	240.81
250.998	220.81
251.231	204.81
251.465	193.81
251.698	209.81
251.931	188.81
252.164	192.81
252.397	176.81
252.63	170.81
252.863	196.81
253.096	197.81
253.329	196.81
253.562	186.81
253.795	187.81
254.028	199.81
254.261	192.81
254.494	193.81
254.727	213.81
254.96	239.81
255.193	210.81
255.426	216.81
255.659	225.81
255.892	254.81
256.124	264.81
256.357	302.81
256.59	265.81
256.823	223.81
257.056	227.81
257.289	213.81
257.521	207.81
257.754	211.81
257.987	203.81
258.22	185.81
258.452	189.81
258.685	179.81
258.918	197.81
259.151	185.81
259.383	194.81
259.616	202.81
259.849	204.81
260.081	202.81
260.314	220.81
260.547	225.81
260.779	223.81
261.012	213.81
261.244	215.81
261.477	211.81
261.71	192.81
261.942	218.81
262.175	219.81
262.407	225.81
262.64	200.81
262.872	216.81
263.105	211.81
263.337	213.81
263.57	207.81
263.802	207.81
264.035	197.81
264.267	202.81
264.499	204.81
264.732	209.81
264.964	200.81
265.197	207.81
265.429	209.81
265.661	213.81
265.894	210.81
266.126	200.81
266.358	213.81
266.591	200.81
266.823	222.81
267.055	220.81
267.287	226.81
267.52	214.81
267.752	222.81
267.984	211.81
268.216	227.81
268.448	212.81
268.681	222.81
268.913	221.81
269.145	238.81
269.377	247.81
269.609	238.81
269.841	242.81
270.073	247.81
270.306	278.81
270.538	279.81
270.77	284.81
271.002	250.81
271.234	246.81
271.466	264.81
271.698	279.81
271.93	270.81
272.162	245.81
272.394	283.81
272.626	268.81
272.858	275.81
273.09	248.81
273.322	252.81
273.553	240.81
273.785	256.81
274.017	248.81
274.249	246.81
274.481	255.81
274.713	262.81
274.945	263.81
275.176	258.81
275.408	237.81
275.64	262.81
275.872	247.81
276.104	271.81
276.335	266.81
276.567	270.81
276.799	285.81
277.031	265.81
277.262	294.81
277.494	294.81
277.726	292.81
277.957	251.81
278.189	278.81
278.421	252.81
278.652	253.81
278.884	275.81
279.115	280.81
279.347	257.81
279.579	276.81
279.81	262.81
280.042	284.81
280.273	264.81
280.505	258.81
280.736	268.81
280.968	282.81
281.199	275.81
281.431	268.81
281.662	278.81
281.894	278.81
282.125	252.81
282.356	299.81
282.588	297.81
282.819	297.81
283.051	272.81
283.282	270.81
283.513	275.81
283.745	288.81
283.976	278.81
284.207	293.81
284.439	280.81
284.67	284.81
284.901	281.81
285.132	279.81
285.364	279.81
285.595	264.81
285.826	289.81
286.057	273.81
286.288	283.81
286.52	287.81
286.751	282.81
286.982	285.81
287.213	282.81
287.444	266.81
287.675	266.81
287.906	283.81
288.138	304.81
288.369	318.81
288.6	300.81
288.831	298.81
289.062	299.81
289.293	291.81
289.524	299.81
289.755	291.81
289.986	282.81
290.217	312.81
290.448	290.81
290.679	296.81
290.91	294.81
291.141	294.81
291.371	294.81
291.602	296.81
291.833	283.81
292.064	303.81
292.295	300.81
292.526	287.81
292.757	293.81
292.987	282.81
293.218	293.81
293.449	293.81
293.68	292.81
293.91	276.81
294.141	289.81
294.372	287.81
294.603	298.81
294.833	299.81
295.064	302.81
295.295	297.81
295.525	296.81
295.756	308.81
295.987	284.81
296.217	319.81
296.448	305.81
296.679	310.81
296.909	318.81
297.14	312.81
297.37	299.81
297.601	310.81
297.831	292.81
298.062	304.81
298.292	296.81
298.523	301.81
298.753	325.81
298.984	303.81
299.214	312.81
299.445	319.81
299.675	313.81
299.905	315.81
300.136	326.81
300.366	307.81
300.597	322.81
300.827	316.81
301.057	337.81
301.288	330.81
301.518	320.81
301.748	318.81
301.979	323.81
302.209	335.81
302.439	336.81
302.669	342.81
302.9	340.81
303.13	286.81
303.36	333.81
303.59	342.81
303.82	342.81
304.051	332.81
304.281	354.81
304.511	344.81
304.741	326.81
304.971	309.81
305.201	330.81
305.431	333.81
305.661	319.81
305.891	331.81
306.121	337.81
306.352	316.81
306.582	340.81
306.812	334.81
307.042	333.81
307.272	328.81
307.502	334.81
307.731	347.81
307.961	346.81
308.191	332.81
308.421	330.81
308.651	319.81
308.881	322.81
309.111	325.81
309.341	346.81
309.571	333.81
309.8	348.81
310.03	334.81
310.26	361.81
310.49	353.81
310.72	358.81
310.949	353.81
311.179	363.81
311.409	363.81
311.639	367.81
311.868	343.81
312.098	376.81
312.328	348.81
312.557	394.81
312.787	394.81
313.017	363.81
313.246	356.81
313.476	368.81
313.706	349.81
313.935	361.81
314.165	377.81
314.394	376.81
314.624	362.81
314.853	364.81
315.083	364.81
315.312	364.81
315.542	351.81
315.771	378.81
316.001	342.81
316.23	342.81
316.46	354.81
316.689	370.81
316.919	365.81
317.148	375.81
317.377	383.81
317.607	368.81
317.836	375.81
318.065	388.81
318.295	351.81
318.524	367.81
318.753	330.81
318.983	357.81
319.212	362.81
319.441	357.81
319.67	360.81
319.9	374.81
320.129	364.81
320.358	360.81
320.587	372.81
320.816	368.81
321.046	370.81
321.275	366.81
321.504	367.81
321.733	374.81
321.962	389.81
322.191	384.81
322.42	390.81
322.649	382.81
322.878	410.81
323.108	408.81
323.337	434.81
323.566	442.81
323.795	451.81
324.024	474.81
324.253	548.81
324.482	724.81
324.71	1079.81
324.939	1509.81
325.168	1304.81
325.397	707.81
325.626	522.81
325.855	486.81
326.084	442.81
326.313	445.81
326.542	459.81
326.77	507.81
326.999	527.81
327.228	723.81
327.457	1009.81
327.686	1186.81
327.914	844.81
328.143	628.81
328.372	606.81
328.6	577.81
328.829	532.81
329.058	512.81
329.287	515.81
329.515	510.81
329.744	491.81
329.972	542.81
330.201	631.81
330.43	682.81
330.658	646.81
330.887	588.81
331.115	539.81
331.344	494.81
331.572	479.81
331.801	493.81
332.03	486.81
332.258	465.81
332.486	472.81
332.715	460.81
332.943	473.81
333.172	516.81
333.4	504.81
333.629	555.81
333.857	572.81
334.085	632.81
334.314	702.81
334.542	816.81
334.771	803.81
334.999	661.81
335.227	563.81
335.455	506.81
335.684	513.81
335.912	463.81
336.14	463.81
336.369	468.81
336.597	495.81
336.825	459.81
337.053	459.81
337.281	442.81
337.51	431.81
337.738	431.81
337.966	425.81
338.194	427.81
338.422	452.81
338.65	428.81
338.878	431.81
339.106	400.81
339.334	411.81
339.562	418.81
339.79	421.81
340.018	402.81
340.246	418.81
340.474	407.81
340.702	398.81
340.93	415.81
341.158	396.81
341.386	412.81
341.614	421.81
341.842	400.81
342.07	393.81
342.298	370.81
342.526	406.81
342.754	386.81
342.981	403.81
343.209	392.81
343.437	438.81
343.665	429.81
343.893	427.81
344.12	452.81
344.348	429.81
344.576	434.81
344.804	424.81
345.031	423.81
345.259	403.81
345.487	406.81
345.714	389.81
345.942	398.81
346.17	387.81
346.397	392.81
346.625	395.81
346.853	366.81
347.08	380.81
347.308	386.81
347.535	404.81
347.763	394.81
347.99	390.81
348.218	404.81
348.445	380.81
348.673	405.81
348.9	384.81
349.128	378.81
349.355	381.81
349.583	377.81
349.81	378.81
350.037	368.81
350.265	374.81
350.492	380.81
350.72	364.81
350.947	373.81
351.174	383.81
351.402	391.81
351.629	362.81
351.856	378.81
352.083	374.81
352.311	371.81
352.538	392.81
352.765	384.81
352.992	380.81
353.22	359.81
353.447	374.81
353.674	366.81
353.901	371.81
354.128	355.81
354.355	365.81
354.583	343.81
354.81	372.81
355.037	349.81
355.264	357.81
355.491	358.81
355.718	350.81
355.945	355.81
356.172	357.81
356.399	345.81
356.626	356.81
356.853	367.81
357.08	359.81
357.307	358.81
357.534	351.81
357.761	352.81
357.988	366.81
358.215	343.81
358.441	356.81
358.668	345.81
358.895	365.81
359.122	357.81
359.349	381.81
359.576	374.81
359.802	393.81
360.029	388.81
360.256	409.81
360.483	387.81
360.709	399.81
360.936	378.81
361.163	374.81
361.39	399.81
361.616	376.81
361.843	368.81
362.07	382.81
362.296	374.81
362.523	375.81
362.749	380.81
362.976	361.81
363.203	365.81
363.429	364.81
363.656	369.81
363.882	364.81
364.109	356.81
364.335	376.81
364.562	363.81
364.788	351.81
365.015	363.81
365.241	374.81
365.468	388.81
365.694	355.81
365.92	370.81
366.147	360.81
366.373	347.81
366.599	348.81
366.826	344.81
367.052	359.81
367.278	340.81
367.505	380.81
367.731	352.81
367.957	352.81
368.184	384.81
368.41	370.81
368.636	340.81
368.862	375.81
369.089	366.81
369.315	355.81
369.541	361.81
369.767	379.81
369.993	365.81
370.219	369.81
370.445	363.81
370.672	360.81
370.898	364.81
371.124	365.81
371.35	376.81
371.576	366.81
371.802	358.81
372.028	365.81
372.254	370.81
372.48	361.81
372.706	382.81
372.932	375.81
373.158	373.81
373.384	381.81
373.61	386.81
373.835	355.81
374.061	359.81
374.287	363.81
374.513	382.81
374.739	379.81
374.965	419.81
375.191	391.81
375.416	413.81
375.642	372.81
375.868	378.81
376.094	375.81
376.319	376.81
376.545	359.81
376.771	370.81
376.997	370.81
377.222	357.81
377.448	379.81
377.674	378.81
377.899	367.81
378.125	350.81
378.35	370.81
378.576	354.81
378.802	364.81
379.027	376.81
379.253	359.81
379.478	367.81
379.704	373.81
379.929	376.81
380.155	372.81
380.38	365.81
380.606	378.81
380.831	365.81
381.057	360.81
381.282	364.81
381.507	362.81
381.733	363.81
381.958	357.81
382.184	357.81
382.409	356.81
382.634	380.81
382.86	385.81
383.085	382.81
383.31	389.81
383.535	406.81
383.761	375.81
383.986	383.81
384.211	389.81
384.436	402.81
384.662	406.81
384.887	401.81
385.112	393.81
385.337	420.81
385.562	411.81
385.787	408.81
386.013	424.81
386.238	402.81
386.463	417.81
386.688	410.81
386.913	398.81
387.138	409.81
387.363	410.81
387.588	406.81
387.813	396.81
388.038	401.81
388.263	397.81
388.488	429.81
388.713	440.81
388.938	418.81
389.163	414.81
389.387	400.81
389.612	412.81
389.837	409.81
390.062	391.81
390.287	396.81
390.512	410.81
390.736	413.81
390.961	403.81
391.186	400.81
391.411	407.81
391.636	426.81
391.86	445.81
392.085	443.81
392.31	455.81
392.534	434.81
392.759	444.81
392.984	416.81
393.208	440.81
393.433	430.81
393.658	434.81
393.882	434.81
394.107	424.81
394.331	426.81
394.556	423.81
394.78	431.81
395.005	424.81
395.229	422.81
395.454	440.81
395.678	432.81
395.903	422.81
396.127	479.81
396.352	454.81
396.576	432.81
396.801	443.81
397.025	426.81
397.249	433.81
397.474	444.81
397.698	456.81
397.922	448.81
398.147	463.81
398.371	476.81
398.595	459.81
398.82	479.81
399.044	479.81
399.268	542.81
399.492	597.81
399.717	604.81
399.941	656.81
400.165	639.81
400.389	622.81
400.613	546.81
400.837	527.81
401.062	486.81
401.286	490.81
401.51	508.81
401.734	473.81
401.958	486.81
402.182	506.81
402.406	514.81
402.63	512.81
402.854	533.81
403.078	530.81
403.302	531.81
403.526	535.81
403.75	536.81
403.974	528.81
404.198	550.81
404.422	553.81
404.645	556.81
404.869	546.81
405.093	588.81
405.317	650.81
405.541	633.81
405.765	588.81
405.988	532.81
406.212	569.81
406.436	564.81
406.66	569.81
406.883	537.81
407.107	606.81
407.331	617.81
407.555	651.81
407.778	646.81
408.002	620.81
408.226	591.81
408.449	572.81
408.673	572.81
408.896	571.81
409.12	600.81
409.344	567.81
409.567	532.81
409.791	541.81
410.014	500.81
410.238	534.81
410.461	519.81
410.685	511.81
410.908	532.81
411.132	551.81
411.355	538.81
411.578	514.81
411.802	530.81
412.025	493.81
412.249	536.81
412.472	598.81
412.695	625.81
412.919	615.81
413.142	532.81
413.365	534.81
413.589	519.81
413.812	487.81
414.035	487.81
414.258	503.81
414.482	488.81
414.705	494.81
414.928	486.81
415.151	481.81
415.374	483.81
415.597	482.81
415.821	468.81
416.044	483.81
416.267	463.81
416.49	469.81
416.713	462.81
416.936	500.81
417.159	483.81
417.382	510.81
417.605	483.81
417.828	524.81
418.051	503.81
418.274	492.81
418.497	497.81
418.72	497.81
418.943	506.81
419.166	523.81
419.389	546.81
419.611	549.81
419.834	523.81
420.057	529.81
420.28	554.81
420.503	554.81
420.726	521.81
420.948	534.81
421.171	520.81
421.394	542.81
421.617	490.81
421.839	513.81
422.062	518.81
422.285	505.81
422.507	528.81
422.73	572.81
422.953	556.81
423.175	553.81
423.398	504.81
423.621	529.81
423.843	535.81
424.066	526.81
424.288	524.81
424.511	522.81
424.733	549.81
424.956	600.81
425.178	585.81
425.401	587.81
425.623	604.81
425.846	564.81
426.068	539.81
426.291	498.81
426.513	486.81
426.735	502.81
426.958	515.81
427.18	566.81
427.402	660.81
427.625	729.81
427.847	647.81
428.069	603.81
428.292	556.81
428.514	516.81
428.736	483.81
428.958	463.81
429.181	460.81
429.403	448.81
429.625	469.81
429.847	477.81
430.069	510.81
430.292	494.81
430.514	472.81
430.736	423.81
430.958	463.81
431.18	441.81
431.402	451.81
431.624	424.81
431.846	444.81
432.068	444.81
432.29	422.81
432.512	432.81
432.734	442.81
432.956	458.81
433.178	451.81
433.4	465.81
433.622	458.81
433.844	454.81
434.066	434.81
434.287	456.81
434.509	437.81
434.731	457.81
434.953	469.81
435.175	479.81
435.397	502.81
435.618	516.81
435.84	508.81
436.062	548.81
436.284	600.81
436.505	515.81
436.727	475.81
436.949	461.81
437.17	469.81
437.392	452.81
437.614	456.81
437.835	467.81
438.057	544.81
438.278	579.81
438.5	578.81
438.721	648.81
438.943	604.81
439.165	522.81
439.386	467.81
439.608	480.81
439.829	494.81
440.05	492.81
440.272	516.81
440.493	510.81
440.715	463.81
440.936	470.81
441.158	454.81
441.379	446.81
441.6	478.81
441.822	502.81
442.043	512.81
442.264	579.81
442.486	590.81
442.707	532.81
442.928	489.81
443.149	506.81
443.371	520.81
443.592	524.81
443.813	590.81
444.034	656.81
444.255	588.81
444.476	544.81
444.698	545.81
444.919	546.81
445.14	674.81
445.361	586.81
445.582	544.81
445.803	557.81
446.024	596.81
446.245	602.81
446.466	542.81
446.687	519.81
446.908	485.81
447.129	468.81
447.35	441.81
447.571	430.81
447.792	437.81
448.013	459.81
448.234	457.81
448.455	472.81
448.675	535.81
448.896	611.81
449.117	538.81
449.338	510.81
449.559	575.81
449.779	624.81
450	534.81
450.221	458.81
450.442	450.81
450.662	429.81
450.883	440.81
451.104	431.81
451.324	453.81
451.545	418.81
451.766	419.81
451.986	404.81
452.207	379.81
452.428	397.81
452.648	404.81
452.869	388.81
453.089	404.81
453.31	409.81
453.53	396.81
453.751	389.81
453.971	410.81
454.192	396.81
454.412	394.81
454.633	372.81
454.853	390.81
455.073	384.81
455.294	422.81
455.514	437.81
455.734	454.81
455.955	385.81
456.175	396.81
456.395	383.81
456.616	399.81
456.836	388.81
457.056	380.81
457.276	383.81
457.497	394.81
457.717	383.81
457.937	398.81
458.157	386.81
458.377	387.81
458.598	415.81
458.818	467.81
459.038	514.81
459.258	514.81
459.478	466.81
459.698	452.81
459.918	450.81
460.138	454.81
460.358	477.81
460.578	483.81
460.798	460.81
461.018	486.81
461.238	488.81
461.458	496.81
461.678	487.81
461.898	456.81
462.118	501.81
462.338	490.81
462.558	491.81
462.777	516.81
462.997	532.81
463.217	585.81
463.437	542.81
463.657	542.81
463.876	536.81
464.096	515.81
464.316	542.81
464.536	522.81
464.755	536.81
464.975	503.81
465.195	535.81
465.414	539.81
465.634	486.81
465.854	461.81
466.073	448.81
466.293	434.81
466.512	440.81
466.732	440.81
466.951	416.81
467.171	412.81
467.391	419.81
467.61	434.81
467.829	448.81
468.049	450.81
468.268	447.81
468.488	431.81
468.707	450.81
468.927	422.81
469.146	411.81
469.365	418.81
469.585	430.81
469.804	396.81
470.023	425.81
470.243	428.81
470.462	434.81
470.681	431.81
470.901	448.81
471.12	437.81
471.339	425.81
471.558	438.81
471.777	420.81
471.997	444.81
472.216	487.81
472.435	575.81
472.654	533.81
472.873	466.81
473.092	438.81
473.311	444.81
473.53	431.81
473.749	445.81
473.968	444.81
474.187	499.81
474.406	528.81
474.625	473.81
474.844	421.81
475.063	418.81
475.282	424.81
475.501	432.81
475.72	426.81
475.939	429.81
476.158	420.81
476.377	446.81
476.596	440.81
476.814	416.81
477.033	437.81
477.252	448.81
477.471	447.81
477.69	448.81
477.908	467.81
478.127	459.81
478.346	480.81
478.564	464.81
478.783	485.81
479.002	488.81
479.22	501.81
479.439	483.81
479.658	495.81
479.876	519.81
480.095	524.81
480.313	543.81
480.532	549.81
480.751	555.81
480.969	599.81
481.188	747.81
481.406	820.81
481.624	671.81
481.843	588.81
482.061	558.81
482.28	510.81
482.498	487.81
482.717	502.81
482.935	483.81
483.153	502.81
483.372	477.81
483.59	474.81
483.808	477.81
484.027	502.81
484.245	492.81
484.463	497.81
484.681	492.81
484.9	491.81
485.118	492.81
485.336	486.81
485.554	499.81
485.772	498.81
485.99	524.81
486.209	499.81
486.427	494.81
486.645	514.81
486.863	507.81
487.081	506.81
487.299	542.81
487.517	506.81
487.735	489.81
487.953	520.81
488.171	524.81
488.389	518.81
488.607	492.81
488.825	495.81
489.043	519.81
489.261	542.81
489.479	518.81
489.696	550.81
489.914	541.81
490.132	515.81
490.35	512.81
490.568	547.81
490.786	548.81
491.003	540.81
491.221	596.81
491.439	574.81
491.657	605.81
491.874	607.81
492.092	611.81
492.31	622.81
492.527	611.81
492.745	618.81
492.963	626.81
493.18	622.81
493.398	626.81
493.615	627.81
493.833	636.81
494.05	613.81
494.268	633.81
494.485	624.81
494.703	603.81
494.92	628.81
495.138	600.81
495.355	606.81
495.573	600.81
495.79	600.81
496.008	608.81
496.225	607.81
496.442	594.81
496.66	609.81
496.877	602.81
497.094	618.81
497.312	626.81
497.529	618.81
497.746	628.81
497.963	637.81
498.181	682.81
498.398	683.81
498.615	721.81
498.832	732.81
499.049	762.81
499.267	782.81
499.484	832.81
499.701	872.81
499.918	921.81
500.135	1026.81
500.352	1066.81
500.569	1104.81
500.786	1126.81
501.003	1117.81
501.22	1000.81
501.437	950.81
501.654	910.81
501.871	830.81
