Data from 1984.PennyLincolnUp.Lamp.En5.5.200Scan.071819.P1_HRD10591_16-58-57-968.txt Node
Date: Thu Jul 18 16:58:57 EDT 2019
User: cochatt
Spectrometer: HR+D1059
Trigger mode: 1
Integration Time (sec): 1.000000E-1
Scans to average: 1
Electric dark correction enabled: true
Nonlinearity correction enabled: false
Boxcar width: 0
XAxis mode: Wavelengths
Number of Pixels in Spectrum: 2048
>>>>>Begin Spectral Data<<<<<
223.165	-18.44
223.4	-18.44
223.635	-18.44
223.869	-24.44
224.104	-19.44
224.338	-3.44
224.573	-25.44
224.808	-10.44
225.042	1.56
225.277	4.56
225.511	4.56
225.746	10.56
225.98	-3.44
226.215	20.56
226.449	7.56
226.683	9.56
226.918	21.56
227.152	24.56
227.387	35.56
227.621	39.56
227.856	41.56
228.09	41.56
228.324	66.56
228.559	48.56
228.793	59.56
229.027	83.56
229.262	91.56
229.496	91.56
229.73	104.56
229.964	107.56
230.199	112.56
230.433	119.56
230.667	115.56
230.901	114.56
231.136	102.56
231.37	111.56
231.604	101.56
231.838	102.56
232.072	103.56
232.306	116.56
232.541	88.56
232.775	93.56
233.009	108.56
233.243	116.56
233.477	99.56
233.711	102.56
233.945	112.56
234.179	111.56
234.413	119.56
234.647	117.56
234.881	111.56
235.115	117.56
235.349	112.56
235.583	116.56
235.817	108.56
236.051	123.56
236.285	112.56
236.519	121.56
236.753	106.56
236.987	117.56
237.221	147.56
237.455	151.56
237.689	141.56
237.922	124.56
238.156	124.56
238.39	117.56
238.624	135.56
238.858	106.56
239.091	119.56
239.325	122.56
239.559	121.56
239.793	127.56
240.027	125.56
240.26	124.56
240.494	135.56
240.728	147.56
240.961	133.56
241.195	111.56
241.429	132.56
241.662	132.56
241.896	122.56
242.13	125.56
242.363	133.56
242.597	127.56
242.83	130.56
243.064	132.56
243.298	125.56
243.531	136.56
243.765	127.56
243.998	131.56
244.232	137.56
244.465	144.56
244.699	134.56
244.932	153.56
245.166	131.56
245.399	131.56
245.633	136.56
245.866	140.56
246.099	136.56
246.333	140.56
246.566	141.56
246.8	138.56
247.033	133.56
247.266	148.56
247.5	138.56
247.733	146.56
247.966	149.56
248.2	158.56
248.433	152.56
248.666	153.56
248.899	168.56
249.133	175.56
249.366	174.56
249.599	173.56
249.832	167.56
250.066	164.56
250.299	164.56
250.532	171.56
250.765	184.56
250.998	191.56
251.231	201.56
251.465	190.56
251.698	168.56
251.931	179.56
252.164	177.56
252.397	180.56
252.63	167.56
252.863	181.56
253.096	179.56
253.329	189.56
253.562	208.56
253.795	183.56
254.028	176.56
254.261	195.56
254.494	201.56
254.727	205.56
254.96	219.56
255.193	205.56
255.426	205.56
255.659	202.56
255.892	233.56
256.124	216.56
256.357	244.56
256.59	246.56
256.823	210.56
257.056	186.56
257.289	195.56
257.521	195.56
257.754	185.56
257.987	191.56
258.22	197.56
258.452	188.56
258.685	178.56
258.918	183.56
259.151	173.56
259.383	192.56
259.616	187.56
259.849	196.56
260.081	213.56
260.314	217.56
260.547	219.56
260.779	205.56
261.012	202.56
261.244	182.56
261.477	205.56
261.71	190.56
261.942	199.56
262.175	196.56
262.407	201.56
262.64	184.56
262.872	183.56
263.105	195.56
263.337	193.56
263.57	200.56
263.802	180.56
264.035	200.56
264.267	205.56
264.499	187.56
264.732	201.56
264.964	213.56
265.197	214.56
265.429	189.56
265.661	197.56
265.894	206.56
266.126	202.56
266.358	189.56
266.591	202.56
266.823	207.56
267.055	215.56
267.287	206.56
267.52	211.56
267.752	216.56
267.984	207.56
268.216	221.56
268.448	216.56
268.681	212.56
268.913	230.56
269.145	242.56
269.377	230.56
269.609	233.56
269.841	229.56
270.073	245.56
270.306	250.56
270.538	272.56
270.77	248.56
271.002	249.56
271.234	257.56
271.466	241.56
271.698	263.56
271.93	268.56
272.162	275.56
272.394	253.56
272.626	283.56
272.858	254.56
273.09	257.56
273.322	243.56
273.553	265.56
273.785	251.56
274.017	243.56
274.249	229.56
274.481	264.56
274.713	238.56
274.945	247.56
275.176	244.56
275.408	247.56
275.64	249.56
275.872	261.56
276.104	265.56
276.335	260.56
276.567	236.56
276.799	243.56
277.031	261.56
277.262	255.56
277.494	279.56
277.726	267.56
277.957	264.56
278.189	247.56
278.421	236.56
278.652	259.56
278.884	259.56
279.115	256.56
279.347	249.56
279.579	268.56
279.81	272.56
280.042	265.56
280.273	260.56
280.505	249.56
280.736	254.56
280.968	258.56
281.199	258.56
281.431	254.56
281.662	254.56
281.894	272.56
282.125	275.56
282.356	269.56
282.588	287.56
282.819	293.56
283.051	274.56
283.282	262.56
283.513	263.56
283.745	253.56
283.976	275.56
284.207	267.56
284.439	265.56
284.67	280.56
284.901	275.56
285.132	270.56
285.364	273.56
285.595	260.56
285.826	258.56
286.057	259.56
286.288	260.56
286.52	285.56
286.751	273.56
286.982	265.56
287.213	279.56
287.444	283.56
287.675	283.56
287.906	276.56
288.138	270.56
288.369	279.56
288.6	286.56
288.831	291.56
289.062	313.56
289.293	292.56
289.524	294.56
289.755	283.56
289.986	263.56
290.217	272.56
290.448	270.56
290.679	264.56
290.91	305.56
291.141	296.56
291.371	294.56
291.602	277.56
291.833	284.56
292.064	290.56
292.295	293.56
292.526	281.56
292.757	261.56
292.987	278.56
293.218	283.56
293.449	274.56
293.68	284.56
293.91	283.56
294.141	281.56
294.372	281.56
294.603	279.56
294.833	290.56
295.064	302.56
295.295	281.56
295.525	287.56
295.756	295.56
295.987	280.56
296.217	309.56
296.448	319.56
296.679	305.56
296.909	292.56
297.14	290.56
297.37	292.56
297.601	303.56
297.831	294.56
298.062	316.56
298.292	300.56
298.523	314.56
298.753	327.56
298.984	316.56
299.214	290.56
299.445	291.56
299.675	327.56
299.905	305.56
300.136	311.56
300.366	313.56
300.597	317.56
300.827	315.56
301.057	317.56
301.288	328.56
301.518	300.56
301.748	339.56
301.979	320.56
302.209	331.56
302.439	318.56
302.669	324.56
302.9	313.56
303.13	328.56
303.36	317.56
303.59	322.56
303.82	336.56
304.051	332.56
304.281	303.56
304.511	309.56
304.741	339.56
304.971	312.56
305.201	337.56
305.431	327.56
305.661	344.56
305.891	313.56
306.121	312.56
306.352	324.56
306.582	307.56
306.812	321.56
307.042	326.56
307.272	329.56
307.502	328.56
307.731	329.56
307.961	323.56
308.191	327.56
308.421	320.56
308.651	304.56
308.881	327.56
309.111	304.56
309.341	323.56
309.571	327.56
309.8	333.56
310.03	335.56
310.26	323.56
310.49	339.56
310.72	330.56
310.949	356.56
311.179	377.56
311.409	349.56
311.639	340.56
311.868	354.56
312.098	370.56
312.328	351.56
312.557	351.56
312.787	369.56
313.017	364.56
313.246	375.56
313.476	349.56
313.706	344.56
313.935	357.56
314.165	376.56
314.394	367.56
314.624	370.56
314.853	363.56
315.083	343.56
315.312	338.56
315.542	357.56
315.771	359.56
316.001	345.56
316.23	346.56
316.46	353.56
316.689	345.56
316.919	352.56
317.148	362.56
317.377	338.56
317.607	347.56
317.836	328.56
318.065	341.56
318.295	333.56
318.524	355.56
318.753	354.56
318.983	355.56
319.212	331.56
319.441	345.56
319.67	353.56
319.9	349.56
320.129	340.56
320.358	347.56
320.587	359.56
320.816	348.56
321.046	377.56
321.275	374.56
321.504	355.56
321.733	377.56
321.962	373.56
322.191	354.56
322.42	395.56
322.649	377.56
322.878	385.56
323.108	408.56
323.337	410.56
323.566	413.56
323.795	436.56
324.024	485.56
324.253	544.56
324.482	711.56
324.71	1024.56
324.939	1387.56
325.168	1225.56
325.397	689.56
325.626	530.56
325.855	480.56
326.084	429.56
326.313	439.56
326.542	417.56
326.77	491.56
326.999	528.56
327.228	677.56
327.457	943.56
327.686	1120.56
327.914	789.56
328.143	597.56
328.372	534.56
328.6	514.56
328.829	501.56
329.058	475.56
329.287	511.56
329.515	475.56
329.744	476.56
329.972	489.56
330.201	535.56
330.43	568.56
330.658	549.56
330.887	523.56
331.115	511.56
331.344	465.56
331.572	457.56
331.801	455.56
332.03	453.56
332.258	469.56
332.486	457.56
332.715	453.56
332.943	429.56
333.172	456.56
333.4	488.56
333.629	469.56
333.857	498.56
334.085	543.56
334.314	599.56
334.542	607.56
334.771	600.56
334.999	557.56
335.227	513.56
335.455	474.56
335.684	442.56
335.912	466.56
336.14	424.56
336.369	455.56
336.597	438.56
336.825	422.56
337.053	411.56
337.281	441.56
337.51	429.56
337.738	421.56
337.966	409.56
338.194	428.56
338.422	424.56
338.65	413.56
338.878	402.56
339.106	427.56
339.334	415.56
339.562	393.56
339.79	401.56
340.018	393.56
340.246	377.56
340.474	409.56
340.702	391.56
340.93	404.56
341.158	397.56
341.386	390.56
341.614	385.56
341.842	375.56
342.07	388.56
342.298	383.56
342.526	385.56
342.754	363.56
342.981	379.56
343.209	385.56
343.437	384.56
343.665	403.56
343.893	438.56
344.12	445.56
344.348	424.56
344.576	391.56
344.804	396.56
345.031	397.56
345.259	378.56
345.487	390.56
345.714	397.56
345.942	386.56
346.17	377.56
346.397	385.56
346.625	370.56
346.853	357.56
347.08	383.56
347.308	393.56
347.535	371.56
347.763	395.56
347.99	386.56
348.218	380.56
348.445	373.56
348.673	370.56
348.9	389.56
349.128	371.56
349.355	333.56
349.583	358.56
349.81	355.56
350.037	348.56
350.265	336.56
350.492	382.56
350.72	365.56
350.947	377.56
351.174	389.56
351.402	377.56
351.629	376.56
351.856	377.56
352.083	373.56
352.311	377.56
352.538	376.56
352.765	379.56
352.992	386.56
353.22	357.56
353.447	360.56
353.674	344.56
353.901	348.56
354.128	349.56
354.355	359.56
354.583	345.56
354.81	351.56
355.037	352.56
355.264	349.56
355.491	372.56
355.718	362.56
355.945	356.56
356.172	344.56
356.399	347.56
356.626	347.56
356.853	356.56
357.08	355.56
357.307	351.56
357.534	336.56
357.761	357.56
357.988	361.56
358.215	369.56
358.441	358.56
358.668	358.56
358.895	373.56
359.122	375.56
359.349	353.56
359.576	365.56
359.802	344.56
360.029	395.56
360.256	396.56
360.483	391.56
360.709	376.56
360.936	365.56
361.163	375.56
361.39	357.56
361.616	348.56
361.843	355.56
362.07	373.56
362.296	377.56
362.523	361.56
362.749	364.56
362.976	358.56
363.203	346.56
363.429	361.56
363.656	354.56
363.882	346.56
364.109	352.56
364.335	363.56
364.562	344.56
364.788	355.56
365.015	347.56
365.241	353.56
365.468	353.56
365.694	361.56
365.92	357.56
366.147	357.56
366.373	328.56
366.599	348.56
366.826	362.56
367.052	344.56
367.278	351.56
367.505	370.56
367.731	363.56
367.957	359.56
368.184	354.56
368.41	362.56
368.636	363.56
368.862	374.56
369.089	339.56
369.315	376.56
369.541	353.56
369.767	353.56
369.993	350.56
370.219	360.56
370.445	338.56
370.672	355.56
370.898	344.56
371.124	361.56
371.35	352.56
371.576	352.56
371.802	373.56
372.028	361.56
372.254	379.56
372.48	365.56
372.706	363.56
372.932	376.56
373.158	369.56
373.384	380.56
373.61	360.56
373.835	380.56
374.061	361.56
374.287	351.56
374.513	386.56
374.739	368.56
374.965	388.56
375.191	397.56
375.416	380.56
375.642	380.56
375.868	381.56
376.094	373.56
376.319	367.56
376.545	356.56
376.771	383.56
376.997	346.56
377.222	347.56
377.448	368.56
377.674	355.56
377.899	336.56
378.125	343.56
378.35	341.56
378.576	352.56
378.802	353.56
379.027	363.56
379.253	369.56
379.478	354.56
379.704	371.56
379.929	365.56
380.155	352.56
380.38	379.56
380.606	356.56
380.831	365.56
381.057	371.56
381.282	367.56
381.507	376.56
381.733	362.56
381.958	381.56
382.184	367.56
382.409	377.56
382.634	379.56
382.86	383.56
383.085	377.56
383.31	370.56
383.535	375.56
383.761	371.56
383.986	396.56
384.211	387.56
384.436	378.56
384.662	393.56
384.887	406.56
385.112	399.56
385.337	401.56
385.562	426.56
385.787	416.56
386.013	423.56
386.238	423.56
386.463	417.56
386.688	415.56
386.913	412.56
387.138	395.56
387.363	427.56
387.588	412.56
387.813	402.56
388.038	398.56
388.263	405.56
388.488	395.56
388.713	416.56
388.938	412.56
389.163	389.56
389.387	410.56
389.612	375.56
389.837	392.56
390.062	400.56
390.287	400.56
390.512	387.56
390.736	388.56
390.961	406.56
391.186	406.56
391.411	428.56
391.636	401.56
391.86	429.56
392.085	459.56
392.31	444.56
392.534	421.56
392.759	423.56
392.984	405.56
393.208	410.56
393.433	420.56
393.658	421.56
393.882	420.56
394.107	387.56
394.331	426.56
394.556	424.56
394.78	419.56
395.005	418.56
395.229	424.56
395.454	437.56
395.678	428.56
395.903	445.56
396.127	466.56
396.352	447.56
396.576	399.56
396.801	422.56
397.025	434.56
397.249	432.56
397.474	445.56
397.698	432.56
397.922	449.56
398.147	440.56
398.371	459.56
398.595	443.56
398.82	472.56
399.044	465.56
399.268	519.56
399.492	565.56
399.717	592.56
399.941	621.56
400.165	603.56
400.389	613.56
400.613	570.56
400.837	522.56
401.062	513.56
401.286	498.56
401.51	482.56
401.734	490.56
401.958	468.56
402.182	464.56
402.406	497.56
402.63	510.56
402.854	503.56
403.078	507.56
403.302	521.56
403.526	514.56
403.75	525.56
403.974	521.56
404.198	530.56
404.422	524.56
404.645	525.56
404.869	555.56
405.093	554.56
405.317	593.56
405.541	620.56
405.765	577.56
405.988	538.56
406.212	521.56
406.436	552.56
406.66	547.56
406.883	560.56
407.107	546.56
407.331	617.56
407.555	631.56
407.778	639.56
408.002	607.56
408.226	577.56
408.449	552.56
408.673	556.56
408.896	562.56
409.12	586.56
409.344	577.56
409.567	499.56
409.791	525.56
410.014	491.56
410.238	500.56
410.461	467.56
410.685	490.56
410.908	502.56
411.132	537.56
411.355	525.56
411.578	536.56
411.802	503.56
412.025	516.56
412.249	517.56
412.472	553.56
412.695	564.56
412.919	549.56
413.142	524.56
413.365	510.56
413.589	477.56
413.812	483.56
414.035	490.56
414.258	469.56
414.482	487.56
414.705	476.56
414.928	471.56
415.151	463.56
415.374	477.56
415.597	483.56
415.821	473.56
416.044	461.56
416.267	481.56
416.49	463.56
416.713	459.56
416.936	469.56
417.159	480.56
417.382	474.56
417.605	469.56
417.828	471.56
418.051	467.56
418.274	479.56
418.497	473.56
418.72	467.56
418.943	478.56
419.166	535.56
419.389	528.56
419.611	520.56
419.834	507.56
420.057	507.56
420.28	501.56
420.503	505.56
420.726	491.56
420.948	515.56
421.171	525.56
421.394	527.56
421.617	487.56
421.839	471.56
422.062	508.56
422.285	485.56
422.507	527.56
422.73	559.56
422.953	554.56
423.175	524.56
423.398	528.56
423.621	503.56
423.843	517.56
424.066	537.56
424.288	513.56
424.511	528.56
424.733	532.56
424.956	588.56
425.178	546.56
425.401	549.56
425.623	579.56
425.846	507.56
426.068	509.56
426.291	483.56
426.513	481.56
426.735	498.56
426.958	511.56
427.18	541.56
427.402	625.56
427.625	675.56
427.847	597.56
428.069	555.56
428.292	504.56
428.514	480.56
428.736	467.56
428.958	467.56
429.181	445.56
429.403	448.56
429.625	460.56
429.847	472.56
430.069	509.56
430.292	499.56
430.514	452.56
430.736	454.56
430.958	446.56
431.18	429.56
431.402	444.56
431.624	422.56
431.846	427.56
432.068	443.56
432.29	435.56
432.512	443.56
432.734	441.56
432.956	459.56
433.178	444.56
433.4	424.56
433.622	442.56
433.844	435.56
434.066	447.56
434.287	447.56
434.509	465.56
434.731	460.56
434.953	472.56
435.175	497.56
435.397	512.56
435.618	495.56
435.84	505.56
436.062	543.56
436.284	585.56
436.505	513.56
436.727	464.56
436.949	451.56
437.17	445.56
437.392	464.56
437.614	473.56
437.835	443.56
438.057	518.56
438.278	539.56
438.5	563.56
438.721	619.56
438.943	609.56
439.165	515.56
439.386	475.56
439.608	465.56
439.829	473.56
440.05	482.56
440.272	497.56
440.493	500.56
440.715	473.56
440.936	463.56
441.158	451.56
441.379	467.56
441.6	480.56
441.822	491.56
442.043	514.56
442.264	563.56
442.486	576.56
442.707	513.56
442.928	483.56
443.149	500.56
443.371	496.56
443.592	516.56
443.813	597.56
444.034	601.56
444.255	543.56
444.476	504.56
444.698	525.56
444.919	536.56
445.14	600.56
445.361	566.56
445.582	523.56
445.803	559.56
446.024	587.56
446.245	594.56
446.466	535.56
446.687	492.56
446.908	482.56
447.129	474.56
447.35	444.56
447.571	420.56
447.792	435.56
448.013	446.56
448.234	455.56
448.455	469.56
448.675	544.56
448.896	606.56
449.117	509.56
449.338	516.56
449.559	569.56
449.779	617.56
450	503.56
450.221	445.56
450.442	448.56
450.662	412.56
450.883	397.56
451.104	421.56
451.324	433.56
451.545	395.56
451.766	394.56
451.986	394.56
452.207	374.56
452.428	409.56
452.648	393.56
452.869	390.56
453.089	391.56
453.31	389.56
453.53	381.56
453.751	398.56
453.971	402.56
454.192	384.56
454.412	378.56
454.633	383.56
454.853	385.56
455.073	392.56
455.294	410.56
455.514	426.56
455.734	423.56
455.955	401.56
456.175	369.56
456.395	379.56
456.616	371.56
456.836	386.56
457.056	376.56
457.276	367.56
457.497	383.56
457.717	377.56
457.937	377.56
458.157	406.56
458.377	401.56
458.598	408.56
458.818	450.56
459.038	482.56
459.258	514.56
459.478	465.56
459.698	466.56
459.918	460.56
460.138	453.56
460.358	472.56
460.578	463.56
460.798	471.56
461.018	496.56
461.238	479.56
461.458	447.56
461.678	440.56
461.898	467.56
462.118	472.56
462.338	491.56
462.558	501.56
462.777	515.56
462.997	531.56
463.217	552.56
463.437	569.56
463.657	506.56
463.876	532.56
464.096	524.56
464.316	547.56
464.536	539.56
464.755	519.56
464.975	505.56
465.195	479.56
465.414	525.56
465.634	475.56
465.854	468.56
466.073	453.56
466.293	420.56
466.512	406.56
466.732	401.56
466.951	420.56
467.171	402.56
467.391	408.56
467.61	405.56
467.829	424.56
468.049	422.56
468.268	445.56
468.488	418.56
468.707	416.56
468.927	393.56
469.146	423.56
469.365	418.56
469.585	385.56
469.804	401.56
470.023	416.56
470.243	412.56
470.462	425.56
470.681	448.56
470.901	448.56
471.12	426.56
471.339	417.56
471.558	391.56
471.777	416.56
471.997	418.56
472.216	434.56
472.435	487.56
472.654	454.56
472.873	437.56
473.092	426.56
473.311	409.56
473.53	435.56
473.749	409.56
473.968	440.56
474.187	500.56
474.406	485.56
474.625	440.56
474.844	421.56
475.063	393.56
475.282	402.56
475.501	415.56
475.72	416.56
475.939	412.56
476.158	428.56
476.377	426.56
476.596	422.56
476.814	422.56
477.033	421.56
477.252	429.56
477.471	416.56
477.69	458.56
477.908	464.56
478.127	453.56
478.346	448.56
478.564	451.56
478.783	457.56
479.002	488.56
479.22	493.56
479.439	471.56
479.658	486.56
479.876	498.56
480.095	498.56
480.313	504.56
480.532	533.56
480.751	531.56
480.969	547.56
481.188	615.56
481.406	659.56
481.624	572.56
481.843	531.56
482.061	483.56
482.28	490.56
482.498	473.56
482.717	480.56
482.935	485.56
483.153	469.56
483.372	488.56
483.59	461.56
483.808	457.56
484.027	479.56
484.245	473.56
484.463	481.56
484.681	488.56
484.9	484.56
485.118	479.56
485.336	486.56
485.554	497.56
485.772	477.56
485.99	507.56
486.209	473.56
486.427	490.56
486.645	489.56
486.863	470.56
487.081	497.56
487.299	495.56
487.517	485.56
487.735	488.56
487.953	496.56
488.171	489.56
488.389	500.56
488.607	495.56
488.825	483.56
489.043	503.56
489.261	497.56
489.479	514.56
489.696	501.56
489.914	499.56
490.132	511.56
490.35	496.56
490.568	516.56
490.786	526.56
491.003	521.56
491.221	548.56
491.439	551.56
491.657	534.56
491.874	544.56
492.092	559.56
492.31	573.56
492.527	555.56
492.745	567.56
492.963	573.56
493.18	594.56
493.398	594.56
493.615	597.56
493.833	578.56
494.05	573.56
494.268	561.56
494.485	588.56
494.703	578.56
494.92	576.56
495.138	563.56
495.355	577.56
495.573	567.56
495.79	549.56
496.008	592.56
496.225	569.56
496.442	569.56
496.66	584.56
496.877	585.56
497.094	588.56
497.312	602.56
497.529	579.56
497.746	616.56
497.963	629.56
498.181	645.56
498.398	643.56
498.615	696.56
498.832	707.56
499.049	688.56
499.267	761.56
499.484	793.56
499.701	857.56
499.918	933.56
500.135	984.56
500.352	1050.56
500.569	1102.56
500.786	1120.56
501.003	1068.56
501.22	1012.56
501.437	941.56
501.654	875.56
501.871	821.56
502.088	795.56
