Data from 1984.PennyLincolnUp.Lamp.En5.5.200Scan.071819.P1_HRD10591_17-00-08-968.txt Node
Date: Thu Jul 18 17:00:08 EDT 2019
User: cochatt
Spectrometer: HR+D1059
Trigger mode: 1
Integration Time (sec): 1.000000E-1
Scans to average: 1
Electric dark correction enabled: true
Nonlinearity correction enabled: false
Boxcar width: 0
XAxis mode: Wavelengths
Number of Pixels in Spectrum: 2048
>>>>>Begin Spectral Data<<<<<
223.165	-15.25
223.4	-15.25
223.635	-15.25
223.869	-16.25
224.104	-29.25
224.338	-16.25
224.573	-22.25
224.808	-3.25
225.042	-19.25
225.277	10.75
225.511	1.75
225.746	-4.25
225.98	-5.25
226.215	21.75
226.449	18.75
226.683	21.75
226.918	32.75
227.152	23.75
227.387	34.75
227.621	46.75
227.856	44.75
228.09	48.75
228.324	46.75
228.559	63.75
228.793	65.75
229.027	76.75
229.262	84.75
229.496	108.75
229.73	109.75
229.964	114.75
230.199	106.75
230.433	110.75
230.667	96.75
230.901	106.75
231.136	99.75
231.37	93.75
231.604	97.75
231.838	113.75
232.072	117.75
232.306	104.75
232.541	122.75
232.775	109.75
233.009	109.75
233.243	105.75
233.477	96.75
233.711	99.75
233.945	102.75
234.179	118.75
234.413	116.75
234.647	105.75
234.881	112.75
235.115	123.75
235.349	129.75
235.583	118.75
235.817	108.75
236.051	110.75
236.285	114.75
236.519	124.75
236.753	128.75
236.987	141.75
237.221	132.75
237.455	172.75
237.689	155.75
237.922	120.75
238.156	104.75
238.39	134.75
238.624	112.75
238.858	104.75
239.091	114.75
239.325	117.75
239.559	118.75
239.793	115.75
240.027	121.75
240.26	124.75
240.494	133.75
240.728	116.75
240.961	142.75
241.195	124.75
241.429	135.75
241.662	126.75
241.896	118.75
242.13	117.75
242.363	130.75
242.597	134.75
242.83	134.75
243.064	126.75
243.298	125.75
243.531	128.75
243.765	142.75
243.998	142.75
244.232	142.75
244.465	134.75
244.699	141.75
244.932	143.75
245.166	132.75
245.399	152.75
245.633	142.75
245.866	144.75
246.099	135.75
246.333	144.75
246.566	141.75
246.8	144.75
247.033	147.75
247.266	152.75
247.5	138.75
247.733	141.75
247.966	142.75
248.2	163.75
248.433	162.75
248.666	147.75
248.899	165.75
249.133	188.75
249.366	182.75
249.599	169.75
249.832	174.75
250.066	167.75
250.299	174.75
250.532	205.75
250.765	231.75
250.998	206.75
251.231	191.75
251.465	204.75
251.698	182.75
251.931	174.75
252.164	182.75
252.397	165.75
252.63	183.75
252.863	188.75
253.096	173.75
253.329	178.75
253.562	180.75
253.795	165.75
254.028	198.75
254.261	179.75
254.494	188.75
254.727	203.75
254.96	213.75
255.193	211.75
255.426	222.75
255.659	206.75
255.892	250.75
256.124	273.75
256.357	286.75
256.59	246.75
256.823	228.75
257.056	212.75
257.289	194.75
257.521	204.75
257.754	197.75
257.987	182.75
258.22	196.75
258.452	191.75
258.685	198.75
258.918	198.75
259.151	200.75
259.383	185.75
259.616	186.75
259.849	191.75
260.081	202.75
260.314	206.75
260.547	227.75
260.779	202.75
261.012	213.75
261.244	200.75
261.477	208.75
261.71	192.75
261.942	190.75
262.175	198.75
262.407	205.75
262.64	192.75
262.872	196.75
263.105	198.75
263.337	211.75
263.57	203.75
263.802	213.75
264.035	196.75
264.267	204.75
264.499	187.75
264.732	187.75
264.964	201.75
265.197	207.75
265.429	205.75
265.661	206.75
265.894	196.75
266.126	196.75
266.358	205.75
266.591	218.75
266.823	229.75
267.055	200.75
267.287	224.75
267.52	190.75
267.752	203.75
267.984	218.75
268.216	206.75
268.448	231.75
268.681	225.75
268.913	216.75
269.145	223.75
269.377	239.75
269.609	228.75
269.841	249.75
270.073	212.75
270.306	244.75
270.538	283.75
270.77	253.75
271.002	274.75
271.234	263.75
271.466	262.75
271.698	275.75
271.93	276.75
272.162	275.75
272.394	262.75
272.626	270.75
272.858	256.75
273.09	232.75
273.322	242.75
273.553	235.75
273.785	248.75
274.017	256.75
274.249	263.75
274.481	238.75
274.713	268.75
274.945	253.75
275.176	244.75
275.408	263.75
275.64	264.75
275.872	241.75
276.104	247.75
276.335	261.75
276.567	274.75
276.799	238.75
277.031	270.75
277.262	274.75
277.494	270.75
277.726	294.75
277.957	284.75
278.189	270.75
278.421	273.75
278.652	258.75
278.884	282.75
279.115	263.75
279.347	250.75
279.579	244.75
279.81	263.75
280.042	277.75
280.273	282.75
280.505	276.75
280.736	271.75
280.968	258.75
281.199	263.75
281.431	260.75
281.662	260.75
281.894	269.75
282.125	275.75
282.356	283.75
282.588	293.75
282.819	291.75
283.051	292.75
283.282	264.75
283.513	279.75
283.745	292.75
283.976	279.75
284.207	288.75
284.439	280.75
284.67	280.75
284.901	268.75
285.132	278.75
285.364	271.75
285.595	268.75
285.826	269.75
286.057	268.75
286.288	282.75
286.52	279.75
286.751	272.75
286.982	295.75
287.213	278.75
287.444	282.75
287.675	300.75
287.906	299.75
288.138	300.75
288.369	289.75
288.6	300.75
288.831	284.75
289.062	307.75
289.293	298.75
289.524	286.75
289.755	295.75
289.986	298.75
290.217	272.75
290.448	295.75
290.679	290.75
290.91	286.75
291.141	280.75
291.371	299.75
291.602	290.75
291.833	282.75
292.064	292.75
292.295	301.75
292.526	293.75
292.757	297.75
292.987	298.75
293.218	290.75
293.449	286.75
293.68	287.75
293.91	287.75
294.141	276.75
294.372	282.75
294.603	280.75
294.833	291.75
295.064	298.75
295.295	292.75
295.525	296.75
295.756	318.75
295.987	299.75
296.217	319.75
296.448	311.75
296.679	315.75
296.909	301.75
297.14	302.75
297.37	311.75
297.601	301.75
297.831	299.75
298.062	296.75
298.292	293.75
298.523	309.75
298.753	333.75
298.984	312.75
299.214	304.75
299.445	295.75
299.675	313.75
299.905	308.75
300.136	312.75
300.366	302.75
300.597	306.75
300.827	303.75
301.057	323.75
301.288	328.75
301.518	327.75
301.748	320.75
301.979	334.75
302.209	321.75
302.439	308.75
302.669	307.75
302.9	302.75
303.13	329.75
303.36	327.75
303.59	319.75
303.82	333.75
304.051	307.75
304.281	311.75
304.511	301.75
304.741	317.75
304.971	310.75
305.201	335.75
305.431	328.75
305.661	331.75
305.891	316.75
306.121	318.75
306.352	318.75
306.582	339.75
306.812	327.75
307.042	300.75
307.272	331.75
307.502	344.75
307.731	327.75
307.961	329.75
308.191	333.75
308.421	349.75
308.651	326.75
308.881	333.75
309.111	340.75
309.341	308.75
309.571	318.75
309.8	330.75
310.03	330.75
310.26	348.75
310.49	334.75
310.72	358.75
310.949	364.75
311.179	359.75
311.409	350.75
311.639	361.75
311.868	363.75
312.098	348.75
312.328	351.75
312.557	358.75
312.787	378.75
313.017	383.75
313.246	368.75
313.476	342.75
313.706	344.75
313.935	374.75
314.165	376.75
314.394	371.75
314.624	384.75
314.853	336.75
315.083	356.75
315.312	358.75
315.542	367.75
315.771	331.75
316.001	365.75
316.23	354.75
316.46	363.75
316.689	356.75
316.919	360.75
317.148	373.75
317.377	366.75
317.607	349.75
317.836	333.75
318.065	359.75
318.295	347.75
318.524	333.75
318.753	333.75
318.983	352.75
319.212	341.75
319.441	369.75
319.67	344.75
319.9	355.75
320.129	349.75
320.358	367.75
320.587	360.75
320.816	348.75
321.046	361.75
321.275	373.75
321.504	362.75
321.733	380.75
321.962	374.75
322.191	379.75
322.42	392.75
322.649	410.75
322.878	396.75
323.108	412.75
323.337	414.75
323.566	420.75
323.795	448.75
324.024	472.75
324.253	547.75
324.482	717.75
324.71	1052.75
324.939	1462.75
325.168	1269.75
325.397	708.75
325.626	528.75
325.855	475.75
326.084	442.75
326.313	450.75
326.542	466.75
326.77	463.75
326.999	540.75
327.228	704.75
327.457	1006.75
327.686	1169.75
327.914	802.75
328.143	589.75
328.372	548.75
328.6	528.75
328.829	475.75
329.058	499.75
329.287	502.75
329.515	502.75
329.744	502.75
329.972	546.75
330.201	599.75
330.43	665.75
330.658	605.75
330.887	544.75
331.115	528.75
331.344	472.75
331.572	486.75
331.801	471.75
332.03	463.75
332.258	478.75
332.486	440.75
332.715	466.75
332.943	479.75
333.172	482.75
333.4	508.75
333.629	512.75
333.857	538.75
334.085	600.75
334.314	643.75
334.542	718.75
334.771	749.75
334.999	618.75
335.227	549.75
335.455	501.75
335.684	478.75
335.912	469.75
336.14	470.75
336.369	460.75
336.597	457.75
336.825	423.75
337.053	441.75
337.281	415.75
337.51	410.75
337.738	440.75
337.966	418.75
338.194	444.75
338.422	438.75
338.65	429.75
338.878	413.75
339.106	415.75
339.334	408.75
339.562	424.75
339.79	404.75
340.018	414.75
340.246	384.75
340.474	400.75
340.702	388.75
340.93	386.75
341.158	423.75
341.386	372.75
341.614	382.75
341.842	375.75
342.07	397.75
342.298	398.75
342.526	389.75
342.754	392.75
342.981	374.75
343.209	395.75
343.437	409.75
343.665	420.75
343.893	428.75
344.12	424.75
344.348	436.75
344.576	426.75
344.804	419.75
345.031	425.75
345.259	408.75
345.487	408.75
345.714	412.75
345.942	405.75
346.17	382.75
346.397	390.75
346.625	370.75
346.853	399.75
347.08	400.75
347.308	399.75
347.535	383.75
347.763	378.75
347.99	368.75
348.218	374.75
348.445	362.75
348.673	376.75
348.9	375.75
349.128	378.75
349.355	361.75
349.583	382.75
349.81	365.75
350.037	381.75
350.265	359.75
350.492	349.75
350.72	351.75
350.947	371.75
351.174	378.75
351.402	378.75
351.629	368.75
351.856	362.75
352.083	365.75
352.311	386.75
352.538	372.75
352.765	376.75
352.992	387.75
353.22	370.75
353.447	365.75
353.674	372.75
353.901	350.75
354.128	370.75
354.355	358.75
354.583	350.75
354.81	364.75
355.037	378.75
355.264	359.75
355.491	368.75
355.718	346.75
355.945	351.75
356.172	372.75
356.399	372.75
356.626	362.75
356.853	356.75
357.08	364.75
357.307	361.75
357.534	357.75
357.761	355.75
357.988	381.75
358.215	357.75
358.441	332.75
358.668	357.75
358.895	374.75
359.122	372.75
359.349	363.75
359.576	382.75
359.802	383.75
360.029	382.75
360.256	399.75
360.483	382.75
360.709	356.75
360.936	359.75
361.163	375.75
361.39	364.75
361.616	360.75
361.843	371.75
362.07	365.75
362.296	378.75
362.523	384.75
362.749	370.75
362.976	370.75
363.203	366.75
363.429	356.75
363.656	377.75
363.882	362.75
364.109	382.75
364.335	374.75
364.562	336.75
364.788	345.75
365.015	364.75
365.241	376.75
365.468	355.75
365.694	354.75
365.92	376.75
366.147	344.75
366.373	342.75
366.599	366.75
366.826	361.75
367.052	355.75
367.278	374.75
367.505	357.75
367.731	347.75
367.957	349.75
368.184	359.75
368.41	379.75
368.636	365.75
368.862	355.75
369.089	349.75
369.315	362.75
369.541	351.75
369.767	349.75
369.993	364.75
370.219	358.75
370.445	376.75
370.672	357.75
370.898	360.75
371.124	365.75
371.35	379.75
371.576	374.75
371.802	357.75
372.028	361.75
372.254	352.75
372.48	356.75
372.706	375.75
372.932	352.75
373.158	373.75
373.384	384.75
373.61	373.75
373.835	368.75
374.061	374.75
374.287	386.75
374.513	355.75
374.739	363.75
374.965	386.75
375.191	376.75
375.416	378.75
375.642	374.75
375.868	394.75
376.094	367.75
376.319	367.75
376.545	368.75
376.771	364.75
376.997	352.75
377.222	340.75
377.448	365.75
377.674	342.75
377.899	351.75
378.125	362.75
378.35	351.75
378.576	346.75
378.802	371.75
379.027	363.75
379.253	351.75
379.478	358.75
379.704	354.75
379.929	378.75
380.155	341.75
380.38	359.75
380.606	359.75
380.831	351.75
381.057	356.75
381.282	359.75
381.507	359.75
381.733	363.75
381.958	383.75
382.184	386.75
382.409	377.75
382.634	380.75
382.86	361.75
383.085	366.75
383.31	367.75
383.535	379.75
383.761	374.75
383.986	400.75
384.211	389.75
384.436	387.75
384.662	382.75
384.887	390.75
385.112	401.75
385.337	418.75
385.562	415.75
385.787	420.75
386.013	426.75
386.238	415.75
386.463	406.75
386.688	408.75
386.913	400.75
387.138	393.75
387.363	395.75
387.588	409.75
387.813	424.75
388.038	403.75
388.263	414.75
388.488	395.75
388.713	398.75
388.938	422.75
389.163	405.75
389.387	400.75
389.612	394.75
389.837	410.75
390.062	408.75
390.287	412.75
390.512	413.75
390.736	395.75
390.961	421.75
391.186	409.75
391.411	438.75
391.636	423.75
391.86	432.75
392.085	441.75
392.31	425.75
392.534	441.75
392.759	431.75
392.984	426.75
393.208	425.75
393.433	424.75
393.658	411.75
393.882	405.75
394.107	416.75
394.331	422.75
394.556	402.75
394.78	424.75
395.005	448.75
395.229	422.75
395.454	426.75
395.678	443.75
395.903	444.75
396.127	441.75
396.352	442.75
396.576	405.75
396.801	428.75
397.025	434.75
397.249	407.75
397.474	446.75
397.698	431.75
397.922	444.75
398.147	456.75
398.371	463.75
398.595	470.75
398.82	482.75
399.044	496.75
399.268	524.75
399.492	605.75
399.717	607.75
399.941	629.75
400.165	612.75
400.389	589.75
400.613	562.75
400.837	491.75
401.062	496.75
401.286	489.75
401.51	503.75
401.734	469.75
401.958	475.75
402.182	520.75
402.406	500.75
402.63	492.75
402.854	516.75
403.078	510.75
403.302	498.75
403.526	500.75
403.75	524.75
403.974	550.75
404.198	503.75
404.422	550.75
404.645	562.75
404.869	553.75
405.093	580.75
405.317	636.75
405.541	648.75
405.765	601.75
405.988	553.75
406.212	536.75
406.436	544.75
406.66	557.75
406.883	529.75
407.107	556.75
407.331	603.75
407.555	642.75
407.778	655.75
408.002	598.75
408.226	585.75
408.449	546.75
408.673	534.75
408.896	576.75
409.12	591.75
409.344	560.75
409.567	530.75
409.791	516.75
410.014	495.75
410.238	518.75
410.461	518.75
410.685	494.75
410.908	530.75
411.132	527.75
411.355	544.75
411.578	516.75
411.802	516.75
412.025	515.75
412.249	543.75
412.472	561.75
412.695	612.75
412.919	604.75
413.142	553.75
413.365	528.75
413.589	494.75
413.812	481.75
414.035	464.75
414.258	500.75
414.482	502.75
414.705	479.75
414.928	494.75
415.151	488.75
415.374	479.75
415.597	459.75
415.821	467.75
416.044	481.75
416.267	470.75
416.49	466.75
416.713	464.75
416.936	463.75
417.159	469.75
417.382	482.75
417.605	466.75
417.828	512.75
418.051	495.75
418.274	499.75
418.497	472.75
418.72	472.75
418.943	475.75
419.166	516.75
419.389	525.75
419.611	530.75
419.834	498.75
420.057	524.75
420.28	534.75
420.503	532.75
420.726	519.75
420.948	522.75
421.171	542.75
421.394	534.75
421.617	523.75
421.839	476.75
422.062	472.75
422.285	487.75
422.507	536.75
422.73	557.75
422.953	556.75
423.175	506.75
423.398	537.75
423.621	520.75
423.843	526.75
424.066	502.75
424.288	500.75
424.511	542.75
424.733	538.75
424.956	613.75
425.178	557.75
425.401	566.75
425.623	590.75
425.846	523.75
426.068	484.75
426.291	502.75
426.513	479.75
426.735	478.75
426.958	530.75
427.18	556.75
427.402	638.75
427.625	666.75
427.847	621.75
428.069	597.75
428.292	546.75
428.514	488.75
428.736	464.75
428.958	477.75
429.181	444.75
429.403	444.75
429.625	447.75
429.847	456.75
430.069	517.75
430.292	501.75
430.514	439.75
430.736	445.75
430.958	454.75
431.18	446.75
431.402	450.75
431.624	434.75
431.846	452.75
432.068	451.75
432.29	447.75
432.512	449.75
432.734	468.75
432.956	438.75
433.178	446.75
433.4	437.75
433.622	435.75
433.844	454.75
434.066	444.75
434.287	450.75
434.509	452.75
434.731	448.75
434.953	486.75
435.175	480.75
435.397	490.75
435.618	504.75
435.84	481.75
436.062	535.75
436.284	589.75
436.505	522.75
436.727	509.75
436.949	468.75
437.17	436.75
437.392	437.75
437.614	448.75
437.835	469.75
438.057	490.75
438.278	558.75
438.5	571.75
438.721	638.75
438.943	604.75
439.165	488.75
439.386	480.75
439.608	464.75
439.829	447.75
440.05	484.75
440.272	508.75
440.493	508.75
440.715	473.75
440.936	472.75
441.158	461.75
441.379	476.75
441.6	484.75
441.822	485.75
442.043	500.75
442.264	551.75
442.486	566.75
442.707	510.75
442.928	503.75
443.149	523.75
443.371	486.75
443.592	524.75
443.813	569.75
444.034	629.75
444.255	550.75
444.476	535.75
444.698	528.75
444.919	540.75
445.14	655.75
445.361	590.75
445.582	534.75
445.803	529.75
446.024	598.75
446.245	581.75
446.466	555.75
446.687	484.75
446.908	480.75
447.129	447.75
447.35	437.75
447.571	435.75
447.792	425.75
448.013	442.75
448.234	432.75
448.455	458.75
448.675	534.75
448.896	580.75
449.117	543.75
449.338	483.75
449.559	586.75
449.779	619.75
450	514.75
450.221	447.75
450.442	428.75
450.662	432.75
450.883	428.75
451.104	435.75
451.324	430.75
451.545	434.75
451.766	416.75
451.986	388.75
452.207	409.75
452.428	393.75
452.648	410.75
452.869	422.75
453.089	413.75
453.31	414.75
453.53	392.75
453.751	400.75
453.971	386.75
454.192	419.75
454.412	402.75
454.633	392.75
454.853	381.75
455.073	385.75
455.294	430.75
455.514	438.75
455.734	449.75
455.955	380.75
456.175	401.75
456.395	367.75
456.616	370.75
456.836	377.75
457.056	376.75
457.276	373.75
457.497	378.75
457.717	376.75
457.937	372.75
458.157	398.75
458.377	364.75
458.598	398.75
458.818	436.75
459.038	487.75
459.258	496.75
459.478	450.75
459.698	425.75
459.918	438.75
460.138	455.75
460.358	475.75
460.578	459.75
460.798	466.75
461.018	476.75
461.238	468.75
461.458	486.75
461.678	471.75
461.898	473.75
462.118	467.75
462.338	487.75
462.558	498.75
462.777	516.75
462.997	534.75
463.217	555.75
463.437	553.75
463.657	529.75
463.876	515.75
464.096	524.75
464.316	519.75
464.536	562.75
464.755	524.75
464.975	498.75
465.195	514.75
465.414	525.75
465.634	480.75
465.854	447.75
466.073	439.75
466.293	443.75
466.512	438.75
466.732	433.75
466.951	417.75
467.171	406.75
467.391	402.75
467.61	426.75
467.829	431.75
468.049	432.75
468.268	436.75
468.488	436.75
468.707	412.75
468.927	401.75
469.146	428.75
469.365	426.75
469.585	394.75
469.804	403.75
470.023	415.75
470.243	430.75
470.462	436.75
470.681	442.75
470.901	439.75
471.12	442.75
471.339	444.75
471.558	425.75
471.777	434.75
471.997	413.75
472.216	458.75
472.435	540.75
472.654	526.75
472.873	492.75
473.092	427.75
473.311	428.75
473.53	430.75
473.749	424.75
473.968	439.75
474.187	501.75
474.406	491.75
474.625	423.75
474.844	404.75
475.063	425.75
475.282	416.75
475.501	427.75
475.72	432.75
475.939	436.75
476.158	416.75
476.377	426.75
476.596	408.75
476.814	422.75
477.033	446.75
477.252	441.75
477.471	445.75
477.69	445.75
477.908	464.75
478.127	464.75
478.346	458.75
478.564	473.75
478.783	485.75
479.002	498.75
479.22	480.75
479.439	474.75
479.658	516.75
479.876	485.75
480.095	533.75
480.313	532.75
480.532	515.75
480.751	540.75
480.969	566.75
481.188	688.75
481.406	782.75
481.624	618.75
481.843	572.75
482.061	527.75
482.28	516.75
482.498	489.75
482.717	487.75
482.935	489.75
483.153	505.75
483.372	469.75
483.59	442.75
483.808	466.75
484.027	484.75
484.245	479.75
484.463	491.75
484.681	470.75
484.9	487.75
485.118	497.75
485.336	477.75
485.554	490.75
485.772	492.75
485.99	501.75
486.209	488.75
486.427	514.75
486.645	498.75
486.863	506.75
487.081	516.75
487.299	495.75
487.517	506.75
487.735	500.75
487.953	506.75
488.171	515.75
488.389	506.75
488.607	502.75
488.825	495.75
489.043	503.75
489.261	518.75
489.479	521.75
489.696	526.75
489.914	502.75
490.132	532.75
490.35	531.75
490.568	518.75
490.786	538.75
491.003	556.75
491.221	566.75
491.439	569.75
491.657	582.75
491.874	579.75
492.092	606.75
492.31	587.75
492.527	607.75
492.745	606.75
492.963	611.75
493.18	603.75
493.398	627.75
493.615	608.75
493.833	641.75
494.05	607.75
494.268	611.75
494.485	590.75
494.703	578.75
494.92	574.75
495.138	574.75
495.355	587.75
495.573	595.75
495.79	591.75
496.008	594.75
496.225	584.75
496.442	574.75
496.66	587.75
496.877	588.75
497.094	611.75
497.312	588.75
497.529	619.75
497.746	625.75
497.963	611.75
498.181	650.75
498.398	653.75
498.615	678.75
498.832	713.75
499.049	738.75
499.267	778.75
499.484	819.75
499.701	885.75
499.918	902.75
500.135	976.75
500.352	1086.75
500.569	1122.75
500.786	1143.75
501.003	1074.75
501.22	1030.75
501.437	958.75
501.654	900.75
501.871	816.75
