Data from 1984.PennyLincolnUp.Lamp.En5.5.200Scan.071819.P1_HRD10591_16-59-47-969.txt Node
Date: Thu Jul 18 16:59:47 EDT 2019
User: cochatt
Spectrometer: HR+D1059
Trigger mode: 1
Integration Time (sec): 1.000000E-1
Scans to average: 1
Electric dark correction enabled: true
Nonlinearity correction enabled: false
Boxcar width: 0
XAxis mode: Wavelengths
Number of Pixels in Spectrum: 2048
>>>>>Begin Spectral Data<<<<<
223.165	-21.25
223.4	-21.25
223.635	-21.25
223.869	-6.25
224.104	-12.25
224.338	-14.25
224.573	-12.25
224.808	-19.25
225.042	5.75
225.277	-6.25
225.511	5.75
225.746	2.75
225.98	-2.25
226.215	15.75
226.449	12.75
226.683	14.75
226.918	12.75
227.152	23.75
227.387	25.75
227.621	45.75
227.856	54.75
228.09	44.75
228.324	45.75
228.559	56.75
228.793	60.75
229.027	96.75
229.262	95.75
229.496	112.75
229.73	118.75
229.964	122.75
230.199	125.75
230.433	95.75
230.667	101.75
230.901	96.75
231.136	118.75
231.37	105.75
231.604	110.75
231.838	106.75
232.072	121.75
232.306	126.75
232.541	106.75
232.775	104.75
233.009	119.75
233.243	110.75
233.477	113.75
233.711	112.75
233.945	104.75
234.179	107.75
234.413	116.75
234.647	123.75
234.881	108.75
235.115	105.75
235.349	108.75
235.583	114.75
235.817	107.75
236.051	121.75
236.285	114.75
236.519	126.75
236.753	107.75
236.987	126.75
237.221	142.75
237.455	174.75
237.689	157.75
237.922	120.75
238.156	123.75
238.39	122.75
238.624	137.75
238.858	115.75
239.091	117.75
239.325	124.75
239.559	106.75
239.793	123.75
240.027	130.75
240.26	141.75
240.494	130.75
240.728	133.75
240.961	141.75
241.195	122.75
241.429	139.75
241.662	116.75
241.896	133.75
242.13	123.75
242.363	130.75
242.597	135.75
242.83	127.75
243.064	120.75
243.298	136.75
243.531	127.75
243.765	132.75
243.998	147.75
244.232	140.75
244.465	138.75
244.699	150.75
244.932	152.75
245.166	136.75
245.399	135.75
245.633	143.75
245.866	143.75
246.099	139.75
246.333	141.75
246.566	156.75
246.8	141.75
247.033	134.75
247.266	138.75
247.5	148.75
247.733	150.75
247.966	143.75
248.2	139.75
248.433	158.75
248.666	157.75
248.899	143.75
249.133	171.75
249.366	174.75
249.599	170.75
249.832	168.75
250.066	167.75
250.299	183.75
250.532	212.75
250.765	199.75
250.998	202.75
251.231	188.75
251.465	189.75
251.698	190.75
251.931	178.75
252.164	169.75
252.397	151.75
252.63	182.75
252.863	175.75
253.096	172.75
253.329	199.75
253.562	194.75
253.795	214.75
254.028	199.75
254.261	182.75
254.494	199.75
254.727	208.75
254.96	232.75
255.193	214.75
255.426	204.75
255.659	217.75
255.892	227.75
256.124	275.75
256.357	274.75
256.59	254.75
256.823	228.75
257.056	215.75
257.289	202.75
257.521	178.75
257.754	202.75
257.987	207.75
258.22	172.75
258.452	191.75
258.685	191.75
258.918	194.75
259.151	193.75
259.383	177.75
259.616	206.75
259.849	190.75
260.081	221.75
260.314	222.75
260.547	223.75
260.779	203.75
261.012	207.75
261.244	205.75
261.477	213.75
261.71	210.75
261.942	204.75
262.175	213.75
262.407	206.75
262.64	212.75
262.872	204.75
263.105	214.75
263.337	205.75
263.57	191.75
263.802	172.75
264.035	189.75
264.267	220.75
264.499	207.75
264.732	205.75
264.964	203.75
265.197	213.75
265.429	205.75
265.661	210.75
265.894	221.75
266.126	204.75
266.358	205.75
266.591	205.75
266.823	223.75
267.055	223.75
267.287	221.75
267.52	198.75
267.752	202.75
267.984	226.75
268.216	220.75
268.448	229.75
268.681	230.75
268.913	247.75
269.145	233.75
269.377	255.75
269.609	248.75
269.841	233.75
270.073	254.75
270.306	257.75
270.538	281.75
270.77	272.75
271.002	269.75
271.234	265.75
271.466	275.75
271.698	259.75
271.93	266.75
272.162	278.75
272.394	238.75
272.626	259.75
272.858	247.75
273.09	241.75
273.322	257.75
273.553	251.75
273.785	241.75
274.017	230.75
274.249	226.75
274.481	239.75
274.713	262.75
274.945	251.75
275.176	261.75
275.408	261.75
275.64	261.75
275.872	258.75
276.104	249.75
276.335	250.75
276.567	254.75
276.799	279.75
277.031	281.75
277.262	268.75
277.494	286.75
277.726	273.75
277.957	268.75
278.189	260.75
278.421	242.75
278.652	265.75
278.884	264.75
279.115	252.75
279.347	270.75
279.579	269.75
279.81	269.75
280.042	281.75
280.273	261.75
280.505	281.75
280.736	241.75
280.968	266.75
281.199	258.75
281.431	270.75
281.662	257.75
281.894	269.75
282.125	267.75
282.356	276.75
282.588	273.75
282.819	297.75
283.051	261.75
283.282	272.75
283.513	270.75
283.745	267.75
283.976	292.75
284.207	283.75
284.439	289.75
284.67	289.75
284.901	285.75
285.132	289.75
285.364	281.75
285.595	264.75
285.826	281.75
286.057	278.75
286.288	284.75
286.52	272.75
286.751	283.75
286.982	282.75
287.213	284.75
287.444	278.75
287.675	281.75
287.906	278.75
288.138	281.75
288.369	282.75
288.6	303.75
288.831	306.75
289.062	305.75
289.293	285.75
289.524	284.75
289.755	278.75
289.986	287.75
290.217	281.75
290.448	281.75
290.679	302.75
290.91	281.75
291.141	289.75
291.371	288.75
291.602	284.75
291.833	290.75
292.064	291.75
292.295	297.75
292.526	274.75
292.757	250.75
292.987	294.75
293.218	280.75
293.449	318.75
293.68	299.75
293.91	305.75
294.141	287.75
294.372	280.75
294.603	279.75
294.833	300.75
295.064	290.75
295.295	300.75
295.525	298.75
295.756	297.75
295.987	299.75
296.217	321.75
296.448	330.75
296.679	306.75
296.909	288.75
297.14	293.75
297.37	299.75
297.601	315.75
297.831	294.75
298.062	298.75
298.292	315.75
298.523	307.75
298.753	318.75
298.984	302.75
299.214	303.75
299.445	310.75
299.675	293.75
299.905	315.75
300.136	305.75
300.366	325.75
300.597	327.75
300.827	325.75
301.057	328.75
301.288	330.75
301.518	312.75
301.748	322.75
301.979	344.75
302.209	327.75
302.439	332.75
302.669	326.75
302.9	331.75
303.13	309.75
303.36	326.75
303.59	325.75
303.82	340.75
304.051	323.75
304.281	350.75
304.511	336.75
304.741	321.75
304.971	313.75
305.201	325.75
305.431	338.75
305.661	325.75
305.891	317.75
306.121	326.75
306.352	306.75
306.582	328.75
306.812	319.75
307.042	324.75
307.272	325.75
307.502	326.75
307.731	334.75
307.961	342.75
308.191	339.75
308.421	329.75
308.651	333.75
308.881	327.75
309.111	323.75
309.341	332.75
309.571	348.75
309.8	355.75
310.03	336.75
310.26	330.75
310.49	337.75
310.72	344.75
310.949	363.75
311.179	357.75
311.409	349.75
311.639	352.75
311.868	347.75
312.098	330.75
312.328	349.75
312.557	377.75
312.787	364.75
313.017	357.75
313.246	377.75
313.476	353.75
313.706	345.75
313.935	349.75
314.165	380.75
314.394	379.75
314.624	377.75
314.853	359.75
315.083	362.75
315.312	335.75
315.542	366.75
315.771	364.75
316.001	341.75
316.23	346.75
316.46	357.75
316.689	362.75
316.919	362.75
317.148	375.75
317.377	373.75
317.607	350.75
317.836	361.75
318.065	355.75
318.295	368.75
318.524	352.75
318.753	345.75
318.983	368.75
319.212	347.75
319.441	351.75
319.67	354.75
319.9	366.75
320.129	383.75
320.358	349.75
320.587	379.75
320.816	377.75
321.046	364.75
321.275	372.75
321.504	364.75
321.733	359.75
321.962	377.75
322.191	364.75
322.42	379.75
322.649	405.75
322.878	411.75
323.108	422.75
323.337	422.75
323.566	435.75
323.795	440.75
324.024	489.75
324.253	565.75
324.482	748.75
324.71	1076.75
324.939	1522.75
325.168	1323.75
325.397	722.75
325.626	555.75
325.855	463.75
326.084	469.75
326.313	462.75
326.542	471.75
326.77	493.75
326.999	561.75
327.228	717.75
327.457	1035.75
327.686	1183.75
327.914	845.75
328.143	638.75
328.372	576.75
328.6	548.75
328.829	508.75
329.058	513.75
329.287	494.75
329.515	507.75
329.744	510.75
329.972	517.75
330.201	575.75
330.43	633.75
330.658	609.75
330.887	585.75
331.115	526.75
331.344	488.75
331.572	483.75
331.801	450.75
332.03	445.75
332.258	460.75
332.486	443.75
332.715	459.75
332.943	474.75
333.172	484.75
333.4	501.75
333.629	509.75
333.857	546.75
334.085	606.75
334.314	638.75
334.542	718.75
334.771	735.75
334.999	599.75
335.227	525.75
335.455	489.75
335.684	483.75
335.912	473.75
336.14	466.75
336.369	444.75
336.597	449.75
336.825	448.75
337.053	454.75
337.281	439.75
337.51	422.75
337.738	422.75
337.966	419.75
338.194	438.75
338.422	437.75
338.65	424.75
338.878	414.75
339.106	406.75
339.334	423.75
339.562	406.75
339.79	401.75
340.018	408.75
340.246	398.75
340.474	410.75
340.702	401.75
340.93	406.75
341.158	416.75
341.386	386.75
341.614	398.75
341.842	399.75
342.07	406.75
342.298	388.75
342.526	379.75
342.754	401.75
342.981	403.75
343.209	401.75
343.437	390.75
343.665	399.75
343.893	420.75
344.12	413.75
344.348	426.75
344.576	433.75
344.804	421.75
345.031	414.75
345.259	401.75
345.487	403.75
345.714	375.75
345.942	390.75
346.17	383.75
346.397	364.75
346.625	376.75
346.853	373.75
347.08	377.75
347.308	366.75
347.535	381.75
347.763	380.75
347.99	380.75
348.218	383.75
348.445	378.75
348.673	386.75
348.9	389.75
349.128	383.75
349.355	385.75
349.583	397.75
349.81	372.75
350.037	367.75
350.265	360.75
350.492	370.75
350.72	355.75
350.947	375.75
351.174	358.75
351.402	388.75
351.629	397.75
351.856	366.75
352.083	381.75
352.311	391.75
352.538	375.75
352.765	404.75
352.992	401.75
353.22	386.75
353.447	379.75
353.674	360.75
353.901	357.75
354.128	366.75
354.355	366.75
354.583	374.75
354.81	343.75
355.037	356.75
355.264	370.75
355.491	366.75
355.718	353.75
355.945	359.75
356.172	367.75
356.399	353.75
356.626	352.75
356.853	351.75
357.08	356.75
357.307	373.75
357.534	375.75
357.761	356.75
357.988	359.75
358.215	361.75
358.441	372.75
358.668	367.75
358.895	347.75
359.122	366.75
359.349	367.75
359.576	371.75
359.802	383.75
360.029	417.75
360.256	396.75
360.483	377.75
360.709	357.75
360.936	383.75
361.163	379.75
361.39	355.75
361.616	364.75
361.843	375.75
362.07	375.75
362.296	371.75
362.523	345.75
362.749	370.75
362.976	345.75
363.203	344.75
363.429	377.75
363.656	359.75
363.882	367.75
364.109	380.75
364.335	361.75
364.562	375.75
364.788	349.75
365.015	343.75
365.241	345.75
365.468	350.75
365.694	345.75
365.92	348.75
366.147	355.75
366.373	342.75
366.599	361.75
366.826	359.75
367.052	362.75
367.278	378.75
367.505	345.75
367.731	359.75
367.957	362.75
368.184	355.75
368.41	348.75
368.636	379.75
368.862	363.75
369.089	380.75
369.315	349.75
369.541	358.75
369.767	373.75
369.993	357.75
370.219	363.75
370.445	362.75
370.672	352.75
370.898	355.75
371.124	376.75
371.35	376.75
371.576	351.75
371.802	379.75
372.028	375.75
372.254	372.75
372.48	354.75
372.706	380.75
372.932	356.75
373.158	385.75
373.384	374.75
373.61	373.75
373.835	376.75
374.061	352.75
374.287	353.75
374.513	370.75
374.739	361.75
374.965	383.75
375.191	387.75
375.416	385.75
375.642	373.75
375.868	377.75
376.094	383.75
376.319	370.75
376.545	378.75
376.771	359.75
376.997	382.75
377.222	354.75
377.448	360.75
377.674	354.75
377.899	371.75
378.125	355.75
378.35	361.75
378.576	361.75
378.802	348.75
379.027	373.75
379.253	343.75
379.478	368.75
379.704	363.75
379.929	360.75
380.155	355.75
380.38	376.75
380.606	358.75
380.831	353.75
381.057	376.75
381.282	371.75
381.507	367.75
381.733	353.75
381.958	379.75
382.184	354.75
382.409	358.75
382.634	359.75
382.86	386.75
383.085	377.75
383.31	380.75
383.535	382.75
383.761	400.75
383.986	382.75
384.211	390.75
384.436	404.75
384.662	390.75
384.887	403.75
385.112	389.75
385.337	419.75
385.562	408.75
385.787	389.75
386.013	395.75
386.238	413.75
386.463	424.75
386.688	433.75
386.913	405.75
387.138	381.75
387.363	401.75
387.588	432.75
387.813	393.75
388.038	410.75
388.263	406.75
388.488	416.75
388.713	412.75
388.938	397.75
389.163	407.75
389.387	394.75
389.612	384.75
389.837	416.75
390.062	391.75
390.287	407.75
390.512	412.75
390.736	413.75
390.961	398.75
391.186	403.75
391.411	413.75
391.636	425.75
391.86	437.75
392.085	437.75
392.31	444.75
392.534	428.75
392.759	411.75
392.984	417.75
393.208	400.75
393.433	414.75
393.658	414.75
393.882	416.75
394.107	418.75
394.331	420.75
394.556	408.75
394.78	409.75
395.005	418.75
395.229	417.75
395.454	456.75
395.678	445.75
395.903	435.75
396.127	438.75
396.352	441.75
396.576	418.75
396.801	423.75
397.025	435.75
397.249	426.75
397.474	468.75
397.698	461.75
397.922	441.75
398.147	444.75
398.371	462.75
398.595	486.75
398.82	482.75
399.044	508.75
399.268	528.75
399.492	588.75
399.717	637.75
399.941	651.75
400.165	626.75
400.389	574.75
400.613	545.75
400.837	522.75
401.062	486.75
401.286	493.75
401.51	499.75
401.734	471.75
401.958	487.75
402.182	507.75
402.406	501.75
402.63	510.75
402.854	502.75
403.078	499.75
403.302	546.75
403.526	538.75
403.75	522.75
403.974	547.75
404.198	505.75
404.422	537.75
404.645	556.75
404.869	546.75
405.093	571.75
405.317	628.75
405.541	619.75
405.765	583.75
405.988	549.75
406.212	554.75
406.436	567.75
406.66	563.75
406.883	526.75
407.107	547.75
407.331	586.75
407.555	649.75
407.778	664.75
408.002	610.75
408.226	579.75
408.449	592.75
408.673	536.75
408.896	550.75
409.12	592.75
409.344	541.75
409.567	508.75
409.791	520.75
410.014	506.75
410.238	510.75
410.461	513.75
410.685	502.75
410.908	490.75
411.132	545.75
411.355	546.75
411.578	533.75
411.802	501.75
412.025	513.75
412.249	551.75
412.472	560.75
412.695	636.75
412.919	597.75
413.142	555.75
413.365	543.75
413.589	502.75
413.812	479.75
414.035	485.75
414.258	494.75
414.482	494.75
414.705	501.75
414.928	491.75
415.151	489.75
415.374	473.75
415.597	493.75
415.821	470.75
416.044	481.75
416.267	491.75
416.49	480.75
416.713	465.75
416.936	468.75
417.159	495.75
417.382	471.75
417.605	470.75
417.828	478.75
418.051	475.75
418.274	493.75
418.497	470.75
418.72	488.75
418.943	479.75
419.166	512.75
419.389	523.75
419.611	540.75
419.834	522.75
420.057	526.75
420.28	531.75
420.503	553.75
420.726	515.75
420.948	518.75
421.171	554.75
421.394	545.75
421.617	492.75
421.839	494.75
422.062	491.75
422.285	502.75
422.507	535.75
422.73	571.75
422.953	581.75
423.175	509.75
423.398	525.75
423.621	513.75
423.843	537.75
424.066	519.75
424.288	513.75
424.511	518.75
424.733	525.75
424.956	585.75
425.178	548.75
425.401	555.75
425.623	580.75
425.846	531.75
426.068	498.75
426.291	485.75
426.513	479.75
426.735	489.75
426.958	499.75
427.18	549.75
427.402	614.75
427.625	700.75
427.847	634.75
428.069	599.75
428.292	531.75
428.514	486.75
428.736	479.75
428.958	471.75
429.181	451.75
429.403	441.75
429.625	455.75
429.847	458.75
430.069	505.75
430.292	507.75
430.514	472.75
430.736	451.75
430.958	459.75
431.18	434.75
431.402	424.75
431.624	427.75
431.846	431.75
432.068	435.75
432.29	437.75
432.512	433.75
432.734	447.75
432.956	446.75
433.178	426.75
433.4	450.75
433.622	427.75
433.844	425.75
434.066	450.75
434.287	469.75
434.509	451.75
434.731	449.75
434.953	477.75
435.175	491.75
435.397	491.75
435.618	497.75
435.84	499.75
436.062	537.75
436.284	586.75
436.505	514.75
436.727	497.75
436.949	456.75
437.17	443.75
437.392	446.75
437.614	448.75
437.835	461.75
438.057	529.75
438.278	598.75
438.5	566.75
438.721	619.75
438.943	619.75
439.165	500.75
439.386	470.75
439.608	454.75
439.829	474.75
440.05	483.75
440.272	499.75
440.493	509.75
440.715	490.75
440.936	469.75
441.158	457.75
441.379	478.75
441.6	474.75
441.822	491.75
442.043	505.75
442.264	552.75
442.486	583.75
442.707	516.75
442.928	490.75
443.149	476.75
443.371	521.75
443.592	539.75
443.813	607.75
444.034	636.75
444.255	550.75
444.476	521.75
444.698	532.75
444.919	525.75
445.14	626.75
445.361	567.75
445.582	539.75
445.803	549.75
446.024	600.75
446.245	615.75
446.466	563.75
446.687	484.75
446.908	469.75
447.129	443.75
447.35	441.75
447.571	434.75
447.792	434.75
448.013	463.75
448.234	449.75
448.455	453.75
448.675	514.75
448.896	593.75
449.117	514.75
449.338	478.75
449.559	561.75
449.779	607.75
450	513.75
450.221	465.75
450.442	418.75
450.662	398.75
450.883	426.75
451.104	425.75
451.324	428.75
451.545	431.75
451.766	424.75
451.986	396.75
452.207	398.75
452.428	377.75
452.648	400.75
452.869	420.75
453.089	406.75
453.31	430.75
453.53	398.75
453.751	391.75
453.971	417.75
454.192	408.75
454.412	400.75
454.633	406.75
454.853	395.75
455.073	407.75
455.294	413.75
455.514	465.75
455.734	428.75
455.955	406.75
456.175	396.75
456.395	383.75
456.616	379.75
456.836	377.75
457.056	374.75
457.276	382.75
457.497	371.75
457.717	388.75
457.937	380.75
458.157	383.75
458.377	382.75
458.598	413.75
458.818	437.75
459.038	482.75
459.258	485.75
459.478	440.75
459.698	452.75
459.918	433.75
460.138	444.75
460.358	463.75
460.578	440.75
460.798	479.75
461.018	485.75
461.238	469.75
461.458	453.75
461.678	461.75
461.898	458.75
462.118	469.75
462.338	481.75
462.558	495.75
462.777	524.75
462.997	546.75
463.217	571.75
463.437	579.75
463.657	531.75
463.876	513.75
464.096	540.75
464.316	525.75
464.536	530.75
464.755	522.75
464.975	512.75
465.195	527.75
465.414	533.75
465.634	478.75
465.854	454.75
466.073	437.75
466.293	431.75
466.512	441.75
466.732	421.75
466.951	440.75
467.171	416.75
467.391	421.75
467.61	414.75
467.829	454.75
468.049	447.75
468.268	443.75
468.488	420.75
468.707	419.75
468.927	398.75
469.146	404.75
469.365	417.75
469.585	398.75
469.804	439.75
470.023	437.75
470.243	434.75
470.462	417.75
470.681	439.75
470.901	448.75
471.12	422.75
471.339	442.75
471.558	424.75
471.777	412.75
471.997	409.75
472.216	466.75
472.435	537.75
472.654	516.75
472.873	460.75
473.092	445.75
473.311	440.75
473.53	430.75
473.749	427.75
473.968	445.75
474.187	486.75
474.406	529.75
474.625	451.75
474.844	428.75
475.063	409.75
475.282	413.75
475.501	419.75
475.72	405.75
475.939	413.75
476.158	438.75
476.377	435.75
476.596	427.75
476.814	431.75
477.033	425.75
477.252	461.75
477.471	450.75
477.69	441.75
477.908	447.75
478.127	456.75
478.346	481.75
478.564	499.75
478.783	467.75
479.002	483.75
479.22	478.75
479.439	508.75
479.658	494.75
479.876	495.75
480.095	521.75
480.313	526.75
480.532	534.75
480.751	549.75
480.969	575.75
481.188	685.75
481.406	786.75
481.624	614.75
481.843	566.75
482.061	533.75
482.28	489.75
482.498	488.75
482.717	490.75
482.935	478.75
483.153	499.75
483.372	491.75
483.59	491.75
483.808	490.75
484.027	490.75
484.245	491.75
484.463	493.75
484.681	485.75
484.9	500.75
485.118	517.75
485.336	504.75
485.554	500.75
485.772	518.75
485.99	506.75
486.209	509.75
486.427	516.75
486.645	502.75
486.863	521.75
487.081	494.75
487.299	511.75
487.517	501.75
487.735	523.75
487.953	521.75
488.171	491.75
488.389	499.75
488.607	513.75
488.825	512.75
489.043	524.75
489.261	523.75
489.479	532.75
489.696	517.75
489.914	515.75
490.132	504.75
490.35	523.75
490.568	537.75
490.786	534.75
491.003	579.75
491.221	562.75
491.439	562.75
491.657	582.75
491.874	575.75
492.092	571.75
492.31	603.75
492.527	593.75
492.745	610.75
492.963	606.75
493.18	604.75
493.398	611.75
493.615	611.75
493.833	591.75
494.05	577.75
494.268	593.75
494.485	614.75
494.703	605.75
494.92	589.75
495.138	583.75
495.355	591.75
495.573	576.75
495.79	574.75
496.008	602.75
496.225	599.75
496.442	569.75
496.66	585.75
496.877	596.75
497.094	623.75
497.312	608.75
497.529	626.75
497.746	637.75
497.963	605.75
498.181	651.75
498.398	676.75
498.615	678.75
498.832	705.75
499.049	730.75
499.267	772.75
499.484	817.75
499.701	864.75
499.918	934.75
500.135	988.75
500.352	1093.75
500.569	1137.75
500.786	1127.75
501.003	1115.75
501.22	1004.75
501.437	941.75
501.654	867.75
501.871	833.75
