Data from 1984.PennyLincolnUp.Lamp.En5.5.200Scan.071819.P1_HRD10591_16-59-57-971.txt Node
Date: Thu Jul 18 16:59:57 EDT 2019
User: cochatt
Spectrometer: HR+D1059
Trigger mode: 1
Integration Time (sec): 1.000000E-1
Scans to average: 1
Electric dark correction enabled: true
Nonlinearity correction enabled: false
Boxcar width: 0
XAxis mode: Wavelengths
Number of Pixels in Spectrum: 2048
>>>>>Begin Spectral Data<<<<<
223.165	-30.12
223.4	-30.12
223.635	-30.12
223.869	-16.12
224.104	-2.12
224.338	-15.12
224.573	-12.12
224.808	-13.12
225.042	-10.12
225.277	-8.12
225.511	0.88
225.746	-5.12
225.98	7.88
226.215	11.88
226.449	14.88
226.683	13.88
226.918	27.88
227.152	34.88
227.387	36.88
227.621	41.88
227.856	35.88
228.09	45.88
228.324	48.88
228.559	56.88
228.793	60.88
229.027	80.88
229.262	99.88
229.496	104.88
229.73	123.88
229.964	125.88
230.199	112.88
230.433	109.88
230.667	112.88
230.901	100.88
231.136	111.88
231.37	119.88
231.604	97.88
231.838	95.88
232.072	94.88
232.306	101.88
232.541	106.88
232.775	115.88
233.009	95.88
233.243	120.88
233.477	117.88
233.711	116.88
233.945	100.88
234.179	99.88
234.413	104.88
234.647	116.88
234.881	111.88
235.115	93.88
235.349	111.88
235.583	121.88
235.817	115.88
236.051	111.88
236.285	119.88
236.519	118.88
236.753	114.88
236.987	122.88
237.221	149.88
237.455	170.88
237.689	147.88
237.922	121.88
238.156	125.88
238.39	116.88
238.624	122.88
238.858	118.88
239.091	127.88
239.325	111.88
239.559	118.88
239.793	129.88
240.027	129.88
240.26	139.88
240.494	136.88
240.728	123.88
240.961	129.88
241.195	138.88
241.429	139.88
241.662	112.88
241.896	135.88
242.13	129.88
242.363	123.88
242.597	118.88
242.83	137.88
243.064	131.88
243.298	128.88
243.531	124.88
243.765	125.88
243.998	128.88
244.232	140.88
244.465	126.88
244.699	124.88
244.932	127.88
245.166	139.88
245.399	147.88
245.633	140.88
245.866	133.88
246.099	130.88
246.333	141.88
246.566	138.88
246.8	133.88
247.033	151.88
247.266	160.88
247.5	145.88
247.733	160.88
247.966	148.88
248.2	161.88
248.433	156.88
248.666	155.88
248.899	146.88
249.133	181.88
249.366	181.88
249.599	179.88
249.832	162.88
250.066	164.88
250.299	170.88
250.532	203.88
250.765	197.88
250.998	217.88
251.231	211.88
251.465	177.88
251.698	186.88
251.931	171.88
252.164	173.88
252.397	176.88
252.63	168.88
252.863	172.88
253.096	190.88
253.329	195.88
253.562	195.88
253.795	197.88
254.028	192.88
254.261	193.88
254.494	196.88
254.727	209.88
254.96	226.88
255.193	228.88
255.426	212.88
255.659	207.88
255.892	247.88
256.124	265.88
256.357	289.88
256.59	266.88
256.823	219.88
257.056	216.88
257.289	193.88
257.521	196.88
257.754	185.88
257.987	180.88
258.22	189.88
258.452	199.88
258.685	196.88
258.918	190.88
259.151	186.88
259.383	188.88
259.616	199.88
259.849	197.88
260.081	195.88
260.314	221.88
260.547	215.88
260.779	220.88
261.012	216.88
261.244	210.88
261.477	213.88
261.71	212.88
261.942	205.88
262.175	210.88
262.407	216.88
262.64	202.88
262.872	199.88
263.105	192.88
263.337	195.88
263.57	191.88
263.802	195.88
264.035	220.88
264.267	197.88
264.499	198.88
264.732	179.88
264.964	186.88
265.197	197.88
265.429	203.88
265.661	210.88
265.894	223.88
266.126	205.88
266.358	222.88
266.591	195.88
266.823	214.88
267.055	205.88
267.287	209.88
267.52	216.88
267.752	203.88
267.984	214.88
268.216	204.88
268.448	221.88
268.681	214.88
268.913	239.88
269.145	236.88
269.377	229.88
269.609	256.88
269.841	258.88
270.073	247.88
270.306	263.88
270.538	257.88
270.77	267.88
271.002	273.88
271.234	253.88
271.466	241.88
271.698	279.88
271.93	273.88
272.162	272.88
272.394	286.88
272.626	274.88
272.858	241.88
273.09	248.88
273.322	246.88
273.553	233.88
273.785	243.88
274.017	216.88
274.249	248.88
274.481	244.88
274.713	232.88
274.945	269.88
275.176	232.88
275.408	241.88
275.64	233.88
275.872	232.88
276.104	247.88
276.335	250.88
276.567	271.88
276.799	275.88
277.031	271.88
277.262	289.88
277.494	307.88
277.726	296.88
277.957	281.88
278.189	268.88
278.421	263.88
278.652	265.88
278.884	248.88
279.115	269.88
279.347	273.88
279.579	267.88
279.81	261.88
280.042	263.88
280.273	268.88
280.505	261.88
280.736	271.88
280.968	268.88
281.199	255.88
281.431	246.88
281.662	244.88
281.894	285.88
282.125	261.88
282.356	263.88
282.588	289.88
282.819	298.88
283.051	264.88
283.282	259.88
283.513	267.88
283.745	269.88
283.976	271.88
284.207	277.88
284.439	285.88
284.67	287.88
284.901	276.88
285.132	266.88
285.364	287.88
285.595	272.88
285.826	277.88
286.057	294.88
286.288	281.88
286.52	257.88
286.751	285.88
286.982	297.88
287.213	288.88
287.444	279.88
287.675	265.88
287.906	284.88
288.138	285.88
288.369	296.88
288.6	289.88
288.831	291.88
289.062	286.88
289.293	294.88
289.524	283.88
289.755	269.88
289.986	283.88
290.217	285.88
290.448	308.88
290.679	289.88
290.91	289.88
291.141	291.88
291.371	289.88
291.602	300.88
291.833	279.88
292.064	271.88
292.295	279.88
292.526	274.88
292.757	298.88
292.987	306.88
293.218	279.88
293.449	303.88
293.68	316.88
293.91	278.88
294.141	284.88
294.372	299.88
294.603	281.88
294.833	304.88
295.064	281.88
295.295	275.88
295.525	299.88
295.756	304.88
295.987	305.88
296.217	321.88
296.448	309.88
296.679	294.88
296.909	300.88
297.14	296.88
297.37	296.88
297.601	303.88
297.831	303.88
298.062	291.88
298.292	277.88
298.523	306.88
298.753	322.88
298.984	320.88
299.214	318.88
299.445	309.88
299.675	307.88
299.905	297.88
300.136	310.88
300.366	315.88
300.597	317.88
300.827	320.88
301.057	314.88
301.288	338.88
301.518	339.88
301.748	317.88
301.979	338.88
302.209	335.88
302.439	315.88
302.669	319.88
302.9	325.88
303.13	320.88
303.36	335.88
303.59	354.88
303.82	332.88
304.051	328.88
304.281	332.88
304.511	333.88
304.741	314.88
304.971	322.88
305.201	323.88
305.431	332.88
305.661	323.88
305.891	335.88
306.121	316.88
306.352	325.88
306.582	334.88
306.812	300.88
307.042	328.88
307.272	310.88
307.502	329.88
307.731	348.88
307.961	318.88
308.191	328.88
308.421	323.88
308.651	328.88
308.881	338.88
309.111	322.88
309.341	355.88
309.571	333.88
309.8	342.88
310.03	338.88
310.26	351.88
310.49	339.88
310.72	344.88
310.949	351.88
311.179	349.88
311.409	363.88
311.639	364.88
311.868	341.88
312.098	343.88
312.328	370.88
312.557	362.88
312.787	350.88
313.017	361.88
313.246	376.88
313.476	354.88
313.706	359.88
313.935	373.88
314.165	387.88
314.394	377.88
314.624	383.88
314.853	365.88
315.083	364.88
315.312	375.88
315.542	372.88
315.771	356.88
316.001	352.88
316.23	355.88
316.46	342.88
316.689	364.88
316.919	348.88
317.148	356.88
317.377	363.88
317.607	361.88
317.836	370.88
318.065	346.88
318.295	375.88
318.524	367.88
318.753	355.88
318.983	348.88
319.212	361.88
319.441	365.88
319.67	389.88
319.9	355.88
320.129	360.88
320.358	379.88
320.587	355.88
320.816	358.88
321.046	390.88
321.275	371.88
321.504	358.88
321.733	379.88
321.962	371.88
322.191	384.88
322.42	378.88
322.649	406.88
322.878	402.88
323.108	415.88
323.337	431.88
323.566	417.88
323.795	442.88
324.024	486.88
324.253	583.88
324.482	773.88
324.71	1112.88
324.939	1568.88
325.168	1308.88
325.397	737.88
325.626	529.88
325.855	473.88
326.084	460.88
326.313	454.88
326.542	461.88
326.77	484.88
326.999	554.88
327.228	705.88
327.457	996.88
327.686	1204.88
327.914	852.88
328.143	659.88
328.372	594.88
328.6	562.88
328.829	524.88
329.058	500.88
329.287	508.88
329.515	516.88
329.744	528.88
329.972	556.88
330.201	619.88
330.43	666.88
330.658	627.88
330.887	567.88
331.115	525.88
331.344	492.88
331.572	496.88
331.801	484.88
332.03	470.88
332.258	443.88
332.486	458.88
332.715	448.88
332.943	512.88
333.172	476.88
333.4	501.88
333.629	544.88
333.857	572.88
334.085	619.88
334.314	679.88
334.542	756.88
334.771	771.88
334.999	632.88
335.227	551.88
335.455	533.88
335.684	501.88
335.912	477.88
336.14	447.88
336.369	453.88
336.597	482.88
336.825	456.88
337.053	440.88
337.281	445.88
337.51	413.88
337.738	437.88
337.966	426.88
338.194	425.88
338.422	419.88
338.65	417.88
338.878	414.88
339.106	413.88
339.334	411.88
339.562	396.88
339.79	398.88
340.018	423.88
340.246	403.88
340.474	397.88
340.702	399.88
340.93	394.88
341.158	400.88
341.386	387.88
341.614	395.88
341.842	399.88
342.07	395.88
342.298	393.88
342.526	385.88
342.754	404.88
342.981	399.88
343.209	404.88
343.437	402.88
343.665	420.88
343.893	437.88
344.12	456.88
344.348	431.88
344.576	444.88
344.804	411.88
345.031	405.88
345.259	407.88
345.487	402.88
345.714	407.88
345.942	387.88
346.17	376.88
346.397	380.88
346.625	371.88
346.853	371.88
347.08	373.88
347.308	365.88
347.535	399.88
347.763	403.88
347.99	392.88
348.218	401.88
348.445	384.88
348.673	374.88
348.9	375.88
349.128	379.88
349.355	393.88
349.583	373.88
349.81	375.88
350.037	379.88
350.265	362.88
350.492	351.88
350.72	378.88
350.947	381.88
351.174	388.88
351.402	377.88
351.629	385.88
351.856	385.88
352.083	402.88
352.311	370.88
352.538	376.88
352.765	384.88
352.992	375.88
353.22	360.88
353.447	365.88
353.674	365.88
353.901	356.88
354.128	360.88
354.355	366.88
354.583	362.88
354.81	377.88
355.037	351.88
355.264	345.88
355.491	357.88
355.718	345.88
355.945	355.88
356.172	354.88
356.399	357.88
356.626	350.88
356.853	353.88
357.08	358.88
357.307	375.88
357.534	358.88
357.761	348.88
357.988	349.88
358.215	353.88
358.441	360.88
358.668	340.88
358.895	373.88
359.122	351.88
359.349	385.88
359.576	384.88
359.802	375.88
360.029	377.88
360.256	415.88
360.483	405.88
360.709	375.88
360.936	357.88
361.163	376.88
361.39	364.88
361.616	360.88
361.843	368.88
362.07	369.88
362.296	376.88
362.523	371.88
362.749	383.88
362.976	367.88
363.203	376.88
363.429	351.88
363.656	367.88
363.882	361.88
364.109	359.88
364.335	350.88
364.562	341.88
364.788	349.88
365.015	355.88
365.241	373.88
365.468	391.88
365.694	361.88
365.92	371.88
366.147	359.88
366.373	369.88
366.599	371.88
366.826	345.88
367.052	341.88
367.278	372.88
367.505	379.88
367.731	357.88
367.957	374.88
368.184	375.88
368.41	348.88
368.636	362.88
368.862	358.88
369.089	380.88
369.315	347.88
369.541	371.88
369.767	361.88
369.993	362.88
370.219	363.88
370.445	382.88
370.672	357.88
370.898	375.88
371.124	357.88
371.35	365.88
371.576	369.88
371.802	357.88
372.028	354.88
372.254	362.88
372.48	360.88
372.706	348.88
372.932	362.88
373.158	372.88
373.384	369.88
373.61	377.88
373.835	359.88
374.061	371.88
374.287	365.88
374.513	369.88
374.739	373.88
374.965	404.88
375.191	387.88
375.416	374.88
375.642	385.88
375.868	372.88
376.094	381.88
376.319	376.88
376.545	359.88
376.771	397.88
376.997	376.88
377.222	366.88
377.448	363.88
377.674	367.88
377.899	357.88
378.125	351.88
378.35	357.88
378.576	358.88
378.802	345.88
379.027	356.88
379.253	340.88
379.478	375.88
379.704	357.88
379.929	363.88
380.155	379.88
380.38	339.88
380.606	370.88
380.831	353.88
381.057	361.88
381.282	349.88
381.507	362.88
381.733	374.88
381.958	359.88
382.184	383.88
382.409	371.88
382.634	382.88
382.86	366.88
383.085	381.88
383.31	385.88
383.535	375.88
383.761	371.88
383.986	419.88
384.211	389.88
384.436	408.88
384.662	388.88
384.887	403.88
385.112	410.88
385.337	409.88
385.562	409.88
385.787	407.88
386.013	403.88
386.238	424.88
386.463	420.88
386.688	395.88
386.913	403.88
387.138	399.88
387.363	416.88
387.588	414.88
387.813	401.88
388.038	418.88
388.263	397.88
388.488	409.88
388.713	420.88
388.938	423.88
389.163	405.88
389.387	397.88
389.612	398.88
389.837	393.88
390.062	395.88
390.287	398.88
390.512	398.88
390.736	397.88
390.961	398.88
391.186	415.88
391.411	432.88
391.636	431.88
391.86	419.88
392.085	453.88
392.31	475.88
392.534	425.88
392.759	440.88
392.984	443.88
393.208	420.88
393.433	445.88
393.658	429.88
393.882	429.88
394.107	429.88
394.331	418.88
394.556	427.88
394.78	431.88
395.005	452.88
395.229	424.88
395.454	428.88
395.678	447.88
395.903	420.88
396.127	443.88
396.352	451.88
396.576	432.88
396.801	434.88
397.025	440.88
397.249	469.88
397.474	453.88
397.698	439.88
397.922	463.88
398.147	471.88
398.371	474.88
398.595	470.88
398.82	471.88
399.044	518.88
399.268	533.88
399.492	604.88
399.717	616.88
399.941	651.88
400.165	645.88
400.389	599.88
400.613	551.88
400.837	532.88
401.062	510.88
401.286	499.88
401.51	501.88
401.734	475.88
401.958	511.88
402.182	487.88
402.406	503.88
402.63	490.88
402.854	514.88
403.078	511.88
403.302	529.88
403.526	511.88
403.75	530.88
403.974	536.88
404.198	543.88
404.422	571.88
404.645	544.88
404.869	571.88
405.093	582.88
405.317	642.88
405.541	650.88
405.765	599.88
405.988	538.88
406.212	542.88
406.436	562.88
406.66	577.88
406.883	548.88
407.107	583.88
407.331	596.88
407.555	648.88
407.778	656.88
408.002	626.88
408.226	575.88
408.449	573.88
408.673	560.88
408.896	575.88
409.12	564.88
409.344	573.88
409.567	522.88
409.791	529.88
410.014	502.88
410.238	501.88
410.461	504.88
410.685	517.88
410.908	529.88
411.132	564.88
411.355	542.88
411.578	550.88
411.802	532.88
412.025	509.88
412.249	551.88
412.472	556.88
412.695	598.88
412.919	625.88
413.142	567.88
413.365	537.88
413.589	514.88
413.812	483.88
414.035	476.88
414.258	496.88
414.482	512.88
414.705	475.88
414.928	488.88
415.151	480.88
415.374	501.88
415.597	472.88
415.821	470.88
416.044	498.88
416.267	468.88
416.49	480.88
416.713	472.88
416.936	477.88
417.159	480.88
417.382	509.88
417.605	490.88
417.828	504.88
418.051	519.88
418.274	505.88
418.497	475.88
418.72	488.88
418.943	497.88
419.166	499.88
419.389	534.88
419.611	545.88
419.834	516.88
420.057	532.88
420.28	543.88
420.503	533.88
420.726	540.88
420.948	537.88
421.171	522.88
421.394	571.88
421.617	506.88
421.839	483.88
422.062	471.88
422.285	502.88
422.507	552.88
422.73	556.88
422.953	556.88
423.175	516.88
423.398	501.88
423.621	511.88
423.843	515.88
424.066	514.88
424.288	514.88
424.511	548.88
424.733	560.88
424.956	597.88
425.178	588.88
425.401	550.88
425.623	583.88
425.846	511.88
426.068	492.88
426.291	492.88
426.513	484.88
426.735	505.88
426.958	515.88
427.18	549.88
427.402	622.88
427.625	671.88
427.847	645.88
428.069	609.88
428.292	543.88
428.514	474.88
428.736	461.88
428.958	474.88
429.181	456.88
429.403	461.88
429.625	444.88
429.847	468.88
430.069	503.88
430.292	533.88
430.514	472.88
430.736	437.88
430.958	439.88
431.18	429.88
431.402	438.88
431.624	435.88
431.846	450.88
432.068	446.88
432.29	458.88
432.512	441.88
432.734	439.88
432.956	440.88
433.178	433.88
433.4	459.88
433.622	449.88
433.844	437.88
434.066	445.88
434.287	440.88
434.509	448.88
434.731	460.88
434.953	460.88
435.175	512.88
435.397	485.88
435.618	486.88
435.84	483.88
436.062	547.88
436.284	632.88
436.505	511.88
436.727	489.88
436.949	464.88
437.17	455.88
437.392	449.88
437.614	439.88
437.835	475.88
438.057	513.88
438.278	583.88
438.5	597.88
438.721	647.88
438.943	609.88
439.165	488.88
439.386	470.88
439.608	460.88
439.829	484.88
440.05	483.88
440.272	514.88
440.493	498.88
440.715	490.88
440.936	480.88
441.158	474.88
441.379	464.88
441.6	481.88
441.822	484.88
442.043	509.88
442.264	548.88
442.486	588.88
442.707	523.88
442.928	493.88
443.149	524.88
443.371	509.88
443.592	543.88
443.813	597.88
444.034	646.88
444.255	571.88
444.476	533.88
444.698	520.88
444.919	555.88
445.14	657.88
445.361	570.88
445.582	531.88
445.803	554.88
446.024	608.88
446.245	621.88
446.466	578.88
446.687	496.88
446.908	471.88
447.129	461.88
447.35	455.88
447.571	449.88
447.792	433.88
448.013	446.88
448.234	452.88
448.455	465.88
448.675	555.88
448.896	601.88
449.117	500.88
449.338	507.88
449.559	579.88
449.779	638.88
450	530.88
450.221	452.88
450.442	423.88
450.662	421.88
450.883	421.88
451.104	453.88
451.324	433.88
451.545	424.88
451.766	419.88
451.986	400.88
452.207	400.88
452.428	390.88
452.648	402.88
452.869	417.88
453.089	414.88
453.31	427.88
453.53	388.88
453.751	391.88
453.971	417.88
454.192	401.88
454.412	400.88
454.633	408.88
454.853	372.88
455.073	380.88
455.294	435.88
455.514	460.88
455.734	436.88
455.955	404.88
456.175	373.88
456.395	393.88
456.616	379.88
456.836	371.88
457.056	395.88
457.276	394.88
457.497	382.88
457.717	375.88
457.937	378.88
458.157	392.88
458.377	393.88
458.598	420.88
458.818	464.88
459.038	476.88
459.258	511.88
459.478	473.88
459.698	431.88
459.918	443.88
460.138	450.88
460.358	490.88
460.578	489.88
460.798	472.88
461.018	495.88
461.238	469.88
461.458	477.88
461.678	459.88
461.898	475.88
462.118	477.88
462.338	500.88
462.558	500.88
462.777	532.88
462.997	551.88
463.217	569.88
463.437	576.88
463.657	530.88
463.876	509.88
464.096	517.88
464.316	532.88
464.536	523.88
464.755	521.88
464.975	516.88
465.195	513.88
465.414	527.88
465.634	491.88
465.854	457.88
466.073	424.88
466.293	440.88
466.512	424.88
466.732	412.88
466.951	414.88
467.171	431.88
467.391	421.88
467.61	423.88
467.829	437.88
468.049	432.88
468.268	456.88
468.488	445.88
468.707	431.88
468.927	420.88
469.146	406.88
469.365	416.88
469.585	412.88
469.804	416.88
470.023	447.88
470.243	439.88
470.462	440.88
470.681	448.88
470.901	436.88
471.12	453.88
471.339	451.88
471.558	434.88
471.777	444.88
471.997	429.88
472.216	469.88
472.435	547.88
472.654	529.88
472.873	464.88
473.092	448.88
473.311	436.88
473.53	419.88
473.749	427.88
473.968	461.88
474.187	503.88
474.406	519.88
474.625	429.88
474.844	420.88
475.063	417.88
475.282	421.88
475.501	411.88
475.72	403.88
475.939	405.88
476.158	437.88
476.377	425.88
476.596	420.88
476.814	420.88
477.033	428.88
477.252	419.88
477.471	453.88
477.69	426.88
477.908	467.88
478.127	464.88
478.346	460.88
478.564	500.88
478.783	483.88
479.002	488.88
479.22	468.88
479.439	505.88
479.658	504.88
479.876	509.88
480.095	524.88
480.313	544.88
480.532	555.88
480.751	565.88
480.969	581.88
481.188	714.88
481.406	798.88
481.624	639.88
481.843	579.88
482.061	531.88
482.28	502.88
482.498	476.88
482.717	510.88
482.935	517.88
483.153	484.88
483.372	491.88
483.59	468.88
483.808	489.88
484.027	484.88
484.245	467.88
484.463	485.88
484.681	509.88
484.9	479.88
485.118	503.88
485.336	501.88
485.554	498.88
485.772	512.88
485.99	517.88
486.209	490.88
486.427	493.88
486.645	516.88
486.863	511.88
487.081	515.88
487.299	508.88
487.517	533.88
487.735	500.88
487.953	497.88
488.171	503.88
488.389	514.88
488.607	519.88
488.825	508.88
489.043	521.88
489.261	531.88
489.479	539.88
489.696	529.88
489.914	518.88
490.132	521.88
490.35	534.88
490.568	545.88
490.786	545.88
491.003	560.88
491.221	570.88
491.439	591.88
491.657	600.88
491.874	579.88
492.092	610.88
492.31	599.88
492.527	625.88
492.745	627.88
492.963	629.88
493.18	626.88
493.398	612.88
493.615	608.88
493.833	600.88
494.05	610.88
494.268	589.88
494.485	598.88
494.703	592.88
494.92	634.88
495.138	615.88
495.355	587.88
495.573	580.88
495.79	614.88
496.008	589.88
496.225	589.88
496.442	602.88
496.66	603.88
496.877	613.88
497.094	635.88
497.312	603.88
497.529	623.88
497.746	633.88
497.963	659.88
498.181	666.88
498.398	671.88
498.615	687.88
498.832	727.88
499.049	759.88
499.267	785.88
499.484	803.88
499.701	855.88
499.918	929.88
500.135	1044.88
500.352	1115.88
500.569	1104.88
500.786	1159.88
501.003	1091.88
501.22	1023.88
501.437	939.88
501.654	872.88
501.871	834.88
