Data from 1984.PennyLincolnUp.Lamp.En5.5.200Scan.071819.P1_HRD10591_16-59-26-969.txt Node
Date: Thu Jul 18 16:59:26 EDT 2019
User: cochatt
Spectrometer: HR+D1059
Trigger mode: 1
Integration Time (sec): 1.000000E-1
Scans to average: 1
Electric dark correction enabled: true
Nonlinearity correction enabled: false
Boxcar width: 0
XAxis mode: Wavelengths
Number of Pixels in Spectrum: 2048
>>>>>Begin Spectral Data<<<<<
223.165	-6.88
223.4	-6.88
223.635	-6.88
223.869	-25.88
224.104	-20.88
224.338	-28.88
224.573	-20.88
224.808	-2.88
225.042	5.12
225.277	-5.88
225.511	-5.88
225.746	-0.88
225.98	9.12
226.215	10.12
226.449	14.12
226.683	17.12
226.918	28.12
227.152	35.12
227.387	18.12
227.621	26.12
227.856	52.12
228.09	51.12
228.324	55.12
228.559	51.12
228.793	48.12
229.027	94.12
229.262	83.12
229.496	85.12
229.73	122.12
229.964	118.12
230.199	103.12
230.433	109.12
230.667	95.12
230.901	115.12
231.136	109.12
231.37	91.12
231.604	112.12
231.838	111.12
232.072	107.12
232.306	119.12
232.541	108.12
232.775	121.12
233.009	111.12
233.243	99.12
233.477	102.12
233.711	113.12
233.945	109.12
234.179	114.12
234.413	91.12
234.647	98.12
234.881	106.12
235.115	114.12
235.349	112.12
235.583	111.12
235.817	118.12
236.051	141.12
236.285	111.12
236.519	111.12
236.753	122.12
236.987	118.12
237.221	144.12
237.455	155.12
237.689	141.12
237.922	129.12
238.156	121.12
238.39	115.12
238.624	123.12
238.858	122.12
239.091	114.12
239.325	114.12
239.559	128.12
239.793	127.12
240.027	125.12
240.26	134.12
240.494	122.12
240.728	137.12
240.961	131.12
241.195	134.12
241.429	117.12
241.662	132.12
241.896	137.12
242.13	121.12
242.363	130.12
242.597	125.12
242.83	127.12
243.064	130.12
243.298	124.12
243.531	114.12
243.765	124.12
243.998	129.12
244.232	139.12
244.465	132.12
244.699	128.12
244.932	128.12
245.166	145.12
245.399	145.12
245.633	140.12
245.866	135.12
246.099	135.12
246.333	129.12
246.566	124.12
246.8	131.12
247.033	141.12
247.266	161.12
247.5	147.12
247.733	154.12
247.966	169.12
248.2	152.12
248.433	143.12
248.666	140.12
248.899	166.12
249.133	180.12
249.366	185.12
249.599	186.12
249.832	165.12
250.066	171.12
250.299	183.12
250.532	188.12
250.765	187.12
250.998	205.12
251.231	191.12
251.465	178.12
251.698	200.12
251.931	170.12
252.164	179.12
252.397	183.12
252.63	172.12
252.863	170.12
253.096	179.12
253.329	179.12
253.562	204.12
253.795	169.12
254.028	176.12
254.261	179.12
254.494	187.12
254.727	207.12
254.96	214.12
255.193	206.12
255.426	202.12
255.659	209.12
255.892	238.12
256.124	251.12
256.357	265.12
256.59	228.12
256.823	227.12
257.056	194.12
257.289	215.12
257.521	183.12
257.754	219.12
257.987	197.12
258.22	188.12
258.452	192.12
258.685	192.12
258.918	172.12
259.151	208.12
259.383	202.12
259.616	203.12
259.849	195.12
260.081	203.12
260.314	212.12
260.547	220.12
260.779	211.12
261.012	185.12
261.244	205.12
261.477	205.12
261.71	200.12
261.942	202.12
262.175	171.12
262.407	195.12
262.64	187.12
262.872	198.12
263.105	195.12
263.337	198.12
263.57	187.12
263.802	211.12
264.035	207.12
264.267	205.12
264.499	211.12
264.732	199.12
264.964	197.12
265.197	211.12
265.429	205.12
265.661	194.12
265.894	195.12
266.126	194.12
266.358	203.12
266.591	227.12
266.823	200.12
267.055	218.12
267.287	231.12
267.52	211.12
267.752	218.12
267.984	218.12
268.216	203.12
268.448	219.12
268.681	220.12
268.913	221.12
269.145	241.12
269.377	223.12
269.609	199.12
269.841	232.12
270.073	240.12
270.306	247.12
270.538	247.12
270.77	280.12
271.002	259.12
271.234	246.12
271.466	254.12
271.698	258.12
271.93	283.12
272.162	269.12
272.394	266.12
272.626	260.12
272.858	248.12
273.09	267.12
273.322	228.12
273.553	233.12
273.785	257.12
274.017	230.12
274.249	248.12
274.481	245.12
274.713	248.12
274.945	244.12
275.176	249.12
275.408	248.12
275.64	240.12
275.872	241.12
276.104	226.12
276.335	250.12
276.567	249.12
276.799	262.12
277.031	275.12
277.262	270.12
277.494	285.12
277.726	275.12
277.957	258.12
278.189	258.12
278.421	255.12
278.652	259.12
278.884	262.12
279.115	236.12
279.347	267.12
279.579	282.12
279.81	259.12
280.042	247.12
280.273	261.12
280.505	247.12
280.736	257.12
280.968	269.12
281.199	259.12
281.431	257.12
281.662	250.12
281.894	257.12
282.125	259.12
282.356	267.12
282.588	311.12
282.819	281.12
283.051	263.12
283.282	257.12
283.513	258.12
283.745	259.12
283.976	262.12
284.207	268.12
284.439	279.12
284.67	271.12
284.901	273.12
285.132	281.12
285.364	269.12
285.595	275.12
285.826	281.12
286.057	281.12
286.288	267.12
286.52	284.12
286.751	268.12
286.982	271.12
287.213	279.12
287.444	274.12
287.675	260.12
287.906	266.12
288.138	289.12
288.369	279.12
288.6	290.12
288.831	291.12
289.062	312.12
289.293	294.12
289.524	279.12
289.755	303.12
289.986	289.12
290.217	289.12
290.448	279.12
290.679	288.12
290.91	301.12
291.141	272.12
291.371	279.12
291.602	273.12
291.833	288.12
292.064	283.12
292.295	279.12
292.526	291.12
292.757	277.12
292.987	305.12
293.218	273.12
293.449	282.12
293.68	281.12
293.91	285.12
294.141	277.12
294.372	283.12
294.603	284.12
294.833	286.12
295.064	296.12
295.295	274.12
295.525	283.12
295.756	291.12
295.987	294.12
296.217	324.12
296.448	305.12
296.679	298.12
296.909	289.12
297.14	298.12
297.37	306.12
297.601	291.12
297.831	296.12
298.062	300.12
298.292	287.12
298.523	307.12
298.753	295.12
298.984	324.12
299.214	273.12
299.445	307.12
299.675	311.12
299.905	311.12
300.136	315.12
300.366	315.12
300.597	310.12
300.827	311.12
301.057	316.12
301.288	326.12
301.518	330.12
301.748	331.12
301.979	327.12
302.209	324.12
302.439	331.12
302.669	311.12
302.9	333.12
303.13	298.12
303.36	303.12
303.59	304.12
303.82	319.12
304.051	311.12
304.281	327.12
304.511	312.12
304.741	315.12
304.971	316.12
305.201	293.12
305.431	287.12
305.661	324.12
305.891	320.12
306.121	303.12
306.352	328.12
306.582	310.12
306.812	326.12
307.042	340.12
307.272	315.12
307.502	316.12
307.731	332.12
307.961	321.12
308.191	321.12
308.421	310.12
308.651	329.12
308.881	312.12
309.111	333.12
309.341	327.12
309.571	322.12
309.8	318.12
310.03	330.12
310.26	325.12
310.49	322.12
310.72	327.12
310.949	356.12
311.179	336.12
311.409	326.12
311.639	351.12
311.868	336.12
312.098	349.12
312.328	349.12
312.557	354.12
312.787	360.12
313.017	353.12
313.246	344.12
313.476	355.12
313.706	359.12
313.935	355.12
314.165	359.12
314.394	354.12
314.624	357.12
314.853	347.12
315.083	354.12
315.312	347.12
315.542	370.12
315.771	345.12
316.001	351.12
316.23	352.12
316.46	335.12
316.689	368.12
316.919	354.12
317.148	355.12
317.377	363.12
317.607	344.12
317.836	334.12
318.065	358.12
318.295	349.12
318.524	334.12
318.753	338.12
318.983	353.12
319.212	349.12
319.441	371.12
319.67	350.12
319.9	349.12
320.129	342.12
320.358	347.12
320.587	364.12
320.816	360.12
321.046	363.12
321.275	355.12
321.504	369.12
321.733	364.12
321.962	376.12
322.191	377.12
322.42	400.12
322.649	380.12
322.878	385.12
323.108	391.12
323.337	393.12
323.566	426.12
323.795	438.12
324.024	464.12
324.253	554.12
324.482	701.12
324.71	1062.12
324.939	1468.12
325.168	1193.12
325.397	695.12
325.626	503.12
325.855	461.12
326.084	439.12
326.313	443.12
326.542	447.12
326.77	487.12
326.999	530.12
327.228	679.12
327.457	960.12
327.686	1157.12
327.914	793.12
328.143	601.12
328.372	541.12
328.6	515.12
328.829	469.12
329.058	487.12
329.287	480.12
329.515	485.12
329.744	477.12
329.972	507.12
330.201	557.12
330.43	592.12
330.658	575.12
330.887	538.12
331.115	513.12
331.344	458.12
331.572	439.12
331.801	456.12
332.03	460.12
332.258	444.12
332.486	449.12
332.715	445.12
332.943	465.12
333.172	472.12
333.4	475.12
333.629	497.12
333.857	543.12
334.085	584.12
334.314	610.12
334.542	668.12
334.771	669.12
334.999	556.12
335.227	512.12
335.455	474.12
335.684	472.12
335.912	451.12
336.14	415.12
336.369	428.12
336.597	420.12
336.825	448.12
337.053	443.12
337.281	423.12
337.51	412.12
337.738	430.12
337.966	407.12
338.194	401.12
338.422	419.12
338.65	432.12
338.878	411.12
339.106	413.12
339.334	397.12
339.562	380.12
339.79	401.12
340.018	394.12
340.246	379.12
340.474	380.12
340.702	387.12
340.93	404.12
341.158	401.12
341.386	399.12
341.614	389.12
341.842	384.12
342.07	380.12
342.298	391.12
342.526	379.12
342.754	381.12
342.981	400.12
343.209	383.12
343.437	407.12
343.665	403.12
343.893	417.12
344.12	419.12
344.348	409.12
344.576	419.12
344.804	422.12
345.031	404.12
345.259	401.12
345.487	407.12
345.714	395.12
345.942	373.12
346.17	374.12
346.397	401.12
346.625	386.12
346.853	371.12
347.08	376.12
347.308	375.12
347.535	394.12
347.763	383.12
347.99	371.12
348.218	384.12
348.445	393.12
348.673	383.12
348.9	367.12
349.128	389.12
349.355	377.12
349.583	363.12
349.81	367.12
350.037	361.12
350.265	368.12
350.492	357.12
350.72	372.12
350.947	361.12
351.174	365.12
351.402	379.12
351.629	375.12
351.856	376.12
352.083	370.12
352.311	372.12
352.538	388.12
352.765	355.12
352.992	363.12
353.22	365.12
353.447	388.12
353.674	375.12
353.901	357.12
354.128	363.12
354.355	336.12
354.583	362.12
354.81	347.12
355.037	355.12
355.264	353.12
355.491	352.12
355.718	358.12
355.945	352.12
356.172	338.12
356.399	339.12
356.626	353.12
356.853	343.12
357.08	350.12
357.307	333.12
357.534	348.12
357.761	343.12
357.988	333.12
358.215	367.12
358.441	335.12
358.668	367.12
358.895	362.12
359.122	355.12
359.349	365.12
359.576	361.12
359.802	357.12
360.029	396.12
360.256	401.12
360.483	385.12
360.709	367.12
360.936	370.12
361.163	356.12
361.39	371.12
361.616	359.12
361.843	372.12
362.07	379.12
362.296	362.12
362.523	360.12
362.749	367.12
362.976	379.12
363.203	359.12
363.429	357.12
363.656	360.12
363.882	358.12
364.109	339.12
364.335	359.12
364.562	353.12
364.788	348.12
365.015	317.12
365.241	361.12
365.468	371.12
365.694	373.12
365.92	372.12
366.147	346.12
366.373	351.12
366.599	360.12
366.826	346.12
367.052	347.12
367.278	372.12
367.505	363.12
367.731	365.12
367.957	361.12
368.184	348.12
368.41	371.12
368.636	359.12
368.862	346.12
369.089	358.12
369.315	351.12
369.541	349.12
369.767	356.12
369.993	360.12
370.219	368.12
370.445	344.12
370.672	360.12
370.898	355.12
371.124	368.12
371.35	363.12
371.576	350.12
371.802	372.12
372.028	373.12
372.254	375.12
372.48	375.12
372.706	355.12
372.932	358.12
373.158	356.12
373.384	368.12
373.61	367.12
373.835	340.12
374.061	377.12
374.287	359.12
374.513	374.12
374.739	387.12
374.965	383.12
375.191	373.12
375.416	384.12
375.642	374.12
375.868	369.12
376.094	354.12
376.319	342.12
376.545	371.12
376.771	358.12
376.997	355.12
377.222	376.12
377.448	363.12
377.674	351.12
377.899	347.12
378.125	334.12
378.35	363.12
378.576	345.12
378.802	348.12
379.027	352.12
379.253	352.12
379.478	369.12
379.704	349.12
379.929	373.12
380.155	361.12
380.38	379.12
380.606	355.12
380.831	347.12
381.057	364.12
381.282	361.12
381.507	362.12
381.733	361.12
381.958	341.12
382.184	356.12
382.409	362.12
382.634	372.12
382.86	371.12
383.085	381.12
383.31	380.12
383.535	385.12
383.761	364.12
383.986	385.12
384.211	383.12
384.436	381.12
384.662	396.12
384.887	397.12
385.112	382.12
385.337	398.12
385.562	395.12
385.787	407.12
386.013	397.12
386.238	398.12
386.463	415.12
386.688	397.12
386.913	409.12
387.138	388.12
387.363	405.12
387.588	403.12
387.813	408.12
388.038	408.12
388.263	391.12
388.488	389.12
388.713	399.12
388.938	410.12
389.163	386.12
389.387	398.12
389.612	411.12
389.837	396.12
390.062	411.12
390.287	396.12
390.512	394.12
390.736	411.12
390.961	412.12
391.186	415.12
391.411	415.12
391.636	404.12
391.86	424.12
392.085	437.12
392.31	457.12
392.534	415.12
392.759	427.12
392.984	416.12
393.208	398.12
393.433	391.12
393.658	419.12
393.882	400.12
394.107	406.12
394.331	443.12
394.556	416.12
394.78	426.12
395.005	439.12
395.229	442.12
395.454	429.12
395.678	419.12
395.903	423.12
396.127	447.12
396.352	435.12
396.576	425.12
396.801	432.12
397.025	441.12
397.249	429.12
397.474	418.12
397.698	443.12
397.922	454.12
398.147	455.12
398.371	458.12
398.595	458.12
398.82	464.12
399.044	488.12
399.268	512.12
399.492	577.12
399.717	631.12
399.941	604.12
400.165	608.12
400.389	581.12
400.613	533.12
400.837	506.12
401.062	483.12
401.286	472.12
401.51	488.12
401.734	464.12
401.958	458.12
402.182	484.12
402.406	484.12
402.63	480.12
402.854	511.12
403.078	507.12
403.302	508.12
403.526	509.12
403.75	513.12
403.974	498.12
404.198	533.12
404.422	505.12
404.645	526.12
404.869	529.12
405.093	564.12
405.317	581.12
405.541	601.12
405.765	555.12
405.988	511.12
406.212	555.12
406.436	545.12
406.66	536.12
406.883	526.12
407.107	574.12
407.331	595.12
407.555	622.12
407.778	641.12
408.002	599.12
408.226	556.12
408.449	543.12
408.673	548.12
408.896	559.12
409.12	562.12
409.344	559.12
409.567	539.12
409.791	505.12
410.014	505.12
410.238	488.12
410.461	516.12
410.685	485.12
410.908	493.12
411.132	533.12
411.355	498.12
411.578	536.12
411.802	513.12
412.025	515.12
412.249	501.12
412.472	541.12
412.695	585.12
412.919	568.12
413.142	520.12
413.365	515.12
413.589	503.12
413.812	461.12
414.035	496.12
414.258	453.12
414.482	476.12
414.705	488.12
414.928	475.12
415.151	473.12
415.374	474.12
415.597	471.12
415.821	462.12
416.044	479.12
416.267	497.12
416.49	457.12
416.713	454.12
416.936	455.12
417.159	461.12
417.382	447.12
417.605	472.12
417.828	477.12
418.051	484.12
418.274	483.12
418.497	479.12
418.72	496.12
418.943	473.12
419.166	495.12
419.389	522.12
419.611	522.12
419.834	498.12
420.057	517.12
420.28	528.12
420.503	506.12
420.726	523.12
420.948	497.12
421.171	527.12
421.394	523.12
421.617	503.12
421.839	500.12
422.062	479.12
422.285	474.12
422.507	504.12
422.73	569.12
422.953	540.12
423.175	480.12
423.398	485.12
423.621	495.12
423.843	506.12
424.066	499.12
424.288	487.12
424.511	521.12
424.733	535.12
424.956	575.12
425.178	562.12
425.401	553.12
425.623	547.12
425.846	519.12
426.068	490.12
426.291	484.12
426.513	475.12
426.735	474.12
426.958	508.12
427.18	548.12
427.402	613.12
427.625	683.12
427.847	601.12
428.069	584.12
428.292	532.12
428.514	494.12
428.736	444.12
428.958	461.12
429.181	448.12
429.403	451.12
429.625	464.12
429.847	474.12
430.069	508.12
430.292	508.12
430.514	446.12
430.736	453.12
430.958	430.12
431.18	420.12
431.402	434.12
431.624	445.12
431.846	428.12
432.068	420.12
432.29	432.12
432.512	431.12
432.734	420.12
432.956	441.12
433.178	435.12
433.4	433.12
433.622	425.12
433.844	453.12
434.066	432.12
434.287	429.12
434.509	443.12
434.731	454.12
434.953	464.12
435.175	467.12
435.397	503.12
435.618	492.12
435.84	480.12
436.062	545.12
436.284	599.12
436.505	499.12
436.727	467.12
436.949	454.12
437.17	435.12
437.392	451.12
437.614	423.12
437.835	489.12
438.057	521.12
438.278	567.12
438.5	551.12
438.721	609.12
438.943	581.12
439.165	499.12
439.386	463.12
439.608	455.12
439.829	447.12
440.05	478.12
440.272	509.12
440.493	495.12
440.715	443.12
440.936	459.12
441.158	458.12
441.379	467.12
441.6	474.12
441.822	471.12
442.043	508.12
442.264	538.12
442.486	556.12
442.707	517.12
442.928	488.12
443.149	499.12
443.371	508.12
443.592	522.12
443.813	592.12
444.034	615.12
444.255	567.12
444.476	531.12
444.698	521.12
444.919	525.12
445.14	591.12
445.361	543.12
445.582	506.12
445.803	563.12
446.024	596.12
446.245	578.12
446.466	544.12
446.687	459.12
446.908	469.12
447.129	441.12
447.35	443.12
447.571	436.12
447.792	428.12
448.013	427.12
448.234	433.12
448.455	467.12
448.675	534.12
448.896	600.12
449.117	540.12
449.338	517.12
449.559	546.12
449.779	618.12
450	511.12
450.221	444.12
450.442	420.12
450.662	421.12
450.883	429.12
451.104	433.12
451.324	407.12
451.545	401.12
451.766	403.12
451.986	387.12
452.207	397.12
452.428	394.12
452.648	411.12
452.869	403.12
453.089	396.12
453.31	387.12
453.53	377.12
453.751	409.12
453.971	395.12
454.192	417.12
454.412	405.12
454.633	378.12
454.853	376.12
455.073	412.12
455.294	374.12
455.514	434.12
455.734	429.12
455.955	384.12
456.175	382.12
456.395	375.12
456.616	377.12
456.836	392.12
457.056	384.12
457.276	359.12
457.497	369.12
457.717	377.12
457.937	385.12
458.157	376.12
458.377	387.12
458.598	422.12
458.818	428.12
459.038	499.12
459.258	482.12
459.478	454.12
459.698	442.12
459.918	441.12
460.138	440.12
460.358	479.12
460.578	479.12
460.798	479.12
461.018	476.12
461.238	463.12
461.458	471.12
461.678	442.12
461.898	470.12
462.118	459.12
462.338	470.12
462.558	475.12
462.777	500.12
462.997	529.12
463.217	556.12
463.437	559.12
463.657	531.12
463.876	513.12
464.096	507.12
464.316	512.12
464.536	543.12
464.755	504.12
464.975	520.12
465.195	527.12
465.414	512.12
465.634	462.12
465.854	442.12
466.073	428.12
466.293	432.12
466.512	411.12
466.732	415.12
466.951	420.12
467.171	443.12
467.391	423.12
467.61	412.12
467.829	422.12
468.049	416.12
468.268	422.12
468.488	427.12
468.707	395.12
468.927	411.12
469.146	390.12
469.365	400.12
469.585	414.12
469.804	393.12
470.023	441.12
470.243	428.12
470.462	423.12
470.681	438.12
470.901	413.12
471.12	419.12
471.339	425.12
471.558	423.12
471.777	424.12
471.997	418.12
472.216	450.12
472.435	473.12
472.654	487.12
472.873	436.12
473.092	412.12
473.311	443.12
473.53	394.12
473.749	413.12
473.968	440.12
474.187	478.12
474.406	471.12
474.625	437.12
474.844	404.12
475.063	416.12
475.282	425.12
475.501	420.12
475.72	410.12
475.939	405.12
476.158	417.12
476.377	409.12
476.596	421.12
476.814	425.12
477.033	417.12
477.252	428.12
477.471	441.12
477.69	433.12
477.908	424.12
478.127	460.12
478.346	460.12
478.564	472.12
478.783	450.12
479.002	476.12
479.22	469.12
479.439	473.12
479.658	489.12
479.876	507.12
480.095	494.12
480.313	549.12
480.532	535.12
480.751	518.12
480.969	532.12
481.188	631.12
481.406	725.12
481.624	588.12
481.843	552.12
482.061	519.12
482.28	498.12
482.498	480.12
482.717	490.12
482.935	481.12
483.153	468.12
483.372	470.12
483.59	503.12
483.808	482.12
484.027	464.12
484.245	476.12
484.463	483.12
484.681	487.12
484.9	492.12
485.118	474.12
485.336	474.12
485.554	471.12
485.772	480.12
485.99	485.12
486.209	478.12
486.427	488.12
486.645	491.12
486.863	512.12
487.081	513.12
487.299	502.12
487.517	490.12
487.735	508.12
487.953	497.12
488.171	475.12
488.389	522.12
488.607	507.12
488.825	507.12
489.043	504.12
489.261	492.12
489.479	481.12
489.696	505.12
489.914	498.12
490.132	522.12
490.35	545.12
490.568	546.12
490.786	542.12
491.003	539.12
491.221	543.12
491.439	553.12
491.657	570.12
491.874	549.12
492.092	569.12
492.31	579.12
492.527	592.12
492.745	604.12
492.963	588.12
493.18	568.12
493.398	590.12
493.615	563.12
493.833	580.12
494.05	584.12
494.268	593.12
494.485	595.12
494.703	585.12
494.92	558.12
495.138	574.12
495.355	594.12
495.573	583.12
495.79	563.12
496.008	582.12
496.225	577.12
496.442	564.12
496.66	594.12
496.877	596.12
497.094	590.12
497.312	593.12
497.529	610.12
497.746	611.12
497.963	607.12
498.181	640.12
498.398	641.12
498.615	702.12
498.832	712.12
499.049	739.12
499.267	760.12
499.484	811.12
499.701	866.12
499.918	899.12
500.135	988.12
500.352	1053.12
500.569	1099.12
500.786	1131.12
501.003	1078.12
501.22	1003.12
501.437	928.12
501.654	868.12
501.871	824.12
502.088	797.12
