Data from 1984.PennyLincolnUp.Lamp.En5.5.200Scan.071819.P1_HRD10591_16-57-48-968.txt Node
Date: Thu Jul 18 16:57:48 EDT 2019
User: cochatt
Spectrometer: HR+D1059
Trigger mode: 1
Integration Time (sec): 1.000000E-1
Scans to average: 1
Electric dark correction enabled: true
Nonlinearity correction enabled: false
Boxcar width: 0
XAxis mode: Wavelengths
Number of Pixels in Spectrum: 2048
>>>>>Begin Spectral Data<<<<<
223.165	-3.75
223.4	-3.75
223.635	-3.75
223.869	-24.75
224.104	-19.75
224.338	-17.75
224.573	-14.75
224.808	-6.75
225.042	-18.75
225.277	1.25
225.511	-4.75
225.746	2.25
225.98	10.25
226.215	4.25
226.449	23.25
226.683	25.25
226.918	22.25
227.152	22.25
227.387	37.25
227.621	35.25
227.856	39.25
228.09	45.25
228.324	50.25
228.559	50.25
228.793	55.25
229.027	80.25
229.262	95.25
229.496	96.25
229.73	96.25
229.964	136.25
230.199	118.25
230.433	100.25
230.667	114.25
230.901	118.25
231.136	106.25
231.37	102.25
231.604	99.25
231.838	100.25
232.072	105.25
232.306	99.25
232.541	93.25
232.775	105.25
233.009	115.25
233.243	103.25
233.477	119.25
233.711	122.25
233.945	116.25
234.179	113.25
234.413	114.25
234.647	97.25
234.881	100.25
235.115	104.25
235.349	104.25
235.583	123.25
235.817	106.25
236.051	118.25
236.285	100.25
236.519	123.25
236.753	108.25
236.987	135.25
237.221	144.25
237.455	164.25
237.689	152.25
237.922	117.25
238.156	121.25
238.39	114.25
238.624	123.25
238.858	113.25
239.091	116.25
239.325	119.25
239.559	105.25
239.793	104.25
240.027	119.25
240.26	139.25
240.494	131.25
240.728	131.25
240.961	125.25
241.195	132.25
241.429	134.25
241.662	131.25
241.896	127.25
242.13	130.25
242.363	135.25
242.597	119.25
242.83	123.25
243.064	122.25
243.298	130.25
243.531	124.25
243.765	127.25
243.998	136.25
244.232	133.25
244.465	136.25
244.699	139.25
244.932	142.25
245.166	148.25
245.399	139.25
245.633	137.25
245.866	141.25
246.099	131.25
246.333	141.25
246.566	129.25
246.8	132.25
247.033	147.25
247.266	150.25
247.5	154.25
247.733	169.25
247.966	152.25
248.2	153.25
248.433	146.25
248.666	169.25
248.899	159.25
249.133	179.25
249.366	159.25
249.599	154.25
249.832	166.25
250.066	154.25
250.299	146.25
250.532	164.25
250.765	179.25
250.998	194.25
251.231	173.25
251.465	183.25
251.698	195.25
251.931	182.25
252.164	159.25
252.397	171.25
252.63	161.25
252.863	186.25
253.096	180.25
253.329	204.25
253.562	183.25
253.795	193.25
254.028	194.25
254.261	168.25
254.494	189.25
254.727	193.25
254.96	225.25
255.193	187.25
255.426	209.25
255.659	189.25
255.892	185.25
256.124	193.25
256.357	190.25
256.59	199.25
256.823	201.25
257.056	182.25
257.289	175.25
257.521	171.25
257.754	188.25
257.987	190.25
258.22	174.25
258.452	175.25
258.685	179.25
258.918	191.25
259.151	177.25
259.383	197.25
259.616	186.25
259.849	202.25
260.081	202.25
260.314	214.25
260.547	215.25
260.779	206.25
261.012	199.25
261.244	190.25
261.477	207.25
261.71	167.25
261.942	204.25
262.175	197.25
262.407	194.25
262.64	198.25
262.872	197.25
263.105	203.25
263.337	194.25
263.57	183.25
263.802	185.25
264.035	194.25
264.267	183.25
264.499	185.25
264.732	201.25
264.964	218.25
265.197	195.25
265.429	196.25
265.661	195.25
265.894	196.25
266.126	188.25
266.358	190.25
266.591	195.25
266.823	215.25
267.055	195.25
267.287	217.25
267.52	204.25
267.752	217.25
267.984	211.25
268.216	229.25
268.448	205.25
268.681	207.25
268.913	225.25
269.145	207.25
269.377	237.25
269.609	237.25
269.841	223.25
270.073	243.25
270.306	248.25
270.538	252.25
270.77	246.25
271.002	254.25
271.234	236.25
271.466	252.25
271.698	273.25
271.93	265.25
272.162	263.25
272.394	252.25
272.626	261.25
272.858	244.25
273.09	245.25
273.322	229.25
273.553	254.25
273.785	239.25
274.017	245.25
274.249	251.25
274.481	230.25
274.713	242.25
274.945	234.25
275.176	232.25
275.408	230.25
275.64	265.25
275.872	235.25
276.104	249.25
276.335	254.25
276.567	245.25
276.799	247.25
277.031	257.25
277.262	272.25
277.494	267.25
277.726	261.25
277.957	249.25
278.189	257.25
278.421	252.25
278.652	243.25
278.884	250.25
279.115	231.25
279.347	243.25
279.579	239.25
279.81	243.25
280.042	248.25
280.273	251.25
280.505	249.25
280.736	233.25
280.968	256.25
281.199	252.25
281.431	251.25
281.662	264.25
281.894	258.25
282.125	254.25
282.356	252.25
282.588	278.25
282.819	277.25
283.051	242.25
283.282	254.25
283.513	271.25
283.745	265.25
283.976	263.25
284.207	260.25
284.439	268.25
284.67	266.25
284.901	260.25
285.132	259.25
285.364	265.25
285.595	270.25
285.826	267.25
286.057	261.25
286.288	275.25
286.52	280.25
286.751	271.25
286.982	258.25
287.213	274.25
287.444	287.25
287.675	283.25
287.906	294.25
288.138	289.25
288.369	276.25
288.6	282.25
288.831	273.25
289.062	285.25
289.293	286.25
289.524	266.25
289.755	263.25
289.986	290.25
290.217	283.25
290.448	278.25
290.679	289.25
290.91	265.25
291.141	289.25
291.371	282.25
291.602	271.25
291.833	266.25
292.064	270.25
292.295	270.25
292.526	284.25
292.757	293.25
292.987	283.25
293.218	272.25
293.449	270.25
293.68	282.25
293.91	262.25
294.141	288.25
294.372	279.25
294.603	278.25
294.833	271.25
295.064	293.25
295.295	273.25
295.525	284.25
295.756	298.25
295.987	294.25
296.217	321.25
296.448	321.25
296.679	268.25
296.909	298.25
297.14	291.25
297.37	306.25
297.601	279.25
297.831	293.25
298.062	298.25
298.292	291.25
298.523	286.25
298.753	304.25
298.984	291.25
299.214	308.25
299.445	278.25
299.675	311.25
299.905	279.25
300.136	286.25
300.366	311.25
300.597	299.25
300.827	290.25
301.057	324.25
301.288	326.25
301.518	315.25
301.748	316.25
301.979	319.25
302.209	309.25
302.439	318.25
302.669	300.25
302.9	300.25
303.13	326.25
303.36	303.25
303.59	323.25
303.82	317.25
304.051	329.25
304.281	319.25
304.511	324.25
304.741	318.25
304.971	303.25
305.201	319.25
305.431	302.25
305.661	315.25
305.891	310.25
306.121	319.25
306.352	301.25
306.582	326.25
306.812	307.25
307.042	298.25
307.272	317.25
307.502	303.25
307.731	325.25
307.961	323.25
308.191	314.25
308.421	305.25
308.651	321.25
308.881	331.25
309.111	321.25
309.341	305.25
309.571	312.25
309.8	327.25
310.03	319.25
310.26	317.25
310.49	311.25
310.72	330.25
310.949	349.25
311.179	321.25
311.409	350.25
311.639	350.25
311.868	330.25
312.098	327.25
312.328	352.25
312.557	349.25
312.787	359.25
313.017	352.25
313.246	341.25
313.476	351.25
313.706	349.25
313.935	338.25
314.165	369.25
314.394	358.25
314.624	341.25
314.853	354.25
315.083	346.25
315.312	351.25
315.542	348.25
315.771	332.25
316.001	345.25
316.23	335.25
316.46	342.25
316.689	347.25
316.919	324.25
317.148	349.25
317.377	351.25
317.607	353.25
317.836	339.25
318.065	340.25
318.295	343.25
318.524	345.25
318.753	320.25
318.983	335.25
319.212	330.25
319.441	356.25
319.67	367.25
319.9	339.25
320.129	337.25
320.358	336.25
320.587	335.25
320.816	353.25
321.046	357.25
321.275	343.25
321.504	350.25
321.733	348.25
321.962	355.25
322.191	377.25
322.42	371.25
322.649	356.25
322.878	379.25
323.108	372.25
323.337	378.25
323.566	390.25
323.795	421.25
324.024	430.25
324.253	520.25
324.482	644.25
324.71	898.25
324.939	1226.25
325.168	1070.25
325.397	629.25
325.626	466.25
325.855	403.25
326.084	426.25
326.313	393.25
326.542	386.25
326.77	423.25
326.999	501.25
327.228	602.25
327.457	857.25
327.686	959.25
327.914	694.25
328.143	501.25
328.372	457.25
328.6	440.25
328.829	436.25
329.058	453.25
329.287	435.25
329.515	407.25
329.744	403.25
329.972	408.25
330.201	430.25
330.43	443.25
330.658	437.25
330.887	467.25
331.115	457.25
331.344	422.25
331.572	412.25
331.801	429.25
332.03	416.25
332.258	437.25
332.486	400.25
332.715	419.25
332.943	421.25
333.172	420.25
333.4	455.25
333.629	470.25
333.857	470.25
334.085	442.25
334.314	459.25
334.542	473.25
334.771	445.25
334.999	452.25
335.227	453.25
335.455	441.25
335.684	431.25
335.912	433.25
336.14	422.25
336.369	411.25
336.597	417.25
336.825	434.25
337.053	417.25
337.281	396.25
337.51	404.25
337.738	420.25
337.966	406.25
338.194	408.25
338.422	400.25
338.65	383.25
338.878	397.25
339.106	387.25
339.334	396.25
339.562	389.25
339.79	374.25
340.018	400.25
340.246	387.25
340.474	363.25
340.702	364.25
340.93	398.25
341.158	385.25
341.386	395.25
341.614	385.25
341.842	367.25
342.07	389.25
342.298	367.25
342.526	381.25
342.754	377.25
342.981	372.25
343.209	361.25
343.437	373.25
343.665	379.25
343.893	405.25
344.12	406.25
344.348	432.25
344.576	410.25
344.804	407.25
345.031	390.25
345.259	380.25
345.487	399.25
345.714	376.25
345.942	387.25
346.17	377.25
346.397	350.25
346.625	356.25
346.853	380.25
347.08	355.25
347.308	362.25
347.535	374.25
347.763	374.25
347.99	377.25
348.218	375.25
348.445	357.25
348.673	351.25
348.9	365.25
349.128	350.25
349.355	362.25
349.583	358.25
349.81	350.25
350.037	346.25
350.265	351.25
350.492	366.25
350.72	370.25
350.947	365.25
351.174	355.25
351.402	352.25
351.629	362.25
351.856	372.25
352.083	371.25
352.311	366.25
352.538	351.25
352.765	374.25
352.992	370.25
353.22	347.25
353.447	349.25
353.674	363.25
353.901	346.25
354.128	333.25
354.355	346.25
354.583	347.25
354.81	361.25
355.037	344.25
355.264	354.25
355.491	334.25
355.718	354.25
355.945	354.25
356.172	347.25
356.399	357.25
356.626	352.25
356.853	339.25
357.08	351.25
357.307	341.25
357.534	334.25
357.761	341.25
357.988	357.25
358.215	346.25
358.441	356.25
358.668	354.25
358.895	359.25
359.122	346.25
359.349	358.25
359.576	373.25
359.802	372.25
360.029	383.25
360.256	377.25
360.483	365.25
360.709	370.25
360.936	381.25
361.163	377.25
361.39	355.25
361.616	370.25
361.843	361.25
362.07	355.25
362.296	342.25
362.523	359.25
362.749	347.25
362.976	355.25
363.203	354.25
363.429	350.25
363.656	349.25
363.882	339.25
364.109	336.25
364.335	336.25
364.562	353.25
364.788	345.25
365.015	345.25
365.241	337.25
365.468	339.25
365.694	349.25
365.92	349.25
366.147	348.25
366.373	338.25
366.599	338.25
366.826	342.25
367.052	333.25
367.278	349.25
367.505	345.25
367.731	340.25
367.957	333.25
368.184	338.25
368.41	337.25
368.636	354.25
368.862	358.25
369.089	353.25
369.315	335.25
369.541	356.25
369.767	356.25
369.993	351.25
370.219	346.25
370.445	358.25
370.672	327.25
370.898	348.25
371.124	359.25
371.35	359.25
371.576	369.25
371.802	358.25
372.028	372.25
372.254	362.25
372.48	351.25
372.706	370.25
372.932	380.25
373.158	360.25
373.384	356.25
373.61	381.25
373.835	355.25
374.061	355.25
374.287	358.25
374.513	348.25
374.739	362.25
374.965	373.25
375.191	383.25
375.416	367.25
375.642	362.25
375.868	375.25
376.094	376.25
376.319	346.25
376.545	353.25
376.771	369.25
376.997	362.25
377.222	361.25
377.448	344.25
377.674	350.25
377.899	356.25
378.125	333.25
378.35	351.25
378.576	356.25
378.802	345.25
379.027	365.25
379.253	356.25
379.478	365.25
379.704	331.25
379.929	351.25
380.155	359.25
380.38	350.25
380.606	357.25
380.831	354.25
381.057	358.25
381.282	342.25
381.507	359.25
381.733	357.25
381.958	370.25
382.184	371.25
382.409	351.25
382.634	359.25
382.86	354.25
383.085	361.25
383.31	359.25
383.535	370.25
383.761	359.25
383.986	371.25
384.211	373.25
384.436	387.25
384.662	397.25
384.887	385.25
385.112	394.25
385.337	408.25
385.562	389.25
385.787	407.25
386.013	421.25
386.238	392.25
386.463	420.25
386.688	404.25
386.913	392.25
387.138	391.25
387.363	413.25
387.588	409.25
387.813	414.25
388.038	399.25
388.263	408.25
388.488	415.25
388.713	396.25
388.938	396.25
389.163	420.25
389.387	391.25
389.612	412.25
389.837	398.25
390.062	375.25
390.287	393.25
390.512	381.25
390.736	389.25
390.961	390.25
391.186	403.25
391.411	424.25
391.636	429.25
391.86	423.25
392.085	442.25
392.31	419.25
392.534	421.25
392.759	420.25
392.984	395.25
393.208	432.25
393.433	406.25
393.658	397.25
393.882	376.25
394.107	400.25
394.331	410.25
394.556	413.25
394.78	389.25
395.005	403.25
395.229	416.25
395.454	418.25
395.678	424.25
395.903	435.25
396.127	439.25
396.352	463.25
396.576	446.25
396.801	413.25
397.025	414.25
397.249	406.25
397.474	430.25
397.698	426.25
397.922	437.25
398.147	467.25
398.371	439.25
398.595	448.25
398.82	479.25
399.044	486.25
399.268	499.25
399.492	568.25
399.717	616.25
399.941	626.25
400.165	611.25
400.389	593.25
400.613	544.25
400.837	513.25
401.062	484.25
401.286	487.25
401.51	457.25
401.734	478.25
401.958	484.25
402.182	499.25
402.406	487.25
402.63	484.25
402.854	465.25
403.078	495.25
403.302	497.25
403.526	515.25
403.75	521.25
403.974	489.25
404.198	517.25
404.422	523.25
404.645	512.25
404.869	490.25
405.093	523.25
405.317	555.25
405.541	553.25
405.765	521.25
405.988	511.25
406.212	497.25
406.436	517.25
406.66	518.25
406.883	521.25
407.107	565.25
407.331	582.25
407.555	630.25
407.778	606.25
408.002	583.25
408.226	550.25
408.449	553.25
408.673	551.25
408.896	552.25
409.12	547.25
409.344	551.25
409.567	501.25
409.791	494.25
410.014	501.25
410.238	507.25
410.461	493.25
410.685	494.25
410.908	516.25
411.132	513.25
411.355	535.25
411.578	516.25
411.802	501.25
412.025	470.25
412.249	463.25
412.472	504.25
412.695	510.25
412.919	499.25
413.142	462.25
413.365	457.25
413.589	462.25
413.812	466.25
414.035	478.25
414.258	461.25
414.482	457.25
414.705	470.25
414.928	462.25
415.151	476.25
415.374	468.25
415.597	470.25
415.821	439.25
416.044	461.25
416.267	446.25
416.49	456.25
416.713	454.25
416.936	453.25
417.159	456.25
417.382	434.25
417.605	437.25
417.828	471.25
418.051	445.25
418.274	483.25
418.497	467.25
418.72	475.25
418.943	461.25
419.166	472.25
419.389	505.25
419.611	497.25
419.834	503.25
420.057	478.25
420.28	484.25
420.503	479.25
420.726	491.25
420.948	487.25
421.171	486.25
421.394	490.25
421.617	494.25
421.839	485.25
422.062	485.25
422.285	485.25
422.507	511.25
422.73	561.25
422.953	533.25
423.175	522.25
423.398	507.25
423.621	506.25
423.843	516.25
424.066	526.25
424.288	500.25
424.511	501.25
424.733	513.25
424.956	543.25
425.178	565.25
425.401	548.25
425.623	549.25
425.846	510.25
426.068	495.25
426.291	472.25
426.513	468.25
426.735	493.25
426.958	483.25
427.18	557.25
427.402	599.25
427.625	651.25
427.847	569.25
428.069	511.25
428.292	474.25
428.514	445.25
428.736	437.25
428.958	458.25
429.181	418.25
429.403	447.25
429.625	429.25
429.847	453.25
430.069	487.25
430.292	471.25
430.514	428.25
430.736	435.25
430.958	423.25
431.18	420.25
431.402	421.25
431.624	436.25
431.846	427.25
432.068	456.25
432.29	419.25
432.512	423.25
432.734	420.25
432.956	435.25
433.178	443.25
433.4	436.25
433.622	433.25
433.844	434.25
434.066	416.25
434.287	425.25
434.509	450.25
434.731	451.25
434.953	459.25
435.175	475.25
435.397	490.25
435.618	488.25
435.84	487.25
436.062	539.25
436.284	569.25
436.505	524.25
436.727	485.25
436.949	452.25
437.17	434.25
437.392	439.25
437.614	435.25
437.835	445.25
438.057	495.25
438.278	558.25
438.5	553.25
438.721	602.25
438.943	575.25
439.165	488.25
439.386	476.25
439.608	464.25
439.829	458.25
440.05	467.25
440.272	458.25
440.493	468.25
440.715	463.25
440.936	449.25
441.158	459.25
441.379	452.25
441.6	453.25
441.822	465.25
442.043	499.25
442.264	533.25
442.486	553.25
442.707	502.25
442.928	490.25
443.149	503.25
443.371	493.25
443.592	531.25
443.813	574.25
444.034	603.25
444.255	533.25
444.476	524.25
444.698	524.25
444.919	551.25
445.14	653.25
445.361	570.25
445.582	524.25
445.803	543.25
446.024	558.25
446.245	554.25
446.466	526.25
446.687	488.25
446.908	457.25
447.129	434.25
447.35	447.25
447.571	434.25
447.792	421.25
448.013	395.25
448.234	437.25
448.455	438.25
448.675	509.25
448.896	559.25
449.117	517.25
449.338	488.25
449.559	553.25
449.779	598.25
450	510.25
450.221	456.25
450.442	423.25
450.662	437.25
450.883	428.25
451.104	411.25
451.324	427.25
451.545	413.25
451.766	387.25
451.986	395.25
452.207	388.25
452.428	381.25
452.648	395.25
452.869	405.25
453.089	409.25
453.31	397.25
453.53	407.25
453.751	381.25
453.971	385.25
454.192	419.25
454.412	374.25
454.633	381.25
454.853	401.25
455.073	380.25
455.294	395.25
455.514	421.25
455.734	411.25
455.955	372.25
456.175	375.25
456.395	366.25
456.616	369.25
456.836	385.25
457.056	338.25
457.276	353.25
457.497	365.25
457.717	384.25
457.937	379.25
458.157	374.25
458.377	379.25
458.598	394.25
458.818	405.25
459.038	457.25
459.258	501.25
459.478	441.25
459.698	411.25
459.918	422.25
460.138	460.25
460.358	462.25
460.578	445.25
460.798	459.25
461.018	477.25
461.238	468.25
461.458	467.25
461.678	445.25
461.898	462.25
462.118	480.25
462.338	492.25
462.558	487.25
462.777	501.25
462.997	514.25
463.217	552.25
463.437	577.25
463.657	548.25
463.876	513.25
464.096	512.25
464.316	518.25
464.536	501.25
464.755	492.25
464.975	481.25
465.195	501.25
465.414	503.25
465.634	472.25
465.854	441.25
466.073	440.25
466.293	434.25
466.512	436.25
466.732	387.25
466.951	429.25
467.171	405.25
467.391	433.25
467.61	416.25
467.829	411.25
468.049	407.25
468.268	410.25
468.488	370.25
468.707	378.25
468.927	389.25
469.146	396.25
469.365	392.25
469.585	392.25
469.804	420.25
470.023	413.25
470.243	416.25
470.462	387.25
470.681	417.25
470.901	416.25
471.12	418.25
471.339	403.25
471.558	412.25
471.777	399.25
471.997	388.25
472.216	406.25
472.435	403.25
472.654	391.25
472.873	389.25
473.092	405.25
473.311	376.25
473.53	395.25
473.749	392.25
473.968	424.25
474.187	466.25
474.406	463.25
474.625	420.25
474.844	406.25
475.063	394.25
475.282	397.25
475.501	403.25
475.72	417.25
475.939	414.25
476.158	414.25
476.377	398.25
476.596	414.25
476.814	415.25
477.033	413.25
477.252	443.25
477.471	424.25
477.69	447.25
477.908	437.25
478.127	451.25
478.346	440.25
478.564	457.25
478.783	453.25
479.002	458.25
479.22	475.25
479.439	477.25
479.658	479.25
479.876	486.25
480.095	487.25
480.313	499.25
480.532	522.25
480.751	496.25
480.969	486.25
481.188	513.25
481.406	521.25
481.624	490.25
481.843	469.25
482.061	472.25
482.28	460.25
482.498	459.25
482.717	442.25
482.935	450.25
483.153	468.25
483.372	452.25
483.59	462.25
483.808	463.25
484.027	468.25
484.245	453.25
484.463	461.25
484.681	445.25
484.9	438.25
485.118	468.25
485.336	468.25
485.554	466.25
485.772	463.25
485.99	468.25
486.209	483.25
486.427	481.25
486.645	473.25
486.863	482.25
487.081	473.25
487.299	490.25
487.517	493.25
487.735	484.25
487.953	497.25
488.171	469.25
488.389	479.25
488.607	470.25
488.825	480.25
489.043	471.25
489.261	495.25
489.479	473.25
489.696	489.25
489.914	484.25
490.132	495.25
490.35	494.25
490.568	490.25
490.786	497.25
491.003	488.25
491.221	489.25
491.439	501.25
491.657	522.25
491.874	524.25
492.092	523.25
492.31	523.25
492.527	551.25
492.745	537.25
492.963	530.25
493.18	536.25
493.398	505.25
493.615	532.25
493.833	537.25
494.05	534.25
494.268	539.25
494.485	552.25
494.703	547.25
494.92	553.25
495.138	547.25
495.355	546.25
495.573	534.25
495.79	547.25
496.008	546.25
496.225	557.25
496.442	559.25
496.66	550.25
496.877	558.25
497.094	562.25
497.312	570.25
497.529	581.25
497.746	588.25
497.963	614.25
498.181	615.25
498.398	631.25
498.615	648.25
498.832	671.25
499.049	718.25
499.267	765.25
499.484	782.25
499.701	873.25
499.918	889.25
500.135	954.25
500.352	1061.25
500.569	1083.25
500.786	1097.25
501.003	1047.25
501.22	968.25
501.437	901.25
501.654	841.25
501.871	790.25
502.088	755.25
