Data from 1984.PennyLincolnUp.Lamp.En5.5.200Scan.071819.P1_HRD10591_16-59-07-968.txt Node
Date: Thu Jul 18 16:59:07 EDT 2019
User: cochatt
Spectrometer: HR+D1059
Trigger mode: 1
Integration Time (sec): 1.000000E-1
Scans to average: 1
Electric dark correction enabled: true
Nonlinearity correction enabled: false
Boxcar width: 0
XAxis mode: Wavelengths
Number of Pixels in Spectrum: 2048
>>>>>Begin Spectral Data<<<<<
223.165	-10.75
223.4	-10.75
223.635	-10.75
223.869	-3.75
224.104	-16.75
224.338	-7.75
224.573	-7.75
224.808	-1.75
225.042	-15.75
225.277	-12.75
225.511	-17.75
225.746	0.25
225.98	-12.75
226.215	14.25
226.449	26.25
226.683	9.25
226.918	28.25
227.152	29.25
227.387	37.25
227.621	42.25
227.856	47.25
228.09	52.25
228.324	58.25
228.559	51.25
228.793	56.25
229.027	85.25
229.262	95.25
229.496	100.25
229.73	106.25
229.964	126.25
230.199	112.25
230.433	91.25
230.667	109.25
230.901	100.25
231.136	87.25
231.37	108.25
231.604	116.25
231.838	123.25
232.072	109.25
232.306	107.25
232.541	125.25
232.775	124.25
233.009	110.25
233.243	101.25
233.477	109.25
233.711	132.25
233.945	127.25
234.179	101.25
234.413	118.25
234.647	114.25
234.881	110.25
235.115	122.25
235.349	122.25
235.583	121.25
235.817	115.25
236.051	129.25
236.285	122.25
236.519	108.25
236.753	126.25
236.987	137.25
237.221	150.25
237.455	162.25
237.689	146.25
237.922	130.25
238.156	119.25
238.39	112.25
238.624	132.25
238.858	123.25
239.091	124.25
239.325	111.25
239.559	104.25
239.793	118.25
240.027	132.25
240.26	119.25
240.494	145.25
240.728	134.25
240.961	141.25
241.195	128.25
241.429	136.25
241.662	128.25
241.896	138.25
242.13	125.25
242.363	138.25
242.597	141.25
242.83	128.25
243.064	134.25
243.298	130.25
243.531	131.25
243.765	146.25
243.998	148.25
244.232	136.25
244.465	143.25
244.699	140.25
244.932	131.25
245.166	145.25
245.399	136.25
245.633	136.25
245.866	152.25
246.099	139.25
246.333	136.25
246.566	146.25
246.8	130.25
247.033	130.25
247.266	150.25
247.5	160.25
247.733	149.25
247.966	158.25
248.2	159.25
248.433	147.25
248.666	135.25
248.899	168.25
249.133	179.25
249.366	184.25
249.599	164.25
249.832	167.25
250.066	170.25
250.299	159.25
250.532	190.25
250.765	199.25
250.998	215.25
251.231	209.25
251.465	191.25
251.698	191.25
251.931	183.25
252.164	182.25
252.397	185.25
252.63	171.25
252.863	192.25
253.096	194.25
253.329	199.25
253.562	197.25
253.795	178.25
254.028	183.25
254.261	192.25
254.494	187.25
254.727	218.25
254.96	222.25
255.193	216.25
255.426	206.25
255.659	207.25
255.892	239.25
256.124	246.25
256.357	248.25
256.59	231.25
256.823	217.25
257.056	208.25
257.289	183.25
257.521	199.25
257.754	192.25
257.987	192.25
258.22	196.25
258.452	188.25
258.685	196.25
258.918	198.25
259.151	203.25
259.383	192.25
259.616	194.25
259.849	209.25
260.081	203.25
260.314	205.25
260.547	230.25
260.779	221.25
261.012	213.25
261.244	198.25
261.477	222.25
261.71	204.25
261.942	210.25
262.175	217.25
262.407	196.25
262.64	210.25
262.872	185.25
263.105	202.25
263.337	198.25
263.57	203.25
263.802	195.25
264.035	195.25
264.267	190.25
264.499	182.25
264.732	202.25
264.964	206.25
265.197	203.25
265.429	206.25
265.661	200.25
265.894	201.25
266.126	212.25
266.358	212.25
266.591	218.25
266.823	214.25
267.055	219.25
267.287	216.25
267.52	202.25
267.752	214.25
267.984	212.25
268.216	221.25
268.448	211.25
268.681	212.25
268.913	233.25
269.145	253.25
269.377	236.25
269.609	248.25
269.841	249.25
270.073	260.25
270.306	254.25
270.538	263.25
270.77	260.25
271.002	242.25
271.234	228.25
271.466	274.25
271.698	249.25
271.93	270.25
272.162	266.25
272.394	266.25
272.626	263.25
272.858	233.25
273.09	240.25
273.322	235.25
273.553	231.25
273.785	239.25
274.017	222.25
274.249	247.25
274.481	247.25
274.713	239.25
274.945	261.25
275.176	244.25
275.408	248.25
275.64	249.25
275.872	258.25
276.104	252.25
276.335	243.25
276.567	242.25
276.799	263.25
277.031	276.25
277.262	282.25
277.494	292.25
277.726	270.25
277.957	272.25
278.189	275.25
278.421	269.25
278.652	262.25
278.884	262.25
279.115	253.25
279.347	267.25
279.579	263.25
279.81	253.25
280.042	255.25
280.273	238.25
280.505	246.25
280.736	249.25
280.968	272.25
281.199	266.25
281.431	261.25
281.662	268.25
281.894	255.25
282.125	260.25
282.356	260.25
282.588	292.25
282.819	267.25
283.051	256.25
283.282	261.25
283.513	285.25
283.745	277.25
283.976	273.25
284.207	271.25
284.439	274.25
284.67	286.25
284.901	263.25
285.132	276.25
285.364	273.25
285.595	277.25
285.826	283.25
286.057	265.25
286.288	273.25
286.52	291.25
286.751	268.25
286.982	275.25
287.213	273.25
287.444	292.25
287.675	291.25
287.906	289.25
288.138	285.25
288.369	294.25
288.6	295.25
288.831	291.25
289.062	293.25
289.293	283.25
289.524	276.25
289.755	267.25
289.986	268.25
290.217	285.25
290.448	269.25
290.679	281.25
290.91	278.25
291.141	276.25
291.371	290.25
291.602	284.25
291.833	292.25
292.064	300.25
292.295	291.25
292.526	298.25
292.757	285.25
292.987	287.25
293.218	307.25
293.449	282.25
293.68	278.25
293.91	303.25
294.141	275.25
294.372	272.25
294.603	294.25
294.833	295.25
295.064	298.25
295.295	288.25
295.525	276.25
295.756	281.25
295.987	299.25
296.217	298.25
296.448	318.25
296.679	300.25
296.909	302.25
297.14	279.25
297.37	296.25
297.601	292.25
297.831	286.25
298.062	294.25
298.292	295.25
298.523	299.25
298.753	316.25
298.984	294.25
299.214	300.25
299.445	308.25
299.675	314.25
299.905	320.25
300.136	295.25
300.366	306.25
300.597	295.25
300.827	302.25
301.057	300.25
301.288	324.25
301.518	329.25
301.748	301.25
301.979	330.25
302.209	322.25
302.439	314.25
302.669	307.25
302.9	309.25
303.13	333.25
303.36	336.25
303.59	338.25
303.82	326.25
304.051	338.25
304.281	325.25
304.511	328.25
304.741	322.25
304.971	327.25
305.201	312.25
305.431	306.25
305.661	333.25
305.891	324.25
306.121	331.25
306.352	323.25
306.582	308.25
306.812	310.25
307.042	339.25
307.272	323.25
307.502	327.25
307.731	307.25
307.961	322.25
308.191	324.25
308.421	317.25
308.651	318.25
308.881	331.25
309.111	319.25
309.341	310.25
309.571	343.25
309.8	339.25
310.03	341.25
310.26	336.25
310.49	325.25
310.72	342.25
310.949	365.25
311.179	350.25
311.409	341.25
311.639	347.25
311.868	334.25
312.098	337.25
312.328	344.25
312.557	350.25
312.787	365.25
313.017	359.25
313.246	368.25
313.476	355.25
313.706	359.25
313.935	348.25
314.165	367.25
314.394	377.25
314.624	375.25
314.853	365.25
315.083	345.25
315.312	360.25
315.542	358.25
315.771	334.25
316.001	363.25
316.23	342.25
316.46	335.25
316.689	352.25
316.919	357.25
317.148	347.25
317.377	340.25
317.607	353.25
317.836	351.25
318.065	354.25
318.295	355.25
318.524	351.25
318.753	348.25
318.983	349.25
319.212	336.25
319.441	348.25
319.67	346.25
319.9	339.25
320.129	350.25
320.358	362.25
320.587	373.25
320.816	362.25
321.046	361.25
321.275	362.25
321.504	371.25
321.733	358.25
321.962	360.25
322.191	355.25
322.42	376.25
322.649	363.25
322.878	390.25
323.108	390.25
323.337	416.25
323.566	430.25
323.795	446.25
324.024	452.25
324.253	563.25
324.482	714.25
324.71	1067.25
324.939	1438.25
325.168	1220.25
325.397	691.25
325.626	518.25
325.855	448.25
326.084	438.25
326.313	438.25
326.542	426.25
326.77	476.25
326.999	537.25
327.228	698.25
327.457	975.25
327.686	1126.25
327.914	792.25
328.143	590.25
328.372	546.25
328.6	501.25
328.829	482.25
329.058	468.25
329.287	478.25
329.515	477.25
329.744	458.25
329.972	486.25
330.201	542.25
330.43	574.25
330.658	560.25
330.887	498.25
331.115	495.25
331.344	468.25
331.572	431.25
331.801	429.25
332.03	455.25
332.258	440.25
332.486	445.25
332.715	451.25
332.943	462.25
333.172	460.25
333.4	488.25
333.629	496.25
333.857	520.25
334.085	540.25
334.314	590.25
334.542	624.25
334.771	641.25
334.999	550.25
335.227	479.25
335.455	455.25
335.684	469.25
335.912	450.25
336.14	451.25
336.369	432.25
336.597	442.25
336.825	435.25
337.053	419.25
337.281	431.25
337.51	438.25
337.738	407.25
337.966	404.25
338.194	403.25
338.422	408.25
338.65	432.25
338.878	421.25
339.106	397.25
339.334	421.25
339.562	389.25
339.79	401.25
340.018	406.25
340.246	408.25
340.474	402.25
340.702	394.25
340.93	387.25
341.158	414.25
341.386	386.25
341.614	387.25
341.842	393.25
342.07	374.25
342.298	388.25
342.526	375.25
342.754	383.25
342.981	377.25
343.209	402.25
343.437	383.25
343.665	393.25
343.893	421.25
344.12	422.25
344.348	436.25
344.576	417.25
344.804	418.25
345.031	407.25
345.259	420.25
345.487	398.25
345.714	379.25
345.942	369.25
346.17	382.25
346.397	367.25
346.625	368.25
346.853	373.25
347.08	376.25
347.308	386.25
347.535	384.25
347.763	376.25
347.99	387.25
348.218	386.25
348.445	387.25
348.673	373.25
348.9	379.25
349.128	376.25
349.355	367.25
349.583	367.25
349.81	370.25
350.037	368.25
350.265	374.25
350.492	377.25
350.72	371.25
350.947	370.25
351.174	375.25
351.402	361.25
351.629	359.25
351.856	355.25
352.083	345.25
352.311	370.25
352.538	376.25
352.765	356.25
352.992	365.25
353.22	362.25
353.447	347.25
353.674	380.25
353.901	368.25
354.128	330.25
354.355	366.25
354.583	367.25
354.81	343.25
355.037	365.25
355.264	357.25
355.491	361.25
355.718	363.25
355.945	355.25
356.172	349.25
356.399	352.25
356.626	346.25
356.853	354.25
357.08	337.25
357.307	336.25
357.534	344.25
357.761	344.25
357.988	367.25
358.215	336.25
358.441	348.25
358.668	350.25
358.895	367.25
359.122	343.25
359.349	361.25
359.576	366.25
359.802	370.25
360.029	377.25
360.256	395.25
360.483	380.25
360.709	356.25
360.936	380.25
361.163	372.25
361.39	362.25
361.616	383.25
361.843	364.25
362.07	370.25
362.296	350.25
362.523	361.25
362.749	362.25
362.976	358.25
363.203	358.25
363.429	351.25
363.656	366.25
363.882	342.25
364.109	347.25
364.335	340.25
364.562	360.25
364.788	358.25
365.015	342.25
365.241	372.25
365.468	378.25
365.694	349.25
365.92	347.25
366.147	336.25
366.373	339.25
366.599	362.25
366.826	378.25
367.052	351.25
367.278	356.25
367.505	356.25
367.731	352.25
367.957	364.25
368.184	346.25
368.41	341.25
368.636	382.25
368.862	362.25
369.089	365.25
369.315	375.25
369.541	355.25
369.767	380.25
369.993	355.25
370.219	355.25
370.445	350.25
370.672	362.25
370.898	356.25
371.124	363.25
371.35	351.25
371.576	359.25
371.802	366.25
372.028	346.25
372.254	347.25
372.48	359.25
372.706	372.25
372.932	352.25
373.158	374.25
373.384	368.25
373.61	363.25
373.835	340.25
374.061	357.25
374.287	353.25
374.513	365.25
374.739	378.25
374.965	380.25
375.191	380.25
375.416	386.25
375.642	386.25
375.868	390.25
376.094	373.25
376.319	355.25
376.545	376.25
376.771	362.25
376.997	329.25
377.222	352.25
377.448	340.25
377.674	363.25
377.899	374.25
378.125	344.25
378.35	346.25
378.576	354.25
378.802	363.25
379.027	367.25
379.253	360.25
379.478	364.25
379.704	370.25
379.929	375.25
380.155	364.25
380.38	359.25
380.606	365.25
380.831	360.25
381.057	372.25
381.282	359.25
381.507	362.25
381.733	366.25
381.958	361.25
382.184	364.25
382.409	384.25
382.634	375.25
382.86	362.25
383.085	377.25
383.31	383.25
383.535	378.25
383.761	386.25
383.986	381.25
384.211	376.25
384.436	395.25
384.662	407.25
384.887	400.25
385.112	393.25
385.337	407.25
385.562	419.25
385.787	398.25
386.013	437.25
386.238	428.25
386.463	415.25
386.688	407.25
386.913	405.25
387.138	409.25
387.363	417.25
387.588	393.25
387.813	398.25
388.038	390.25
388.263	393.25
388.488	417.25
388.713	400.25
388.938	396.25
389.163	396.25
389.387	410.25
389.612	377.25
389.837	412.25
390.062	401.25
390.287	409.25
390.512	407.25
390.736	406.25
390.961	412.25
391.186	408.25
391.411	415.25
391.636	426.25
391.86	430.25
392.085	427.25
392.31	420.25
392.534	434.25
392.759	427.25
392.984	413.25
393.208	392.25
393.433	404.25
393.658	406.25
393.882	397.25
394.107	426.25
394.331	415.25
394.556	408.25
394.78	424.25
395.005	417.25
395.229	427.25
395.454	448.25
395.678	445.25
395.903	440.25
396.127	437.25
396.352	421.25
396.576	445.25
396.801	421.25
397.025	432.25
397.249	442.25
397.474	446.25
397.698	426.25
397.922	455.25
398.147	451.25
398.371	467.25
398.595	484.25
398.82	478.25
399.044	485.25
399.268	494.25
399.492	577.25
399.717	634.25
399.941	651.25
400.165	626.25
400.389	604.25
400.613	531.25
400.837	487.25
401.062	525.25
401.286	505.25
401.51	491.25
401.734	478.25
401.958	478.25
402.182	470.25
402.406	483.25
402.63	502.25
402.854	479.25
403.078	515.25
403.302	527.25
403.526	518.25
403.75	498.25
403.974	523.25
404.198	517.25
404.422	523.25
404.645	524.25
404.869	530.25
405.093	551.25
405.317	608.25
405.541	634.25
405.765	564.25
405.988	538.25
406.212	551.25
406.436	543.25
406.66	564.25
406.883	537.25
407.107	582.25
407.331	602.25
407.555	650.25
407.778	636.25
408.002	588.25
408.226	558.25
408.449	554.25
408.673	552.25
408.896	548.25
409.12	580.25
409.344	567.25
409.567	512.25
409.791	503.25
410.014	500.25
410.238	498.25
410.461	500.25
410.685	519.25
410.908	511.25
411.132	508.25
411.355	548.25
411.578	527.25
411.802	502.25
412.025	506.25
412.249	524.25
412.472	558.25
412.695	568.25
412.919	573.25
413.142	518.25
413.365	500.25
413.589	512.25
413.812	480.25
414.035	488.25
414.258	471.25
414.482	486.25
414.705	483.25
414.928	476.25
415.151	473.25
415.374	469.25
415.597	450.25
415.821	490.25
416.044	453.25
416.267	471.25
416.49	471.25
416.713	467.25
416.936	467.25
417.159	450.25
417.382	471.25
417.605	493.25
417.828	475.25
418.051	479.25
418.274	478.25
418.497	485.25
418.72	479.25
418.943	479.25
419.166	501.25
419.389	496.25
419.611	510.25
419.834	526.25
420.057	527.25
420.28	520.25
420.503	524.25
420.726	501.25
420.948	488.25
421.171	532.25
421.394	514.25
421.617	478.25
421.839	479.25
422.062	476.25
422.285	495.25
422.507	511.25
422.73	562.25
422.953	543.25
423.175	510.25
423.398	512.25
423.621	500.25
423.843	513.25
424.066	523.25
424.288	507.25
424.511	526.25
424.733	553.25
424.956	599.25
425.178	555.25
425.401	574.25
425.623	580.25
425.846	516.25
426.068	480.25
426.291	486.25
426.513	487.25
426.735	454.25
426.958	528.25
427.18	552.25
427.402	632.25
427.625	685.25
427.847	610.25
428.069	579.25
428.292	523.25
428.514	479.25
428.736	457.25
428.958	462.25
429.181	458.25
429.403	425.25
429.625	462.25
429.847	462.25
430.069	506.25
430.292	490.25
430.514	445.25
430.736	450.25
430.958	452.25
431.18	451.25
431.402	430.25
431.624	436.25
431.846	432.25
432.068	461.25
432.29	431.25
432.512	421.25
432.734	447.25
432.956	454.25
433.178	435.25
433.4	457.25
433.622	441.25
433.844	438.25
434.066	428.25
434.287	437.25
434.509	444.25
434.731	471.25
434.953	464.25
435.175	479.25
435.397	491.25
435.618	486.25
435.84	519.25
436.062	557.25
436.284	584.25
436.505	499.25
436.727	461.25
436.949	448.25
437.17	441.25
437.392	448.25
437.614	456.25
437.835	462.25
438.057	495.25
438.278	539.25
438.5	566.25
438.721	622.25
438.943	610.25
439.165	491.25
439.386	461.25
439.608	468.25
439.829	470.25
440.05	465.25
440.272	505.25
440.493	493.25
440.715	475.25
440.936	452.25
441.158	451.25
441.379	434.25
441.6	466.25
441.822	492.25
442.043	495.25
442.264	542.25
442.486	575.25
442.707	488.25
442.928	487.25
443.149	511.25
443.371	523.25
443.592	542.25
443.813	574.25
444.034	629.25
444.255	569.25
444.476	541.25
444.698	521.25
444.919	531.25
445.14	594.25
445.361	536.25
445.582	520.25
445.803	547.25
446.024	587.25
446.245	595.25
446.466	531.25
446.687	491.25
446.908	458.25
447.129	460.25
447.35	419.25
447.571	422.25
447.792	424.25
448.013	411.25
448.234	445.25
448.455	469.25
448.675	541.25
448.896	596.25
449.117	544.25
449.338	511.25
449.559	578.25
449.779	626.25
450	542.25
450.221	453.25
450.442	436.25
450.662	404.25
450.883	424.25
451.104	441.25
451.324	415.25
451.545	421.25
451.766	408.25
451.986	405.25
452.207	409.25
452.428	399.25
452.648	392.25
452.869	402.25
453.089	398.25
453.31	414.25
453.53	400.25
453.751	390.25
453.971	407.25
454.192	417.25
454.412	392.25
454.633	381.25
454.853	392.25
455.073	387.25
455.294	400.25
455.514	438.25
455.734	440.25
455.955	395.25
456.175	393.25
456.395	379.25
456.616	380.25
456.836	361.25
457.056	370.25
457.276	350.25
457.497	363.25
457.717	366.25
457.937	371.25
458.157	372.25
458.377	387.25
458.598	419.25
458.818	431.25
459.038	477.25
459.258	503.25
459.478	452.25
459.698	450.25
459.918	431.25
460.138	476.25
460.358	460.25
460.578	444.25
460.798	469.25
461.018	479.25
461.238	457.25
461.458	472.25
461.678	462.25
461.898	458.25
462.118	455.25
462.338	493.25
462.558	511.25
462.777	483.25
462.997	540.25
463.217	532.25
463.437	544.25
463.657	504.25
463.876	529.25
464.096	514.25
464.316	508.25
464.536	506.25
464.755	498.25
464.975	495.25
465.195	507.25
465.414	526.25
465.634	477.25
465.854	470.25
466.073	446.25
466.293	409.25
466.512	431.25
466.732	409.25
466.951	413.25
467.171	415.25
467.391	401.25
467.61	412.25
467.829	432.25
468.049	390.25
468.268	426.25
468.488	384.25
468.707	382.25
468.927	407.25
469.146	396.25
469.365	410.25
469.585	412.25
469.804	407.25
470.023	414.25
470.243	434.25
470.462	423.25
470.681	426.25
470.901	395.25
471.12	425.25
471.339	420.25
471.558	423.25
471.777	416.25
471.997	427.25
472.216	437.25
472.435	516.25
472.654	484.25
472.873	438.25
473.092	414.25
473.311	419.25
473.53	415.25
473.749	409.25
473.968	428.25
474.187	493.25
474.406	482.25
474.625	440.25
474.844	414.25
475.063	415.25
475.282	438.25
475.501	423.25
475.72	395.25
475.939	397.25
476.158	418.25
476.377	426.25
476.596	412.25
476.814	427.25
477.033	423.25
477.252	432.25
477.471	423.25
477.69	463.25
477.908	453.25
478.127	450.25
478.346	443.25
478.564	462.25
478.783	464.25
479.002	494.25
479.22	473.25
479.439	487.25
479.658	477.25
479.876	483.25
480.095	506.25
480.313	516.25
480.532	521.25
480.751	519.25
480.969	547.25
481.188	633.25
481.406	662.25
481.624	599.25
481.843	521.25
482.061	504.25
482.28	488.25
482.498	485.25
482.717	468.25
482.935	469.25
483.153	485.25
483.372	482.25
483.59	467.25
483.808	460.25
484.027	457.25
484.245	478.25
484.463	491.25
484.681	475.25
484.9	462.25
485.118	502.25
485.336	482.25
485.554	502.25
485.772	482.25
485.99	496.25
486.209	472.25
486.427	476.25
486.645	492.25
486.863	500.25
487.081	498.25
487.299	501.25
487.517	522.25
487.735	482.25
487.953	493.25
488.171	502.25
488.389	488.25
488.607	483.25
488.825	486.25
489.043	486.25
489.261	521.25
489.479	487.25
489.696	514.25
489.914	514.25
490.132	502.25
490.35	534.25
490.568	500.25
490.786	550.25
491.003	541.25
491.221	527.25
491.439	553.25
491.657	568.25
491.874	551.25
492.092	545.25
492.31	580.25
492.527	597.25
492.745	576.25
492.963	575.25
493.18	580.25
493.398	588.25
493.615	576.25
493.833	579.25
494.05	580.25
494.268	586.25
494.485	544.25
494.703	580.25
494.92	578.25
495.138	574.25
495.355	585.25
495.573	588.25
495.79	568.25
496.008	576.25
496.225	559.25
496.442	569.25
496.66	588.25
496.877	580.25
497.094	595.25
497.312	575.25
497.529	589.25
497.746	612.25
497.963	650.25
498.181	638.25
498.398	639.25
498.615	667.25
498.832	684.25
499.049	744.25
499.267	804.25
499.484	783.25
499.701	860.25
499.918	907.25
500.135	979.25
500.352	1089.25
500.569	1086.25
500.786	1123.25
501.003	1068.25
501.22	1013.25
501.437	927.25
501.654	843.25
501.871	787.25
