Data from 1984.PennyLincolnUp.Lamp.En5.5.200Scan.071819.P1_HRD10591_17-00-17-969.txt Node
Date: Thu Jul 18 17:00:17 EDT 2019
User: cochatt
Spectrometer: HR+D1059
Trigger mode: 1
Integration Time (sec): 1.000000E-1
Scans to average: 1
Electric dark correction enabled: true
Nonlinearity correction enabled: false
Boxcar width: 0
XAxis mode: Wavelengths
Number of Pixels in Spectrum: 2048
>>>>>Begin Spectral Data<<<<<
223.165	-21.62
223.4	-21.62
223.635	-21.62
223.869	-7.62
224.104	-25.62
224.338	-21.62
224.573	-10.62
224.808	-23.62
225.042	0.38
225.277	2.38
225.511	-3.62
225.746	5.38
225.98	9.38
226.215	12.38
226.449	14.38
226.683	13.38
226.918	22.38
227.152	34.38
227.387	36.38
227.621	28.38
227.856	36.38
228.09	34.38
228.324	40.38
228.559	56.38
228.793	83.38
229.027	84.38
229.262	99.38
229.496	86.38
229.73	105.38
229.964	127.38
230.199	97.38
230.433	102.38
230.667	102.38
230.901	91.38
231.136	93.38
231.37	120.38
231.604	96.38
231.838	114.38
232.072	105.38
232.306	106.38
232.541	121.38
232.775	112.38
233.009	116.38
233.243	107.38
233.477	108.38
233.711	109.38
233.945	98.38
234.179	107.38
234.413	94.38
234.647	106.38
234.881	112.38
235.115	106.38
235.349	107.38
235.583	109.38
235.817	110.38
236.051	110.38
236.285	109.38
236.519	122.38
236.753	112.38
236.987	111.38
237.221	132.38
237.455	171.38
237.689	158.38
237.922	120.38
238.156	116.38
238.39	117.38
238.624	116.38
238.858	107.38
239.091	97.38
239.325	113.38
239.559	121.38
239.793	103.38
240.027	132.38
240.26	109.38
240.494	130.38
240.728	142.38
240.961	130.38
241.195	137.38
241.429	128.38
241.662	124.38
241.896	149.38
242.13	132.38
242.363	118.38
242.597	130.38
242.83	121.38
243.064	124.38
243.298	153.38
243.531	132.38
243.765	136.38
243.998	137.38
244.232	130.38
244.465	137.38
244.699	150.38
244.932	134.38
245.166	133.38
245.399	144.38
245.633	140.38
245.866	134.38
246.099	135.38
246.333	152.38
246.566	143.38
246.8	128.38
247.033	134.38
247.266	150.38
247.5	149.38
247.733	136.38
247.966	167.38
248.2	147.38
248.433	154.38
248.666	142.38
248.899	163.38
249.133	173.38
249.366	194.38
249.599	167.38
249.832	159.38
250.066	164.38
250.299	168.38
250.532	203.38
250.765	227.38
250.998	211.38
251.231	220.38
251.465	186.38
251.698	166.38
251.931	178.38
252.164	166.38
252.397	180.38
252.63	187.38
252.863	195.38
253.096	194.38
253.329	209.38
253.562	203.38
253.795	191.38
254.028	169.38
254.261	193.38
254.494	201.38
254.727	221.38
254.96	213.38
255.193	220.38
255.426	218.38
255.659	214.38
255.892	260.38
256.124	268.38
256.357	309.38
256.59	269.38
256.823	241.38
257.056	218.38
257.289	213.38
257.521	211.38
257.754	203.38
257.987	193.38
258.22	196.38
258.452	189.38
258.685	196.38
258.918	196.38
259.151	192.38
259.383	205.38
259.616	194.38
259.849	205.38
260.081	216.38
260.314	212.38
260.547	216.38
260.779	215.38
261.012	195.38
261.244	198.38
261.477	207.38
261.71	205.38
261.942	211.38
262.175	208.38
262.407	205.38
262.64	187.38
262.872	217.38
263.105	190.38
263.337	173.38
263.57	190.38
263.802	197.38
264.035	198.38
264.267	199.38
264.499	202.38
264.732	189.38
264.964	206.38
265.197	209.38
265.429	211.38
265.661	211.38
265.894	220.38
266.126	195.38
266.358	198.38
266.591	221.38
266.823	213.38
267.055	207.38
267.287	213.38
267.52	209.38
267.752	222.38
267.984	194.38
268.216	212.38
268.448	199.38
268.681	225.38
268.913	227.38
269.145	233.38
269.377	246.38
269.609	246.38
269.841	233.38
270.073	233.38
270.306	247.38
270.538	262.38
270.77	274.38
271.002	251.38
271.234	251.38
271.466	249.38
271.698	257.38
271.93	260.38
272.162	277.38
272.394	275.38
272.626	265.38
272.858	266.38
273.09	241.38
273.322	248.38
273.553	260.38
273.785	242.38
274.017	225.38
274.249	258.38
274.481	230.38
274.713	251.38
274.945	253.38
275.176	238.38
275.408	242.38
275.64	243.38
275.872	255.38
276.104	255.38
276.335	266.38
276.567	249.38
276.799	267.38
277.031	278.38
277.262	276.38
277.494	283.38
277.726	287.38
277.957	265.38
278.189	273.38
278.421	262.38
278.652	254.38
278.884	259.38
279.115	255.38
279.347	274.38
279.579	252.38
279.81	270.38
280.042	246.38
280.273	269.38
280.505	260.38
280.736	252.38
280.968	255.38
281.199	270.38
281.431	254.38
281.662	249.38
281.894	267.38
282.125	274.38
282.356	278.38
282.588	301.38
282.819	277.38
283.051	277.38
283.282	269.38
283.513	268.38
283.745	280.38
283.976	274.38
284.207	270.38
284.439	277.38
284.67	287.38
284.901	273.38
285.132	276.38
285.364	269.38
285.595	282.38
285.826	272.38
286.057	262.38
286.288	286.38
286.52	274.38
286.751	302.38
286.982	288.38
287.213	261.38
287.444	284.38
287.675	281.38
287.906	313.38
288.138	306.38
288.369	281.38
288.6	276.38
288.831	288.38
289.062	288.38
289.293	287.38
289.524	285.38
289.755	273.38
289.986	295.38
290.217	289.38
290.448	284.38
290.679	290.38
290.91	277.38
291.141	272.38
291.371	283.38
291.602	277.38
291.833	284.38
292.064	278.38
292.295	285.38
292.526	297.38
292.757	285.38
292.987	279.38
293.218	278.38
293.449	284.38
293.68	280.38
293.91	289.38
294.141	285.38
294.372	284.38
294.603	292.38
294.833	283.38
295.064	274.38
295.295	287.38
295.525	278.38
295.756	290.38
295.987	300.38
296.217	330.38
296.448	334.38
296.679	301.38
296.909	315.38
297.14	307.38
297.37	327.38
297.601	306.38
297.831	285.38
298.062	287.38
298.292	304.38
298.523	277.38
298.753	316.38
298.984	301.38
299.214	305.38
299.445	294.38
299.675	287.38
299.905	299.38
300.136	304.38
300.366	301.38
300.597	316.38
300.827	324.38
301.057	305.38
301.288	327.38
301.518	336.38
301.748	340.38
301.979	336.38
302.209	320.38
302.439	317.38
302.669	332.38
302.9	333.38
303.13	321.38
303.36	333.38
303.59	322.38
303.82	340.38
304.051	332.38
304.281	310.38
304.511	312.38
304.741	313.38
304.971	317.38
305.201	324.38
305.431	310.38
305.661	315.38
305.891	325.38
306.121	321.38
306.352	318.38
306.582	308.38
306.812	325.38
307.042	328.38
307.272	346.38
307.502	331.38
307.731	347.38
307.961	344.38
308.191	308.38
308.421	326.38
308.651	320.38
308.881	315.38
309.111	323.38
309.341	316.38
309.571	335.38
309.8	353.38
310.03	339.38
310.26	330.38
310.49	338.38
310.72	339.38
310.949	366.38
311.179	358.38
311.409	353.38
311.639	358.38
311.868	344.38
312.098	358.38
312.328	368.38
312.557	387.38
312.787	357.38
313.017	380.38
313.246	370.38
313.476	351.38
313.706	353.38
313.935	362.38
314.165	351.38
314.394	363.38
314.624	369.38
314.853	378.38
315.083	365.38
315.312	378.38
315.542	352.38
315.771	348.38
316.001	333.38
316.23	336.38
316.46	357.38
316.689	358.38
316.919	343.38
317.148	353.38
317.377	382.38
317.607	366.38
317.836	357.38
318.065	349.38
318.295	361.38
318.524	349.38
318.753	347.38
318.983	369.38
319.212	357.38
319.441	384.38
319.67	365.38
319.9	353.38
320.129	369.38
320.358	342.38
320.587	346.38
320.816	389.38
321.046	361.38
321.275	358.38
321.504	372.38
321.733	371.38
321.962	377.38
322.191	385.38
322.42	393.38
322.649	390.38
322.878	387.38
323.108	413.38
323.337	411.38
323.566	429.38
323.795	430.38
324.024	489.38
324.253	553.38
324.482	749.38
324.71	1091.38
324.939	1477.38
325.168	1298.38
325.397	717.38
325.626	516.38
325.855	446.38
326.084	443.38
326.313	451.38
326.542	473.38
326.77	493.38
326.999	534.38
327.228	705.38
327.457	1000.38
327.686	1170.38
327.914	824.38
328.143	640.38
328.372	601.38
328.6	538.38
328.829	528.38
329.058	510.38
329.287	499.38
329.515	493.38
329.744	503.38
329.972	559.38
330.201	618.38
330.43	702.38
330.658	632.38
330.887	604.38
331.115	551.38
331.344	500.38
331.572	477.38
331.801	465.38
332.03	471.38
332.258	449.38
332.486	451.38
332.715	461.38
332.943	456.38
333.172	477.38
333.4	505.38
333.629	541.38
333.857	546.38
334.085	614.38
334.314	680.38
334.542	790.38
334.771	820.38
334.999	649.38
335.227	541.38
335.455	518.38
335.684	474.38
335.912	472.38
336.14	460.38
336.369	440.38
336.597	467.38
336.825	458.38
337.053	439.38
337.281	446.38
337.51	422.38
337.738	425.38
337.966	414.38
338.194	421.38
338.422	405.38
338.65	421.38
338.878	406.38
339.106	413.38
339.334	389.38
339.562	397.38
339.79	390.38
340.018	413.38
340.246	398.38
340.474	412.38
340.702	399.38
340.93	393.38
341.158	408.38
341.386	407.38
341.614	408.38
341.842	377.38
342.07	380.38
342.298	390.38
342.526	397.38
342.754	376.38
342.981	375.38
343.209	397.38
343.437	389.38
343.665	402.38
343.893	454.38
344.12	432.38
344.348	426.38
344.576	400.38
344.804	398.38
345.031	419.38
345.259	396.38
345.487	389.38
345.714	406.38
345.942	379.38
346.17	387.38
346.397	387.38
346.625	386.38
346.853	400.38
347.08	377.38
347.308	357.38
347.535	370.38
347.763	388.38
347.99	395.38
348.218	388.38
348.445	381.38
348.673	373.38
348.9	369.38
349.128	355.38
349.355	374.38
349.583	375.38
349.81	372.38
350.037	368.38
350.265	385.38
350.492	368.38
350.72	359.38
350.947	360.38
351.174	388.38
351.402	366.38
351.629	376.38
351.856	376.38
352.083	385.38
352.311	372.38
352.538	349.38
352.765	375.38
352.992	378.38
353.22	373.38
353.447	370.38
353.674	349.38
353.901	370.38
354.128	355.38
354.355	351.38
354.583	355.38
354.81	346.38
355.037	360.38
355.264	349.38
355.491	352.38
355.718	369.38
355.945	353.38
356.172	352.38
356.399	338.38
356.626	340.38
356.853	358.38
357.08	350.38
357.307	360.38
357.534	346.38
357.761	364.38
357.988	357.38
358.215	373.38
358.441	365.38
358.668	366.38
358.895	341.38
359.122	341.38
359.349	377.38
359.576	373.38
359.802	371.38
360.029	387.38
360.256	407.38
360.483	378.38
360.709	383.38
360.936	378.38
361.163	348.38
361.39	372.38
361.616	368.38
361.843	371.38
362.07	372.38
362.296	393.38
362.523	371.38
362.749	360.38
362.976	378.38
363.203	378.38
363.429	356.38
363.656	354.38
363.882	374.38
364.109	360.38
364.335	333.38
364.562	350.38
364.788	348.38
365.015	346.38
365.241	346.38
365.468	356.38
365.694	350.38
365.92	373.38
366.147	378.38
366.373	363.38
366.599	355.38
366.826	356.38
367.052	333.38
367.278	352.38
367.505	366.38
367.731	360.38
367.957	371.38
368.184	362.38
368.41	364.38
368.636	375.38
368.862	374.38
369.089	349.38
369.315	344.38
369.541	366.38
369.767	354.38
369.993	359.38
370.219	349.38
370.445	364.38
370.672	385.38
370.898	361.38
371.124	358.38
371.35	384.38
371.576	366.38
371.802	354.38
372.028	373.38
372.254	365.38
372.48	366.38
372.706	368.38
372.932	388.38
373.158	377.38
373.384	384.38
373.61	364.38
373.835	365.38
374.061	356.38
374.287	350.38
374.513	386.38
374.739	396.38
374.965	376.38
375.191	392.38
375.416	373.38
375.642	374.38
375.868	376.38
376.094	382.38
376.319	355.38
376.545	361.38
376.771	353.38
376.997	356.38
377.222	361.38
377.448	352.38
377.674	366.38
377.899	364.38
378.125	360.38
378.35	356.38
378.576	362.38
378.802	332.38
379.027	360.38
379.253	364.38
379.478	357.38
379.704	361.38
379.929	352.38
380.155	365.38
380.38	349.38
380.606	372.38
380.831	359.38
381.057	373.38
381.282	361.38
381.507	356.38
381.733	365.38
381.958	360.38
382.184	364.38
382.409	384.38
382.634	382.38
382.86	380.38
383.085	381.38
383.31	373.38
383.535	404.38
383.761	383.38
383.986	381.38
384.211	381.38
384.436	410.38
384.662	412.38
384.887	408.38
385.112	397.38
385.337	412.38
385.562	417.38
385.787	422.38
386.013	420.38
386.238	429.38
386.463	414.38
386.688	413.38
386.913	418.38
387.138	423.38
387.363	421.38
387.588	404.38
387.813	419.38
388.038	419.38
388.263	404.38
388.488	409.38
388.713	408.38
388.938	395.38
389.163	409.38
389.387	413.38
389.612	377.38
389.837	411.38
390.062	410.38
390.287	407.38
390.512	385.38
390.736	392.38
390.961	399.38
391.186	399.38
391.411	419.38
391.636	416.38
391.86	455.38
392.085	432.38
392.31	440.38
392.534	420.38
392.759	420.38
392.984	429.38
393.208	427.38
393.433	425.38
393.658	404.38
393.882	412.38
394.107	413.38
394.331	425.38
394.556	404.38
394.78	424.38
395.005	439.38
395.229	411.38
395.454	444.38
395.678	451.38
395.903	446.38
396.127	465.38
396.352	467.38
396.576	436.38
396.801	407.38
397.025	441.38
397.249	423.38
397.474	418.38
397.698	441.38
397.922	444.38
398.147	438.38
398.371	467.38
398.595	471.38
398.82	459.38
399.044	511.38
399.268	528.38
399.492	576.38
399.717	652.38
399.941	656.38
400.165	629.38
400.389	627.38
400.613	544.38
400.837	520.38
401.062	501.38
401.286	494.38
401.51	505.38
401.734	467.38
401.958	475.38
402.182	506.38
402.406	516.38
402.63	507.38
402.854	496.38
403.078	514.38
403.302	522.38
403.526	507.38
403.75	506.38
403.974	534.38
404.198	538.38
404.422	540.38
404.645	568.38
404.869	539.38
405.093	595.38
405.317	629.38
405.541	654.38
405.765	596.38
405.988	546.38
406.212	534.38
406.436	541.38
406.66	579.38
406.883	553.38
407.107	580.38
407.331	617.38
407.555	638.38
407.778	634.38
408.002	612.38
408.226	588.38
408.449	576.38
408.673	547.38
408.896	568.38
409.12	581.38
409.344	565.38
409.567	503.38
409.791	547.38
410.014	503.38
410.238	494.38
410.461	521.38
410.685	499.38
410.908	521.38
411.132	541.38
411.355	558.38
411.578	544.38
411.802	530.38
412.025	531.38
412.249	504.38
412.472	576.38
412.695	636.38
412.919	633.38
413.142	595.38
413.365	543.38
413.589	531.38
413.812	513.38
414.035	477.38
414.258	487.38
414.482	487.38
414.705	490.38
414.928	480.38
415.151	480.38
415.374	480.38
415.597	484.38
415.821	472.38
416.044	469.38
416.267	448.38
416.49	470.38
416.713	449.38
416.936	453.38
417.159	462.38
417.382	491.38
417.605	493.38
417.828	476.38
418.051	505.38
418.274	499.38
418.497	462.38
418.72	467.38
418.943	491.38
419.166	502.38
419.389	514.38
419.611	518.38
419.834	504.38
420.057	542.38
420.28	552.38
420.503	556.38
420.726	515.38
420.948	521.38
421.171	553.38
421.394	535.38
421.617	514.38
421.839	494.38
422.062	504.38
422.285	490.38
422.507	520.38
422.73	556.38
422.953	572.38
423.175	517.38
423.398	516.38
423.621	512.38
423.843	521.38
424.066	525.38
424.288	512.38
424.511	492.38
424.733	552.38
424.956	581.38
425.178	572.38
425.401	552.38
425.623	564.38
425.846	496.38
426.068	485.38
426.291	478.38
426.513	467.38
426.735	499.38
426.958	533.38
427.18	540.38
427.402	653.38
427.625	684.38
427.847	625.38
428.069	591.38
428.292	544.38
428.514	483.38
428.736	480.38
428.958	476.38
429.181	442.38
429.403	440.38
429.625	435.38
429.847	473.38
430.069	496.38
430.292	497.38
430.514	452.38
430.736	460.38
430.958	442.38
431.18	444.38
431.402	423.38
431.624	425.38
431.846	442.38
432.068	447.38
432.29	444.38
432.512	426.38
432.734	431.38
432.956	436.38
433.178	455.38
433.4	447.38
433.622	444.38
433.844	440.38
434.066	433.38
434.287	449.38
434.509	455.38
434.731	463.38
434.953	472.38
435.175	486.38
435.397	481.38
435.618	472.38
435.84	498.38
436.062	551.38
436.284	596.38
436.505	493.38
436.727	477.38
436.949	460.38
437.17	455.38
437.392	464.38
437.614	421.38
437.835	467.38
438.057	525.38
438.278	576.38
438.5	572.38
438.721	615.38
438.943	592.38
439.165	508.38
439.386	462.38
439.608	475.38
439.829	448.38
440.05	472.38
440.272	501.38
440.493	502.38
440.715	471.38
440.936	451.38
441.158	488.38
441.379	461.38
441.6	492.38
441.822	493.38
442.043	524.38
442.264	567.38
442.486	581.38
442.707	538.38
442.928	496.38
443.149	504.38
443.371	518.38
443.592	527.38
443.813	580.38
444.034	626.38
444.255	564.38
444.476	514.38
444.698	545.38
444.919	554.38
445.14	648.38
445.361	574.38
445.582	516.38
445.803	555.38
446.024	605.38
446.245	610.38
446.466	570.38
446.687	493.38
446.908	472.38
447.129	444.38
447.35	441.38
447.571	441.38
447.792	451.38
448.013	443.38
448.234	454.38
448.455	468.38
448.675	529.38
448.896	585.38
449.117	525.38
449.338	497.38
449.559	547.38
449.779	598.38
450	521.38
450.221	450.38
450.442	428.38
450.662	413.38
450.883	428.38
451.104	436.38
451.324	434.38
451.545	409.38
451.766	403.38
451.986	391.38
452.207	391.38
452.428	397.38
452.648	398.38
452.869	413.38
453.089	398.38
453.31	386.38
453.53	405.38
453.751	391.38
453.971	406.38
454.192	394.38
454.412	394.38
454.633	414.38
454.853	388.38
455.073	393.38
455.294	408.38
455.514	424.38
455.734	433.38
455.955	384.38
456.175	382.38
456.395	379.38
456.616	395.38
456.836	376.38
457.056	378.38
457.276	371.38
457.497	382.38
457.717	385.38
457.937	387.38
458.157	394.38
458.377	380.38
458.598	392.38
458.818	429.38
459.038	461.38
459.258	480.38
459.478	438.38
459.698	462.38
459.918	455.38
460.138	473.38
460.358	487.38
460.578	453.38
460.798	472.38
461.018	468.38
461.238	480.38
461.458	475.38
461.678	452.38
461.898	490.38
462.118	473.38
462.338	491.38
462.558	505.38
462.777	498.38
462.997	527.38
463.217	557.38
463.437	556.38
463.657	554.38
463.876	521.38
464.096	528.38
464.316	504.38
464.536	518.38
464.755	499.38
464.975	503.38
465.195	525.38
465.414	531.38
465.634	492.38
465.854	478.38
466.073	453.38
466.293	448.38
466.512	437.38
466.732	422.38
466.951	421.38
467.171	412.38
467.391	420.38
467.61	414.38
467.829	429.38
468.049	436.38
468.268	442.38
468.488	454.38
468.707	428.38
468.927	393.38
469.146	414.38
469.365	420.38
469.585	417.38
469.804	418.38
470.023	424.38
470.243	405.38
470.462	433.38
470.681	454.38
470.901	422.38
471.12	410.38
471.339	418.38
471.558	426.38
471.777	404.38
471.997	412.38
472.216	472.38
472.435	557.38
472.654	519.38
472.873	452.38
473.092	453.38
473.311	435.38
473.53	434.38
473.749	414.38
473.968	422.38
474.187	498.38
474.406	490.38
474.625	442.38
474.844	407.38
475.063	402.38
475.282	427.38
475.501	411.38
475.72	421.38
475.939	424.38
476.158	410.38
476.377	433.38
476.596	429.38
476.814	446.38
477.033	440.38
477.252	440.38
477.471	434.38
477.69	441.38
477.908	451.38
478.127	471.38
478.346	451.38
478.564	485.38
478.783	497.38
479.002	472.38
479.22	501.38
479.439	511.38
479.658	499.38
479.876	508.38
480.095	511.38
480.313	522.38
480.532	563.38
480.751	510.38
480.969	563.38
481.188	732.38
481.406	840.38
481.624	656.38
481.843	600.38
482.061	544.38
482.28	540.38
482.498	493.38
482.717	526.38
482.935	520.38
483.153	499.38
483.372	491.38
483.59	496.38
483.808	498.38
484.027	484.38
484.245	488.38
484.463	462.38
484.681	480.38
484.9	499.38
485.118	489.38
485.336	507.38
485.554	484.38
485.772	487.38
485.99	504.38
486.209	520.38
486.427	496.38
486.645	485.38
486.863	517.38
487.081	507.38
487.299	500.38
487.517	514.38
487.735	503.38
487.953	500.38
488.171	513.38
488.389	521.38
488.607	501.38
488.825	503.38
489.043	510.38
489.261	518.38
489.479	520.38
489.696	517.38
489.914	504.38
490.132	515.38
490.35	535.38
490.568	523.38
490.786	554.38
491.003	561.38
491.221	578.38
491.439	552.38
491.657	593.38
491.874	602.38
492.092	590.38
492.31	595.38
492.527	600.38
492.745	614.38
492.963	623.38
493.18	636.38
493.398	604.38
493.615	589.38
493.833	618.38
494.05	606.38
494.268	621.38
494.485	580.38
494.703	591.38
494.92	585.38
495.138	568.38
495.355	606.38
495.573	588.38
495.79	609.38
496.008	592.38
496.225	591.38
496.442	577.38
496.66	604.38
496.877	594.38
497.094	590.38
497.312	592.38
497.529	586.38
497.746	618.38
497.963	638.38
498.181	637.38
498.398	672.38
498.615	676.38
498.832	713.38
499.049	721.38
499.267	776.38
499.484	792.38
499.701	881.38
499.918	893.38
500.135	1002.38
500.352	1090.38
500.569	1130.38
500.786	1146.38
501.003	1100.38
501.22	1034.38
501.437	950.38
501.654	878.38
501.871	813.38
502.088	786.38
