Data from 1984.PennyLincolnUp.Lamp.En5.5.200Scan.071819.P1_HRD10591_16-58-37-969.txt Node
Date: Thu Jul 18 16:58:37 EDT 2019
User: cochatt
Spectrometer: HR+D1059
Trigger mode: 1
Integration Time (sec): 1.000000E-1
Scans to average: 1
Electric dark correction enabled: true
Nonlinearity correction enabled: false
Boxcar width: 0
XAxis mode: Wavelengths
Number of Pixels in Spectrum: 2048
>>>>>Begin Spectral Data<<<<<
223.165	-0.56
223.4	-0.56
223.635	-0.56
223.869	-15.56
224.104	-8.56
224.338	-17.56
224.573	-26.56
224.808	-15.56
225.042	-12.56
225.277	-8.56
225.511	-0.56
225.746	5.44
225.98	11.44
226.215	10.44
226.449	4.44
226.683	19.44
226.918	24.44
227.152	30.44
227.387	45.44
227.621	37.44
227.856	42.44
228.09	45.44
228.324	58.44
228.559	66.44
228.793	58.44
229.027	97.44
229.262	96.44
229.496	99.44
229.73	122.44
229.964	125.44
230.199	116.44
230.433	105.44
230.667	99.44
230.901	112.44
231.136	117.44
231.37	102.44
231.604	106.44
231.838	108.44
232.072	106.44
232.306	105.44
232.541	111.44
232.775	99.44
233.009	117.44
233.243	110.44
233.477	117.44
233.711	110.44
233.945	109.44
234.179	114.44
234.413	115.44
234.647	105.44
234.881	98.44
235.115	118.44
235.349	100.44
235.583	102.44
235.817	120.44
236.051	104.44
236.285	121.44
236.519	119.44
236.753	115.44
236.987	126.44
237.221	142.44
237.455	171.44
237.689	141.44
237.922	129.44
238.156	129.44
238.39	131.44
238.624	117.44
238.858	101.44
239.091	125.44
239.325	122.44
239.559	122.44
239.793	109.44
240.027	125.44
240.26	127.44
240.494	138.44
240.728	121.44
240.961	127.44
241.195	131.44
241.429	131.44
241.662	126.44
241.896	117.44
242.13	144.44
242.363	140.44
242.597	124.44
242.83	141.44
243.064	126.44
243.298	131.44
243.531	125.44
243.765	125.44
243.998	135.44
244.232	132.44
244.465	130.44
244.699	148.44
244.932	137.44
245.166	132.44
245.399	157.44
245.633	151.44
245.866	161.44
246.099	127.44
246.333	137.44
246.566	148.44
246.8	137.44
247.033	150.44
247.266	144.44
247.5	153.44
247.733	139.44
247.966	168.44
248.2	140.44
248.433	169.44
248.666	158.44
248.899	158.44
249.133	174.44
249.366	179.44
249.599	179.44
249.832	169.44
250.066	154.44
250.299	159.44
250.532	154.44
250.765	181.44
250.998	206.44
251.231	174.44
251.465	182.44
251.698	163.44
251.931	177.44
252.164	165.44
252.397	165.44
252.63	176.44
252.863	174.44
253.096	201.44
253.329	191.44
253.562	188.44
253.795	189.44
254.028	187.44
254.261	182.44
254.494	181.44
254.727	192.44
254.96	196.44
255.193	215.44
255.426	215.44
255.659	209.44
255.892	211.44
256.124	230.44
256.357	230.44
256.59	228.44
256.823	200.44
257.056	202.44
257.289	195.44
257.521	182.44
257.754	178.44
257.987	188.44
258.22	205.44
258.452	189.44
258.685	190.44
258.918	195.44
259.151	197.44
259.383	184.44
259.616	199.44
259.849	177.44
260.081	198.44
260.314	206.44
260.547	229.44
260.779	236.44
261.012	201.44
261.244	203.44
261.477	206.44
261.71	207.44
261.942	202.44
262.175	206.44
262.407	204.44
262.64	196.44
262.872	197.44
263.105	204.44
263.337	200.44
263.57	196.44
263.802	201.44
264.035	197.44
264.267	202.44
264.499	212.44
264.732	188.44
264.964	189.44
265.197	188.44
265.429	201.44
265.661	198.44
265.894	203.44
266.126	209.44
266.358	195.44
266.591	213.44
266.823	216.44
267.055	223.44
267.287	214.44
267.52	203.44
267.752	207.44
267.984	217.44
268.216	227.44
268.448	210.44
268.681	224.44
268.913	208.44
269.145	220.44
269.377	222.44
269.609	232.44
269.841	234.44
270.073	247.44
270.306	253.44
270.538	248.44
270.77	260.44
271.002	246.44
271.234	239.44
271.466	277.44
271.698	246.44
271.93	276.44
272.162	262.44
272.394	252.44
272.626	238.44
272.858	252.44
273.09	246.44
273.322	248.44
273.553	246.44
273.785	239.44
274.017	232.44
274.249	237.44
274.481	242.44
274.713	252.44
274.945	244.44
275.176	241.44
275.408	248.44
275.64	246.44
275.872	236.44
276.104	231.44
276.335	245.44
276.567	259.44
276.799	279.44
277.031	262.44
277.262	256.44
277.494	286.44
277.726	271.44
277.957	260.44
278.189	248.44
278.421	275.44
278.652	258.44
278.884	253.44
279.115	259.44
279.347	249.44
279.579	254.44
279.81	252.44
280.042	253.44
280.273	225.44
280.505	243.44
280.736	247.44
280.968	257.44
281.199	245.44
281.431	245.44
281.662	238.44
281.894	246.44
282.125	260.44
282.356	283.44
282.588	291.44
282.819	288.44
283.051	269.44
283.282	265.44
283.513	256.44
283.745	252.44
283.976	258.44
284.207	264.44
284.439	268.44
284.67	270.44
284.901	270.44
285.132	270.44
285.364	278.44
285.595	297.44
285.826	273.44
286.057	278.44
286.288	255.44
286.52	261.44
286.751	276.44
286.982	270.44
287.213	262.44
287.444	263.44
287.675	268.44
287.906	290.44
288.138	298.44
288.369	281.44
288.6	297.44
288.831	275.44
289.062	269.44
289.293	281.44
289.524	277.44
289.755	297.44
289.986	279.44
290.217	261.44
290.448	266.44
290.679	283.44
290.91	283.44
291.141	275.44
291.371	293.44
291.602	287.44
291.833	307.44
292.064	297.44
292.295	297.44
292.526	303.44
292.757	284.44
292.987	286.44
293.218	288.44
293.449	281.44
293.68	289.44
293.91	290.44
294.141	267.44
294.372	263.44
294.603	283.44
294.833	309.44
295.064	272.44
295.295	282.44
295.525	285.44
295.756	277.44
295.987	299.44
296.217	315.44
296.448	301.44
296.679	300.44
296.909	281.44
297.14	293.44
297.37	287.44
297.601	293.44
297.831	297.44
298.062	286.44
298.292	308.44
298.523	297.44
298.753	297.44
298.984	298.44
299.214	288.44
299.445	300.44
299.675	298.44
299.905	290.44
300.136	292.44
300.366	303.44
300.597	315.44
300.827	312.44
301.057	295.44
301.288	312.44
301.518	312.44
301.748	324.44
301.979	329.44
302.209	312.44
302.439	315.44
302.669	329.44
302.9	310.44
303.13	315.44
303.36	315.44
303.59	322.44
303.82	314.44
304.051	328.44
304.281	314.44
304.511	319.44
304.741	309.44
304.971	318.44
305.201	305.44
305.431	330.44
305.661	319.44
305.891	325.44
306.121	331.44
306.352	325.44
306.582	321.44
306.812	308.44
307.042	320.44
307.272	305.44
307.502	326.44
307.731	307.44
307.961	318.44
308.191	326.44
308.421	313.44
308.651	326.44
308.881	312.44
309.111	325.44
309.341	329.44
309.571	338.44
309.8	332.44
310.03	337.44
310.26	330.44
310.49	342.44
310.72	342.44
310.949	339.44
311.179	347.44
311.409	343.44
311.639	343.44
311.868	357.44
312.098	339.44
312.328	355.44
312.557	375.44
312.787	366.44
313.017	373.44
313.246	360.44
313.476	346.44
313.706	345.44
313.935	361.44
314.165	358.44
314.394	369.44
314.624	370.44
314.853	352.44
315.083	342.44
315.312	341.44
315.542	338.44
315.771	348.44
316.001	345.44
316.23	347.44
316.46	349.44
316.689	325.44
316.919	347.44
317.148	353.44
317.377	354.44
317.607	341.44
317.836	341.44
318.065	337.44
318.295	353.44
318.524	341.44
318.753	334.44
318.983	356.44
319.212	341.44
319.441	351.44
319.67	364.44
319.9	359.44
320.129	362.44
320.358	366.44
320.587	353.44
320.816	370.44
321.046	366.44
321.275	362.44
321.504	350.44
321.733	371.44
321.962	356.44
322.191	391.44
322.42	387.44
322.649	397.44
322.878	399.44
323.108	397.44
323.337	395.44
323.566	424.44
323.795	431.44
324.024	459.44
324.253	535.44
324.482	697.44
324.71	999.44
324.939	1413.44
325.168	1214.44
325.397	691.44
325.626	523.44
325.855	449.44
326.084	435.44
326.313	428.44
326.542	430.44
326.77	461.44
326.999	520.44
327.228	638.44
327.457	909.44
327.686	1090.44
327.914	785.44
328.143	565.44
328.372	541.44
328.6	512.44
328.829	463.44
329.058	475.44
329.287	480.44
329.515	451.44
329.744	456.44
329.972	460.44
330.201	497.44
330.43	532.44
330.658	517.44
330.887	507.44
331.115	502.44
331.344	440.44
331.572	439.44
331.801	449.44
332.03	444.44
332.258	426.44
332.486	383.44
332.715	434.44
332.943	447.44
333.172	453.44
333.4	468.44
333.629	480.44
333.857	500.44
334.085	522.44
334.314	552.44
334.542	583.44
334.771	603.44
334.999	526.44
335.227	503.44
335.455	465.44
335.684	454.44
335.912	438.44
336.14	418.44
336.369	434.44
336.597	442.44
336.825	426.44
337.053	423.44
337.281	410.44
337.51	418.44
337.738	427.44
337.966	415.44
338.194	421.44
338.422	417.44
338.65	410.44
338.878	405.44
339.106	400.44
339.334	388.44
339.562	392.44
339.79	396.44
340.018	402.44
340.246	378.44
340.474	382.44
340.702	386.44
340.93	375.44
341.158	398.44
341.386	380.44
341.614	393.44
341.842	389.44
342.07	372.44
342.298	375.44
342.526	382.44
342.754	377.44
342.981	373.44
343.209	394.44
343.437	379.44
343.665	410.44
343.893	420.44
344.12	433.44
344.348	417.44
344.576	430.44
344.804	416.44
345.031	419.44
345.259	399.44
345.487	383.44
345.714	390.44
345.942	375.44
346.17	409.44
346.397	355.44
346.625	352.44
346.853	372.44
347.08	375.44
347.308	373.44
347.535	374.44
347.763	396.44
347.99	370.44
348.218	375.44
348.445	355.44
348.673	349.44
348.9	361.44
349.128	369.44
349.355	356.44
349.583	375.44
349.81	379.44
350.037	353.44
350.265	371.44
350.492	346.44
350.72	347.44
350.947	378.44
351.174	364.44
351.402	377.44
351.629	373.44
351.856	363.44
352.083	373.44
352.311	391.44
352.538	370.44
352.765	393.44
352.992	384.44
353.22	353.44
353.447	364.44
353.674	356.44
353.901	369.44
354.128	357.44
354.355	351.44
354.583	363.44
354.81	333.44
355.037	339.44
355.264	364.44
355.491	345.44
355.718	357.44
355.945	329.44
356.172	347.44
356.399	337.44
356.626	341.44
356.853	346.44
357.08	343.44
357.307	342.44
357.534	346.44
357.761	373.44
357.988	342.44
358.215	341.44
358.441	350.44
358.668	355.44
358.895	361.44
359.122	362.44
359.349	356.44
359.576	377.44
359.802	367.44
360.029	383.44
360.256	387.44
360.483	366.44
360.709	372.44
360.936	358.44
361.163	360.44
361.39	342.44
361.616	341.44
361.843	369.44
362.07	366.44
362.296	358.44
362.523	347.44
362.749	357.44
362.976	363.44
363.203	344.44
363.429	333.44
363.656	357.44
363.882	343.44
364.109	349.44
364.335	347.44
364.562	351.44
364.788	346.44
365.015	360.44
365.241	341.44
365.468	366.44
365.694	328.44
365.92	357.44
366.147	347.44
366.373	337.44
366.599	326.44
366.826	351.44
367.052	349.44
367.278	346.44
367.505	369.44
367.731	363.44
367.957	336.44
368.184	345.44
368.41	346.44
368.636	365.44
368.862	350.44
369.089	339.44
369.315	339.44
369.541	344.44
369.767	365.44
369.993	358.44
370.219	367.44
370.445	341.44
370.672	342.44
370.898	356.44
371.124	339.44
371.35	362.44
371.576	354.44
371.802	351.44
372.028	363.44
372.254	370.44
372.48	349.44
372.706	363.44
372.932	362.44
373.158	372.44
373.384	359.44
373.61	350.44
373.835	359.44
374.061	367.44
374.287	351.44
374.513	377.44
374.739	374.44
374.965	349.44
375.191	389.44
375.416	383.44
375.642	350.44
375.868	360.44
376.094	374.44
376.319	359.44
376.545	359.44
376.771	354.44
376.997	350.44
377.222	364.44
377.448	344.44
377.674	350.44
377.899	349.44
378.125	350.44
378.35	347.44
378.576	363.44
378.802	354.44
379.027	333.44
379.253	340.44
379.478	340.44
379.704	325.44
379.929	344.44
380.155	353.44
380.38	377.44
380.606	343.44
380.831	350.44
381.057	350.44
381.282	345.44
381.507	353.44
381.733	343.44
381.958	339.44
382.184	360.44
382.409	355.44
382.634	362.44
382.86	361.44
383.085	382.44
383.31	371.44
383.535	373.44
383.761	365.44
383.986	366.44
384.211	385.44
384.436	405.44
384.662	389.44
384.887	425.44
385.112	383.44
385.337	413.44
385.562	405.44
385.787	417.44
386.013	415.44
386.238	393.44
386.463	409.44
386.688	412.44
386.913	381.44
387.138	396.44
387.363	385.44
387.588	400.44
387.813	409.44
388.038	390.44
388.263	403.44
388.488	391.44
388.713	392.44
388.938	399.44
389.163	417.44
389.387	417.44
389.612	392.44
389.837	388.44
390.062	383.44
390.287	388.44
390.512	413.44
390.736	400.44
390.961	391.44
391.186	398.44
391.411	416.44
391.636	418.44
391.86	419.44
392.085	453.44
392.31	458.44
392.534	424.44
392.759	427.44
392.984	405.44
393.208	403.44
393.433	404.44
393.658	401.44
393.882	410.44
394.107	397.44
394.331	404.44
394.556	416.44
394.78	392.44
395.005	406.44
395.229	437.44
395.454	434.44
395.678	434.44
395.903	443.44
396.127	435.44
396.352	446.44
396.576	405.44
396.801	409.44
397.025	423.44
397.249	428.44
397.474	450.44
397.698	415.44
397.922	429.44
398.147	473.44
398.371	466.44
398.595	458.44
398.82	483.44
399.044	497.44
399.268	502.44
399.492	572.44
399.717	629.44
399.941	651.44
400.165	591.44
400.389	607.44
400.613	538.44
400.837	514.44
401.062	500.44
401.286	471.44
401.51	498.44
401.734	479.44
401.958	495.44
402.182	488.44
402.406	467.44
402.63	484.44
402.854	489.44
403.078	488.44
403.302	499.44
403.526	498.44
403.75	510.44
403.974	503.44
404.198	508.44
404.422	526.44
404.645	526.44
404.869	531.44
405.093	552.44
405.317	567.44
405.541	601.44
405.765	564.44
405.988	526.44
406.212	517.44
406.436	527.44
406.66	538.44
406.883	545.44
407.107	554.44
407.331	582.44
407.555	614.44
407.778	600.44
408.002	587.44
408.226	567.44
408.449	560.44
408.673	555.44
408.896	547.44
409.12	554.44
409.344	558.44
409.567	509.44
409.791	507.44
410.014	514.44
410.238	509.44
410.461	509.44
410.685	489.44
410.908	494.44
411.132	512.44
411.355	525.44
411.578	506.44
411.802	490.44
412.025	481.44
412.249	511.44
412.472	519.44
412.695	544.44
412.919	557.44
413.142	525.44
413.365	489.44
413.589	479.44
413.812	465.44
414.035	474.44
414.258	485.44
414.482	486.44
414.705	473.44
414.928	457.44
415.151	469.44
415.374	487.44
415.597	461.44
415.821	463.44
416.044	466.44
416.267	473.44
416.49	450.44
416.713	443.44
416.936	457.44
417.159	460.44
417.382	472.44
417.605	480.44
417.828	477.44
418.051	481.44
418.274	473.44
418.497	477.44
418.72	470.44
418.943	455.44
419.166	490.44
419.389	527.44
419.611	522.44
419.834	491.44
420.057	500.44
420.28	502.44
420.503	490.44
420.726	500.44
420.948	507.44
421.171	504.44
421.394	532.44
421.617	495.44
421.839	509.44
422.062	497.44
422.285	472.44
422.507	520.44
422.73	573.44
422.953	550.44
423.175	503.44
423.398	492.44
423.621	509.44
423.843	518.44
424.066	525.44
424.288	492.44
424.511	499.44
424.733	541.44
424.956	574.44
425.178	555.44
425.401	565.44
425.623	581.44
425.846	505.44
426.068	479.44
426.291	477.44
426.513	474.44
426.735	479.44
426.958	514.44
427.18	533.44
427.402	614.44
427.625	663.44
427.847	596.44
428.069	555.44
428.292	499.44
428.514	471.44
428.736	464.44
428.958	432.44
429.181	451.44
429.403	438.44
429.625	428.44
429.847	466.44
430.069	491.44
430.292	493.44
430.514	429.44
430.736	435.44
430.958	442.44
431.18	421.44
431.402	433.44
431.624	425.44
431.846	420.44
432.068	437.44
432.29	457.44
432.512	445.44
432.734	414.44
432.956	435.44
433.178	422.44
433.4	410.44
433.622	444.44
433.844	433.44
434.066	419.44
434.287	422.44
434.509	445.44
434.731	451.44
434.953	452.44
435.175	468.44
435.397	494.44
435.618	482.44
435.84	507.44
436.062	537.44
436.284	561.44
436.505	498.44
436.727	468.44
436.949	433.44
437.17	441.44
437.392	428.44
437.614	455.44
437.835	448.44
438.057	502.44
438.278	557.44
438.5	563.44
438.721	613.44
438.943	590.44
439.165	509.44
439.386	453.44
439.608	470.44
439.829	456.44
440.05	470.44
440.272	506.44
440.493	481.44
440.715	451.44
440.936	447.44
441.158	440.44
441.379	471.44
441.6	477.44
441.822	484.44
442.043	503.44
442.264	533.44
442.486	581.44
442.707	507.44
442.928	517.44
443.149	507.44
443.371	516.44
443.592	502.44
443.813	556.44
444.034	627.44
444.255	540.44
444.476	523.44
444.698	512.44
444.919	533.44
445.14	619.44
445.361	553.44
445.582	509.44
445.803	537.44
446.024	576.44
446.245	585.44
446.466	531.44
446.687	473.44
446.908	456.44
447.129	461.44
447.35	459.44
447.571	435.44
447.792	422.44
448.013	420.44
448.234	424.44
448.455	466.44
448.675	528.44
448.896	599.44
449.117	480.44
449.338	501.44
449.559	548.44
449.779	621.44
450	493.44
450.221	460.44
450.442	425.44
450.662	413.44
450.883	429.44
451.104	451.44
451.324	393.44
451.545	415.44
451.766	397.44
451.986	395.44
452.207	390.44
452.428	386.44
452.648	380.44
452.869	394.44
453.089	391.44
453.31	406.44
453.53	393.44
453.751	396.44
453.971	386.44
454.192	395.44
454.412	385.44
454.633	378.44
454.853	375.44
455.073	389.44
455.294	390.44
455.514	435.44
455.734	424.44
455.955	393.44
456.175	360.44
456.395	384.44
456.616	367.44
456.836	377.44
457.056	374.44
457.276	356.44
457.497	365.44
457.717	339.44
457.937	391.44
458.157	376.44
458.377	378.44
458.598	398.44
458.818	423.44
459.038	460.44
459.258	492.44
459.478	449.44
459.698	426.44
459.918	423.44
460.138	424.44
460.358	455.44
460.578	460.44
460.798	463.44
461.018	462.44
461.238	441.44
461.458	455.44
461.678	458.44
461.898	463.44
462.118	442.44
462.338	471.44
462.558	485.44
462.777	493.44
462.997	502.44
463.217	523.44
463.437	562.44
463.657	530.44
463.876	511.44
464.096	499.44
464.316	513.44
464.536	527.44
464.755	480.44
464.975	497.44
465.195	510.44
465.414	541.44
465.634	483.44
465.854	451.44
466.073	442.44
466.293	418.44
466.512	417.44
466.732	421.44
466.951	397.44
467.171	402.44
467.391	411.44
467.61	400.44
467.829	416.44
468.049	392.44
468.268	413.44
468.488	414.44
468.707	406.44
468.927	388.44
469.146	387.44
469.365	404.44
469.585	387.44
469.804	385.44
470.023	396.44
470.243	391.44
470.462	424.44
470.681	423.44
470.901	439.44
471.12	414.44
471.339	408.44
471.558	414.44
471.777	413.44
471.997	410.44
472.216	429.44
472.435	469.44
472.654	451.44
472.873	439.44
473.092	397.44
473.311	410.44
473.53	424.44
473.749	427.44
473.968	417.44
474.187	475.44
474.406	471.44
474.625	420.44
474.844	403.44
475.063	405.44
475.282	410.44
475.501	395.44
475.72	398.44
475.939	404.44
476.158	412.44
476.377	406.44
476.596	419.44
476.814	417.44
477.033	422.44
477.252	439.44
477.471	414.44
477.69	441.44
477.908	456.44
478.127	456.44
478.346	466.44
478.564	452.44
478.783	436.44
479.002	475.44
479.22	489.44
479.439	495.44
479.658	481.44
479.876	492.44
480.095	496.44
480.313	505.44
480.532	542.44
480.751	519.44
480.969	512.44
481.188	591.44
481.406	630.44
481.624	545.44
481.843	475.44
482.061	487.44
482.28	464.44
482.498	468.44
482.717	468.44
482.935	454.44
483.153	460.44
483.372	459.44
483.59	472.44
483.808	462.44
484.027	450.44
484.245	463.44
484.463	455.44
484.681	480.44
484.9	460.44
485.118	461.44
485.336	466.44
485.554	480.44
485.772	478.44
485.99	467.44
486.209	489.44
486.427	472.44
486.645	474.44
486.863	478.44
487.081	490.44
487.299	496.44
487.517	501.44
487.735	491.44
487.953	482.44
488.171	489.44
488.389	497.44
488.607	505.44
488.825	492.44
489.043	481.44
489.261	477.44
489.479	482.44
489.696	503.44
489.914	507.44
490.132	503.44
490.35	488.44
490.568	505.44
490.786	513.44
491.003	521.44
491.221	541.44
491.439	547.44
491.657	556.44
491.874	551.44
492.092	551.44
492.31	562.44
492.527	553.44
492.745	553.44
492.963	550.44
493.18	544.44
493.398	583.44
493.615	567.44
493.833	567.44
494.05	574.44
494.268	570.44
494.485	566.44
494.703	554.44
494.92	563.44
495.138	571.44
495.355	574.44
495.573	548.44
495.79	538.44
496.008	566.44
496.225	572.44
496.442	567.44
496.66	584.44
496.877	577.44
497.094	557.44
497.312	578.44
497.529	557.44
497.746	595.44
497.963	609.44
498.181	627.44
498.398	639.44
498.615	685.44
498.832	683.44
499.049	705.44
499.267	766.44
499.484	787.44
499.701	835.44
499.918	906.44
500.135	986.44
500.352	1051.44
500.569	1101.44
500.786	1119.44
501.003	1062.44
501.22	953.44
501.437	907.44
501.654	853.44
501.871	801.44
502.088	769.44
