Data from 1984.PennyLincolnUp.Lamp.En5.5.200Scan.071819.P1_HRD10591_16-58-29-968.txt Node
Date: Thu Jul 18 16:58:29 EDT 2019
User: cochatt
Spectrometer: HR+D1059
Trigger mode: 1
Integration Time (sec): 1.000000E-1
Scans to average: 1
Electric dark correction enabled: true
Nonlinearity correction enabled: false
Boxcar width: 0
XAxis mode: Wavelengths
Number of Pixels in Spectrum: 2048
>>>>>Begin Spectral Data<<<<<
223.165	-10.75
223.4	-10.75
223.635	-10.75
223.869	-19.75
224.104	-3.75
224.338	-27.75
224.573	-10.75
224.808	-20.75
225.042	0.25
225.277	-11.75
225.511	7.25
225.746	4.25
225.98	-10.75
226.215	18.25
226.449	21.25
226.683	30.25
226.918	17.25
227.152	17.25
227.387	37.25
227.621	40.25
227.856	44.25
228.09	24.25
228.324	46.25
228.559	40.25
228.793	60.25
229.027	93.25
229.262	109.25
229.496	95.25
229.73	116.25
229.964	126.25
230.199	114.25
230.433	115.25
230.667	110.25
230.901	109.25
231.136	93.25
231.37	109.25
231.604	104.25
231.838	108.25
232.072	114.25
232.306	114.25
232.541	113.25
232.775	102.25
233.009	119.25
233.243	121.25
233.477	104.25
233.711	114.25
233.945	116.25
234.179	126.25
234.413	108.25
234.647	118.25
234.881	122.25
235.115	117.25
235.349	101.25
235.583	110.25
235.817	118.25
236.051	122.25
236.285	131.25
236.519	117.25
236.753	130.25
236.987	135.25
237.221	146.25
237.455	163.25
237.689	143.25
237.922	114.25
238.156	116.25
238.39	120.25
238.624	110.25
238.858	120.25
239.091	120.25
239.325	110.25
239.559	113.25
239.793	108.25
240.027	123.25
240.26	118.25
240.494	140.25
240.728	122.25
240.961	147.25
241.195	127.25
241.429	120.25
241.662	129.25
241.896	126.25
242.13	127.25
242.363	124.25
242.597	122.25
242.83	126.25
243.064	136.25
243.298	137.25
243.531	129.25
243.765	141.25
243.998	139.25
244.232	126.25
244.465	134.25
244.699	127.25
244.932	120.25
245.166	134.25
245.399	141.25
245.633	149.25
245.866	126.25
246.099	130.25
246.333	133.25
246.566	143.25
246.8	149.25
247.033	134.25
247.266	163.25
247.5	145.25
247.733	155.25
247.966	148.25
248.2	163.25
248.433	151.25
248.666	150.25
248.899	155.25
249.133	166.25
249.366	192.25
249.599	166.25
249.832	162.25
250.066	166.25
250.299	169.25
250.532	197.25
250.765	198.25
250.998	196.25
251.231	216.25
251.465	190.25
251.698	187.25
251.931	173.25
252.164	189.25
252.397	175.25
252.63	186.25
252.863	175.25
253.096	189.25
253.329	177.25
253.562	201.25
253.795	205.25
254.028	184.25
254.261	179.25
254.494	182.25
254.727	198.25
254.96	221.25
255.193	210.25
255.426	208.25
255.659	200.25
255.892	218.25
256.124	235.25
256.357	238.25
256.59	217.25
256.823	187.25
257.056	193.25
257.289	196.25
257.521	189.25
257.754	205.25
257.987	216.25
258.22	185.25
258.452	189.25
258.685	196.25
258.918	196.25
259.151	186.25
259.383	183.25
259.616	198.25
259.849	198.25
260.081	208.25
260.314	218.25
260.547	222.25
260.779	201.25
261.012	199.25
261.244	192.25
261.477	212.25
261.71	189.25
261.942	203.25
262.175	198.25
262.407	203.25
262.64	203.25
262.872	203.25
263.105	188.25
263.337	210.25
263.57	203.25
263.802	188.25
264.035	208.25
264.267	197.25
264.499	206.25
264.732	201.25
264.964	204.25
265.197	189.25
265.429	199.25
265.661	185.25
265.894	205.25
266.126	203.25
266.358	202.25
266.591	206.25
266.823	205.25
267.055	199.25
267.287	214.25
267.52	200.25
267.752	220.25
267.984	210.25
268.216	211.25
268.448	220.25
268.681	223.25
268.913	218.25
269.145	229.25
269.377	224.25
269.609	234.25
269.841	232.25
270.073	242.25
270.306	237.25
270.538	258.25
270.77	278.25
271.002	252.25
271.234	267.25
271.466	246.25
271.698	262.25
271.93	284.25
272.162	266.25
272.394	277.25
272.626	254.25
272.858	255.25
273.09	260.25
273.322	235.25
273.553	238.25
273.785	244.25
274.017	233.25
274.249	242.25
274.481	251.25
274.713	237.25
274.945	235.25
275.176	256.25
275.408	261.25
275.64	261.25
275.872	238.25
276.104	247.25
276.335	248.25
276.567	253.25
276.799	246.25
277.031	252.25
277.262	286.25
277.494	273.25
277.726	270.25
277.957	267.25
278.189	266.25
278.421	237.25
278.652	263.25
278.884	256.25
279.115	255.25
279.347	242.25
279.579	266.25
279.81	264.25
280.042	270.25
280.273	270.25
280.505	250.25
280.736	248.25
280.968	266.25
281.199	276.25
281.431	271.25
281.662	264.25
281.894	261.25
282.125	270.25
282.356	277.25
282.588	277.25
282.819	280.25
283.051	268.25
283.282	261.25
283.513	278.25
283.745	270.25
283.976	264.25
284.207	279.25
284.439	264.25
284.67	278.25
284.901	274.25
285.132	277.25
285.364	261.25
285.595	276.25
285.826	270.25
286.057	282.25
286.288	274.25
286.52	254.25
286.751	264.25
286.982	279.25
287.213	283.25
287.444	265.25
287.675	289.25
287.906	278.25
288.138	266.25
288.369	286.25
288.6	291.25
288.831	282.25
289.062	282.25
289.293	273.25
289.524	289.25
289.755	290.25
289.986	270.25
290.217	293.25
290.448	292.25
290.679	266.25
290.91	275.25
291.141	277.25
291.371	295.25
291.602	295.25
291.833	264.25
292.064	286.25
292.295	294.25
292.526	288.25
292.757	288.25
292.987	264.25
293.218	281.25
293.449	280.25
293.68	298.25
293.91	285.25
294.141	290.25
294.372	281.25
294.603	290.25
294.833	270.25
295.064	290.25
295.295	291.25
295.525	284.25
295.756	301.25
295.987	296.25
296.217	317.25
296.448	328.25
296.679	297.25
296.909	286.25
297.14	294.25
297.37	299.25
297.601	315.25
297.831	285.25
298.062	292.25
298.292	316.25
298.523	317.25
298.753	304.25
298.984	290.25
299.214	327.25
299.445	315.25
299.675	297.25
299.905	310.25
300.136	310.25
300.366	318.25
300.597	320.25
300.827	322.25
301.057	344.25
301.288	332.25
301.518	321.25
301.748	309.25
301.979	330.25
302.209	292.25
302.439	312.25
302.669	319.25
302.9	326.25
303.13	336.25
303.36	322.25
303.59	307.25
303.82	328.25
304.051	335.25
304.281	327.25
304.511	317.25
304.741	316.25
304.971	299.25
305.201	304.25
305.431	316.25
305.661	324.25
305.891	306.25
306.121	324.25
306.352	327.25
306.582	324.25
306.812	316.25
307.042	325.25
307.272	322.25
307.502	320.25
307.731	303.25
307.961	325.25
308.191	310.25
308.421	307.25
308.651	310.25
308.881	335.25
309.111	328.25
309.341	318.25
309.571	330.25
309.8	327.25
310.03	351.25
310.26	332.25
310.49	340.25
310.72	348.25
310.949	346.25
311.179	370.25
311.409	346.25
311.639	328.25
311.868	347.25
312.098	348.25
312.328	366.25
312.557	360.25
312.787	362.25
313.017	376.25
313.246	366.25
313.476	339.25
313.706	358.25
313.935	344.25
314.165	351.25
314.394	363.25
314.624	372.25
314.853	343.25
315.083	372.25
315.312	362.25
315.542	371.25
315.771	342.25
316.001	358.25
316.23	330.25
316.46	351.25
316.689	340.25
316.919	349.25
317.148	344.25
317.377	351.25
317.607	357.25
317.836	342.25
318.065	345.25
318.295	344.25
318.524	348.25
318.753	330.25
318.983	358.25
319.212	344.25
319.441	358.25
319.67	367.25
319.9	356.25
320.129	322.25
320.358	350.25
320.587	365.25
320.816	357.25
321.046	351.25
321.275	373.25
321.504	350.25
321.733	362.25
321.962	368.25
322.191	381.25
322.42	386.25
322.649	374.25
322.878	414.25
323.108	398.25
323.337	402.25
323.566	412.25
323.795	452.25
324.024	473.25
324.253	540.25
324.482	722.25
324.71	1050.25
324.939	1410.25
325.168	1216.25
325.397	708.25
325.626	514.25
325.855	466.25
326.084	450.25
326.313	438.25
326.542	437.25
326.77	456.25
326.999	515.25
327.228	675.25
327.457	977.25
327.686	1091.25
327.914	800.25
328.143	588.25
328.372	532.25
328.6	495.25
328.829	477.25
329.058	491.25
329.287	496.25
329.515	471.25
329.744	466.25
329.972	470.25
330.201	491.25
330.43	532.25
330.658	531.25
330.887	528.25
331.115	494.25
331.344	462.25
331.572	442.25
331.801	441.25
332.03	461.25
332.258	456.25
332.486	449.25
332.715	453.25
332.943	453.25
333.172	459.25
333.4	479.25
333.629	494.25
333.857	516.25
334.085	528.25
334.314	550.25
334.542	588.25
334.771	595.25
334.999	523.25
335.227	494.25
335.455	470.25
335.684	453.25
335.912	449.25
336.14	417.25
336.369	438.25
336.597	442.25
336.825	444.25
337.053	429.25
337.281	433.25
337.51	426.25
337.738	422.25
337.966	427.25
338.194	432.25
338.422	403.25
338.65	422.25
338.878	404.25
339.106	401.25
339.334	420.25
339.562	392.25
339.79	416.25
340.018	403.25
340.246	377.25
340.474	393.25
340.702	374.25
340.93	400.25
341.158	409.25
341.386	413.25
341.614	394.25
341.842	391.25
342.07	384.25
342.298	387.25
342.526	383.25
342.754	383.25
342.981	380.25
343.209	379.25
343.437	400.25
343.665	423.25
343.893	404.25
344.12	450.25
344.348	449.25
344.576	411.25
344.804	416.25
345.031	380.25
345.259	383.25
345.487	383.25
345.714	381.25
345.942	371.25
346.17	397.25
346.397	378.25
346.625	376.25
346.853	358.25
347.08	378.25
347.308	376.25
347.535	381.25
347.763	385.25
347.99	385.25
348.218	387.25
348.445	373.25
348.673	382.25
348.9	387.25
349.128	391.25
349.355	375.25
349.583	391.25
349.81	372.25
350.037	351.25
350.265	358.25
350.492	362.25
350.72	362.25
350.947	370.25
351.174	365.25
351.402	354.25
351.629	369.25
351.856	386.25
352.083	345.25
352.311	374.25
352.538	367.25
352.765	394.25
352.992	375.25
353.22	368.25
353.447	355.25
353.674	379.25
353.901	359.25
354.128	350.25
354.355	366.25
354.583	369.25
354.81	334.25
355.037	356.25
355.264	353.25
355.491	358.25
355.718	358.25
355.945	347.25
356.172	359.25
356.399	344.25
356.626	359.25
356.853	345.25
357.08	353.25
357.307	343.25
357.534	365.25
357.761	364.25
357.988	366.25
358.215	342.25
358.441	348.25
358.668	353.25
358.895	361.25
359.122	351.25
359.349	364.25
359.576	367.25
359.802	383.25
360.029	406.25
360.256	404.25
360.483	389.25
360.709	386.25
360.936	349.25
361.163	364.25
361.39	383.25
361.616	367.25
361.843	344.25
362.07	365.25
362.296	376.25
362.523	370.25
362.749	360.25
362.976	364.25
363.203	350.25
363.429	351.25
363.656	361.25
363.882	342.25
364.109	341.25
364.335	371.25
364.562	364.25
364.788	353.25
365.015	359.25
365.241	360.25
365.468	351.25
365.694	333.25
365.92	367.25
366.147	356.25
366.373	366.25
366.599	352.25
366.826	344.25
367.052	334.25
367.278	348.25
367.505	351.25
367.731	359.25
367.957	342.25
368.184	361.25
368.41	354.25
368.636	363.25
368.862	363.25
369.089	365.25
369.315	361.25
369.541	376.25
369.767	343.25
369.993	360.25
370.219	353.25
370.445	346.25
370.672	361.25
370.898	367.25
371.124	373.25
371.35	363.25
371.576	351.25
371.802	367.25
372.028	363.25
372.254	358.25
372.48	375.25
372.706	351.25
372.932	370.25
373.158	386.25
373.384	372.25
373.61	360.25
373.835	374.25
374.061	377.25
374.287	360.25
374.513	386.25
374.739	368.25
374.965	355.25
375.191	380.25
375.416	374.25
375.642	375.25
375.868	390.25
376.094	376.25
376.319	361.25
376.545	364.25
376.771	367.25
376.997	351.25
377.222	354.25
377.448	368.25
377.674	363.25
377.899	374.25
378.125	366.25
378.35	365.25
378.576	351.25
378.802	349.25
379.027	363.25
379.253	359.25
379.478	355.25
379.704	365.25
379.929	360.25
380.155	358.25
380.38	371.25
380.606	351.25
380.831	360.25
381.057	338.25
381.282	341.25
381.507	344.25
381.733	351.25
381.958	375.25
382.184	370.25
382.409	379.25
382.634	363.25
382.86	384.25
383.085	394.25
383.31	375.25
383.535	382.25
383.761	374.25
383.986	390.25
384.211	392.25
384.436	381.25
384.662	397.25
384.887	407.25
385.112	414.25
385.337	416.25
385.562	406.25
385.787	420.25
386.013	420.25
386.238	405.25
386.463	382.25
386.688	420.25
386.913	406.25
387.138	404.25
387.363	401.25
387.588	396.25
387.813	401.25
388.038	402.25
388.263	413.25
388.488	411.25
388.713	404.25
388.938	411.25
389.163	386.25
389.387	416.25
389.612	397.25
389.837	402.25
390.062	391.25
390.287	401.25
390.512	388.25
390.736	399.25
390.961	394.25
391.186	398.25
391.411	411.25
391.636	429.25
391.86	436.25
392.085	420.25
392.31	429.25
392.534	434.25
392.759	412.25
392.984	412.25
393.208	423.25
393.433	414.25
393.658	416.25
393.882	392.25
394.107	402.25
394.331	424.25
394.556	405.25
394.78	432.25
395.005	450.25
395.229	425.25
395.454	428.25
395.678	425.25
395.903	437.25
396.127	444.25
396.352	442.25
396.576	449.25
396.801	422.25
397.025	426.25
397.249	444.25
397.474	426.25
397.698	450.25
397.922	463.25
398.147	469.25
398.371	460.25
398.595	443.25
398.82	485.25
399.044	493.25
399.268	530.25
399.492	568.25
399.717	641.25
399.941	645.25
400.165	615.25
400.389	589.25
400.613	538.25
400.837	528.25
401.062	506.25
401.286	494.25
401.51	469.25
401.734	479.25
401.958	491.25
402.182	504.25
402.406	475.25
402.63	502.25
402.854	508.25
403.078	512.25
403.302	518.25
403.526	512.25
403.75	517.25
403.974	514.25
404.198	525.25
404.422	534.25
404.645	532.25
404.869	538.25
405.093	565.25
405.317	552.25
405.541	596.25
405.765	526.25
405.988	530.25
406.212	527.25
406.436	534.25
406.66	568.25
406.883	548.25
407.107	588.25
407.331	600.25
407.555	657.25
407.778	646.25
408.002	603.25
408.226	566.25
408.449	559.25
408.673	552.25
408.896	567.25
409.12	572.25
409.344	577.25
409.567	507.25
409.791	513.25
410.014	506.25
410.238	526.25
410.461	486.25
410.685	493.25
410.908	516.25
411.132	525.25
411.355	540.25
411.578	528.25
411.802	509.25
412.025	512.25
412.249	543.25
412.472	543.25
412.695	559.25
412.919	547.25
413.142	513.25
413.365	494.25
413.589	502.25
413.812	493.25
414.035	484.25
414.258	455.25
414.482	479.25
414.705	477.25
414.928	500.25
415.151	489.25
415.374	464.25
415.597	463.25
415.821	480.25
416.044	435.25
416.267	444.25
416.49	475.25
416.713	439.25
416.936	466.25
417.159	468.25
417.382	462.25
417.605	472.25
417.828	475.25
418.051	471.25
418.274	495.25
418.497	487.25
418.72	491.25
418.943	483.25
419.166	505.25
419.389	555.25
419.611	525.25
419.834	500.25
420.057	469.25
420.28	516.25
420.503	506.25
420.726	487.25
420.948	504.25
421.171	486.25
421.394	537.25
421.617	490.25
421.839	491.25
422.062	474.25
422.285	488.25
422.507	540.25
422.73	552.25
422.953	548.25
423.175	492.25
423.398	501.25
423.621	498.25
423.843	484.25
424.066	518.25
424.288	506.25
424.511	504.25
424.733	559.25
424.956	570.25
425.178	558.25
425.401	557.25
425.623	582.25
425.846	509.25
426.068	489.25
426.291	478.25
426.513	484.25
426.735	492.25
426.958	500.25
427.18	575.25
427.402	651.25
427.625	674.25
427.847	591.25
428.069	550.25
428.292	474.25
428.514	473.25
428.736	455.25
428.958	460.25
429.181	451.25
429.403	442.25
429.625	458.25
429.847	475.25
430.069	490.25
430.292	489.25
430.514	448.25
430.736	448.25
430.958	436.25
431.18	442.25
431.402	437.25
431.624	436.25
431.846	440.25
432.068	431.25
432.29	435.25
432.512	429.25
432.734	425.25
432.956	436.25
433.178	445.25
433.4	421.25
433.622	440.25
433.844	431.25
434.066	418.25
434.287	421.25
434.509	463.25
434.731	468.25
434.953	472.25
435.175	457.25
435.397	474.25
435.618	487.25
435.84	487.25
436.062	536.25
436.284	581.25
436.505	506.25
436.727	470.25
436.949	448.25
437.17	436.25
437.392	444.25
437.614	446.25
437.835	462.25
438.057	491.25
438.278	557.25
438.5	550.25
438.721	610.25
438.943	584.25
439.165	486.25
439.386	454.25
439.608	479.25
439.829	482.25
440.05	484.25
440.272	507.25
440.493	496.25
440.715	472.25
440.936	458.25
441.158	460.25
441.379	461.25
441.6	480.25
441.822	494.25
442.043	500.25
442.264	544.25
442.486	580.25
442.707	539.25
442.928	473.25
443.149	488.25
443.371	510.25
443.592	515.25
443.813	591.25
444.034	628.25
444.255	566.25
444.476	517.25
444.698	529.25
444.919	528.25
445.14	629.25
445.361	566.25
445.582	531.25
445.803	558.25
446.024	591.25
446.245	586.25
446.466	551.25
446.687	471.25
446.908	458.25
447.129	449.25
447.35	432.25
447.571	452.25
447.792	436.25
448.013	434.25
448.234	443.25
448.455	461.25
448.675	522.25
448.896	606.25
449.117	538.25
449.338	494.25
449.559	551.25
449.779	636.25
450	524.25
450.221	454.25
450.442	443.25
450.662	420.25
450.883	428.25
451.104	423.25
451.324	432.25
451.545	425.25
451.766	420.25
451.986	410.25
452.207	392.25
452.428	399.25
452.648	405.25
452.869	392.25
453.089	391.25
453.31	387.25
453.53	378.25
453.751	387.25
453.971	394.25
454.192	398.25
454.412	395.25
454.633	390.25
454.853	390.25
455.073	395.25
455.294	409.25
455.514	434.25
455.734	431.25
455.955	383.25
456.175	383.25
456.395	361.25
456.616	366.25
456.836	383.25
457.056	372.25
457.276	363.25
457.497	393.25
457.717	372.25
457.937	384.25
458.157	384.25
458.377	381.25
458.598	414.25
458.818	435.25
459.038	486.25
459.258	504.25
459.478	452.25
459.698	450.25
459.918	450.25
460.138	447.25
460.358	466.25
460.578	470.25
460.798	458.25
461.018	502.25
461.238	470.25
461.458	461.25
461.678	454.25
461.898	448.25
462.118	471.25
462.338	478.25
462.558	513.25
462.777	496.25
462.997	520.25
463.217	562.25
463.437	562.25
463.657	536.25
463.876	523.25
464.096	506.25
464.316	528.25
464.536	503.25
464.755	505.25
464.975	488.25
465.195	526.25
465.414	506.25
465.634	476.25
465.854	455.25
466.073	452.25
466.293	443.25
466.512	430.25
466.732	424.25
466.951	424.25
467.171	403.25
467.391	402.25
467.61	412.25
467.829	424.25
468.049	435.25
468.268	422.25
468.488	404.25
468.707	402.25
468.927	392.25
469.146	402.25
469.365	409.25
469.585	411.25
469.804	414.25
470.023	410.25
470.243	409.25
470.462	440.25
470.681	460.25
470.901	440.25
471.12	453.25
471.339	418.25
471.558	415.25
471.777	411.25
471.997	430.25
472.216	426.25
472.435	460.25
472.654	433.25
472.873	414.25
473.092	416.25
473.311	404.25
473.53	421.25
473.749	404.25
473.968	426.25
474.187	499.25
474.406	498.25
474.625	435.25
474.844	427.25
475.063	398.25
475.282	404.25
475.501	412.25
475.72	408.25
475.939	408.25
476.158	429.25
476.377	421.25
476.596	407.25
476.814	436.25
477.033	438.25
477.252	434.25
477.471	450.25
477.69	431.25
477.908	442.25
478.127	454.25
478.346	445.25
478.564	462.25
478.783	452.25
479.002	475.25
479.22	496.25
479.439	499.25
479.658	493.25
479.876	494.25
480.095	512.25
480.313	524.25
480.532	538.25
480.751	504.25
480.969	531.25
481.188	609.25
481.406	617.25
481.624	534.25
481.843	510.25
482.061	483.25
482.28	494.25
482.498	480.25
482.717	459.25
482.935	466.25
483.153	460.25
483.372	477.25
483.59	463.25
483.808	471.25
484.027	449.25
484.245	470.25
484.463	455.25
484.681	487.25
484.9	469.25
485.118	486.25
485.336	476.25
485.554	478.25
485.772	474.25
485.99	486.25
486.209	495.25
486.427	465.25
486.645	477.25
486.863	495.25
487.081	490.25
487.299	534.25
487.517	506.25
487.735	472.25
487.953	500.25
488.171	500.25
488.389	475.25
488.607	484.25
488.825	465.25
489.043	474.25
489.261	500.25
489.479	487.25
489.696	506.25
489.914	510.25
490.132	502.25
490.35	519.25
490.568	510.25
490.786	526.25
491.003	510.25
491.221	538.25
491.439	524.25
491.657	555.25
491.874	547.25
492.092	513.25
492.31	569.25
492.527	589.25
492.745	562.25
492.963	574.25
493.18	574.25
493.398	577.25
493.615	574.25
493.833	564.25
494.05	570.25
494.268	568.25
494.485	584.25
494.703	562.25
494.92	562.25
495.138	582.25
495.355	567.25
495.573	544.25
495.79	566.25
496.008	566.25
496.225	567.25
496.442	554.25
496.66	592.25
496.877	572.25
497.094	579.25
497.312	614.25
497.529	572.25
497.746	597.25
497.963	640.25
498.181	646.25
498.398	638.25
498.615	685.25
498.832	685.25
499.049	733.25
499.267	741.25
499.484	790.25
499.701	864.25
499.918	886.25
500.135	967.25
500.352	1095.25
500.569	1109.25
500.786	1103.25
501.003	1064.25
501.22	1015.25
501.437	931.25
501.654	862.25
501.871	831.25
