Data from 1984.PennyLincolnUp.Lamp.En5.5.200Scan.071819.P1_HRD10591_16-59-58-969.txt Node
Date: Thu Jul 18 16:59:58 EDT 2019
User: cochatt
Spectrometer: HR+D1059
Trigger mode: 1
Integration Time (sec): 1.000000E-1
Scans to average: 1
Electric dark correction enabled: true
Nonlinearity correction enabled: false
Boxcar width: 0
XAxis mode: Wavelengths
Number of Pixels in Spectrum: 2048
>>>>>Begin Spectral Data<<<<<
223.165	-19.12
223.4	-19.12
223.635	-19.12
223.869	-4.12
224.104	-14.12
224.338	-14.12
224.573	-17.12
224.808	-8.12
225.042	-15.12
225.277	-5.12
225.511	-11.12
225.746	-3.12
225.98	3.88
226.215	19.88
226.449	13.88
226.683	20.88
226.918	19.88
227.152	32.88
227.387	48.88
227.621	41.88
227.856	38.88
228.09	57.88
228.324	63.88
228.559	54.88
228.793	51.88
229.027	82.88
229.262	88.88
229.496	103.88
229.73	95.88
229.964	124.88
230.199	119.88
230.433	98.88
230.667	119.88
230.901	98.88
231.136	101.88
231.37	102.88
231.604	124.88
231.838	103.88
232.072	115.88
232.306	120.88
232.541	106.88
232.775	107.88
233.009	102.88
233.243	99.88
233.477	99.88
233.711	108.88
233.945	122.88
234.179	113.88
234.413	113.88
234.647	119.88
234.881	122.88
235.115	105.88
235.349	123.88
235.583	124.88
235.817	123.88
236.051	118.88
236.285	119.88
236.519	125.88
236.753	134.88
236.987	134.88
237.221	147.88
237.455	171.88
237.689	144.88
237.922	119.88
238.156	132.88
238.39	129.88
238.624	125.88
238.858	118.88
239.091	120.88
239.325	116.88
239.559	126.88
239.793	120.88
240.027	117.88
240.26	133.88
240.494	135.88
240.728	120.88
240.961	120.88
241.195	123.88
241.429	139.88
241.662	134.88
241.896	132.88
242.13	127.88
242.363	128.88
242.597	127.88
242.83	128.88
243.064	119.88
243.298	119.88
243.531	130.88
243.765	131.88
243.998	123.88
244.232	149.88
244.465	140.88
244.699	122.88
244.932	126.88
245.166	123.88
245.399	133.88
245.633	131.88
245.866	132.88
246.099	141.88
246.333	147.88
246.566	129.88
246.8	156.88
247.033	145.88
247.266	153.88
247.5	140.88
247.733	152.88
247.966	146.88
248.2	161.88
248.433	151.88
248.666	146.88
248.899	167.88
249.133	177.88
249.366	187.88
249.599	178.88
249.832	159.88
250.066	177.88
250.299	182.88
250.532	187.88
250.765	202.88
250.998	208.88
251.231	208.88
251.465	196.88
251.698	187.88
251.931	172.88
252.164	172.88
252.397	185.88
252.63	185.88
252.863	170.88
253.096	184.88
253.329	197.88
253.562	189.88
253.795	169.88
254.028	185.88
254.261	197.88
254.494	191.88
254.727	200.88
254.96	214.88
255.193	204.88
255.426	219.88
255.659	227.88
255.892	228.88
256.124	275.88
256.357	294.88
256.59	265.88
256.823	217.88
257.056	210.88
257.289	217.88
257.521	207.88
257.754	184.88
257.987	191.88
258.22	193.88
258.452	199.88
258.685	178.88
258.918	184.88
259.151	199.88
259.383	186.88
259.616	201.88
259.849	202.88
260.081	198.88
260.314	225.88
260.547	213.88
260.779	207.88
261.012	199.88
261.244	203.88
261.477	223.88
261.71	191.88
261.942	203.88
262.175	202.88
262.407	211.88
262.64	194.88
262.872	210.88
263.105	212.88
263.337	209.88
263.57	196.88
263.802	187.88
264.035	208.88
264.267	208.88
264.499	195.88
264.732	191.88
264.964	194.88
265.197	191.88
265.429	199.88
265.661	200.88
265.894	204.88
266.126	192.88
266.358	200.88
266.591	193.88
266.823	218.88
267.055	206.88
267.287	203.88
267.52	212.88
267.752	213.88
267.984	231.88
268.216	218.88
268.448	207.88
268.681	207.88
268.913	215.88
269.145	241.88
269.377	245.88
269.609	237.88
269.841	237.88
270.073	229.88
270.306	246.88
270.538	264.88
270.77	249.88
271.002	241.88
271.234	247.88
271.466	261.88
271.698	245.88
271.93	268.88
272.162	267.88
272.394	277.88
272.626	239.88
272.858	251.88
273.09	255.88
273.322	251.88
273.553	240.88
273.785	241.88
274.017	259.88
274.249	263.88
274.481	226.88
274.713	233.88
274.945	235.88
275.176	254.88
275.408	248.88
275.64	272.88
275.872	255.88
276.104	247.88
276.335	229.88
276.567	255.88
276.799	283.88
277.031	293.88
277.262	303.88
277.494	294.88
277.726	283.88
277.957	264.88
278.189	267.88
278.421	268.88
278.652	264.88
278.884	254.88
279.115	249.88
279.347	241.88
279.579	275.88
279.81	269.88
280.042	261.88
280.273	270.88
280.505	280.88
280.736	282.88
280.968	276.88
281.199	273.88
281.431	268.88
281.662	263.88
281.894	273.88
282.125	251.88
282.356	267.88
282.588	282.88
282.819	289.88
283.051	270.88
283.282	252.88
283.513	268.88
283.745	270.88
283.976	274.88
284.207	285.88
284.439	274.88
284.67	272.88
284.901	268.88
285.132	273.88
285.364	269.88
285.595	273.88
285.826	271.88
286.057	287.88
286.288	272.88
286.52	278.88
286.751	284.88
286.982	281.88
287.213	280.88
287.444	305.88
287.675	277.88
287.906	292.88
288.138	284.88
288.369	286.88
288.6	299.88
288.831	297.88
289.062	283.88
289.293	274.88
289.524	281.88
289.755	275.88
289.986	299.88
290.217	282.88
290.448	269.88
290.679	285.88
290.91	296.88
291.141	284.88
291.371	280.88
291.602	283.88
291.833	276.88
292.064	285.88
292.295	279.88
292.526	277.88
292.757	295.88
292.987	287.88
293.218	283.88
293.449	313.88
293.68	308.88
293.91	284.88
294.141	277.88
294.372	290.88
294.603	294.88
294.833	285.88
295.064	283.88
295.295	315.88
295.525	287.88
295.756	295.88
295.987	295.88
296.217	293.88
296.448	311.88
296.679	309.88
296.909	287.88
297.14	281.88
297.37	312.88
297.601	282.88
297.831	297.88
298.062	294.88
298.292	291.88
298.523	307.88
298.753	292.88
298.984	300.88
299.214	304.88
299.445	303.88
299.675	325.88
299.905	325.88
300.136	287.88
300.366	303.88
300.597	290.88
300.827	317.88
301.057	325.88
301.288	314.88
301.518	309.88
301.748	292.88
301.979	319.88
302.209	329.88
302.439	336.88
302.669	332.88
302.9	310.88
303.13	311.88
303.36	298.88
303.59	313.88
303.82	328.88
304.051	333.88
304.281	311.88
304.511	321.88
304.741	323.88
304.971	321.88
305.201	313.88
305.431	337.88
305.661	334.88
305.891	317.88
306.121	335.88
306.352	313.88
306.582	296.88
306.812	309.88
307.042	326.88
307.272	325.88
307.502	333.88
307.731	318.88
307.961	322.88
308.191	321.88
308.421	327.88
308.651	338.88
308.881	332.88
309.111	335.88
309.341	325.88
309.571	331.88
309.8	337.88
310.03	337.88
310.26	324.88
310.49	348.88
310.72	330.88
310.949	358.88
311.179	361.88
311.409	350.88
311.639	333.88
311.868	345.88
312.098	348.88
312.328	344.88
312.557	365.88
312.787	386.88
313.017	361.88
313.246	337.88
313.476	354.88
313.706	347.88
313.935	357.88
314.165	373.88
314.394	379.88
314.624	376.88
314.853	353.88
315.083	354.88
315.312	348.88
315.542	343.88
315.771	334.88
316.001	369.88
316.23	355.88
316.46	365.88
316.689	365.88
316.919	346.88
317.148	369.88
317.377	344.88
317.607	348.88
317.836	386.88
318.065	366.88
318.295	331.88
318.524	347.88
318.753	333.88
318.983	375.88
319.212	355.88
319.441	332.88
319.67	369.88
319.9	359.88
320.129	356.88
320.358	361.88
320.587	363.88
320.816	356.88
321.046	365.88
321.275	363.88
321.504	388.88
321.733	373.88
321.962	382.88
322.191	385.88
322.42	372.88
322.649	391.88
322.878	376.88
323.108	400.88
323.337	420.88
323.566	418.88
323.795	443.88
324.024	460.88
324.253	551.88
324.482	737.88
324.71	1083.88
324.939	1494.88
325.168	1260.88
325.397	716.88
325.626	530.88
325.855	475.88
326.084	448.88
326.313	447.88
326.542	444.88
326.77	483.88
326.999	545.88
327.228	706.88
327.457	978.88
327.686	1145.88
327.914	817.88
328.143	646.88
328.372	579.88
328.6	578.88
328.829	504.88
329.058	470.88
329.287	505.88
329.515	518.88
329.744	516.88
329.972	531.88
330.201	600.88
330.43	667.88
330.658	635.88
330.887	553.88
331.115	537.88
331.344	484.88
331.572	462.88
331.801	455.88
332.03	467.88
332.258	471.88
332.486	448.88
332.715	453.88
332.943	457.88
333.172	487.88
333.4	493.88
333.629	534.88
333.857	555.88
334.085	604.88
334.314	687.88
334.542	785.88
334.771	771.88
334.999	617.88
335.227	540.88
335.455	497.88
335.684	479.88
335.912	484.88
336.14	458.88
336.369	460.88
336.597	461.88
336.825	430.88
337.053	423.88
337.281	439.88
337.51	437.88
337.738	428.88
337.966	405.88
338.194	423.88
338.422	417.88
338.65	422.88
338.878	401.88
339.106	404.88
339.334	413.88
339.562	408.88
339.79	396.88
340.018	385.88
340.246	410.88
340.474	384.88
340.702	390.88
340.93	384.88
341.158	387.88
341.386	403.88
341.614	397.88
341.842	403.88
342.07	377.88
342.298	378.88
342.526	395.88
342.754	391.88
342.981	388.88
343.209	384.88
343.437	399.88
343.665	424.88
343.893	427.88
344.12	448.88
344.348	441.88
344.576	424.88
344.804	409.88
345.031	401.88
345.259	397.88
345.487	396.88
345.714	389.88
345.942	396.88
346.17	383.88
346.397	385.88
346.625	374.88
346.853	367.88
347.08	362.88
347.308	387.88
347.535	362.88
347.763	375.88
347.99	394.88
348.218	387.88
348.445	371.88
348.673	388.88
348.9	384.88
349.128	377.88
349.355	364.88
349.583	389.88
349.81	369.88
350.037	368.88
350.265	367.88
350.492	358.88
350.72	360.88
350.947	377.88
351.174	380.88
351.402	395.88
351.629	362.88
351.856	368.88
352.083	373.88
352.311	383.88
352.538	370.88
352.765	395.88
352.992	376.88
353.22	375.88
353.447	364.88
353.674	386.88
353.901	375.88
354.128	355.88
354.355	376.88
354.583	335.88
354.81	358.88
355.037	362.88
355.264	357.88
355.491	351.88
355.718	330.88
355.945	359.88
356.172	339.88
356.399	352.88
356.626	351.88
356.853	367.88
357.08	340.88
357.307	335.88
357.534	340.88
357.761	337.88
357.988	359.88
358.215	353.88
358.441	350.88
358.668	365.88
358.895	352.88
359.122	356.88
359.349	346.88
359.576	363.88
359.802	393.88
360.029	401.88
360.256	376.88
360.483	386.88
360.709	375.88
360.936	378.88
361.163	360.88
361.39	373.88
361.616	371.88
361.843	362.88
362.07	359.88
362.296	372.88
362.523	357.88
362.749	373.88
362.976	351.88
363.203	369.88
363.429	356.88
363.656	336.88
363.882	351.88
364.109	348.88
364.335	349.88
364.562	356.88
364.788	367.88
365.015	348.88
365.241	332.88
365.468	359.88
365.694	367.88
365.92	349.88
366.147	352.88
366.373	359.88
366.599	352.88
366.826	352.88
367.052	352.88
367.278	341.88
367.505	369.88
367.731	358.88
367.957	359.88
368.184	371.88
368.41	367.88
368.636	354.88
368.862	348.88
369.089	372.88
369.315	340.88
369.541	357.88
369.767	349.88
369.993	344.88
370.219	343.88
370.445	355.88
370.672	372.88
370.898	360.88
371.124	363.88
371.35	364.88
371.576	370.88
371.802	364.88
372.028	381.88
372.254	375.88
372.48	355.88
372.706	371.88
372.932	372.88
373.158	352.88
373.384	365.88
373.61	358.88
373.835	373.88
374.061	371.88
374.287	358.88
374.513	348.88
374.739	347.88
374.965	376.88
375.191	375.88
375.416	371.88
375.642	369.88
375.868	369.88
376.094	387.88
376.319	375.88
376.545	371.88
376.771	355.88
376.997	378.88
377.222	369.88
377.448	353.88
377.674	367.88
377.899	364.88
378.125	359.88
378.35	365.88
378.576	350.88
378.802	339.88
379.027	342.88
379.253	371.88
379.478	377.88
379.704	347.88
379.929	338.88
380.155	362.88
380.38	357.88
380.606	346.88
380.831	340.88
381.057	361.88
381.282	362.88
381.507	375.88
381.733	364.88
381.958	352.88
382.184	355.88
382.409	360.88
382.634	367.88
382.86	374.88
383.085	368.88
383.31	376.88
383.535	379.88
383.761	375.88
383.986	373.88
384.211	389.88
384.436	397.88
384.662	385.88
384.887	411.88
385.112	402.88
385.337	401.88
385.562	413.88
385.787	408.88
386.013	409.88
386.238	394.88
386.463	403.88
386.688	429.88
386.913	399.88
387.138	404.88
387.363	385.88
387.588	425.88
387.813	393.88
388.038	394.88
388.263	405.88
388.488	389.88
388.713	407.88
388.938	398.88
389.163	402.88
389.387	393.88
389.612	389.88
389.837	390.88
390.062	388.88
390.287	391.88
390.512	391.88
390.736	393.88
390.961	402.88
391.186	402.88
391.411	414.88
391.636	436.88
391.86	448.88
392.085	427.88
392.31	436.88
392.534	434.88
392.759	422.88
392.984	428.88
393.208	424.88
393.433	421.88
393.658	417.88
393.882	404.88
394.107	409.88
394.331	420.88
394.556	415.88
394.78	431.88
395.005	403.88
395.229	417.88
395.454	424.88
395.678	439.88
395.903	431.88
396.127	435.88
396.352	442.88
396.576	400.88
396.801	415.88
397.025	417.88
397.249	435.88
397.474	449.88
397.698	437.88
397.922	448.88
398.147	454.88
398.371	467.88
398.595	449.88
398.82	476.88
399.044	491.88
399.268	544.88
399.492	590.88
399.717	606.88
399.941	636.88
400.165	618.88
400.389	577.88
400.613	541.88
400.837	487.88
401.062	492.88
401.286	504.88
401.51	484.88
401.734	465.88
401.958	473.88
402.182	487.88
402.406	499.88
402.63	477.88
402.854	481.88
403.078	508.88
403.302	515.88
403.526	531.88
403.75	537.88
403.974	528.88
404.198	501.88
404.422	532.88
404.645	541.88
404.869	539.88
405.093	579.88
405.317	596.88
405.541	643.88
405.765	591.88
405.988	565.88
406.212	549.88
406.436	531.88
406.66	572.88
406.883	535.88
407.107	554.88
407.331	580.88
407.555	648.88
407.778	651.88
408.002	605.88
408.226	561.88
408.449	558.88
408.673	540.88
408.896	572.88
409.12	571.88
409.344	552.88
409.567	522.88
409.791	511.88
410.014	518.88
410.238	487.88
410.461	497.88
410.685	511.88
410.908	492.88
411.132	517.88
411.355	537.88
411.578	539.88
411.802	501.88
412.025	485.88
412.249	523.88
412.472	560.88
412.695	592.88
412.919	622.88
413.142	542.88
413.365	518.88
413.589	501.88
413.812	506.88
414.035	505.88
414.258	498.88
414.482	490.88
414.705	467.88
414.928	489.88
415.151	489.88
415.374	458.88
415.597	474.88
415.821	468.88
416.044	480.88
416.267	464.88
416.49	469.88
416.713	481.88
416.936	482.88
417.159	471.88
417.382	463.88
417.605	492.88
417.828	486.88
418.051	487.88
418.274	477.88
418.497	461.88
418.72	461.88
418.943	459.88
419.166	501.88
419.389	517.88
419.611	517.88
419.834	552.88
420.057	505.88
420.28	519.88
420.503	536.88
420.726	520.88
420.948	514.88
421.171	539.88
421.394	522.88
421.617	481.88
421.839	502.88
422.062	493.88
422.285	494.88
422.507	521.88
422.73	553.88
422.953	557.88
423.175	533.88
423.398	492.88
423.621	489.88
423.843	504.88
424.066	515.88
424.288	518.88
424.511	506.88
424.733	564.88
424.956	606.88
425.178	575.88
425.401	575.88
425.623	587.88
425.846	515.88
426.068	474.88
426.291	483.88
426.513	476.88
426.735	496.88
426.958	515.88
427.18	559.88
427.402	624.88
427.625	665.88
427.847	627.88
428.069	597.88
428.292	543.88
428.514	479.88
428.736	464.88
428.958	463.88
429.181	459.88
429.403	421.88
429.625	445.88
429.847	452.88
430.069	498.88
430.292	498.88
430.514	448.88
430.736	456.88
430.958	435.88
431.18	450.88
431.402	435.88
431.624	441.88
431.846	434.88
432.068	425.88
432.29	433.88
432.512	459.88
432.734	451.88
432.956	420.88
433.178	429.88
433.4	438.88
433.622	433.88
433.844	435.88
434.066	457.88
434.287	424.88
434.509	444.88
434.731	468.88
434.953	459.88
435.175	491.88
435.397	494.88
435.618	481.88
435.84	500.88
436.062	560.88
436.284	584.88
436.505	505.88
436.727	470.88
436.949	436.88
437.17	448.88
437.392	433.88
437.614	456.88
437.835	455.88
438.057	516.88
438.278	577.88
438.5	580.88
438.721	633.88
438.943	608.88
439.165	483.88
439.386	472.88
439.608	463.88
439.829	458.88
440.05	488.88
440.272	528.88
440.493	486.88
440.715	477.88
440.936	478.88
441.158	465.88
441.379	467.88
441.6	484.88
441.822	497.88
442.043	512.88
442.264	577.88
442.486	583.88
442.707	539.88
442.928	504.88
443.149	499.88
443.371	507.88
443.592	548.88
443.813	592.88
444.034	641.88
444.255	573.88
444.476	513.88
444.698	535.88
444.919	537.88
445.14	639.88
445.361	567.88
445.582	526.88
445.803	559.88
446.024	591.88
446.245	584.88
446.466	552.88
446.687	496.88
446.908	460.88
447.129	447.88
447.35	435.88
447.571	437.88
447.792	425.88
448.013	440.88
448.234	447.88
448.455	483.88
448.675	565.88
448.896	617.88
449.117	527.88
449.338	511.88
449.559	566.88
449.779	647.88
450	523.88
450.221	457.88
450.442	420.88
450.662	401.88
450.883	422.88
451.104	453.88
451.324	419.88
451.545	417.88
451.766	411.88
451.986	390.88
452.207	409.88
452.428	409.88
452.648	409.88
452.869	409.88
453.089	400.88
453.31	415.88
453.53	400.88
453.751	408.88
453.971	389.88
454.192	401.88
454.412	410.88
454.633	380.88
454.853	368.88
455.073	385.88
455.294	404.88
455.514	415.88
455.734	421.88
455.955	392.88
456.175	367.88
456.395	373.88
456.616	370.88
456.836	378.88
457.056	378.88
457.276	387.88
457.497	384.88
457.717	380.88
457.937	375.88
458.157	376.88
458.377	392.88
458.598	416.88
458.818	429.88
459.038	480.88
459.258	503.88
459.478	465.88
459.698	443.88
459.918	431.88
460.138	463.88
460.358	468.88
460.578	463.88
460.798	476.88
461.018	458.88
461.238	483.88
461.458	465.88
461.678	468.88
461.898	466.88
462.118	476.88
462.338	496.88
462.558	489.88
462.777	491.88
462.997	533.88
463.217	552.88
463.437	550.88
463.657	522.88
463.876	523.88
464.096	515.88
464.316	532.88
464.536	522.88
464.755	506.88
464.975	503.88
465.195	496.88
465.414	528.88
465.634	465.88
465.854	462.88
466.073	432.88
466.293	410.88
466.512	424.88
466.732	435.88
466.951	410.88
467.171	413.88
467.391	421.88
467.61	420.88
467.829	410.88
468.049	428.88
468.268	461.88
468.488	425.88
468.707	418.88
468.927	399.88
469.146	397.88
469.365	417.88
469.585	400.88
469.804	418.88
470.023	414.88
470.243	435.88
470.462	404.88
470.681	436.88
470.901	448.88
471.12	406.88
471.339	439.88
471.558	426.88
471.777	405.88
471.997	421.88
472.216	469.88
472.435	575.88
472.654	532.88
472.873	452.88
473.092	420.88
473.311	417.88
473.53	412.88
473.749	402.88
473.968	459.88
474.187	487.88
474.406	499.88
474.625	447.88
474.844	425.88
475.063	428.88
475.282	393.88
475.501	419.88
475.72	421.88
475.939	426.88
476.158	423.88
476.377	426.88
476.596	434.88
476.814	415.88
477.033	423.88
477.252	415.88
477.471	444.88
477.69	449.88
477.908	442.88
478.127	456.88
478.346	460.88
478.564	472.88
478.783	468.88
479.002	497.88
479.22	475.88
479.439	504.88
479.658	485.88
479.876	505.88
480.095	511.88
480.313	543.88
480.532	556.88
480.751	545.88
480.969	563.88
481.188	749.88
481.406	814.88
481.624	635.88
481.843	586.88
482.061	527.88
482.28	528.88
482.498	501.88
482.717	498.88
482.935	473.88
483.153	501.88
483.372	469.88
483.59	485.88
483.808	471.88
484.027	471.88
484.245	475.88
484.463	475.88
484.681	481.88
484.9	477.88
485.118	475.88
485.336	476.88
485.554	491.88
485.772	509.88
485.99	491.88
486.209	488.88
486.427	483.88
486.645	502.88
486.863	499.88
487.081	509.88
487.299	528.88
487.517	499.88
487.735	471.88
487.953	517.88
488.171	490.88
488.389	490.88
488.607	500.88
488.825	508.88
489.043	484.88
489.261	519.88
489.479	493.88
489.696	521.88
489.914	508.88
490.132	515.88
490.35	537.88
490.568	531.88
490.786	538.88
491.003	571.88
491.221	566.88
491.439	572.88
491.657	581.88
491.874	605.88
492.092	578.88
492.31	598.88
492.527	599.88
492.745	598.88
492.963	610.88
493.18	604.88
493.398	595.88
493.615	585.88
493.833	602.88
494.05	610.88
494.268	593.88
494.485	585.88
494.703	585.88
494.92	622.88
495.138	602.88
495.355	602.88
495.573	591.88
495.79	597.88
496.008	603.88
496.225	596.88
496.442	577.88
496.66	602.88
496.877	578.88
497.094	580.88
497.312	613.88
497.529	616.88
497.746	598.88
497.963	616.88
498.181	657.88
498.398	668.88
498.615	701.88
498.832	704.88
499.049	742.88
499.267	765.88
499.484	827.88
499.701	884.88
499.918	930.88
500.135	980.88
500.352	1060.88
500.569	1094.88
500.786	1144.88
501.003	1095.88
501.22	1010.88
501.437	924.88
501.654	857.88
501.871	833.88
