Data from 1984.PennyLincolnUp.Lamp.En5.5.200Scan.071819.P1_HRD10591_16-58-04-968.txt Node
Date: Thu Jul 18 16:58:04 EDT 2019
User: cochatt
Spectrometer: HR+D1059
Trigger mode: 1
Integration Time (sec): 1.000000E-1
Scans to average: 1
Electric dark correction enabled: true
Nonlinearity correction enabled: false
Boxcar width: 0
XAxis mode: Wavelengths
Number of Pixels in Spectrum: 2048
>>>>>Begin Spectral Data<<<<<
223.165	-10.56
223.4	-10.56
223.635	-10.56
223.869	-26.56
224.104	-7.56
224.338	-12.56
224.573	-21.56
224.808	-15.56
225.042	-9.56
225.277	-0.56
225.511	-8.56
225.746	11.44
225.98	5.44
226.215	20.44
226.449	5.44
226.683	23.44
226.918	20.44
227.152	26.44
227.387	28.44
227.621	43.44
227.856	44.44
228.09	51.44
228.324	46.44
228.559	59.44
228.793	73.44
229.027	87.44
229.262	90.44
229.496	101.44
229.73	115.44
229.964	123.44
230.199	110.44
230.433	95.44
230.667	101.44
230.901	102.44
231.136	105.44
231.37	95.44
231.604	98.44
231.838	96.44
232.072	99.44
232.306	102.44
232.541	107.44
232.775	103.44
233.009	102.44
233.243	110.44
233.477	104.44
233.711	119.44
233.945	86.44
234.179	113.44
234.413	137.44
234.647	119.44
234.881	100.44
235.115	123.44
235.349	101.44
235.583	116.44
235.817	115.44
236.051	130.44
236.285	107.44
236.519	121.44
236.753	123.44
236.987	116.44
237.221	153.44
237.455	165.44
237.689	137.44
237.922	121.44
238.156	117.44
238.39	110.44
238.624	105.44
238.858	111.44
239.091	114.44
239.325	113.44
239.559	117.44
239.793	102.44
240.027	121.44
240.26	131.44
240.494	138.44
240.728	136.44
240.961	139.44
241.195	113.44
241.429	123.44
241.662	119.44
241.896	119.44
242.13	124.44
242.363	135.44
242.597	128.44
242.83	125.44
243.064	127.44
243.298	132.44
243.531	131.44
243.765	125.44
243.998	131.44
244.232	129.44
244.465	136.44
244.699	135.44
244.932	128.44
245.166	139.44
245.399	129.44
245.633	144.44
245.866	137.44
246.099	141.44
246.333	132.44
246.566	123.44
246.8	152.44
247.033	169.44
247.266	152.44
247.5	154.44
247.733	154.44
247.966	149.44
248.2	151.44
248.433	138.44
248.666	151.44
248.899	140.44
249.133	164.44
249.366	161.44
249.599	167.44
249.832	184.44
250.066	158.44
250.299	167.44
250.532	153.44
250.765	182.44
250.998	195.44
251.231	181.44
251.465	173.44
251.698	162.44
251.931	164.44
252.164	173.44
252.397	167.44
252.63	162.44
252.863	173.44
253.096	167.44
253.329	184.44
253.562	198.44
253.795	192.44
254.028	197.44
254.261	181.44
254.494	173.44
254.727	192.44
254.96	211.44
255.193	209.44
255.426	207.44
255.659	185.44
255.892	188.44
256.124	193.44
256.357	232.44
256.59	206.44
256.823	207.44
257.056	182.44
257.289	187.44
257.521	184.44
257.754	179.44
257.987	188.44
258.22	191.44
258.452	185.44
258.685	191.44
258.918	174.44
259.151	177.44
259.383	201.44
259.616	195.44
259.849	202.44
260.081	214.44
260.314	212.44
260.547	215.44
260.779	222.44
261.012	197.44
261.244	198.44
261.477	197.44
261.71	184.44
261.942	197.44
262.175	207.44
262.407	221.44
262.64	194.44
262.872	211.44
263.105	199.44
263.337	194.44
263.57	198.44
263.802	207.44
264.035	203.44
264.267	192.44
264.499	200.44
264.732	184.44
264.964	195.44
265.197	216.44
265.429	203.44
265.661	216.44
265.894	203.44
266.126	193.44
266.358	199.44
266.591	192.44
266.823	204.44
267.055	199.44
267.287	212.44
267.52	206.44
267.752	205.44
267.984	214.44
268.216	211.44
268.448	233.44
268.681	213.44
268.913	208.44
269.145	226.44
269.377	215.44
269.609	227.44
269.841	215.44
270.073	233.44
270.306	261.44
270.538	251.44
270.77	246.44
271.002	250.44
271.234	243.44
271.466	246.44
271.698	238.44
271.93	284.44
272.162	265.44
272.394	267.44
272.626	252.44
272.858	237.44
273.09	235.44
273.322	237.44
273.553	219.44
273.785	234.44
274.017	248.44
274.249	234.44
274.481	247.44
274.713	245.44
274.945	232.44
275.176	238.44
275.408	225.44
275.64	231.44
275.872	231.44
276.104	250.44
276.335	247.44
276.567	241.44
276.799	259.44
277.031	259.44
277.262	276.44
277.494	290.44
277.726	266.44
277.957	250.44
278.189	245.44
278.421	238.44
278.652	237.44
278.884	244.44
279.115	261.44
279.347	251.44
279.579	261.44
279.81	247.44
280.042	248.44
280.273	243.44
280.505	256.44
280.736	256.44
280.968	230.44
281.199	245.44
281.431	251.44
281.662	258.44
281.894	246.44
282.125	272.44
282.356	273.44
282.588	271.44
282.819	264.44
283.051	263.44
283.282	246.44
283.513	250.44
283.745	271.44
283.976	256.44
284.207	243.44
284.439	284.44
284.67	267.44
284.901	258.44
285.132	274.44
285.364	261.44
285.595	262.44
285.826	276.44
286.057	262.44
286.288	257.44
286.52	268.44
286.751	258.44
286.982	265.44
287.213	270.44
287.444	250.44
287.675	269.44
287.906	271.44
288.138	280.44
288.369	293.44
288.6	270.44
288.831	283.44
289.062	286.44
289.293	264.44
289.524	249.44
289.755	291.44
289.986	267.44
290.217	263.44
290.448	269.44
290.679	285.44
290.91	268.44
291.141	296.44
291.371	285.44
291.602	270.44
291.833	265.44
292.064	270.44
292.295	291.44
292.526	274.44
292.757	290.44
292.987	296.44
293.218	274.44
293.449	281.44
293.68	268.44
293.91	262.44
294.141	295.44
294.372	299.44
294.603	290.44
294.833	302.44
295.064	290.44
295.295	272.44
295.525	292.44
295.756	276.44
295.987	269.44
296.217	283.44
296.448	318.44
296.679	291.44
296.909	290.44
297.14	307.44
297.37	303.44
297.601	286.44
297.831	306.44
298.062	294.44
298.292	295.44
298.523	300.44
298.753	309.44
298.984	288.44
299.214	297.44
299.445	297.44
299.675	293.44
299.905	297.44
300.136	293.44
300.366	289.44
300.597	272.44
300.827	307.44
301.057	318.44
301.288	313.44
301.518	304.44
301.748	328.44
301.979	326.44
302.209	302.44
302.439	322.44
302.669	321.44
302.9	314.44
303.13	303.44
303.36	313.44
303.59	309.44
303.82	320.44
304.051	325.44
304.281	312.44
304.511	312.44
304.741	287.44
304.971	299.44
305.201	307.44
305.431	314.44
305.661	322.44
305.891	303.44
306.121	316.44
306.352	318.44
306.582	340.44
306.812	327.44
307.042	317.44
307.272	311.44
307.502	300.44
307.731	305.44
307.961	321.44
308.191	308.44
308.421	318.44
308.651	307.44
308.881	326.44
309.111	327.44
309.341	322.44
309.571	347.44
309.8	334.44
310.03	345.44
310.26	317.44
310.49	326.44
310.72	329.44
310.949	353.44
311.179	334.44
311.409	327.44
311.639	318.44
311.868	338.44
312.098	347.44
312.328	343.44
312.557	355.44
312.787	354.44
313.017	354.44
313.246	320.44
313.476	331.44
313.706	349.44
313.935	357.44
314.165	335.44
314.394	353.44
314.624	373.44
314.853	357.44
315.083	338.44
315.312	329.44
315.542	347.44
315.771	319.44
316.001	317.44
316.23	343.44
316.46	335.44
316.689	357.44
316.919	343.44
317.148	346.44
317.377	334.44
317.607	323.44
317.836	328.44
318.065	349.44
318.295	345.44
318.524	354.44
318.753	346.44
318.983	339.44
319.212	317.44
319.441	345.44
319.67	340.44
319.9	330.44
320.129	334.44
320.358	345.44
320.587	359.44
320.816	346.44
321.046	352.44
321.275	358.44
321.504	359.44
321.733	345.44
321.962	333.44
322.191	370.44
322.42	373.44
322.649	372.44
322.878	382.44
323.108	370.44
323.337	379.44
323.566	401.44
323.795	420.44
324.024	450.44
324.253	507.44
324.482	677.44
324.71	949.44
324.939	1320.44
325.168	1133.44
325.397	648.44
325.626	457.44
325.855	442.44
326.084	451.44
326.313	405.44
326.542	428.44
326.77	461.44
326.999	507.44
327.228	627.44
327.457	866.44
327.686	1024.44
327.914	714.44
328.143	526.44
328.372	476.44
328.6	451.44
328.829	444.44
329.058	441.44
329.287	457.44
329.515	437.44
329.744	423.44
329.972	420.44
330.201	435.44
330.43	429.44
330.658	459.44
330.887	453.44
331.115	454.44
331.344	422.44
331.572	410.44
331.801	423.44
332.03	411.44
332.258	420.44
332.486	423.44
332.715	415.44
332.943	439.44
333.172	430.44
333.4	435.44
333.629	435.44
333.857	467.44
334.085	498.44
334.314	490.44
334.542	494.44
334.771	515.44
334.999	462.44
335.227	465.44
335.455	445.44
335.684	438.44
335.912	414.44
336.14	409.44
336.369	424.44
336.597	412.44
336.825	407.44
337.053	395.44
337.281	415.44
337.51	394.44
337.738	396.44
337.966	419.44
338.194	415.44
338.422	382.44
338.65	390.44
338.878	406.44
339.106	398.44
339.334	379.44
339.562	391.44
339.79	366.44
340.018	389.44
340.246	375.44
340.474	391.44
340.702	370.44
340.93	355.44
341.158	385.44
341.386	369.44
341.614	362.44
341.842	386.44
342.07	369.44
342.298	383.44
342.526	374.44
342.754	366.44
342.981	374.44
343.209	375.44
343.437	407.44
343.665	391.44
343.893	404.44
344.12	439.44
344.348	443.44
344.576	422.44
344.804	385.44
345.031	388.44
345.259	378.44
345.487	397.44
345.714	349.44
345.942	362.44
346.17	375.44
346.397	373.44
346.625	381.44
346.853	353.44
347.08	360.44
347.308	370.44
347.535	386.44
347.763	371.44
347.99	345.44
348.218	373.44
348.445	350.44
348.673	377.44
348.9	379.44
349.128	359.44
349.355	360.44
349.583	335.44
349.81	359.44
350.037	351.44
350.265	333.44
350.492	347.44
350.72	350.44
350.947	339.44
351.174	367.44
351.402	373.44
351.629	368.44
351.856	359.44
352.083	372.44
352.311	363.44
352.538	345.44
352.765	372.44
352.992	375.44
353.22	358.44
353.447	352.44
353.674	355.44
353.901	355.44
354.128	346.44
354.355	352.44
354.583	349.44
354.81	351.44
355.037	332.44
355.264	336.44
355.491	331.44
355.718	341.44
355.945	346.44
356.172	330.44
356.399	341.44
356.626	364.44
356.853	350.44
357.08	354.44
357.307	332.44
357.534	337.44
357.761	336.44
357.988	354.44
358.215	345.44
358.441	333.44
358.668	355.44
358.895	345.44
359.122	337.44
359.349	349.44
359.576	348.44
359.802	347.44
360.029	382.44
360.256	363.44
360.483	362.44
360.709	362.44
360.936	362.44
361.163	348.44
361.39	371.44
361.616	367.44
361.843	337.44
362.07	334.44
362.296	354.44
362.523	340.44
362.749	350.44
362.976	340.44
363.203	358.44
363.429	347.44
363.656	344.44
363.882	344.44
364.109	348.44
364.335	335.44
364.562	340.44
364.788	326.44
365.015	343.44
365.241	347.44
365.468	331.44
365.694	335.44
365.92	349.44
366.147	342.44
366.373	333.44
366.599	345.44
366.826	349.44
367.052	341.44
367.278	333.44
367.505	346.44
367.731	361.44
367.957	341.44
368.184	339.44
368.41	339.44
368.636	355.44
368.862	352.44
369.089	361.44
369.315	342.44
369.541	348.44
369.767	353.44
369.993	350.44
370.219	351.44
370.445	350.44
370.672	362.44
370.898	344.44
371.124	356.44
371.35	325.44
371.576	355.44
371.802	344.44
372.028	355.44
372.254	343.44
372.48	376.44
372.706	359.44
372.932	366.44
373.158	359.44
373.384	367.44
373.61	367.44
373.835	356.44
374.061	335.44
374.287	339.44
374.513	341.44
374.739	371.44
374.965	377.44
375.191	391.44
375.416	371.44
375.642	366.44
375.868	367.44
376.094	360.44
376.319	363.44
376.545	356.44
376.771	349.44
376.997	357.44
377.222	352.44
377.448	351.44
377.674	349.44
377.899	360.44
378.125	330.44
378.35	352.44
378.576	343.44
378.802	338.44
379.027	349.44
379.253	349.44
379.478	327.44
379.704	352.44
379.929	341.44
380.155	347.44
380.38	349.44
380.606	369.44
380.831	362.44
381.057	362.44
381.282	348.44
381.507	357.44
381.733	341.44
381.958	348.44
382.184	363.44
382.409	359.44
382.634	370.44
382.86	354.44
383.085	355.44
383.31	378.44
383.535	362.44
383.761	359.44
383.986	373.44
384.211	392.44
384.436	377.44
384.662	394.44
384.887	388.44
385.112	389.44
385.337	403.44
385.562	403.44
385.787	386.44
386.013	397.44
386.238	396.44
386.463	396.44
386.688	393.44
386.913	394.44
387.138	382.44
387.363	391.44
387.588	387.44
387.813	396.44
388.038	403.44
388.263	364.44
388.488	413.44
388.713	401.44
388.938	398.44
389.163	382.44
389.387	400.44
389.612	383.44
389.837	398.44
390.062	382.44
390.287	395.44
390.512	388.44
390.736	389.44
390.961	409.44
391.186	402.44
391.411	415.44
391.636	410.44
391.86	422.44
392.085	420.44
392.31	417.44
392.534	419.44
392.759	415.44
392.984	395.44
393.208	406.44
393.433	403.44
393.658	394.44
393.882	414.44
394.107	398.44
394.331	422.44
394.556	413.44
394.78	398.44
395.005	397.44
395.229	411.44
395.454	422.44
395.678	440.44
395.903	427.44
396.127	440.44
396.352	424.44
396.576	402.44
396.801	413.44
397.025	405.44
397.249	416.44
397.474	453.44
397.698	444.44
397.922	441.44
398.147	443.44
398.371	463.44
398.595	455.44
398.82	463.44
399.044	490.44
399.268	522.44
399.492	556.44
399.717	608.44
399.941	646.44
400.165	597.44
400.389	563.44
400.613	526.44
400.837	494.44
401.062	464.44
401.286	472.44
401.51	458.44
401.734	477.44
401.958	451.44
402.182	476.44
402.406	487.44
402.63	515.44
402.854	505.44
403.078	494.44
403.302	502.44
403.526	502.44
403.75	524.44
403.974	514.44
404.198	500.44
404.422	518.44
404.645	507.44
404.869	490.44
405.093	545.44
405.317	541.44
405.541	558.44
405.765	525.44
405.988	523.44
406.212	524.44
406.436	521.44
406.66	528.44
406.883	526.44
407.107	522.44
407.331	584.44
407.555	631.44
407.778	607.44
408.002	579.44
408.226	551.44
408.449	538.44
408.673	517.44
408.896	528.44
409.12	577.44
409.344	554.44
409.567	503.44
409.791	497.44
410.014	484.44
410.238	489.44
410.461	498.44
410.685	493.44
410.908	494.44
411.132	496.44
411.355	513.44
411.578	509.44
411.802	478.44
412.025	481.44
412.249	499.44
412.472	516.44
412.695	518.44
412.919	502.44
413.142	490.44
413.365	464.44
413.589	491.44
413.812	460.44
414.035	470.44
414.258	450.44
414.482	494.44
414.705	464.44
414.928	456.44
415.151	461.44
415.374	467.44
415.597	430.44
415.821	451.44
416.044	462.44
416.267	441.44
416.49	445.44
416.713	440.44
416.936	444.44
417.159	445.44
417.382	455.44
417.605	452.44
417.828	461.44
418.051	458.44
418.274	475.44
418.497	447.44
418.72	450.44
418.943	451.44
419.166	476.44
419.389	510.44
419.611	500.44
419.834	489.44
420.057	463.44
420.28	510.44
420.503	481.44
420.726	471.44
420.948	472.44
421.171	491.44
421.394	499.44
421.617	486.44
421.839	459.44
422.062	472.44
422.285	478.44
422.507	517.44
422.73	545.44
422.953	531.44
423.175	492.44
423.398	464.44
423.621	478.44
423.843	494.44
424.066	494.44
424.288	488.44
424.511	499.44
424.733	547.44
424.956	557.44
425.178	561.44
425.401	536.44
425.623	537.44
425.846	500.44
426.068	482.44
426.291	465.44
426.513	454.44
426.735	483.44
426.958	459.44
427.18	542.44
427.402	616.44
427.625	671.44
427.847	579.44
428.069	500.44
428.292	498.44
428.514	447.44
428.736	446.44
428.958	441.44
429.181	433.44
429.403	451.44
429.625	438.44
429.847	457.44
430.069	497.44
430.292	465.44
430.514	437.44
430.736	419.44
430.958	423.44
431.18	422.44
431.402	424.44
431.624	442.44
431.846	411.44
432.068	414.44
432.29	448.44
432.512	397.44
432.734	435.44
432.956	426.44
433.178	422.44
433.4	422.44
433.622	426.44
433.844	438.44
434.066	417.44
434.287	438.44
434.509	418.44
434.731	437.44
434.953	441.44
435.175	471.44
435.397	458.44
435.618	458.44
435.84	492.44
436.062	522.44
436.284	560.44
436.505	475.44
436.727	443.44
436.949	455.44
437.17	435.44
437.392	436.44
437.614	449.44
437.835	449.44
438.057	504.44
438.278	543.44
438.5	555.44
438.721	587.44
438.943	565.44
439.165	483.44
439.386	463.44
439.608	443.44
439.829	454.44
440.05	460.44
440.272	478.44
440.493	465.44
440.715	455.44
440.936	443.44
441.158	458.44
441.379	438.44
441.6	456.44
441.822	467.44
442.043	510.44
442.264	550.44
442.486	558.44
442.707	514.44
442.928	469.44
443.149	486.44
443.371	470.44
443.592	505.44
443.813	583.44
444.034	602.44
444.255	526.44
444.476	515.44
444.698	518.44
444.919	509.44
445.14	585.44
445.361	526.44
445.582	514.44
445.803	550.44
446.024	579.44
446.245	578.44
446.466	530.44
446.687	482.44
446.908	443.44
447.129	436.44
447.35	420.44
447.571	407.44
447.792	411.44
448.013	410.44
448.234	410.44
448.455	438.44
448.675	523.44
448.896	553.44
449.117	484.44
449.338	485.44
449.559	542.44
449.779	599.44
450	488.44
450.221	454.44
450.442	395.44
450.662	426.44
450.883	406.44
451.104	436.44
451.324	392.44
451.545	382.44
451.766	399.44
451.986	393.44
452.207	360.44
452.428	381.44
452.648	396.44
452.869	396.44
453.089	392.44
453.31	382.44
453.53	373.44
453.751	377.44
453.971	351.44
454.192	381.44
454.412	371.44
454.633	381.44
454.853	388.44
455.073	364.44
455.294	391.44
455.514	397.44
455.734	423.44
455.955	387.44
456.175	363.44
456.395	356.44
456.616	366.44
456.836	348.44
457.056	372.44
457.276	381.44
457.497	373.44
457.717	358.44
457.937	371.44
458.157	375.44
458.377	367.44
458.598	377.44
458.818	405.44
459.038	443.44
459.258	474.44
459.478	430.44
459.698	429.44
459.918	438.44
460.138	437.44
460.358	460.44
460.578	445.44
460.798	439.44
461.018	461.44
461.238	473.44
461.458	447.44
461.678	463.44
461.898	465.44
462.118	458.44
462.338	486.44
462.558	477.44
462.777	500.44
462.997	498.44
463.217	569.44
463.437	563.44
463.657	511.44
463.876	498.44
464.096	531.44
464.316	527.44
464.536	525.44
464.755	501.44
464.975	486.44
465.195	499.44
465.414	488.44
465.634	459.44
465.854	438.44
466.073	444.44
466.293	438.44
466.512	428.44
466.732	412.44
466.951	398.44
467.171	396.44
467.391	390.44
467.61	409.44
467.829	414.44
468.049	413.44
468.268	411.44
468.488	397.44
468.707	373.44
468.927	393.44
469.146	376.44
469.365	395.44
469.585	395.44
469.804	378.44
470.023	395.44
470.243	409.44
470.462	425.44
470.681	423.44
470.901	403.44
471.12	409.44
471.339	426.44
471.558	412.44
471.777	388.44
471.997	394.44
472.216	389.44
472.435	414.44
472.654	409.44
472.873	399.44
473.092	402.44
473.311	391.44
473.53	400.44
473.749	394.44
473.968	427.44
474.187	471.44
474.406	479.44
474.625	413.44
474.844	404.44
475.063	393.44
475.282	404.44
475.501	410.44
475.72	405.44
475.939	393.44
476.158	392.44
476.377	414.44
476.596	391.44
476.814	411.44
477.033	399.44
477.252	421.44
477.471	408.44
477.69	431.44
477.908	425.44
478.127	459.44
478.346	444.44
478.564	447.44
478.783	451.44
479.002	460.44
479.22	470.44
479.439	474.44
479.658	476.44
479.876	451.44
480.095	490.44
480.313	493.44
480.532	526.44
480.751	509.44
480.969	497.44
481.188	518.44
481.406	520.44
481.624	481.44
481.843	473.44
482.061	452.44
482.28	451.44
482.498	442.44
482.717	451.44
482.935	435.44
483.153	436.44
483.372	445.44
483.59	447.44
483.808	437.44
484.027	446.44
484.245	460.44
484.463	445.44
484.681	453.44
484.9	458.44
485.118	466.44
485.336	459.44
485.554	462.44
485.772	467.44
485.99	474.44
486.209	449.44
486.427	469.44
486.645	480.44
486.863	480.44
487.081	489.44
487.299	474.44
487.517	466.44
487.735	482.44
487.953	482.44
488.171	472.44
488.389	469.44
488.607	486.44
488.825	476.44
489.043	483.44
489.261	483.44
489.479	477.44
489.696	468.44
489.914	486.44
490.132	494.44
490.35	492.44
490.568	487.44
490.786	503.44
491.003	526.44
491.221	537.44
491.439	531.44
491.657	522.44
491.874	534.44
492.092	513.44
492.31	541.44
492.527	549.44
492.745	549.44
492.963	551.44
493.18	557.44
493.398	540.44
493.615	546.44
493.833	520.44
494.05	539.44
494.268	545.44
494.485	550.44
494.703	539.44
494.92	559.44
495.138	536.44
495.355	527.44
495.573	532.44
495.79	539.44
496.008	550.44
496.225	551.44
496.442	537.44
496.66	549.44
496.877	557.44
497.094	571.44
497.312	561.44
497.529	557.44
497.746	587.44
497.963	585.44
498.181	629.44
498.398	623.44
498.615	639.44
498.832	679.44
499.049	703.44
499.267	746.44
499.484	793.44
499.701	828.44
499.918	892.44
500.135	953.44
500.352	1058.44
500.569	1070.44
500.786	1097.44
501.003	1046.44
501.22	976.44
501.437	896.44
501.654	836.44
501.871	809.44
502.088	743.44
