Data from 1984.PennyLincolnUp.Lamp.En5.5.200Scan.071819.P1_HRD10591_16-59-51-968.txt Node
Date: Thu Jul 18 16:59:51 EDT 2019
User: cochatt
Spectrometer: HR+D1059
Trigger mode: 1
Integration Time (sec): 1.000000E-1
Scans to average: 1
Electric dark correction enabled: true
Nonlinearity correction enabled: false
Boxcar width: 0
XAxis mode: Wavelengths
Number of Pixels in Spectrum: 2048
>>>>>Begin Spectral Data<<<<<
223.165	-8.5
223.4	-8.5
223.635	-8.5
223.869	-2.5
224.104	-25.5
224.338	-16.5
224.573	-22.5
224.808	-18.5
225.042	-6.5
225.277	-3.5
225.511	-3.5
225.746	4.5
225.98	11.5
226.215	20.5
226.449	8.5
226.683	19.5
226.918	16.5
227.152	26.5
227.387	33.5
227.621	42.5
227.856	43.5
228.09	42.5
228.324	52.5
228.559	54.5
228.793	71.5
229.027	82.5
229.262	83.5
229.496	109.5
229.73	111.5
229.964	121.5
230.199	99.5
230.433	110.5
230.667	118.5
230.901	126.5
231.136	118.5
231.37	110.5
231.604	112.5
231.838	107.5
232.072	107.5
232.306	116.5
232.541	120.5
232.775	117.5
233.009	104.5
233.243	118.5
233.477	116.5
233.711	113.5
233.945	115.5
234.179	127.5
234.413	120.5
234.647	107.5
234.881	104.5
235.115	116.5
235.349	116.5
235.583	132.5
235.817	118.5
236.051	113.5
236.285	124.5
236.519	113.5
236.753	108.5
236.987	128.5
237.221	136.5
237.455	168.5
237.689	136.5
237.922	138.5
238.156	114.5
238.39	120.5
238.624	121.5
238.858	108.5
239.091	112.5
239.325	113.5
239.559	124.5
239.793	112.5
240.027	124.5
240.26	138.5
240.494	126.5
240.728	129.5
240.961	146.5
241.195	133.5
241.429	136.5
241.662	127.5
241.896	130.5
242.13	142.5
242.363	132.5
242.597	116.5
242.83	141.5
243.064	132.5
243.298	140.5
243.531	126.5
243.765	144.5
243.998	142.5
244.232	146.5
244.465	137.5
244.699	146.5
244.932	144.5
245.166	158.5
245.399	148.5
245.633	125.5
245.866	143.5
246.099	148.5
246.333	134.5
246.566	152.5
246.8	156.5
247.033	146.5
247.266	149.5
247.5	158.5
247.733	154.5
247.966	155.5
248.2	160.5
248.433	156.5
248.666	173.5
248.899	176.5
249.133	168.5
249.366	175.5
249.599	172.5
249.832	180.5
250.066	187.5
250.299	169.5
250.532	199.5
250.765	213.5
250.998	220.5
251.231	210.5
251.465	182.5
251.698	199.5
251.931	183.5
252.164	170.5
252.397	192.5
252.63	190.5
252.863	193.5
253.096	193.5
253.329	198.5
253.562	209.5
253.795	188.5
254.028	200.5
254.261	192.5
254.494	215.5
254.727	224.5
254.96	222.5
255.193	215.5
255.426	231.5
255.659	203.5
255.892	227.5
256.124	280.5
256.357	322.5
256.59	257.5
256.823	222.5
257.056	199.5
257.289	208.5
257.521	188.5
257.754	190.5
257.987	205.5
258.22	206.5
258.452	205.5
258.685	193.5
258.918	188.5
259.151	205.5
259.383	203.5
259.616	210.5
259.849	204.5
260.081	219.5
260.314	204.5
260.547	215.5
260.779	220.5
261.012	224.5
261.244	198.5
261.477	209.5
261.71	184.5
261.942	223.5
262.175	221.5
262.407	215.5
262.64	196.5
262.872	186.5
263.105	212.5
263.337	204.5
263.57	201.5
263.802	207.5
264.035	198.5
264.267	213.5
264.499	192.5
264.732	216.5
264.964	206.5
265.197	226.5
265.429	215.5
265.661	214.5
265.894	211.5
266.126	218.5
266.358	196.5
266.591	210.5
266.823	225.5
267.055	221.5
267.287	224.5
267.52	224.5
267.752	221.5
267.984	218.5
268.216	232.5
268.448	198.5
268.681	220.5
268.913	225.5
269.145	247.5
269.377	245.5
269.609	244.5
269.841	238.5
270.073	242.5
270.306	258.5
270.538	280.5
270.77	275.5
271.002	258.5
271.234	262.5
271.466	272.5
271.698	260.5
271.93	262.5
272.162	282.5
272.394	277.5
272.626	264.5
272.858	268.5
273.09	265.5
273.322	256.5
273.553	262.5
273.785	232.5
274.017	250.5
274.249	235.5
274.481	265.5
274.713	253.5
274.945	264.5
275.176	244.5
275.408	264.5
275.64	261.5
275.872	246.5
276.104	280.5
276.335	264.5
276.567	261.5
276.799	250.5
277.031	278.5
277.262	324.5
277.494	303.5
277.726	291.5
277.957	263.5
278.189	283.5
278.421	265.5
278.652	267.5
278.884	266.5
279.115	264.5
279.347	266.5
279.579	258.5
279.81	272.5
280.042	277.5
280.273	289.5
280.505	277.5
280.736	271.5
280.968	286.5
281.199	276.5
281.431	267.5
281.662	280.5
281.894	280.5
282.125	278.5
282.356	308.5
282.588	292.5
282.819	296.5
283.051	272.5
283.282	291.5
283.513	283.5
283.745	268.5
283.976	287.5
284.207	264.5
284.439	269.5
284.67	273.5
284.901	297.5
285.132	268.5
285.364	277.5
285.595	287.5
285.826	274.5
286.057	289.5
286.288	293.5
286.52	279.5
286.751	285.5
286.982	291.5
287.213	300.5
287.444	303.5
287.675	306.5
287.906	285.5
288.138	296.5
288.369	301.5
288.6	296.5
288.831	307.5
289.062	298.5
289.293	304.5
289.524	289.5
289.755	302.5
289.986	303.5
290.217	274.5
290.448	279.5
290.679	302.5
290.91	284.5
291.141	288.5
291.371	301.5
291.602	297.5
291.833	297.5
292.064	302.5
292.295	302.5
292.526	295.5
292.757	300.5
292.987	296.5
293.218	289.5
293.449	317.5
293.68	279.5
293.91	292.5
294.141	304.5
294.372	296.5
294.603	315.5
294.833	301.5
295.064	312.5
295.295	306.5
295.525	297.5
295.756	303.5
295.987	311.5
296.217	323.5
296.448	316.5
296.679	329.5
296.909	315.5
297.14	313.5
297.37	301.5
297.601	310.5
297.831	311.5
298.062	301.5
298.292	309.5
298.523	301.5
298.753	306.5
298.984	313.5
299.214	306.5
299.445	316.5
299.675	325.5
299.905	311.5
300.136	323.5
300.366	319.5
300.597	311.5
300.827	312.5
301.057	323.5
301.288	320.5
301.518	326.5
301.748	326.5
301.979	339.5
302.209	353.5
302.439	344.5
302.669	334.5
302.9	319.5
303.13	327.5
303.36	343.5
303.59	335.5
303.82	335.5
304.051	352.5
304.281	334.5
304.511	327.5
304.741	342.5
304.971	334.5
305.201	329.5
305.431	322.5
305.661	321.5
305.891	322.5
306.121	336.5
306.352	326.5
306.582	338.5
306.812	310.5
307.042	320.5
307.272	336.5
307.502	335.5
307.731	348.5
307.961	346.5
308.191	333.5
308.421	329.5
308.651	348.5
308.881	331.5
309.111	330.5
309.341	336.5
309.571	350.5
309.8	355.5
310.03	337.5
310.26	341.5
310.49	347.5
310.72	353.5
310.949	370.5
311.179	373.5
311.409	355.5
311.639	349.5
311.868	345.5
312.098	346.5
312.328	353.5
312.557	385.5
312.787	384.5
313.017	381.5
313.246	371.5
313.476	341.5
313.706	348.5
313.935	374.5
314.165	379.5
314.394	389.5
314.624	394.5
314.853	368.5
315.083	366.5
315.312	368.5
315.542	349.5
315.771	353.5
316.001	356.5
316.23	348.5
316.46	369.5
316.689	372.5
316.919	364.5
317.148	380.5
317.377	368.5
317.607	362.5
317.836	367.5
318.065	357.5
318.295	346.5
318.524	357.5
318.753	348.5
318.983	344.5
319.212	361.5
319.441	359.5
319.67	371.5
319.9	370.5
320.129	346.5
320.358	355.5
320.587	372.5
320.816	381.5
321.046	386.5
321.275	359.5
321.504	376.5
321.733	376.5
321.962	394.5
322.191	388.5
322.42	403.5
322.649	418.5
322.878	414.5
323.108	420.5
323.337	450.5
323.566	441.5
323.795	461.5
324.024	482.5
324.253	556.5
324.482	769.5
324.71	1128.5
324.939	1564.5
325.168	1342.5
325.397	738.5
325.626	526.5
325.855	512.5
326.084	466.5
326.313	451.5
326.542	464.5
326.77	485.5
326.999	564.5
327.228	710.5
327.457	1057.5
327.686	1225.5
327.914	856.5
328.143	626.5
328.372	588.5
328.6	550.5
328.829	503.5
329.058	526.5
329.287	528.5
329.515	528.5
329.744	535.5
329.972	570.5
330.201	631.5
330.43	676.5
330.658	629.5
330.887	577.5
331.115	548.5
331.344	507.5
331.572	464.5
331.801	481.5
332.03	468.5
332.258	460.5
332.486	465.5
332.715	474.5
332.943	492.5
333.172	495.5
333.4	524.5
333.629	530.5
333.857	568.5
334.085	595.5
334.314	686.5
334.542	784.5
334.771	808.5
334.999	654.5
335.227	555.5
335.455	500.5
335.684	476.5
335.912	473.5
336.14	455.5
336.369	468.5
336.597	443.5
336.825	468.5
337.053	454.5
337.281	451.5
337.51	426.5
337.738	431.5
337.966	413.5
338.194	461.5
338.422	431.5
338.65	427.5
338.878	412.5
339.106	428.5
339.334	433.5
339.562	421.5
339.79	414.5
340.018	419.5
340.246	409.5
340.474	409.5
340.702	409.5
340.93	414.5
341.158	408.5
341.386	425.5
341.614	393.5
341.842	422.5
342.07	417.5
342.298	411.5
342.526	400.5
342.754	392.5
342.981	389.5
343.209	402.5
343.437	427.5
343.665	413.5
343.893	433.5
344.12	466.5
344.348	456.5
344.576	431.5
344.804	441.5
345.031	440.5
345.259	416.5
345.487	406.5
345.714	390.5
345.942	393.5
346.17	387.5
346.397	381.5
346.625	391.5
346.853	385.5
347.08	373.5
347.308	399.5
347.535	385.5
347.763	410.5
347.99	392.5
348.218	410.5
348.445	394.5
348.673	395.5
348.9	377.5
349.128	404.5
349.355	377.5
349.583	368.5
349.81	399.5
350.037	368.5
350.265	368.5
350.492	373.5
350.72	369.5
350.947	377.5
351.174	394.5
351.402	399.5
351.629	379.5
351.856	374.5
352.083	392.5
352.311	378.5
352.538	389.5
352.765	394.5
352.992	386.5
353.22	370.5
353.447	374.5
353.674	382.5
353.901	379.5
354.128	384.5
354.355	362.5
354.583	357.5
354.81	360.5
355.037	363.5
355.264	361.5
355.491	368.5
355.718	362.5
355.945	358.5
356.172	374.5
356.399	365.5
356.626	357.5
356.853	360.5
357.08	358.5
357.307	368.5
357.534	371.5
357.761	369.5
357.988	369.5
358.215	372.5
358.441	351.5
358.668	337.5
358.895	381.5
359.122	370.5
359.349	356.5
359.576	375.5
359.802	407.5
360.029	391.5
360.256	408.5
360.483	401.5
360.709	388.5
360.936	390.5
361.163	372.5
361.39	373.5
361.616	388.5
361.843	376.5
362.07	378.5
362.296	376.5
362.523	353.5
362.749	360.5
362.976	359.5
363.203	356.5
363.429	366.5
363.656	370.5
363.882	370.5
364.109	353.5
364.335	360.5
364.562	358.5
364.788	370.5
365.015	386.5
365.241	360.5
365.468	382.5
365.694	356.5
365.92	360.5
366.147	353.5
366.373	362.5
366.599	369.5
366.826	369.5
367.052	375.5
367.278	364.5
367.505	369.5
367.731	372.5
367.957	342.5
368.184	349.5
368.41	361.5
368.636	381.5
368.862	381.5
369.089	363.5
369.315	361.5
369.541	358.5
369.767	347.5
369.993	380.5
370.219	374.5
370.445	359.5
370.672	388.5
370.898	364.5
371.124	380.5
371.35	373.5
371.576	385.5
371.802	359.5
372.028	378.5
372.254	376.5
372.48	385.5
372.706	367.5
372.932	370.5
373.158	369.5
373.384	373.5
373.61	377.5
373.835	377.5
374.061	375.5
374.287	380.5
374.513	368.5
374.739	372.5
374.965	398.5
375.191	392.5
375.416	395.5
375.642	393.5
375.868	384.5
376.094	382.5
376.319	376.5
376.545	388.5
376.771	364.5
376.997	358.5
377.222	364.5
377.448	368.5
377.674	370.5
377.899	375.5
378.125	350.5
378.35	364.5
378.576	361.5
378.802	370.5
379.027	370.5
379.253	366.5
379.478	358.5
379.704	356.5
379.929	399.5
380.155	362.5
380.38	367.5
380.606	368.5
380.831	371.5
381.057	370.5
381.282	366.5
381.507	372.5
381.733	365.5
381.958	386.5
382.184	380.5
382.409	391.5
382.634	416.5
382.86	365.5
383.085	388.5
383.31	370.5
383.535	387.5
383.761	396.5
383.986	388.5
384.211	406.5
384.436	406.5
384.662	428.5
384.887	412.5
385.112	413.5
385.337	425.5
385.562	422.5
385.787	422.5
386.013	421.5
386.238	433.5
386.463	422.5
386.688	419.5
386.913	399.5
387.138	429.5
387.363	419.5
387.588	418.5
387.813	418.5
388.038	404.5
388.263	417.5
388.488	410.5
388.713	408.5
388.938	422.5
389.163	424.5
389.387	411.5
389.612	416.5
389.837	406.5
390.062	402.5
390.287	408.5
390.512	438.5
390.736	425.5
390.961	406.5
391.186	418.5
391.411	426.5
391.636	442.5
391.86	456.5
392.085	469.5
392.31	442.5
392.534	457.5
392.759	450.5
392.984	457.5
393.208	430.5
393.433	436.5
393.658	432.5
393.882	442.5
394.107	421.5
394.331	438.5
394.556	417.5
394.78	436.5
395.005	441.5
395.229	428.5
395.454	432.5
395.678	453.5
395.903	468.5
396.127	471.5
396.352	462.5
396.576	448.5
396.801	424.5
397.025	430.5
397.249	441.5
397.474	461.5
397.698	464.5
397.922	465.5
398.147	474.5
398.371	479.5
398.595	480.5
398.82	494.5
399.044	502.5
399.268	534.5
399.492	580.5
399.717	644.5
399.941	656.5
400.165	646.5
400.389	605.5
400.613	560.5
400.837	521.5
401.062	509.5
401.286	500.5
401.51	496.5
401.734	494.5
401.958	500.5
402.182	491.5
402.406	509.5
402.63	518.5
402.854	513.5
403.078	520.5
403.302	522.5
403.526	529.5
403.75	520.5
403.974	520.5
404.198	531.5
404.422	544.5
404.645	554.5
404.869	558.5
405.093	586.5
405.317	644.5
405.541	662.5
405.765	592.5
405.988	550.5
406.212	561.5
406.436	582.5
406.66	575.5
406.883	542.5
407.107	594.5
407.331	590.5
407.555	648.5
407.778	658.5
408.002	620.5
408.226	588.5
408.449	576.5
408.673	559.5
408.896	566.5
409.12	574.5
409.344	591.5
409.567	544.5
409.791	525.5
410.014	516.5
410.238	510.5
410.461	493.5
410.685	540.5
410.908	537.5
411.132	547.5
411.355	558.5
411.578	544.5
411.802	512.5
412.025	520.5
412.249	536.5
412.472	559.5
412.695	618.5
412.919	615.5
413.142	586.5
413.365	570.5
413.589	526.5
413.812	524.5
414.035	495.5
414.258	496.5
414.482	506.5
414.705	482.5
414.928	505.5
415.151	500.5
415.374	495.5
415.597	494.5
415.821	478.5
416.044	500.5
416.267	493.5
416.49	484.5
416.713	492.5
416.936	476.5
417.159	489.5
417.382	482.5
417.605	472.5
417.828	494.5
418.051	495.5
418.274	494.5
418.497	485.5
418.72	502.5
418.943	463.5
419.166	496.5
419.389	553.5
419.611	531.5
419.834	518.5
420.057	528.5
420.28	512.5
420.503	546.5
420.726	528.5
420.948	513.5
421.171	537.5
421.394	525.5
421.617	514.5
421.839	521.5
422.062	492.5
422.285	530.5
422.507	551.5
422.73	570.5
422.953	579.5
423.175	540.5
423.398	523.5
423.621	520.5
423.843	530.5
424.066	516.5
424.288	542.5
424.511	534.5
424.733	586.5
424.956	616.5
425.178	600.5
425.401	582.5
425.623	603.5
425.846	505.5
426.068	501.5
426.291	500.5
426.513	497.5
426.735	504.5
426.958	526.5
427.18	555.5
427.402	652.5
427.625	727.5
427.847	635.5
428.069	600.5
428.292	544.5
428.514	493.5
428.736	465.5
428.958	484.5
429.181	475.5
429.403	436.5
429.625	478.5
429.847	477.5
430.069	539.5
430.292	514.5
430.514	464.5
430.736	432.5
430.958	426.5
431.18	442.5
431.402	441.5
431.624	434.5
431.846	447.5
432.068	465.5
432.29	456.5
432.512	447.5
432.734	424.5
432.956	446.5
433.178	454.5
433.4	443.5
433.622	430.5
433.844	458.5
434.066	460.5
434.287	458.5
434.509	447.5
434.731	457.5
434.953	482.5
435.175	493.5
435.397	511.5
435.618	516.5
435.84	529.5
436.062	569.5
436.284	600.5
436.505	547.5
436.727	500.5
436.949	469.5
437.17	464.5
437.392	449.5
437.614	480.5
437.835	491.5
438.057	531.5
438.278	588.5
438.5	581.5
438.721	652.5
438.943	610.5
439.165	508.5
439.386	483.5
439.608	480.5
439.829	483.5
440.05	508.5
440.272	490.5
440.493	509.5
440.715	504.5
440.936	495.5
441.158	445.5
441.379	460.5
441.6	482.5
441.822	493.5
442.043	534.5
442.264	571.5
442.486	584.5
442.707	534.5
442.928	518.5
443.149	516.5
443.371	513.5
443.592	530.5
443.813	613.5
444.034	649.5
444.255	580.5
444.476	535.5
444.698	538.5
444.919	538.5
445.14	630.5
445.361	550.5
445.582	540.5
445.803	567.5
446.024	617.5
446.245	622.5
446.466	561.5
446.687	494.5
446.908	467.5
447.129	449.5
447.35	436.5
447.571	432.5
447.792	428.5
448.013	437.5
448.234	440.5
448.455	488.5
448.675	540.5
448.896	600.5
449.117	561.5
449.338	504.5
449.559	598.5
449.779	663.5
450	536.5
450.221	477.5
450.442	433.5
450.662	427.5
450.883	438.5
451.104	424.5
451.324	416.5
451.545	403.5
451.766	404.5
451.986	400.5
452.207	398.5
452.428	397.5
452.648	412.5
452.869	412.5
453.089	420.5
453.31	408.5
453.53	400.5
453.751	407.5
453.971	398.5
454.192	415.5
454.412	384.5
454.633	422.5
454.853	396.5
455.073	410.5
455.294	429.5
455.514	447.5
455.734	452.5
455.955	397.5
456.175	390.5
456.395	382.5
456.616	382.5
456.836	385.5
457.056	375.5
457.276	383.5
457.497	364.5
457.717	394.5
457.937	394.5
458.157	375.5
458.377	393.5
458.598	421.5
458.818	452.5
459.038	488.5
459.258	496.5
459.478	477.5
459.698	458.5
459.918	433.5
460.138	475.5
460.358	475.5
460.578	481.5
460.798	479.5
461.018	497.5
461.238	485.5
461.458	476.5
461.678	484.5
461.898	479.5
462.118	478.5
462.338	481.5
462.558	503.5
462.777	512.5
462.997	565.5
463.217	558.5
463.437	555.5
463.657	556.5
463.876	520.5
464.096	510.5
464.316	516.5
464.536	527.5
464.755	531.5
464.975	529.5
465.195	532.5
465.414	553.5
465.634	473.5
465.854	476.5
466.073	456.5
466.293	440.5
466.512	425.5
466.732	421.5
466.951	430.5
467.171	422.5
467.391	423.5
467.61	420.5
467.829	436.5
468.049	438.5
468.268	472.5
468.488	430.5
468.707	422.5
468.927	433.5
469.146	400.5
469.365	386.5
469.585	399.5
469.804	432.5
470.023	436.5
470.243	450.5
470.462	456.5
470.681	455.5
470.901	454.5
471.12	447.5
471.339	450.5
471.558	434.5
471.777	444.5
471.997	429.5
472.216	472.5
472.435	561.5
472.654	527.5
472.873	466.5
473.092	453.5
473.311	447.5
473.53	448.5
473.749	441.5
473.968	444.5
474.187	494.5
474.406	501.5
474.625	442.5
474.844	418.5
475.063	412.5
475.282	427.5
475.501	440.5
475.72	424.5
475.939	416.5
476.158	438.5
476.377	415.5
476.596	423.5
476.814	424.5
477.033	446.5
477.252	464.5
477.471	454.5
477.69	469.5
477.908	456.5
478.127	464.5
478.346	474.5
478.564	475.5
478.783	451.5
479.002	487.5
479.22	497.5
479.439	525.5
479.658	510.5
479.876	519.5
480.095	512.5
480.313	566.5
480.532	542.5
480.751	531.5
480.969	581.5
481.188	726.5
481.406	833.5
481.624	644.5
481.843	588.5
482.061	527.5
482.28	507.5
482.498	524.5
482.717	511.5
482.935	491.5
483.153	489.5
483.372	504.5
483.59	474.5
483.808	473.5
484.027	491.5
484.245	465.5
484.463	499.5
484.681	472.5
484.9	479.5
485.118	490.5
485.336	500.5
485.554	509.5
485.772	501.5
485.99	488.5
486.209	500.5
486.427	511.5
486.645	510.5
486.863	513.5
487.081	527.5
487.299	516.5
487.517	506.5
487.735	494.5
487.953	532.5
488.171	516.5
488.389	526.5
488.607	540.5
488.825	512.5
489.043	508.5
489.261	524.5
489.479	511.5
489.696	520.5
489.914	526.5
490.132	526.5
490.35	556.5
490.568	554.5
490.786	551.5
491.003	570.5
491.221	571.5
491.439	578.5
491.657	589.5
491.874	617.5
492.092	613.5
492.31	629.5
492.527	601.5
492.745	648.5
492.963	630.5
493.18	632.5
493.398	607.5
493.615	634.5
493.833	605.5
494.05	612.5
494.268	602.5
494.485	616.5
494.703	592.5
494.92	598.5
495.138	619.5
495.355	617.5
495.573	603.5
495.79	589.5
496.008	600.5
496.225	620.5
496.442	610.5
496.66	606.5
496.877	590.5
497.094	602.5
497.312	625.5
497.529	623.5
497.746	625.5
497.963	617.5
498.181	679.5
498.398	687.5
498.615	704.5
498.832	685.5
499.049	735.5
499.267	797.5
499.484	845.5
499.701	876.5
499.918	932.5
500.135	1016.5
500.352	1114.5
500.569	1159.5
500.786	1139.5
501.003	1085.5
501.22	1024.5
501.437	949.5
501.654	860.5
501.871	849.5
502.088	810.5
502.305	749.5
502.522	726.5
502.739	704.5
502.956	685.5
503.172	664.5
503.389	659.5
503.606	655.5
503.823	628.5
504.04	621.5
504.256	642.5
504.473	636.5
504.69	614.5
504.907	630.5
505.123	600.5
505.34	568.5
505.557	575.5
505.773	565.5
505.99	558.5
506.207	542.5
506.423	541.5
506.64	542.5
506.856	525.5
507.073	526.5
507.289	517.5
507.506	526.5
507.722	518.5
507.939	540.5
508.155	522.5
508.372	488.5
508.588	489.5
508.805	500.5
509.021	516.5
509.238	520.5
509.454	530.5
509.67	512.5
509.887	502.5
510.103	513.5
510.319	507.5
510.536	587.5
510.752	863.5
510.968	692.5
511.184	512.5
511.401	512.5
511.617	497.5
511.833	500.5
512.049	526.5
512.265	516.5
512.481	512.5
512.698	492.5
512.914	496.5
513.13	473.5
513.346	488.5
513.562	487.5
513.778	475.5
513.994	491.5
514.21	503.5
514.426	498.5
514.642	511.5
514.858	546.5
515.074	569.5
515.29	643.5
515.506	855.5
515.721	736.5
515.937	562.5
516.153	548.5
516.369	534.5
516.585	526.5
516.801	544.5
517.016	540.5
517.232	551.5
517.448	562.5
517.664	559.5
517.879	588.5
518.095	592.5
518.311	571.5
518.527	553.5
518.742	551.5
518.958	522.5
519.173	513.5
519.389	509.5
519.605	508.5
519.82	505.5
