Data from 1984.PennyLincolnUp.Lamp.En5.5.200Scan.071819.P1_HRD10591_16-59-39-969.txt Node
Date: Thu Jul 18 16:59:39 EDT 2019
User: cochatt
Spectrometer: HR+D1059
Trigger mode: 1
Integration Time (sec): 1.000000E-1
Scans to average: 1
Electric dark correction enabled: true
Nonlinearity correction enabled: false
Boxcar width: 0
XAxis mode: Wavelengths
Number of Pixels in Spectrum: 2048
>>>>>Begin Spectral Data<<<<<
223.165	-3.25
223.4	-3.25
223.635	-3.25
223.869	-23.25
224.104	-21.25
224.338	-17.25
224.573	-10.25
224.808	-15.25
225.042	-0.25
225.277	8.75
225.511	-9.25
225.746	-0.25
225.98	-0.25
226.215	5.75
226.449	7.75
226.683	7.75
226.918	30.75
227.152	39.75
227.387	49.75
227.621	43.75
227.856	43.75
228.09	48.75
228.324	52.75
228.559	67.75
228.793	59.75
229.027	80.75
229.262	90.75
229.496	96.75
229.73	108.75
229.964	126.75
230.199	116.75
230.433	102.75
230.667	103.75
230.901	104.75
231.136	101.75
231.37	119.75
231.604	118.75
231.838	114.75
232.072	110.75
232.306	106.75
232.541	121.75
232.775	106.75
233.009	111.75
233.243	116.75
233.477	111.75
233.711	103.75
233.945	121.75
234.179	116.75
234.413	123.75
234.647	128.75
234.881	106.75
235.115	127.75
235.349	121.75
235.583	99.75
235.817	103.75
236.051	118.75
236.285	128.75
236.519	118.75
236.753	121.75
236.987	122.75
237.221	134.75
237.455	182.75
237.689	155.75
237.922	109.75
238.156	127.75
238.39	114.75
238.624	124.75
238.858	126.75
239.091	121.75
239.325	123.75
239.559	118.75
239.793	117.75
240.027	132.75
240.26	136.75
240.494	141.75
240.728	134.75
240.961	135.75
241.195	144.75
241.429	138.75
241.662	125.75
241.896	146.75
242.13	135.75
242.363	133.75
242.597	130.75
242.83	136.75
243.064	137.75
243.298	153.75
243.531	131.75
243.765	126.75
243.998	139.75
244.232	124.75
244.465	125.75
244.699	141.75
244.932	136.75
245.166	137.75
245.399	137.75
245.633	124.75
245.866	142.75
246.099	133.75
246.333	142.75
246.566	147.75
246.8	145.75
247.033	143.75
247.266	149.75
247.5	151.75
247.733	166.75
247.966	168.75
248.2	155.75
248.433	161.75
248.666	150.75
248.899	159.75
249.133	165.75
249.366	164.75
249.599	183.75
249.832	165.75
250.066	185.75
250.299	185.75
250.532	191.75
250.765	197.75
250.998	223.75
251.231	190.75
251.465	190.75
251.698	170.75
251.931	176.75
252.164	181.75
252.397	174.75
252.63	165.75
252.863	180.75
253.096	190.75
253.329	205.75
253.562	191.75
253.795	202.75
254.028	188.75
254.261	200.75
254.494	200.75
254.727	230.75
254.96	229.75
255.193	216.75
255.426	206.75
255.659	221.75
255.892	253.75
256.124	260.75
256.357	293.75
256.59	258.75
256.823	219.75
257.056	208.75
257.289	200.75
257.521	201.75
257.754	205.75
257.987	193.75
258.22	189.75
258.452	198.75
258.685	193.75
258.918	197.75
259.151	183.75
259.383	199.75
259.616	188.75
259.849	201.75
260.081	209.75
260.314	203.75
260.547	222.75
260.779	221.75
261.012	201.75
261.244	207.75
261.477	202.75
261.71	195.75
261.942	210.75
262.175	214.75
262.407	195.75
262.64	195.75
262.872	194.75
263.105	196.75
263.337	213.75
263.57	186.75
263.802	217.75
264.035	208.75
264.267	215.75
264.499	204.75
264.732	211.75
264.964	180.75
265.197	217.75
265.429	206.75
265.661	214.75
265.894	197.75
266.126	210.75
266.358	201.75
266.591	216.75
266.823	223.75
267.055	208.75
267.287	209.75
267.52	212.75
267.752	218.75
267.984	216.75
268.216	194.75
268.448	205.75
268.681	224.75
268.913	214.75
269.145	230.75
269.377	223.75
269.609	245.75
269.841	223.75
270.073	218.75
270.306	259.75
270.538	278.75
270.77	251.75
271.002	271.75
271.234	253.75
271.466	280.75
271.698	272.75
271.93	275.75
272.162	267.75
272.394	275.75
272.626	273.75
272.858	259.75
273.09	260.75
273.322	245.75
273.553	248.75
273.785	247.75
274.017	245.75
274.249	260.75
274.481	264.75
274.713	238.75
274.945	243.75
275.176	241.75
275.408	253.75
275.64	233.75
275.872	243.75
276.104	246.75
276.335	255.75
276.567	253.75
276.799	268.75
277.031	271.75
277.262	276.75
277.494	273.75
277.726	280.75
277.957	254.75
278.189	259.75
278.421	258.75
278.652	262.75
278.884	265.75
279.115	268.75
279.347	269.75
279.579	252.75
279.81	258.75
280.042	262.75
280.273	269.75
280.505	258.75
280.736	258.75
280.968	263.75
281.199	271.75
281.431	280.75
281.662	271.75
281.894	269.75
282.125	268.75
282.356	283.75
282.588	275.75
282.819	299.75
283.051	277.75
283.282	270.75
283.513	254.75
283.745	268.75
283.976	269.75
284.207	286.75
284.439	274.75
284.67	292.75
284.901	274.75
285.132	265.75
285.364	267.75
285.595	273.75
285.826	280.75
286.057	277.75
286.288	275.75
286.52	277.75
286.751	279.75
286.982	280.75
287.213	292.75
287.444	275.75
287.675	288.75
287.906	271.75
288.138	286.75
288.369	276.75
288.6	308.75
288.831	280.75
289.062	296.75
289.293	282.75
289.524	283.75
289.755	285.75
289.986	275.75
290.217	277.75
290.448	296.75
290.679	302.75
290.91	284.75
291.141	274.75
291.371	280.75
291.602	266.75
291.833	287.75
292.064	275.75
292.295	272.75
292.526	270.75
292.757	288.75
292.987	288.75
293.218	286.75
293.449	295.75
293.68	300.75
293.91	294.75
294.141	290.75
294.372	284.75
294.603	287.75
294.833	304.75
295.064	307.75
295.295	303.75
295.525	292.75
295.756	298.75
295.987	301.75
296.217	315.75
296.448	320.75
296.679	307.75
296.909	283.75
297.14	302.75
297.37	289.75
297.601	289.75
297.831	308.75
298.062	303.75
298.292	312.75
298.523	323.75
298.753	309.75
298.984	301.75
299.214	300.75
299.445	308.75
299.675	313.75
299.905	314.75
300.136	318.75
300.366	297.75
300.597	302.75
300.827	340.75
301.057	311.75
301.288	311.75
301.518	336.75
301.748	323.75
301.979	315.75
302.209	345.75
302.439	334.75
302.669	332.75
302.9	319.75
303.13	327.75
303.36	309.75
303.59	330.75
303.82	311.75
304.051	333.75
304.281	314.75
304.511	322.75
304.741	325.75
304.971	318.75
305.201	311.75
305.431	323.75
305.661	319.75
305.891	325.75
306.121	324.75
306.352	334.75
306.582	328.75
306.812	322.75
307.042	320.75
307.272	332.75
307.502	329.75
307.731	324.75
307.961	323.75
308.191	325.75
308.421	303.75
308.651	298.75
308.881	320.75
309.111	326.75
309.341	330.75
309.571	326.75
309.8	337.75
310.03	347.75
310.26	328.75
310.49	335.75
310.72	360.75
310.949	352.75
311.179	349.75
311.409	342.75
311.639	341.75
311.868	339.75
312.098	343.75
312.328	339.75
312.557	354.75
312.787	361.75
313.017	360.75
313.246	361.75
313.476	331.75
313.706	352.75
313.935	361.75
314.165	359.75
314.394	366.75
314.624	354.75
314.853	353.75
315.083	352.75
315.312	340.75
315.542	335.75
315.771	351.75
316.001	336.75
316.23	347.75
316.46	350.75
316.689	341.75
316.919	371.75
317.148	360.75
317.377	348.75
317.607	359.75
317.836	359.75
318.065	365.75
318.295	350.75
318.524	350.75
318.753	351.75
318.983	351.75
319.212	360.75
319.441	366.75
319.67	365.75
319.9	367.75
320.129	348.75
320.358	332.75
320.587	375.75
320.816	365.75
321.046	371.75
321.275	367.75
321.504	345.75
321.733	336.75
321.962	367.75
322.191	369.75
322.42	368.75
322.649	366.75
322.878	390.75
323.108	407.75
323.337	424.75
323.566	415.75
323.795	427.75
324.024	471.75
324.253	534.75
324.482	696.75
324.71	1025.75
324.939	1451.75
325.168	1247.75
325.397	707.75
325.626	519.75
325.855	476.75
326.084	443.75
326.313	431.75
326.542	446.75
326.77	460.75
326.999	533.75
327.228	673.75
327.457	966.75
327.686	1127.75
327.914	805.75
328.143	617.75
328.372	572.75
328.6	520.75
328.829	488.75
329.058	488.75
329.287	496.75
329.515	479.75
329.744	483.75
329.972	510.75
330.201	575.75
330.43	622.75
330.658	590.75
330.887	537.75
331.115	531.75
331.344	461.75
331.572	474.75
331.801	458.75
332.03	458.75
332.258	464.75
332.486	457.75
332.715	449.75
332.943	462.75
333.172	476.75
333.4	487.75
333.629	498.75
333.857	533.75
334.085	587.75
334.314	635.75
334.542	737.75
334.771	729.75
334.999	594.75
335.227	493.75
335.455	484.75
335.684	481.75
335.912	464.75
336.14	444.75
336.369	441.75
336.597	451.75
336.825	446.75
337.053	432.75
337.281	417.75
337.51	427.75
337.738	405.75
337.966	424.75
338.194	419.75
338.422	423.75
338.65	413.75
338.878	412.75
339.106	399.75
339.334	405.75
339.562	405.75
339.79	414.75
340.018	407.75
340.246	395.75
340.474	397.75
340.702	399.75
340.93	389.75
341.158	401.75
341.386	405.75
341.614	400.75
341.842	379.75
342.07	384.75
342.298	407.75
342.526	384.75
342.754	411.75
342.981	394.75
343.209	396.75
343.437	401.75
343.665	407.75
343.893	433.75
344.12	446.75
344.348	431.75
344.576	411.75
344.804	402.75
345.031	417.75
345.259	401.75
345.487	400.75
345.714	410.75
345.942	394.75
346.17	368.75
346.397	383.75
346.625	375.75
346.853	374.75
347.08	374.75
347.308	373.75
347.535	363.75
347.763	374.75
347.99	389.75
348.218	355.75
348.445	365.75
348.673	375.75
348.9	385.75
349.128	369.75
349.355	345.75
349.583	372.75
349.81	381.75
350.037	389.75
350.265	362.75
350.492	362.75
350.72	367.75
350.947	354.75
351.174	367.75
351.402	371.75
351.629	372.75
351.856	347.75
352.083	352.75
352.311	389.75
352.538	386.75
352.765	389.75
352.992	347.75
353.22	347.75
353.447	356.75
353.674	351.75
353.901	351.75
354.128	352.75
354.355	347.75
354.583	347.75
354.81	349.75
355.037	360.75
355.264	350.75
355.491	345.75
355.718	358.75
355.945	356.75
356.172	355.75
356.399	364.75
356.626	348.75
356.853	341.75
357.08	349.75
357.307	335.75
357.534	353.75
357.761	353.75
357.988	357.75
358.215	373.75
358.441	357.75
358.668	358.75
358.895	366.75
359.122	371.75
359.349	367.75
359.576	358.75
359.802	365.75
360.029	389.75
360.256	370.75
360.483	382.75
360.709	373.75
360.936	375.75
361.163	376.75
361.39	394.75
361.616	366.75
361.843	352.75
362.07	353.75
362.296	353.75
362.523	360.75
362.749	364.75
362.976	372.75
363.203	353.75
363.429	376.75
363.656	369.75
363.882	367.75
364.109	351.75
364.335	368.75
364.562	348.75
364.788	345.75
365.015	347.75
365.241	349.75
365.468	349.75
365.694	349.75
365.92	344.75
366.147	357.75
366.373	357.75
366.599	356.75
366.826	350.75
367.052	357.75
367.278	347.75
367.505	351.75
367.731	348.75
367.957	360.75
368.184	349.75
368.41	343.75
368.636	374.75
368.862	371.75
369.089	335.75
369.315	370.75
369.541	362.75
369.767	351.75
369.993	362.75
370.219	374.75
370.445	372.75
370.672	356.75
370.898	345.75
371.124	356.75
371.35	357.75
371.576	360.75
371.802	355.75
372.028	348.75
372.254	362.75
372.48	365.75
372.706	365.75
372.932	369.75
373.158	363.75
373.384	382.75
373.61	380.75
373.835	349.75
374.061	366.75
374.287	365.75
374.513	376.75
374.739	385.75
374.965	392.75
375.191	391.75
375.416	395.75
375.642	364.75
375.868	387.75
376.094	353.75
376.319	346.75
376.545	382.75
376.771	370.75
376.997	367.75
377.222	369.75
377.448	375.75
377.674	362.75
377.899	363.75
378.125	361.75
378.35	345.75
378.576	355.75
378.802	329.75
379.027	375.75
379.253	368.75
379.478	359.75
379.704	356.75
379.929	361.75
380.155	351.75
380.38	363.75
380.606	345.75
380.831	349.75
381.057	382.75
381.282	348.75
381.507	361.75
381.733	371.75
381.958	347.75
382.184	370.75
382.409	367.75
382.634	358.75
382.86	376.75
383.085	371.75
383.31	383.75
383.535	392.75
383.761	380.75
383.986	379.75
384.211	383.75
384.436	414.75
384.662	407.75
384.887	411.75
385.112	407.75
385.337	414.75
385.562	398.75
385.787	401.75
386.013	412.75
386.238	424.75
386.463	423.75
386.688	417.75
386.913	399.75
387.138	399.75
387.363	415.75
387.588	407.75
387.813	377.75
388.038	389.75
388.263	401.75
388.488	421.75
388.713	412.75
388.938	428.75
389.163	425.75
389.387	408.75
389.612	392.75
389.837	412.75
390.062	405.75
390.287	409.75
390.512	402.75
390.736	382.75
390.961	403.75
391.186	410.75
391.411	409.75
391.636	425.75
391.86	410.75
392.085	423.75
392.31	440.75
392.534	425.75
392.759	425.75
392.984	414.75
393.208	428.75
393.433	414.75
393.658	420.75
393.882	413.75
394.107	419.75
394.331	398.75
394.556	419.75
394.78	437.75
395.005	409.75
395.229	439.75
395.454	423.75
395.678	440.75
395.903	429.75
396.127	427.75
396.352	449.75
396.576	421.75
396.801	419.75
397.025	415.75
397.249	425.75
397.474	449.75
397.698	445.75
397.922	442.75
398.147	449.75
398.371	463.75
398.595	469.75
398.82	479.75
399.044	494.75
399.268	539.75
399.492	563.75
399.717	608.75
399.941	627.75
400.165	619.75
400.389	601.75
400.613	539.75
400.837	544.75
401.062	483.75
401.286	471.75
401.51	482.75
401.734	470.75
401.958	460.75
402.182	472.75
402.406	494.75
402.63	490.75
402.854	496.75
403.078	486.75
403.302	524.75
403.526	527.75
403.75	542.75
403.974	540.75
404.198	525.75
404.422	536.75
404.645	538.75
404.869	533.75
405.093	588.75
405.317	616.75
405.541	632.75
405.765	612.75
405.988	535.75
406.212	537.75
406.436	540.75
406.66	549.75
406.883	528.75
407.107	565.75
407.331	590.75
407.555	661.75
407.778	628.75
408.002	599.75
408.226	558.75
408.449	574.75
408.673	571.75
408.896	556.75
409.12	555.75
409.344	563.75
409.567	522.75
409.791	541.75
410.014	501.75
410.238	492.75
410.461	513.75
410.685	528.75
410.908	512.75
411.132	503.75
411.355	531.75
411.578	533.75
411.802	517.75
412.025	504.75
412.249	521.75
412.472	570.75
412.695	603.75
412.919	570.75
413.142	537.75
413.365	527.75
413.589	502.75
413.812	494.75
414.035	474.75
414.258	475.75
414.482	451.75
414.705	464.75
414.928	462.75
415.151	456.75
415.374	479.75
415.597	456.75
415.821	472.75
416.044	465.75
416.267	472.75
416.49	453.75
416.713	465.75
416.936	463.75
417.159	468.75
417.382	483.75
417.605	486.75
417.828	493.75
418.051	489.75
418.274	472.75
418.497	474.75
418.72	492.75
418.943	479.75
419.166	503.75
419.389	546.75
419.611	549.75
419.834	502.75
420.057	520.75
420.28	536.75
420.503	544.75
420.726	534.75
420.948	494.75
421.171	520.75
421.394	518.75
421.617	483.75
421.839	479.75
422.062	496.75
422.285	478.75
422.507	504.75
422.73	571.75
422.953	553.75
423.175	519.75
423.398	494.75
423.621	513.75
423.843	517.75
424.066	511.75
424.288	503.75
424.511	522.75
424.733	551.75
424.956	599.75
425.178	572.75
425.401	553.75
425.623	567.75
425.846	518.75
426.068	495.75
426.291	485.75
426.513	473.75
426.735	481.75
426.958	494.75
427.18	543.75
427.402	633.75
427.625	675.75
427.847	613.75
428.069	583.75
428.292	556.75
428.514	481.75
428.736	472.75
428.958	463.75
429.181	438.75
429.403	468.75
429.625	435.75
429.847	463.75
430.069	501.75
430.292	473.75
430.514	452.75
430.736	442.75
430.958	451.75
431.18	433.75
431.402	441.75
431.624	424.75
431.846	445.75
432.068	419.75
432.29	445.75
432.512	453.75
432.734	452.75
432.956	425.75
433.178	457.75
433.4	436.75
433.622	421.75
433.844	447.75
434.066	425.75
434.287	447.75
434.509	434.75
434.731	475.75
434.953	471.75
435.175	496.75
435.397	485.75
435.618	479.75
435.84	526.75
436.062	547.75
436.284	607.75
436.505	521.75
436.727	495.75
436.949	451.75
437.17	422.75
437.392	439.75
437.614	449.75
437.835	472.75
438.057	523.75
438.278	573.75
438.5	568.75
438.721	627.75
438.943	619.75
439.165	458.75
439.386	468.75
439.608	453.75
439.829	459.75
440.05	506.75
440.272	505.75
440.493	477.75
440.715	465.75
440.936	473.75
441.158	452.75
441.379	464.75
441.6	464.75
441.822	500.75
442.043	505.75
442.264	554.75
442.486	589.75
442.707	520.75
442.928	494.75
443.149	523.75
443.371	510.75
443.592	538.75
443.813	603.75
444.034	635.75
444.255	544.75
444.476	521.75
444.698	516.75
444.919	530.75
445.14	616.75
445.361	563.75
445.582	522.75
445.803	552.75
446.024	590.75
446.245	591.75
446.466	533.75
446.687	487.75
446.908	456.75
447.129	445.75
447.35	445.75
447.571	456.75
447.792	442.75
448.013	429.75
448.234	432.75
448.455	483.75
448.675	525.75
448.896	597.75
449.117	526.75
449.338	504.75
449.559	560.75
449.779	611.75
450	521.75
450.221	454.75
450.442	427.75
450.662	406.75
450.883	427.75
451.104	424.75
451.324	429.75
451.545	409.75
451.766	412.75
451.986	406.75
452.207	402.75
452.428	397.75
452.648	382.75
452.869	386.75
453.089	405.75
453.31	405.75
453.53	400.75
453.751	393.75
453.971	376.75
454.192	412.75
454.412	396.75
454.633	385.75
454.853	385.75
455.073	378.75
455.294	385.75
455.514	443.75
455.734	411.75
455.955	389.75
456.175	364.75
456.395	379.75
456.616	369.75
456.836	363.75
457.056	367.75
457.276	385.75
457.497	384.75
457.717	362.75
457.937	401.75
458.157	395.75
458.377	397.75
458.598	406.75
458.818	449.75
459.038	483.75
459.258	513.75
459.478	436.75
459.698	437.75
459.918	443.75
460.138	425.75
460.358	485.75
460.578	440.75
460.798	469.75
461.018	481.75
461.238	459.75
461.458	456.75
461.678	464.75
461.898	469.75
462.118	460.75
462.338	491.75
462.558	495.75
462.777	511.75
462.997	518.75
463.217	554.75
463.437	571.75
463.657	552.75
463.876	529.75
464.096	506.75
464.316	505.75
464.536	523.75
464.755	495.75
464.975	492.75
465.195	522.75
465.414	529.75
465.634	463.75
465.854	440.75
466.073	425.75
466.293	435.75
466.512	405.75
466.732	418.75
466.951	407.75
467.171	390.75
467.391	416.75
467.61	404.75
467.829	432.75
468.049	422.75
468.268	418.75
468.488	409.75
468.707	405.75
468.927	415.75
469.146	389.75
469.365	411.75
469.585	379.75
469.804	423.75
470.023	412.75
470.243	419.75
470.462	443.75
470.681	423.75
470.901	453.75
471.12	451.75
471.339	419.75
471.558	424.75
471.777	433.75
471.997	455.75
472.216	465.75
472.435	522.75
472.654	521.75
472.873	458.75
473.092	425.75
473.311	407.75
473.53	428.75
473.749	427.75
473.968	456.75
474.187	487.75
474.406	495.75
474.625	424.75
474.844	429.75
475.063	427.75
475.282	406.75
475.501	406.75
475.72	405.75
475.939	428.75
476.158	413.75
476.377	427.75
476.596	408.75
476.814	429.75
477.033	411.75
477.252	440.75
477.471	437.75
477.69	439.75
477.908	439.75
478.127	460.75
478.346	483.75
478.564	472.75
478.783	472.75
479.002	476.75
479.22	467.75
479.439	501.75
479.658	496.75
479.876	476.75
480.095	505.75
480.313	509.75
480.532	527.75
480.751	538.75
480.969	582.75
481.188	671.75
481.406	747.75
481.624	620.75
481.843	552.75
482.061	523.75
482.28	489.75
482.498	485.75
482.717	489.75
482.935	477.75
483.153	490.75
483.372	473.75
483.59	467.75
483.808	464.75
484.027	463.75
484.245	483.75
484.463	480.75
484.681	485.75
484.9	484.75
485.118	493.75
485.336	489.75
485.554	499.75
485.772	493.75
485.99	473.75
486.209	489.75
486.427	484.75
486.645	479.75
486.863	529.75
487.081	511.75
487.299	522.75
487.517	503.75
487.735	475.75
487.953	474.75
488.171	489.75
488.389	488.75
488.607	485.75
488.825	496.75
489.043	498.75
489.261	501.75
489.479	488.75
489.696	481.75
489.914	519.75
490.132	526.75
490.35	537.75
490.568	535.75
490.786	547.75
491.003	531.75
491.221	569.75
491.439	559.75
491.657	579.75
491.874	582.75
492.092	573.75
492.31	575.75
492.527	595.75
492.745	605.75
492.963	607.75
493.18	611.75
493.398	616.75
493.615	612.75
493.833	598.75
494.05	603.75
494.268	598.75
494.485	604.75
494.703	569.75
494.92	587.75
495.138	578.75
495.355	552.75
495.573	574.75
495.79	568.75
496.008	572.75
496.225	576.75
496.442	558.75
496.66	571.75
496.877	567.75
497.094	584.75
497.312	610.75
497.529	627.75
497.746	629.75
497.963	625.75
498.181	632.75
498.398	635.75
498.615	675.75
498.832	693.75
499.049	723.75
499.267	781.75
499.484	796.75
499.701	851.75
499.918	917.75
500.135	969.75
500.352	1066.75
500.569	1121.75
500.786	1105.75
501.003	1079.75
501.22	1019.75
501.437	944.75
501.654	836.75
501.871	831.75
502.088	784.75
