Data from 1984.PennyLincolnUp.Lamp.En5.5.200Scan.071819.P1_HRD10591_16-59-03-969.txt Node
Date: Thu Jul 18 16:59:03 EDT 2019
User: cochatt
Spectrometer: HR+D1059
Trigger mode: 1
Integration Time (sec): 1.000000E-1
Scans to average: 1
Electric dark correction enabled: true
Nonlinearity correction enabled: false
Boxcar width: 0
XAxis mode: Wavelengths
Number of Pixels in Spectrum: 2048
>>>>>Begin Spectral Data<<<<<
223.165	-11.06
223.4	-11.06
223.635	-11.06
223.869	-7.06
224.104	-12.06
224.338	-21.06
224.573	-26.06
224.808	-2.06
225.042	-8.06
225.277	-9.06
225.511	0.94
225.746	4.94
225.98	-2.06
226.215	6.94
226.449	5.94
226.683	15.94
226.918	24.94
227.152	38.94
227.387	22.94
227.621	58.94
227.856	35.94
228.09	41.94
228.324	57.94
228.559	43.94
228.793	69.94
229.027	78.94
229.262	91.94
229.496	107.94
229.73	89.94
229.964	111.94
230.199	108.94
230.433	101.94
230.667	94.94
230.901	114.94
231.136	99.94
231.37	114.94
231.604	115.94
231.838	97.94
232.072	122.94
232.306	100.94
232.541	106.94
232.775	121.94
233.009	113.94
233.243	87.94
233.477	110.94
233.711	113.94
233.945	123.94
234.179	115.94
234.413	116.94
234.647	121.94
234.881	124.94
235.115	101.94
235.349	106.94
235.583	126.94
235.817	106.94
236.051	117.94
236.285	99.94
236.519	109.94
236.753	121.94
236.987	122.94
237.221	129.94
237.455	157.94
237.689	137.94
237.922	118.94
238.156	121.94
238.39	101.94
238.624	117.94
238.858	133.94
239.091	127.94
239.325	109.94
239.559	113.94
239.793	127.94
240.027	123.94
240.26	116.94
240.494	126.94
240.728	125.94
240.961	107.94
241.195	134.94
241.429	119.94
241.662	119.94
241.896	117.94
242.13	134.94
242.363	110.94
242.597	124.94
242.83	133.94
243.064	132.94
243.298	145.94
243.531	137.94
243.765	128.94
243.998	131.94
244.232	132.94
244.465	117.94
244.699	139.94
244.932	135.94
245.166	128.94
245.399	121.94
245.633	127.94
245.866	144.94
246.099	128.94
246.333	134.94
246.566	141.94
246.8	134.94
247.033	140.94
247.266	149.94
247.5	141.94
247.733	147.94
247.966	161.94
248.2	157.94
248.433	137.94
248.666	158.94
248.899	160.94
249.133	169.94
249.366	158.94
249.599	170.94
249.832	162.94
250.066	164.94
250.299	163.94
250.532	197.94
250.765	191.94
250.998	206.94
251.231	193.94
251.465	172.94
251.698	161.94
251.931	160.94
252.164	190.94
252.397	165.94
252.63	192.94
252.863	186.94
253.096	184.94
253.329	186.94
253.562	199.94
253.795	193.94
254.028	185.94
254.261	188.94
254.494	191.94
254.727	199.94
254.96	220.94
255.193	222.94
255.426	197.94
255.659	196.94
255.892	225.94
256.124	234.94
256.357	259.94
256.59	241.94
256.823	213.94
257.056	199.94
257.289	185.94
257.521	195.94
257.754	190.94
257.987	179.94
258.22	194.94
258.452	183.94
258.685	181.94
258.918	191.94
259.151	187.94
259.383	175.94
259.616	201.94
259.849	207.94
260.081	198.94
260.314	198.94
260.547	198.94
260.779	209.94
261.012	194.94
261.244	211.94
261.477	192.94
261.71	196.94
261.942	216.94
262.175	205.94
262.407	207.94
262.64	187.94
262.872	177.94
263.105	188.94
263.337	193.94
263.57	197.94
263.802	206.94
264.035	190.94
264.267	211.94
264.499	206.94
264.732	201.94
264.964	197.94
265.197	207.94
265.429	204.94
265.661	204.94
265.894	185.94
266.126	219.94
266.358	180.94
266.591	183.94
266.823	207.94
267.055	221.94
267.287	206.94
267.52	206.94
267.752	205.94
267.984	211.94
268.216	212.94
268.448	212.94
268.681	218.94
268.913	221.94
269.145	222.94
269.377	246.94
269.609	231.94
269.841	228.94
270.073	233.94
270.306	232.94
270.538	260.94
270.77	263.94
271.002	255.94
271.234	249.94
271.466	249.94
271.698	259.94
271.93	256.94
272.162	266.94
272.394	254.94
272.626	269.94
272.858	237.94
273.09	255.94
273.322	247.94
273.553	237.94
273.785	237.94
274.017	247.94
274.249	241.94
274.481	250.94
274.713	231.94
274.945	247.94
275.176	228.94
275.408	234.94
275.64	247.94
275.872	257.94
276.104	261.94
276.335	249.94
276.567	241.94
276.799	244.94
277.031	274.94
277.262	266.94
277.494	273.94
277.726	261.94
277.957	268.94
278.189	249.94
278.421	261.94
278.652	250.94
278.884	228.94
279.115	268.94
279.347	230.94
279.579	242.94
279.81	275.94
280.042	275.94
280.273	242.94
280.505	253.94
280.736	261.94
280.968	269.94
281.199	263.94
281.431	256.94
281.662	268.94
281.894	265.94
282.125	257.94
282.356	268.94
282.588	280.94
282.819	286.94
283.051	266.94
283.282	252.94
283.513	256.94
283.745	259.94
283.976	268.94
284.207	259.94
284.439	269.94
284.67	263.94
284.901	268.94
285.132	277.94
285.364	281.94
285.595	275.94
285.826	271.94
286.057	281.94
286.288	264.94
286.52	254.94
286.751	270.94
286.982	271.94
287.213	265.94
287.444	256.94
287.675	275.94
287.906	279.94
288.138	286.94
288.369	285.94
288.6	294.94
288.831	287.94
289.062	312.94
289.293	283.94
289.524	276.94
289.755	267.94
289.986	285.94
290.217	282.94
290.448	296.94
290.679	273.94
290.91	291.94
291.141	277.94
291.371	269.94
291.602	282.94
291.833	281.94
292.064	275.94
292.295	272.94
292.526	285.94
292.757	303.94
292.987	281.94
293.218	275.94
293.449	280.94
293.68	297.94
293.91	282.94
294.141	271.94
294.372	291.94
294.603	276.94
294.833	274.94
295.064	283.94
295.295	283.94
295.525	281.94
295.756	275.94
295.987	289.94
296.217	325.94
296.448	313.94
296.679	295.94
296.909	294.94
297.14	281.94
297.37	277.94
297.601	306.94
297.831	293.94
298.062	291.94
298.292	296.94
298.523	296.94
298.753	316.94
298.984	275.94
299.214	301.94
299.445	307.94
299.675	300.94
299.905	289.94
300.136	294.94
300.366	295.94
300.597	276.94
300.827	314.94
301.057	319.94
301.288	328.94
301.518	300.94
301.748	309.94
301.979	332.94
302.209	312.94
302.439	316.94
302.669	327.94
302.9	332.94
303.13	329.94
303.36	319.94
303.59	301.94
303.82	323.94
304.051	324.94
304.281	332.94
304.511	338.94
304.741	297.94
304.971	312.94
305.201	330.94
305.431	316.94
305.661	321.94
305.891	321.94
306.121	302.94
306.352	334.94
306.582	319.94
306.812	324.94
307.042	318.94
307.272	321.94
307.502	321.94
307.731	297.94
307.961	329.94
308.191	298.94
308.421	333.94
308.651	304.94
308.881	302.94
309.111	321.94
309.341	299.94
309.571	319.94
309.8	332.94
310.03	336.94
310.26	331.94
310.49	344.94
310.72	322.94
310.949	346.94
311.179	340.94
311.409	353.94
311.639	334.94
311.868	348.94
312.098	333.94
312.328	357.94
312.557	355.94
312.787	357.94
313.017	355.94
313.246	360.94
313.476	346.94
313.706	354.94
313.935	345.94
314.165	374.94
314.394	351.94
314.624	359.94
314.853	345.94
315.083	344.94
315.312	343.94
315.542	341.94
315.771	346.94
316.001	343.94
316.23	343.94
316.46	330.94
316.689	346.94
316.919	334.94
317.148	357.94
317.377	360.94
317.607	366.94
317.836	341.94
318.065	334.94
318.295	342.94
318.524	336.94
318.753	342.94
318.983	349.94
319.212	357.94
319.441	360.94
319.67	357.94
319.9	350.94
320.129	362.94
320.358	353.94
320.587	353.94
320.816	363.94
321.046	371.94
321.275	364.94
321.504	354.94
321.733	362.94
321.962	372.94
322.191	369.94
322.42	378.94
322.649	385.94
322.878	398.94
323.108	399.94
323.337	417.94
323.566	408.94
323.795	434.94
324.024	460.94
324.253	537.94
324.482	701.94
324.71	1048.94
324.939	1417.94
325.168	1234.94
325.397	693.94
325.626	494.94
325.855	462.94
326.084	423.94
326.313	421.94
326.542	419.94
326.77	454.94
326.999	520.94
327.228	691.94
327.457	953.94
327.686	1099.94
327.914	791.94
328.143	601.94
328.372	514.94
328.6	500.94
328.829	465.94
329.058	489.94
329.287	485.94
329.515	477.94
329.744	437.94
329.972	461.94
330.201	492.94
330.43	552.94
330.658	532.94
330.887	506.94
331.115	500.94
331.344	454.94
331.572	435.94
331.801	445.94
332.03	460.94
332.258	431.94
332.486	444.94
332.715	433.94
332.943	444.94
333.172	446.94
333.4	457.94
333.629	469.94
333.857	505.94
334.085	531.94
334.314	557.94
334.542	620.94
334.771	636.94
334.999	557.94
335.227	500.94
335.455	473.94
335.684	460.94
335.912	448.94
336.14	426.94
336.369	455.94
336.597	418.94
336.825	435.94
337.053	423.94
337.281	414.94
337.51	421.94
337.738	408.94
337.966	421.94
338.194	409.94
338.422	426.94
338.65	418.94
338.878	402.94
339.106	391.94
339.334	400.94
339.562	401.94
339.79	398.94
340.018	409.94
340.246	396.94
340.474	377.94
340.702	371.94
340.93	383.94
341.158	380.94
341.386	395.94
341.614	381.94
341.842	378.94
342.07	376.94
342.298	393.94
342.526	384.94
342.754	371.94
342.981	356.94
343.209	380.94
343.437	394.94
343.665	419.94
343.893	430.94
344.12	416.94
344.348	413.94
344.576	407.94
344.804	397.94
345.031	412.94
345.259	390.94
345.487	374.94
345.714	390.94
345.942	359.94
346.17	389.94
346.397	366.94
346.625	371.94
346.853	367.94
347.08	385.94
347.308	372.94
347.535	381.94
347.763	382.94
347.99	387.94
348.218	393.94
348.445	359.94
348.673	378.94
348.9	385.94
349.128	363.94
349.355	356.94
349.583	353.94
349.81	351.94
350.037	364.94
350.265	367.94
350.492	350.94
350.72	354.94
350.947	373.94
351.174	385.94
351.402	362.94
351.629	352.94
351.856	357.94
352.083	393.94
352.311	395.94
352.538	371.94
352.765	361.94
352.992	385.94
353.22	357.94
353.447	343.94
353.674	355.94
353.901	327.94
354.128	359.94
354.355	350.94
354.583	342.94
354.81	363.94
355.037	377.94
355.264	339.94
355.491	359.94
355.718	348.94
355.945	362.94
356.172	356.94
356.399	348.94
356.626	346.94
356.853	341.94
357.08	328.94
357.307	348.94
357.534	351.94
357.761	350.94
357.988	358.94
358.215	339.94
358.441	349.94
358.668	354.94
358.895	351.94
359.122	343.94
359.349	347.94
359.576	360.94
359.802	381.94
360.029	375.94
360.256	385.94
360.483	391.94
360.709	367.94
360.936	358.94
361.163	349.94
361.39	361.94
361.616	348.94
361.843	378.94
362.07	365.94
362.296	365.94
362.523	353.94
362.749	356.94
362.976	359.94
363.203	374.94
363.429	348.94
363.656	339.94
363.882	331.94
364.109	357.94
364.335	357.94
364.562	356.94
364.788	357.94
365.015	352.94
365.241	369.94
365.468	362.94
365.694	350.94
365.92	346.94
366.147	355.94
366.373	334.94
366.599	333.94
366.826	356.94
367.052	340.94
367.278	355.94
367.505	363.94
367.731	356.94
367.957	353.94
368.184	345.94
368.41	387.94
368.636	331.94
368.862	360.94
369.089	358.94
369.315	353.94
369.541	363.94
369.767	345.94
369.993	376.94
370.219	357.94
370.445	357.94
370.672	358.94
370.898	367.94
371.124	352.94
371.35	358.94
371.576	331.94
371.802	369.94
372.028	355.94
372.254	364.94
372.48	353.94
372.706	362.94
372.932	369.94
373.158	370.94
373.384	366.94
373.61	367.94
373.835	367.94
374.061	334.94
374.287	364.94
374.513	378.94
374.739	395.94
374.965	381.94
375.191	371.94
375.416	370.94
375.642	370.94
375.868	364.94
376.094	365.94
376.319	378.94
376.545	355.94
376.771	337.94
376.997	344.94
377.222	335.94
377.448	354.94
377.674	360.94
377.899	351.94
378.125	337.94
378.35	351.94
378.576	342.94
378.802	354.94
379.027	362.94
379.253	338.94
379.478	360.94
379.704	363.94
379.929	354.94
380.155	347.94
380.38	333.94
380.606	346.94
380.831	346.94
381.057	353.94
381.282	362.94
381.507	377.94
381.733	353.94
381.958	356.94
382.184	364.94
382.409	355.94
382.634	339.94
382.86	373.94
383.085	381.94
383.31	367.94
383.535	389.94
383.761	377.94
383.986	381.94
384.211	382.94
384.436	369.94
384.662	406.94
384.887	394.94
385.112	377.94
385.337	398.94
385.562	406.94
385.787	425.94
386.013	394.94
386.238	417.94
386.463	404.94
386.688	406.94
386.913	395.94
387.138	397.94
387.363	398.94
387.588	399.94
387.813	410.94
388.038	375.94
388.263	392.94
388.488	404.94
388.713	405.94
388.938	405.94
389.163	392.94
389.387	371.94
389.612	376.94
389.837	394.94
390.062	410.94
390.287	394.94
390.512	379.94
390.736	381.94
390.961	397.94
391.186	414.94
391.411	399.94
391.636	411.94
391.86	433.94
392.085	449.94
392.31	421.94
392.534	412.94
392.759	422.94
392.984	409.94
393.208	387.94
393.433	404.94
393.658	407.94
393.882	414.94
394.107	413.94
394.331	439.94
394.556	418.94
394.78	398.94
395.005	408.94
395.229	415.94
395.454	441.94
395.678	403.94
395.903	427.94
396.127	429.94
396.352	443.94
396.576	416.94
396.801	421.94
397.025	418.94
397.249	427.94
397.474	427.94
397.698	430.94
397.922	419.94
398.147	443.94
398.371	475.94
398.595	457.94
398.82	470.94
399.044	489.94
399.268	521.94
399.492	541.94
399.717	614.94
399.941	627.94
400.165	618.94
400.389	588.94
400.613	526.94
400.837	513.94
401.062	497.94
401.286	487.94
401.51	476.94
401.734	474.94
401.958	483.94
402.182	467.94
402.406	467.94
402.63	482.94
402.854	498.94
403.078	501.94
403.302	494.94
403.526	493.94
403.75	538.94
403.974	539.94
404.198	511.94
404.422	497.94
404.645	535.94
404.869	518.94
405.093	541.94
405.317	577.94
405.541	612.94
405.765	575.94
405.988	518.94
406.212	551.94
406.436	526.94
406.66	553.94
406.883	527.94
407.107	546.94
407.331	579.94
407.555	624.94
407.778	616.94
408.002	590.94
408.226	555.94
408.449	526.94
408.673	534.94
408.896	567.94
409.12	557.94
409.344	537.94
409.567	504.94
409.791	518.94
410.014	513.94
410.238	510.94
410.461	500.94
410.685	508.94
410.908	501.94
411.132	512.94
411.355	526.94
411.578	532.94
411.802	486.94
412.025	488.94
412.249	501.94
412.472	537.94
412.695	562.94
412.919	562.94
413.142	499.94
413.365	503.94
413.589	499.94
413.812	467.94
414.035	452.94
414.258	471.94
414.482	464.94
414.705	486.94
414.928	447.94
415.151	455.94
415.374	473.94
415.597	477.94
415.821	463.94
416.044	457.94
416.267	465.94
416.49	458.94
416.713	463.94
416.936	475.94
417.159	458.94
417.382	462.94
417.605	446.94
417.828	457.94
418.051	469.94
418.274	457.94
418.497	454.94
418.72	489.94
418.943	478.94
419.166	492.94
419.389	511.94
419.611	503.94
419.834	479.94
420.057	541.94
420.28	520.94
420.503	507.94
420.726	487.94
420.948	531.94
421.171	519.94
421.394	520.94
421.617	505.94
421.839	456.94
422.062	480.94
422.285	487.94
422.507	485.94
422.73	557.94
422.953	527.94
423.175	507.94
423.398	510.94
423.621	503.94
423.843	487.94
424.066	521.94
424.288	472.94
424.511	517.94
424.733	519.94
424.956	584.94
425.178	563.94
425.401	545.94
425.623	569.94
425.846	531.94
426.068	490.94
426.291	483.94
426.513	475.94
426.735	486.94
426.958	510.94
427.18	540.94
427.402	631.94
427.625	679.94
427.847	616.94
428.069	571.94
428.292	529.94
428.514	464.94
428.736	449.94
428.958	464.94
429.181	467.94
429.403	429.94
429.625	446.94
429.847	482.94
430.069	497.94
430.292	482.94
430.514	451.94
430.736	439.94
430.958	443.94
431.18	433.94
431.402	416.94
431.624	450.94
431.846	423.94
432.068	430.94
432.29	441.94
432.512	441.94
432.734	446.94
432.956	433.94
433.178	423.94
433.4	443.94
433.622	422.94
433.844	429.94
434.066	430.94
434.287	419.94
434.509	444.94
434.731	455.94
434.953	450.94
435.175	477.94
435.397	477.94
435.618	479.94
435.84	498.94
436.062	536.94
436.284	547.94
436.505	513.94
436.727	478.94
436.949	442.94
437.17	446.94
437.392	455.94
437.614	428.94
437.835	462.94
438.057	532.94
438.278	581.94
438.5	547.94
438.721	575.94
438.943	561.94
439.165	501.94
439.386	465.94
439.608	462.94
439.829	460.94
440.05	482.94
440.272	484.94
440.493	490.94
440.715	483.94
440.936	463.94
441.158	473.94
441.379	473.94
441.6	480.94
441.822	493.94
442.043	522.94
442.264	547.94
442.486	565.94
442.707	510.94
442.928	485.94
443.149	503.94
443.371	511.94
443.592	527.94
443.813	581.94
444.034	585.94
444.255	547.94
444.476	507.94
444.698	516.94
444.919	551.94
445.14	609.94
445.361	562.94
445.582	509.94
445.803	545.94
446.024	565.94
446.245	574.94
446.466	519.94
446.687	478.94
446.908	463.94
447.129	448.94
447.35	428.94
447.571	421.94
447.792	420.94
448.013	404.94
448.234	431.94
448.455	468.94
448.675	539.94
448.896	583.94
449.117	503.94
449.338	499.94
449.559	529.94
449.779	633.94
450	525.94
450.221	452.94
450.442	411.94
450.662	407.94
450.883	421.94
451.104	417.94
451.324	415.94
451.545	399.94
451.766	392.94
451.986	406.94
452.207	403.94
452.428	389.94
452.648	385.94
452.869	390.94
453.089	408.94
453.31	418.94
453.53	405.94
453.751	381.94
453.971	391.94
454.192	394.94
454.412	410.94
454.633	361.94
454.853	369.94
455.073	377.94
455.294	405.94
455.514	426.94
455.734	421.94
455.955	383.94
456.175	358.94
456.395	378.94
456.616	391.94
456.836	353.94
457.056	371.94
457.276	349.94
457.497	369.94
457.717	379.94
457.937	379.94
458.157	367.94
458.377	395.94
458.598	393.94
458.818	430.94
459.038	465.94
459.258	493.94
459.478	433.94
459.698	447.94
459.918	440.94
460.138	453.94
460.358	455.94
460.578	472.94
460.798	464.94
461.018	486.94
461.238	452.94
461.458	454.94
461.678	437.94
461.898	467.94
462.118	478.94
462.338	468.94
462.558	493.94
462.777	475.94
462.997	513.94
463.217	541.94
463.437	555.94
463.657	499.94
463.876	514.94
464.096	534.94
464.316	519.94
464.536	511.94
464.755	503.94
464.975	492.94
465.195	486.94
465.414	521.94
465.634	456.94
465.854	444.94
466.073	441.94
466.293	408.94
466.512	402.94
466.732	403.94
466.951	406.94
467.171	405.94
467.391	403.94
467.61	415.94
467.829	406.94
468.049	411.94
468.268	431.94
468.488	400.94
468.707	415.94
468.927	387.94
469.146	394.94
469.365	397.94
469.585	407.94
469.804	403.94
470.023	422.94
470.243	414.94
470.462	427.94
470.681	439.94
470.901	433.94
471.12	413.94
471.339	427.94
471.558	422.94
471.777	410.94
471.997	420.94
472.216	417.94
472.435	458.94
472.654	454.94
472.873	415.94
473.092	427.94
473.311	413.94
473.53	405.94
473.749	416.94
473.968	437.94
474.187	472.94
474.406	482.94
474.625	448.94
474.844	409.94
475.063	406.94
475.282	390.94
475.501	406.94
475.72	402.94
475.939	392.94
476.158	388.94
476.377	397.94
476.596	417.94
476.814	429.94
477.033	444.94
477.252	404.94
477.471	420.94
477.69	426.94
477.908	438.94
478.127	456.94
478.346	447.94
478.564	470.94
478.783	440.94
479.002	475.94
479.22	489.94
479.439	477.94
479.658	497.94
479.876	505.94
480.095	503.94
480.313	525.94
480.532	508.94
480.751	503.94
480.969	531.94
481.188	617.94
481.406	660.94
481.624	549.94
481.843	515.94
482.061	472.94
482.28	494.94
482.498	476.94
482.717	487.94
482.935	474.94
483.153	453.94
483.372	465.94
483.59	459.94
483.808	475.94
484.027	456.94
484.245	460.94
484.463	469.94
484.681	463.94
484.9	466.94
485.118	463.94
485.336	470.94
485.554	476.94
485.772	476.94
485.99	475.94
486.209	483.94
486.427	466.94
486.645	507.94
486.863	471.94
487.081	492.94
487.299	523.94
487.517	495.94
487.735	476.94
487.953	462.94
488.171	463.94
488.389	498.94
488.607	485.94
488.825	496.94
489.043	492.94
489.261	491.94
489.479	483.94
489.696	488.94
489.914	493.94
490.132	509.94
490.35	537.94
490.568	510.94
490.786	515.94
491.003	513.94
491.221	518.94
491.439	536.94
491.657	533.94
491.874	574.94
492.092	561.94
492.31	575.94
492.527	553.94
492.745	550.94
492.963	575.94
493.18	556.94
493.398	569.94
493.615	575.94
493.833	573.94
494.05	574.94
494.268	549.94
494.485	561.94
494.703	573.94
494.92	565.94
495.138	543.94
495.355	558.94
495.573	551.94
495.79	569.94
496.008	574.94
496.225	573.94
496.442	575.94
496.66	571.94
496.877	556.94
497.094	575.94
497.312	560.94
497.529	572.94
497.746	600.94
497.963	605.94
498.181	606.94
498.398	638.94
498.615	696.94
498.832	684.94
499.049	705.94
499.267	727.94
499.484	793.94
499.701	836.94
499.918	876.94
500.135	981.94
500.352	1044.94
500.569	1098.94
500.786	1081.94
501.003	1075.94
501.22	983.94
501.437	893.94
501.654	865.94
501.871	835.94
502.088	761.94
