Data from 1984.PennyLincolnUp.Lamp.En5.5.200Scan.071819.P1_HRD10591_16-59-50-969.txt Node
Date: Thu Jul 18 16:59:50 EDT 2019
User: cochatt
Spectrometer: HR+D1059
Trigger mode: 1
Integration Time (sec): 1.000000E-1
Scans to average: 1
Electric dark correction enabled: true
Nonlinearity correction enabled: false
Boxcar width: 0
XAxis mode: Wavelengths
Number of Pixels in Spectrum: 2048
>>>>>Begin Spectral Data<<<<<
223.165	-15.06
223.4	-15.06
223.635	-15.06
223.869	-28.06
224.104	-3.06
224.338	-21.06
224.573	-13.06
224.808	-16.06
225.042	-14.06
225.277	-1.06
225.511	-14.06
225.746	-4.06
225.98	8.94
226.215	13.94
226.449	18.94
226.683	23.94
226.918	24.94
227.152	38.94
227.387	22.94
227.621	24.94
227.856	39.94
228.09	53.94
228.324	56.94
228.559	60.94
228.793	77.94
229.027	83.94
229.262	82.94
229.496	100.94
229.73	110.94
229.964	119.94
230.199	100.94
230.433	104.94
230.667	105.94
230.901	113.94
231.136	108.94
231.37	93.94
231.604	100.94
231.838	115.94
232.072	105.94
232.306	101.94
232.541	105.94
232.775	107.94
233.009	119.94
233.243	118.94
233.477	109.94
233.711	105.94
233.945	130.94
234.179	110.94
234.413	104.94
234.647	108.94
234.881	108.94
235.115	115.94
235.349	116.94
235.583	124.94
235.817	122.94
236.051	125.94
236.285	116.94
236.519	111.94
236.753	116.94
236.987	121.94
237.221	141.94
237.455	163.94
237.689	150.94
237.922	131.94
238.156	122.94
238.39	124.94
238.624	121.94
238.858	125.94
239.091	117.94
239.325	104.94
239.559	120.94
239.793	118.94
240.027	126.94
240.26	128.94
240.494	133.94
240.728	122.94
240.961	137.94
241.195	149.94
241.429	133.94
241.662	114.94
241.896	117.94
242.13	118.94
242.363	129.94
242.597	128.94
242.83	124.94
243.064	137.94
243.298	142.94
243.531	138.94
243.765	138.94
243.998	133.94
244.232	138.94
244.465	134.94
244.699	136.94
244.932	126.94
245.166	139.94
245.399	146.94
245.633	155.94
245.866	139.94
246.099	141.94
246.333	144.94
246.566	126.94
246.8	132.94
247.033	146.94
247.266	139.94
247.5	149.94
247.733	145.94
247.966	147.94
248.2	140.94
248.433	157.94
248.666	160.94
248.899	142.94
249.133	173.94
249.366	180.94
249.599	170.94
249.832	173.94
250.066	148.94
250.299	170.94
250.532	202.94
250.765	203.94
250.998	198.94
251.231	198.94
251.465	187.94
251.698	161.94
251.931	182.94
252.164	176.94
252.397	180.94
252.63	188.94
252.863	184.94
253.096	165.94
253.329	192.94
253.562	196.94
253.795	164.94
254.028	181.94
254.261	192.94
254.494	186.94
254.727	214.94
254.96	219.94
255.193	208.94
255.426	214.94
255.659	221.94
255.892	235.94
256.124	266.94
256.357	291.94
256.59	254.94
256.823	222.94
257.056	208.94
257.289	199.94
257.521	185.94
257.754	186.94
257.987	192.94
258.22	208.94
258.452	187.94
258.685	182.94
258.918	190.94
259.151	183.94
259.383	204.94
259.616	194.94
259.849	191.94
260.081	206.94
260.314	217.94
260.547	231.94
260.779	208.94
261.012	204.94
261.244	194.94
261.477	202.94
261.71	205.94
261.942	210.94
262.175	227.94
262.407	196.94
262.64	202.94
262.872	200.94
263.105	196.94
263.337	197.94
263.57	189.94
263.802	190.94
264.035	200.94
264.267	181.94
264.499	187.94
264.732	203.94
264.964	206.94
265.197	211.94
265.429	212.94
265.661	195.94
265.894	195.94
266.126	216.94
266.358	215.94
266.591	203.94
266.823	214.94
267.055	198.94
267.287	213.94
267.52	212.94
267.752	198.94
267.984	216.94
268.216	189.94
268.448	206.94
268.681	209.94
268.913	219.94
269.145	251.94
269.377	243.94
269.609	232.94
269.841	234.94
270.073	237.94
270.306	252.94
270.538	261.94
270.77	275.94
271.002	257.94
271.234	266.94
271.466	244.94
271.698	262.94
271.93	280.94
272.162	267.94
272.394	252.94
272.626	244.94
272.858	259.94
273.09	246.94
273.322	261.94
273.553	244.94
273.785	224.94
274.017	240.94
274.249	247.94
274.481	256.94
274.713	228.94
274.945	248.94
275.176	250.94
275.408	242.94
275.64	234.94
275.872	243.94
276.104	264.94
276.335	254.94
276.567	246.94
276.799	254.94
277.031	277.94
277.262	296.94
277.494	278.94
277.726	276.94
277.957	263.94
278.189	260.94
278.421	262.94
278.652	250.94
278.884	248.94
279.115	235.94
279.347	255.94
279.579	245.94
279.81	267.94
280.042	266.94
280.273	256.94
280.505	250.94
280.736	269.94
280.968	260.94
281.199	254.94
281.431	293.94
281.662	256.94
281.894	248.94
282.125	270.94
282.356	299.94
282.588	281.94
282.819	303.94
283.051	245.94
283.282	260.94
283.513	269.94
283.745	274.94
283.976	281.94
284.207	274.94
284.439	269.94
284.67	275.94
284.901	270.94
285.132	257.94
285.364	285.94
285.595	270.94
285.826	280.94
286.057	277.94
286.288	291.94
286.52	267.94
286.751	284.94
286.982	273.94
287.213	271.94
287.444	269.94
287.675	266.94
287.906	274.94
288.138	275.94
288.369	292.94
288.6	301.94
288.831	288.94
289.062	284.94
289.293	282.94
289.524	289.94
289.755	288.94
289.986	297.94
290.217	294.94
290.448	294.94
290.679	279.94
290.91	286.94
291.141	274.94
291.371	294.94
291.602	284.94
291.833	276.94
292.064	269.94
292.295	280.94
292.526	286.94
292.757	282.94
292.987	308.94
293.218	282.94
293.449	289.94
293.68	288.94
293.91	275.94
294.141	295.94
294.372	273.94
294.603	284.94
294.833	295.94
295.064	298.94
295.295	291.94
295.525	286.94
295.756	286.94
295.987	287.94
296.217	308.94
296.448	328.94
296.679	280.94
296.909	282.94
297.14	305.94
297.37	301.94
297.601	293.94
297.831	309.94
298.062	294.94
298.292	289.94
298.523	283.94
298.753	296.94
298.984	286.94
299.214	307.94
299.445	319.94
299.675	306.94
299.905	301.94
300.136	293.94
300.366	299.94
300.597	287.94
300.827	320.94
301.057	311.94
301.288	307.94
301.518	314.94
301.748	324.94
301.979	314.94
302.209	326.94
302.439	333.94
302.669	310.94
302.9	314.94
303.13	306.94
303.36	334.94
303.59	310.94
303.82	300.94
304.051	314.94
304.281	329.94
304.511	315.94
304.741	323.94
304.971	333.94
305.201	333.94
305.431	327.94
305.661	298.94
305.891	320.94
306.121	320.94
306.352	323.94
306.582	328.94
306.812	320.94
307.042	323.94
307.272	338.94
307.502	324.94
307.731	330.94
307.961	307.94
308.191	335.94
308.421	311.94
308.651	340.94
308.881	332.94
309.111	323.94
309.341	326.94
309.571	327.94
309.8	317.94
310.03	349.94
310.26	329.94
310.49	346.94
310.72	348.94
310.949	359.94
311.179	365.94
311.409	338.94
311.639	343.94
311.868	347.94
312.098	340.94
312.328	356.94
312.557	365.94
312.787	363.94
313.017	350.94
313.246	355.94
313.476	333.94
313.706	368.94
313.935	341.94
314.165	345.94
314.394	354.94
314.624	373.94
314.853	369.94
315.083	345.94
315.312	360.94
315.542	340.94
315.771	345.94
316.001	360.94
316.23	336.94
316.46	368.94
316.689	350.94
316.919	346.94
317.148	345.94
317.377	359.94
317.607	360.94
317.836	339.94
318.065	358.94
318.295	352.94
318.524	349.94
318.753	337.94
318.983	333.94
319.212	348.94
319.441	340.94
319.67	353.94
319.9	352.94
320.129	356.94
320.358	354.94
320.587	354.94
320.816	347.94
321.046	363.94
321.275	377.94
321.504	369.94
321.733	371.94
321.962	355.94
322.191	373.94
322.42	364.94
322.649	388.94
322.878	397.94
323.108	399.94
323.337	404.94
323.566	417.94
323.795	436.94
324.024	463.94
324.253	541.94
324.482	725.94
324.71	1031.94
324.939	1456.94
325.168	1248.94
325.397	735.94
325.626	513.94
325.855	458.94
326.084	424.94
326.313	456.94
326.542	447.94
326.77	468.94
326.999	536.94
327.228	684.94
327.457	960.94
327.686	1144.94
327.914	812.94
328.143	616.94
328.372	575.94
328.6	537.94
328.829	492.94
329.058	489.94
329.287	499.94
329.515	496.94
329.744	487.94
329.972	519.94
330.201	601.94
330.43	648.94
330.658	614.94
330.887	542.94
331.115	516.94
331.344	491.94
331.572	443.94
331.801	449.94
332.03	477.94
332.258	465.94
332.486	456.94
332.715	446.94
332.943	472.94
333.172	498.94
333.4	503.94
333.629	519.94
333.857	554.94
334.085	588.94
334.314	641.94
334.542	726.94
334.771	740.94
334.999	612.94
335.227	520.94
335.455	488.94
335.684	478.94
335.912	460.94
336.14	462.94
336.369	455.94
336.597	430.94
336.825	468.94
337.053	433.94
337.281	427.94
337.51	412.94
337.738	408.94
337.966	413.94
338.194	416.94
338.422	404.94
338.65	407.94
338.878	422.94
339.106	402.94
339.334	385.94
339.562	415.94
339.79	397.94
340.018	410.94
340.246	407.94
340.474	402.94
340.702	387.94
340.93	417.94
341.158	380.94
341.386	388.94
341.614	381.94
341.842	383.94
342.07	389.94
342.298	370.94
342.526	388.94
342.754	383.94
342.981	389.94
343.209	408.94
343.437	401.94
343.665	388.94
343.893	419.94
344.12	427.94
344.348	437.94
344.576	420.94
344.804	405.94
345.031	384.94
345.259	395.94
345.487	397.94
345.714	382.94
345.942	388.94
346.17	390.94
346.397	385.94
346.625	382.94
346.853	383.94
347.08	381.94
347.308	363.94
347.535	366.94
347.763	385.94
347.99	384.94
348.218	378.94
348.445	387.94
348.673	368.94
348.9	380.94
349.128	363.94
349.355	375.94
349.583	366.94
349.81	373.94
350.037	361.94
350.265	342.94
350.492	377.94
350.72	360.94
350.947	355.94
351.174	375.94
351.402	356.94
351.629	382.94
351.856	368.94
352.083	357.94
352.311	389.94
352.538	378.94
352.765	377.94
352.992	374.94
353.22	366.94
353.447	372.94
353.674	376.94
353.901	362.94
354.128	353.94
354.355	353.94
354.583	362.94
354.81	372.94
355.037	360.94
355.264	342.94
355.491	347.94
355.718	333.94
355.945	358.94
356.172	336.94
356.399	344.94
356.626	348.94
356.853	352.94
357.08	340.94
357.307	345.94
357.534	333.94
357.761	350.94
357.988	361.94
358.215	349.94
358.441	355.94
358.668	351.94
358.895	370.94
359.122	353.94
359.349	349.94
359.576	349.94
359.802	358.94
360.029	386.94
360.256	374.94
360.483	394.94
360.709	375.94
360.936	362.94
361.163	371.94
361.39	364.94
361.616	362.94
361.843	374.94
362.07	346.94
362.296	360.94
362.523	361.94
362.749	358.94
362.976	370.94
363.203	371.94
363.429	347.94
363.656	354.94
363.882	353.94
364.109	327.94
364.335	368.94
364.562	358.94
364.788	370.94
365.015	349.94
365.241	337.94
365.468	375.94
365.694	350.94
365.92	364.94
366.147	349.94
366.373	347.94
366.599	345.94
366.826	356.94
367.052	343.94
367.278	372.94
367.505	362.94
367.731	360.94
367.957	355.94
368.184	370.94
368.41	352.94
368.636	363.94
368.862	363.94
369.089	352.94
369.315	361.94
369.541	338.94
369.767	362.94
369.993	359.94
370.219	354.94
370.445	362.94
370.672	335.94
370.898	349.94
371.124	326.94
371.35	368.94
371.576	350.94
371.802	342.94
372.028	360.94
372.254	362.94
372.48	352.94
372.706	369.94
372.932	363.94
373.158	348.94
373.384	362.94
373.61	347.94
373.835	356.94
374.061	354.94
374.287	369.94
374.513	370.94
374.739	377.94
374.965	381.94
375.191	396.94
375.416	392.94
375.642	373.94
375.868	380.94
376.094	384.94
376.319	356.94
376.545	358.94
376.771	368.94
376.997	352.94
377.222	354.94
377.448	373.94
377.674	374.94
377.899	364.94
378.125	358.94
378.35	353.94
378.576	369.94
378.802	359.94
379.027	358.94
379.253	342.94
379.478	354.94
379.704	350.94
379.929	352.94
380.155	333.94
380.38	371.94
380.606	367.94
380.831	371.94
381.057	366.94
381.282	363.94
381.507	357.94
381.733	365.94
381.958	360.94
382.184	344.94
382.409	352.94
382.634	344.94
382.86	348.94
383.085	357.94
383.31	392.94
383.535	372.94
383.761	391.94
383.986	374.94
384.211	372.94
384.436	391.94
384.662	397.94
384.887	419.94
385.112	411.94
385.337	394.94
385.562	404.94
385.787	424.94
386.013	405.94
386.238	420.94
386.463	429.94
386.688	401.94
386.913	408.94
387.138	393.94
387.363	411.94
387.588	383.94
387.813	405.94
388.038	386.94
388.263	419.94
388.488	391.94
388.713	411.94
388.938	397.94
389.163	390.94
389.387	396.94
389.612	396.94
389.837	386.94
390.062	400.94
390.287	406.94
390.512	382.94
390.736	390.94
390.961	384.94
391.186	404.94
391.411	421.94
391.636	428.94
391.86	429.94
392.085	426.94
392.31	442.94
392.534	421.94
392.759	426.94
392.984	414.94
393.208	418.94
393.433	426.94
393.658	409.94
393.882	407.94
394.107	402.94
394.331	409.94
394.556	391.94
394.78	420.94
395.005	414.94
395.229	426.94
395.454	412.94
395.678	434.94
395.903	450.94
396.127	432.94
396.352	445.94
396.576	419.94
396.801	406.94
397.025	416.94
397.249	419.94
397.474	443.94
397.698	453.94
397.922	444.94
398.147	469.94
398.371	454.94
398.595	451.94
398.82	476.94
399.044	519.94
399.268	516.94
399.492	580.94
399.717	630.94
399.941	646.94
400.165	608.94
400.389	580.94
400.613	539.94
400.837	500.94
401.062	493.94
401.286	482.94
401.51	480.94
401.734	493.94
401.958	493.94
402.182	474.94
402.406	481.94
402.63	471.94
402.854	503.94
403.078	514.94
403.302	524.94
403.526	518.94
403.75	504.94
403.974	524.94
404.198	517.94
404.422	534.94
404.645	546.94
404.869	550.94
405.093	585.94
405.317	616.94
405.541	644.94
405.765	568.94
405.988	533.94
406.212	556.94
406.436	538.94
406.66	550.94
406.883	537.94
407.107	594.94
407.331	604.94
407.555	647.94
407.778	654.94
408.002	599.94
408.226	568.94
408.449	556.94
408.673	553.94
408.896	559.94
409.12	549.94
409.344	539.94
409.567	513.94
409.791	509.94
410.014	491.94
410.238	500.94
410.461	502.94
410.685	515.94
410.908	504.94
411.132	499.94
411.355	524.94
411.578	494.94
411.802	486.94
412.025	498.94
412.249	538.94
412.472	539.94
412.695	565.94
412.919	597.94
413.142	545.94
413.365	508.94
413.589	514.94
413.812	490.94
414.035	488.94
414.258	471.94
414.482	467.94
414.705	493.94
414.928	484.94
415.151	464.94
415.374	478.94
415.597	466.94
415.821	462.94
416.044	468.94
416.267	461.94
416.49	474.94
416.713	470.94
416.936	453.94
417.159	470.94
417.382	472.94
417.605	466.94
417.828	456.94
418.051	478.94
418.274	490.94
418.497	457.94
418.72	473.94
418.943	482.94
419.166	500.94
419.389	516.94
419.611	517.94
419.834	514.94
420.057	526.94
420.28	520.94
420.503	522.94
420.726	520.94
420.948	514.94
421.171	546.94
421.394	539.94
421.617	486.94
421.839	470.94
422.062	472.94
422.285	496.94
422.507	521.94
422.73	562.94
422.953	556.94
423.175	516.94
423.398	516.94
423.621	486.94
423.843	483.94
424.066	483.94
424.288	516.94
424.511	518.94
424.733	551.94
424.956	595.94
425.178	578.94
425.401	556.94
425.623	564.94
425.846	512.94
426.068	499.94
426.291	490.94
426.513	476.94
426.735	464.94
426.958	492.94
427.18	564.94
427.402	638.94
427.625	673.94
427.847	611.94
428.069	570.94
428.292	529.94
428.514	473.94
428.736	473.94
428.958	449.94
429.181	424.94
429.403	438.94
429.625	449.94
429.847	473.94
430.069	488.94
430.292	493.94
430.514	445.94
430.736	441.94
430.958	421.94
431.18	428.94
431.402	426.94
431.624	440.94
431.846	426.94
432.068	437.94
432.29	440.94
432.512	432.94
432.734	437.94
432.956	406.94
433.178	436.94
433.4	450.94
433.622	420.94
433.844	420.94
434.066	439.94
434.287	446.94
434.509	442.94
434.731	437.94
434.953	470.94
435.175	458.94
435.397	491.94
435.618	469.94
435.84	514.94
436.062	544.94
436.284	595.94
436.505	510.94
436.727	462.94
436.949	460.94
437.17	425.94
437.392	437.94
437.614	460.94
437.835	477.94
438.057	500.94
438.278	568.94
438.5	548.94
438.721	602.94
438.943	602.94
439.165	479.94
439.386	482.94
439.608	474.94
439.829	460.94
440.05	467.94
440.272	524.94
440.493	486.94
440.715	480.94
440.936	446.94
441.158	443.94
441.379	481.94
441.6	473.94
441.822	482.94
442.043	524.94
442.264	541.94
442.486	569.94
442.707	523.94
442.928	495.94
443.149	482.94
443.371	514.94
443.592	545.94
443.813	560.94
444.034	592.94
444.255	525.94
444.476	517.94
444.698	523.94
444.919	505.94
445.14	605.94
445.361	555.94
445.582	516.94
445.803	534.94
446.024	594.94
446.245	592.94
446.466	544.94
446.687	483.94
446.908	430.94
447.129	454.94
447.35	444.94
447.571	449.94
447.792	436.94
448.013	458.94
448.234	448.94
448.455	462.94
448.675	537.94
448.896	605.94
449.117	534.94
449.338	502.94
449.559	539.94
449.779	637.94
450	536.94
450.221	458.94
450.442	427.94
450.662	408.94
450.883	433.94
451.104	417.94
451.324	409.94
451.545	402.94
451.766	432.94
451.986	403.94
452.207	380.94
452.428	388.94
452.648	399.94
452.869	396.94
453.089	387.94
453.31	393.94
453.53	396.94
453.751	401.94
453.971	410.94
454.192	399.94
454.412	366.94
454.633	400.94
454.853	390.94
455.073	376.94
455.294	405.94
455.514	422.94
455.734	422.94
455.955	376.94
456.175	380.94
456.395	369.94
456.616	356.94
456.836	368.94
457.056	371.94
457.276	354.94
457.497	382.94
457.717	388.94
457.937	375.94
458.157	382.94
458.377	388.94
458.598	395.94
458.818	416.94
459.038	465.94
459.258	476.94
459.478	445.94
459.698	421.94
459.918	425.94
460.138	454.94
460.358	448.94
460.578	449.94
460.798	467.94
461.018	477.94
461.238	445.94
461.458	464.94
461.678	452.94
461.898	476.94
462.118	474.94
462.338	507.94
462.558	473.94
462.777	491.94
462.997	526.94
463.217	554.94
463.437	572.94
463.657	525.94
463.876	513.94
464.096	504.94
464.316	514.94
464.536	527.94
464.755	488.94
464.975	487.94
465.195	501.94
465.414	532.94
465.634	480.94
465.854	460.94
466.073	436.94
466.293	426.94
466.512	406.94
466.732	436.94
466.951	411.94
467.171	404.94
467.391	387.94
467.61	418.94
467.829	409.94
468.049	436.94
468.268	442.94
468.488	410.94
468.707	418.94
468.927	426.94
469.146	378.94
469.365	412.94
469.585	400.94
469.804	409.94
470.023	424.94
470.243	419.94
470.462	425.94
470.681	433.94
470.901	418.94
471.12	428.94
471.339	427.94
471.558	432.94
471.777	430.94
471.997	454.94
472.216	457.94
472.435	536.94
472.654	518.94
472.873	465.94
473.092	440.94
473.311	421.94
473.53	416.94
473.749	420.94
473.968	444.94
474.187	494.94
474.406	480.94
474.625	441.94
474.844	414.94
475.063	381.94
475.282	414.94
475.501	394.94
475.72	426.94
475.939	412.94
476.158	412.94
476.377	416.94
476.596	429.94
476.814	448.94
477.033	446.94
477.252	420.94
477.471	445.94
477.69	434.94
477.908	458.94
478.127	458.94
478.346	454.94
478.564	447.94
478.783	462.94
479.002	455.94
479.22	473.94
479.439	481.94
479.658	507.94
479.876	490.94
480.095	494.94
480.313	553.94
480.532	538.94
480.751	527.94
480.969	547.94
481.188	708.94
481.406	798.94
481.624	644.94
481.843	552.94
482.061	526.94
482.28	494.94
482.498	502.94
482.717	484.94
482.935	468.94
483.153	465.94
483.372	477.94
483.59	470.94
483.808	480.94
484.027	464.94
484.245	469.94
484.463	466.94
484.681	486.94
484.9	469.94
485.118	478.94
485.336	491.94
485.554	488.94
485.772	512.94
485.99	475.94
486.209	465.94
486.427	485.94
486.645	483.94
486.863	504.94
487.081	481.94
487.299	490.94
487.517	497.94
487.735	482.94
487.953	496.94
488.171	498.94
488.389	498.94
488.607	500.94
488.825	520.94
489.043	507.94
489.261	498.94
489.479	497.94
489.696	504.94
489.914	532.94
490.132	526.94
490.35	527.94
490.568	506.94
490.786	536.94
491.003	533.94
491.221	578.94
491.439	563.94
491.657	575.94
491.874	584.94
492.092	573.94
492.31	597.94
492.527	601.94
492.745	575.94
492.963	604.94
493.18	619.94
493.398	605.94
493.615	598.94
493.833	588.94
494.05	592.94
494.268	589.94
494.485	587.94
494.703	577.94
494.92	582.94
495.138	572.94
495.355	587.94
495.573	576.94
495.79	597.94
496.008	571.94
496.225	570.94
496.442	576.94
496.66	568.94
496.877	572.94
497.094	578.94
497.312	581.94
497.529	583.94
497.746	632.94
497.963	606.94
498.181	644.94
498.398	658.94
498.615	672.94
498.832	701.94
499.049	722.94
499.267	776.94
499.484	827.94
499.701	865.94
499.918	918.94
500.135	966.94
500.352	1045.94
500.569	1081.94
500.786	1117.94
501.003	1072.94
501.22	974.94
501.437	922.94
501.654	862.94
501.871	834.94
