Data from 1984.PennyLincolnUp.Lamp.En5.5.200Scan.071819.P1_HRD10591_16-58-18-968.txt Node
Date: Thu Jul 18 16:58:18 EDT 2019
User: cochatt
Spectrometer: HR+D1059
Trigger mode: 1
Integration Time (sec): 1.000000E-1
Scans to average: 1
Electric dark correction enabled: true
Nonlinearity correction enabled: false
Boxcar width: 0
XAxis mode: Wavelengths
Number of Pixels in Spectrum: 2048
>>>>>Begin Spectral Data<<<<<
223.165	-14.69
223.4	-14.69
223.635	-14.69
223.869	-18.69
224.104	-29.69
224.338	-13.69
224.573	-25.69
224.808	-18.69
225.042	2.31
225.277	-2.69
225.511	1.31
225.746	7.31
225.98	4.31
226.215	13.31
226.449	15.31
226.683	19.31
226.918	37.31
227.152	23.31
227.387	33.31
227.621	41.31
227.856	43.31
228.09	51.31
228.324	56.31
228.559	43.31
228.793	61.31
229.027	77.31
229.262	94.31
229.496	98.31
229.73	109.31
229.964	114.31
230.199	111.31
230.433	99.31
230.667	104.31
230.901	99.31
231.136	105.31
231.37	115.31
231.604	98.31
231.838	110.31
232.072	106.31
232.306	108.31
232.541	115.31
232.775	116.31
233.009	110.31
233.243	99.31
233.477	118.31
233.711	125.31
233.945	109.31
234.179	107.31
234.413	111.31
234.647	114.31
234.881	117.31
235.115	104.31
235.349	117.31
235.583	113.31
235.817	105.31
236.051	125.31
236.285	113.31
236.519	108.31
236.753	107.31
236.987	123.31
237.221	138.31
237.455	164.31
237.689	153.31
237.922	118.31
238.156	122.31
238.39	121.31
238.624	111.31
238.858	103.31
239.091	129.31
239.325	108.31
239.559	108.31
239.793	120.31
240.027	124.31
240.26	125.31
240.494	143.31
240.728	139.31
240.961	131.31
241.195	129.31
241.429	135.31
241.662	127.31
241.896	126.31
242.13	145.31
242.363	118.31
242.597	133.31
242.83	124.31
243.064	122.31
243.298	136.31
243.531	125.31
243.765	139.31
243.998	127.31
244.232	122.31
244.465	123.31
244.699	140.31
244.932	134.31
245.166	135.31
245.399	135.31
245.633	133.31
245.866	130.31
246.099	123.31
246.333	143.31
246.566	134.31
246.8	135.31
247.033	130.31
247.266	140.31
247.5	150.31
247.733	137.31
247.966	145.31
248.2	153.31
248.433	158.31
248.666	160.31
248.899	169.31
249.133	167.31
249.366	181.31
249.599	165.31
249.832	168.31
250.066	156.31
250.299	167.31
250.532	173.31
250.765	176.31
250.998	201.31
251.231	181.31
251.465	185.31
251.698	183.31
251.931	181.31
252.164	158.31
252.397	175.31
252.63	174.31
252.863	177.31
253.096	193.31
253.329	184.31
253.562	187.31
253.795	183.31
254.028	193.31
254.261	192.31
254.494	193.31
254.727	193.31
254.96	214.31
255.193	209.31
255.426	198.31
255.659	205.31
255.892	216.31
256.124	222.31
256.357	226.31
256.59	211.31
256.823	186.31
257.056	191.31
257.289	195.31
257.521	194.31
257.754	183.31
257.987	172.31
258.22	199.31
258.452	187.31
258.685	182.31
258.918	190.31
259.151	198.31
259.383	188.31
259.616	203.31
259.849	204.31
260.081	201.31
260.314	195.31
260.547	203.31
260.779	191.31
261.012	201.31
261.244	205.31
261.477	198.31
261.71	193.31
261.942	194.31
262.175	208.31
262.407	197.31
262.64	178.31
262.872	179.31
263.105	182.31
263.337	194.31
263.57	203.31
263.802	193.31
264.035	206.31
264.267	193.31
264.499	188.31
264.732	186.31
264.964	200.31
265.197	207.31
265.429	194.31
265.661	194.31
265.894	198.31
266.126	204.31
266.358	197.31
266.591	219.31
266.823	204.31
267.055	200.31
267.287	211.31
267.52	207.31
267.752	210.31
267.984	214.31
268.216	203.31
268.448	216.31
268.681	236.31
268.913	221.31
269.145	223.31
269.377	235.31
269.609	222.31
269.841	246.31
270.073	261.31
270.306	245.31
270.538	252.31
270.77	242.31
271.002	266.31
271.234	237.31
271.466	247.31
271.698	253.31
271.93	249.31
272.162	263.31
272.394	252.31
272.626	268.31
272.858	249.31
273.09	233.31
273.322	251.31
273.553	245.31
273.785	233.31
274.017	219.31
274.249	223.31
274.481	230.31
274.713	241.31
274.945	256.31
275.176	222.31
275.408	242.31
275.64	248.31
275.872	247.31
276.104	229.31
276.335	244.31
276.567	271.31
276.799	265.31
277.031	259.31
277.262	265.31
277.494	279.31
277.726	269.31
277.957	261.31
278.189	253.31
278.421	247.31
278.652	234.31
278.884	266.31
279.115	249.31
279.347	261.31
279.579	261.31
279.81	254.31
280.042	250.31
280.273	244.31
280.505	261.31
280.736	244.31
280.968	264.31
281.199	245.31
281.431	250.31
281.662	263.31
281.894	251.31
282.125	263.31
282.356	281.31
282.588	283.31
282.819	274.31
283.051	250.31
283.282	262.31
283.513	256.31
283.745	260.31
283.976	276.31
284.207	258.31
284.439	270.31
284.67	266.31
284.901	260.31
285.132	273.31
285.364	286.31
285.595	265.31
285.826	278.31
286.057	266.31
286.288	246.31
286.52	275.31
286.751	258.31
286.982	275.31
287.213	286.31
287.444	269.31
287.675	272.31
287.906	293.31
288.138	296.31
288.369	285.31
288.6	270.31
288.831	277.31
289.062	298.31
289.293	279.31
289.524	274.31
289.755	275.31
289.986	270.31
290.217	287.31
290.448	288.31
290.679	287.31
290.91	277.31
291.141	281.31
291.371	278.31
291.602	279.31
291.833	276.31
292.064	293.31
292.295	278.31
292.526	286.31
292.757	280.31
292.987	284.31
293.218	281.31
293.449	292.31
293.68	278.31
293.91	288.31
294.141	297.31
294.372	279.31
294.603	279.31
294.833	282.31
295.064	298.31
295.295	284.31
295.525	277.31
295.756	296.31
295.987	292.31
296.217	307.31
296.448	309.31
296.679	315.31
296.909	301.31
297.14	307.31
297.37	289.31
297.601	293.31
297.831	297.31
298.062	283.31
298.292	284.31
298.523	290.31
298.753	287.31
298.984	299.31
299.214	303.31
299.445	298.31
299.675	304.31
299.905	309.31
300.136	320.31
300.366	300.31
300.597	302.31
300.827	309.31
301.057	311.31
301.288	309.31
301.518	296.31
301.748	303.31
301.979	305.31
302.209	327.31
302.439	306.31
302.669	318.31
302.9	316.31
303.13	305.31
303.36	322.31
303.59	323.31
303.82	324.31
304.051	322.31
304.281	314.31
304.511	331.31
304.741	309.31
304.971	300.31
305.201	311.31
305.431	312.31
305.661	319.31
305.891	319.31
306.121	325.31
306.352	313.31
306.582	312.31
306.812	315.31
307.042	310.31
307.272	317.31
307.502	326.31
307.731	313.31
307.961	301.31
308.191	320.31
308.421	315.31
308.651	329.31
308.881	335.31
309.111	323.31
309.341	315.31
309.571	318.31
309.8	305.31
310.03	337.31
310.26	350.31
310.49	359.31
310.72	356.31
310.949	358.31
311.179	323.31
311.409	332.31
311.639	342.31
311.868	348.31
312.098	334.31
312.328	350.31
312.557	360.31
312.787	347.31
313.017	361.31
313.246	349.31
313.476	347.31
313.706	361.31
313.935	346.31
314.165	353.31
314.394	335.31
314.624	330.31
314.853	349.31
315.083	355.31
315.312	339.31
315.542	358.31
315.771	345.31
316.001	347.31
316.23	351.31
316.46	342.31
316.689	354.31
316.919	330.31
317.148	358.31
317.377	355.31
317.607	370.31
317.836	339.31
318.065	347.31
318.295	350.31
318.524	363.31
318.753	352.31
318.983	342.31
319.212	354.31
319.441	356.31
319.67	358.31
319.9	354.31
320.129	364.31
320.358	335.31
320.587	358.31
320.816	356.31
321.046	358.31
321.275	355.31
321.504	362.31
321.733	365.31
321.962	371.31
322.191	373.31
322.42	389.31
322.649	374.31
322.878	369.31
323.108	383.31
323.337	399.31
323.566	413.31
323.795	423.31
324.024	461.31
324.253	515.31
324.482	689.31
324.71	981.31
324.939	1371.31
325.168	1189.31
325.397	670.31
325.626	533.31
325.855	457.31
326.084	437.31
326.313	414.31
326.542	433.31
326.77	471.31
326.999	529.31
327.228	623.31
327.457	910.31
327.686	1040.31
327.914	775.31
328.143	567.31
328.372	505.31
328.6	494.31
328.829	461.31
329.058	472.31
329.287	453.31
329.515	445.31
329.744	447.31
329.972	475.31
330.201	477.31
330.43	491.31
330.658	504.31
330.887	506.31
331.115	502.31
331.344	438.31
331.572	423.31
331.801	435.31
332.03	438.31
332.258	433.31
332.486	425.31
332.715	423.31
332.943	426.31
333.172	446.31
333.4	444.31
333.629	457.31
333.857	487.31
334.085	515.31
334.314	514.31
334.542	554.31
334.771	556.31
334.999	509.31
335.227	476.31
335.455	456.31
335.684	476.31
335.912	441.31
336.14	435.31
336.369	436.31
336.597	415.31
336.825	423.31
337.053	411.31
337.281	397.31
337.51	407.31
337.738	407.31
337.966	393.31
338.194	403.31
338.422	407.31
338.65	399.31
338.878	373.31
339.106	380.31
339.334	409.31
339.562	382.31
339.79	386.31
340.018	395.31
340.246	413.31
340.474	384.31
340.702	396.31
340.93	408.31
341.158	390.31
341.386	393.31
341.614	385.31
341.842	377.31
342.07	377.31
342.298	391.31
342.526	408.31
342.754	384.31
342.981	371.31
343.209	395.31
343.437	389.31
343.665	399.31
343.893	417.31
344.12	434.31
344.348	426.31
344.576	428.31
344.804	383.31
345.031	392.31
345.259	395.31
345.487	389.31
345.714	380.31
345.942	374.31
346.17	377.31
346.397	380.31
346.625	359.31
346.853	366.31
347.08	375.31
347.308	356.31
347.535	353.31
347.763	363.31
347.99	381.31
348.218	387.31
348.445	381.31
348.673	375.31
348.9	371.31
349.128	383.31
349.355	358.31
349.583	365.31
349.81	359.31
350.037	358.31
350.265	362.31
350.492	377.31
350.72	353.31
350.947	343.31
351.174	367.31
351.402	354.31
351.629	350.31
351.856	358.31
352.083	361.31
352.311	385.31
352.538	360.31
352.765	366.31
352.992	371.31
353.22	367.31
353.447	350.31
353.674	362.31
353.901	361.31
354.128	367.31
354.355	337.31
354.583	346.31
354.81	355.31
355.037	365.31
355.264	354.31
355.491	354.31
355.718	341.31
355.945	347.31
356.172	346.31
356.399	333.31
356.626	349.31
356.853	356.31
357.08	339.31
357.307	345.31
357.534	352.31
357.761	353.31
357.988	343.31
358.215	365.31
358.441	350.31
358.668	362.31
358.895	358.31
359.122	359.31
359.349	347.31
359.576	361.31
359.802	370.31
360.029	375.31
360.256	385.31
360.483	377.31
360.709	360.31
360.936	360.31
361.163	377.31
361.39	365.31
361.616	363.31
361.843	372.31
362.07	377.31
362.296	377.31
362.523	357.31
362.749	348.31
362.976	339.31
363.203	345.31
363.429	337.31
363.656	341.31
363.882	357.31
364.109	347.31
364.335	346.31
364.562	347.31
364.788	338.31
365.015	334.31
365.241	346.31
365.468	365.31
365.694	349.31
365.92	342.31
366.147	346.31
366.373	338.31
366.599	358.31
366.826	329.31
367.052	353.31
367.278	347.31
367.505	351.31
367.731	347.31
367.957	342.31
368.184	340.31
368.41	319.31
368.636	349.31
368.862	351.31
369.089	371.31
369.315	353.31
369.541	352.31
369.767	348.31
369.993	345.31
370.219	344.31
370.445	346.31
370.672	358.31
370.898	346.31
371.124	345.31
371.35	374.31
371.576	362.31
371.802	365.31
372.028	367.31
372.254	367.31
372.48	343.31
372.706	364.31
372.932	371.31
373.158	366.31
373.384	339.31
373.61	339.31
373.835	359.31
374.061	370.31
374.287	361.31
374.513	372.31
374.739	364.31
374.965	384.31
375.191	379.31
375.416	378.31
375.642	372.31
375.868	383.31
376.094	385.31
376.319	352.31
376.545	371.31
376.771	374.31
376.997	360.31
377.222	362.31
377.448	356.31
377.674	349.31
377.899	345.31
378.125	343.31
378.35	357.31
378.576	351.31
378.802	344.31
379.027	373.31
379.253	342.31
379.478	332.31
379.704	355.31
379.929	352.31
380.155	357.31
380.38	347.31
380.606	378.31
380.831	371.31
381.057	366.31
381.282	384.31
381.507	366.31
381.733	378.31
381.958	359.31
382.184	339.31
382.409	373.31
382.634	365.31
382.86	364.31
383.085	370.31
383.31	358.31
383.535	379.31
383.761	362.31
383.986	370.31
384.211	379.31
384.436	404.31
384.662	415.31
384.887	409.31
385.112	397.31
385.337	407.31
385.562	407.31
385.787	407.31
386.013	411.31
386.238	394.31
386.463	386.31
386.688	401.31
386.913	395.31
387.138	410.31
387.363	379.31
387.588	380.31
387.813	390.31
388.038	381.31
388.263	411.31
388.488	402.31
388.713	412.31
388.938	397.31
389.163	394.31
389.387	389.31
389.612	396.31
389.837	404.31
390.062	411.31
390.287	394.31
390.512	399.31
390.736	417.31
390.961	391.31
391.186	404.31
391.411	407.31
391.636	422.31
391.86	409.31
392.085	456.31
392.31	439.31
392.534	433.31
392.759	433.31
392.984	424.31
393.208	407.31
393.433	421.31
393.658	407.31
393.882	414.31
394.107	391.31
394.331	403.31
394.556	410.31
394.78	397.31
395.005	417.31
395.229	412.31
395.454	410.31
395.678	418.31
395.903	430.31
396.127	431.31
396.352	451.31
396.576	405.31
396.801	417.31
397.025	416.31
397.249	424.31
397.474	408.31
397.698	426.31
397.922	443.31
398.147	465.31
398.371	469.31
398.595	464.31
398.82	474.31
399.044	468.31
399.268	498.31
399.492	565.31
399.717	637.31
399.941	637.31
400.165	607.31
400.389	594.31
400.613	513.31
400.837	488.31
401.062	494.31
401.286	481.31
401.51	461.31
401.734	492.31
401.958	483.31
402.182	478.31
402.406	491.31
402.63	477.31
402.854	489.31
403.078	483.31
403.302	511.31
403.526	515.31
403.75	504.31
403.974	516.31
404.198	520.31
404.422	511.31
404.645	503.31
404.869	522.31
405.093	552.31
405.317	554.31
405.541	595.31
405.765	542.31
405.988	516.31
406.212	517.31
406.436	517.31
406.66	540.31
406.883	523.31
407.107	549.31
407.331	570.31
407.555	637.31
407.778	629.31
408.002	599.31
408.226	573.31
408.449	533.31
408.673	537.31
408.896	555.31
409.12	558.31
409.344	545.31
409.567	531.31
409.791	487.31
410.014	493.31
410.238	515.31
410.461	493.31
410.685	499.31
410.908	492.31
411.132	513.31
411.355	542.31
411.578	519.31
411.802	492.31
412.025	487.31
412.249	490.31
412.472	525.31
412.695	538.31
412.919	531.31
413.142	495.31
413.365	484.31
413.589	478.31
413.812	462.31
414.035	490.31
414.258	446.31
414.482	462.31
414.705	485.31
414.928	451.31
415.151	459.31
415.374	455.31
415.597	465.31
415.821	446.31
416.044	451.31
416.267	461.31
416.49	443.31
416.713	461.31
416.936	450.31
417.159	446.31
417.382	454.31
417.605	469.31
417.828	460.31
418.051	478.31
418.274	476.31
418.497	455.31
418.72	454.31
418.943	451.31
419.166	482.31
419.389	520.31
419.611	508.31
419.834	503.31
420.057	494.31
420.28	490.31
420.503	454.31
420.726	493.31
420.948	507.31
421.171	499.31
421.394	538.31
421.617	486.31
421.839	477.31
422.062	490.31
422.285	475.31
422.507	504.31
422.73	558.31
422.953	527.31
423.175	507.31
423.398	490.31
423.621	494.31
423.843	491.31
424.066	495.31
424.288	515.31
424.511	516.31
424.733	518.31
424.956	591.31
425.178	571.31
425.401	542.31
425.623	571.31
425.846	506.31
426.068	456.31
426.291	449.31
426.513	470.31
426.735	470.31
426.958	502.31
427.18	541.31
427.402	610.31
427.625	650.31
427.847	605.31
428.069	555.31
428.292	499.31
428.514	470.31
428.736	465.31
428.958	445.31
429.181	433.31
429.403	427.31
429.625	428.31
429.847	465.31
430.069	499.31
430.292	484.31
430.514	459.31
430.736	439.31
430.958	421.31
431.18	422.31
431.402	441.31
431.624	431.31
431.846	441.31
432.068	419.31
432.29	430.31
432.512	417.31
432.734	435.31
432.956	409.31
433.178	419.31
433.4	417.31
433.622	438.31
433.844	427.31
434.066	422.31
434.287	435.31
434.509	437.31
434.731	450.31
434.953	448.31
435.175	445.31
435.397	478.31
435.618	466.31
435.84	497.31
436.062	543.31
436.284	576.31
436.505	486.31
436.727	459.31
436.949	453.31
437.17	426.31
437.392	459.31
437.614	426.31
437.835	449.31
438.057	499.31
438.278	553.31
438.5	572.31
438.721	575.31
438.943	581.31
439.165	505.31
439.386	475.31
439.608	454.31
439.829	467.31
440.05	463.31
440.272	470.31
440.493	497.31
440.715	451.31
440.936	448.31
441.158	450.31
441.379	444.31
441.6	462.31
441.822	469.31
442.043	521.31
442.264	528.31
442.486	540.31
442.707	492.31
442.928	492.31
443.149	463.31
443.371	499.31
443.592	524.31
443.813	578.31
444.034	617.31
444.255	550.31
444.476	502.31
444.698	484.31
444.919	535.31
445.14	604.31
445.361	549.31
445.582	500.31
445.803	517.31
446.024	582.31
446.245	575.31
446.466	547.31
446.687	463.31
446.908	455.31
447.129	442.31
447.35	437.31
447.571	433.31
447.792	418.31
448.013	417.31
448.234	432.31
448.455	441.31
448.675	523.31
448.896	578.31
449.117	501.31
449.338	473.31
449.559	549.31
449.779	608.31
450	491.31
450.221	418.31
450.442	419.31
450.662	399.31
450.883	399.31
451.104	405.31
451.324	384.31
451.545	387.31
451.766	400.31
451.986	387.31
452.207	397.31
452.428	387.31
452.648	387.31
452.869	404.31
453.089	393.31
453.31	399.31
453.53	397.31
453.751	376.31
453.971	403.31
454.192	398.31
454.412	403.31
454.633	380.31
454.853	385.31
455.073	380.31
455.294	383.31
455.514	422.31
455.734	429.31
455.955	384.31
456.175	377.31
456.395	362.31
456.616	352.31
456.836	365.31
457.056	376.31
457.276	339.31
457.497	363.31
457.717	364.31
457.937	356.31
458.157	380.31
458.377	396.31
458.598	394.31
458.818	423.31
459.038	462.31
459.258	492.31
459.478	439.31
459.698	425.31
459.918	446.31
460.138	464.31
460.358	479.31
460.578	461.31
460.798	462.31
461.018	470.31
461.238	458.31
461.458	451.31
461.678	467.31
461.898	463.31
462.118	472.31
462.338	490.31
462.558	481.31
462.777	491.31
462.997	528.31
463.217	550.31
463.437	531.31
463.657	531.31
463.876	516.31
464.096	510.31
464.316	488.31
464.536	520.31
464.755	494.31
464.975	494.31
465.195	485.31
465.414	509.31
465.634	476.31
465.854	443.31
466.073	434.31
466.293	417.31
466.512	430.31
466.732	419.31
466.951	406.31
467.171	410.31
467.391	399.31
467.61	411.31
467.829	402.31
468.049	410.31
468.268	426.31
468.488	390.31
468.707	404.31
468.927	405.31
469.146	392.31
469.365	397.31
469.585	390.31
469.804	428.31
470.023	421.31
470.243	412.31
470.462	425.31
470.681	417.31
470.901	412.31
471.12	420.31
471.339	407.31
471.558	412.31
471.777	397.31
471.997	403.31
472.216	417.31
472.435	461.31
472.654	442.31
472.873	421.31
473.092	413.31
473.311	399.31
473.53	385.31
473.749	407.31
473.968	409.31
474.187	471.31
474.406	486.31
474.625	445.31
474.844	406.31
475.063	398.31
475.282	399.31
475.501	397.31
475.72	396.31
475.939	422.31
476.158	403.31
476.377	401.31
476.596	418.31
476.814	418.31
477.033	424.31
477.252	421.31
477.471	438.31
477.69	445.31
477.908	449.31
478.127	458.31
478.346	443.31
478.564	457.31
478.783	444.31
479.002	492.31
479.22	488.31
479.439	465.31
479.658	478.31
479.876	483.31
480.095	493.31
480.313	527.31
480.532	529.31
480.751	499.31
480.969	522.31
481.188	545.31
481.406	602.31
481.624	523.31
481.843	506.31
482.061	473.31
482.28	455.31
482.498	447.31
482.717	466.31
482.935	462.31
483.153	471.31
483.372	449.31
483.59	459.31
483.808	455.31
484.027	439.31
484.245	462.31
484.463	467.31
484.681	476.31
484.9	473.31
485.118	466.31
485.336	458.31
485.554	488.31
485.772	461.31
485.99	463.31
486.209	484.31
486.427	457.31
486.645	485.31
486.863	479.31
487.081	492.31
487.299	478.31
487.517	466.31
487.735	480.31
487.953	484.31
488.171	486.31
488.389	480.31
488.607	480.31
488.825	475.31
489.043	463.31
489.261	495.31
489.479	490.31
489.696	490.31
489.914	487.31
490.132	489.31
490.35	499.31
490.568	509.31
490.786	523.31
491.003	511.31
491.221	521.31
491.439	533.31
491.657	537.31
491.874	546.31
492.092	519.31
492.31	561.31
492.527	558.31
492.745	558.31
492.963	553.31
493.18	549.31
493.398	563.31
493.615	551.31
493.833	571.31
494.05	553.31
494.268	545.31
494.485	558.31
494.703	524.31
494.92	546.31
495.138	577.31
495.355	573.31
495.573	563.31
495.79	518.31
496.008	542.31
496.225	568.31
496.442	564.31
496.66	566.31
496.877	567.31
497.094	574.31
497.312	574.31
497.529	581.31
497.746	594.31
497.963	598.31
498.181	632.31
498.398	628.31
498.615	661.31
498.832	641.31
499.049	703.31
499.267	751.31
499.484	773.31
499.701	835.31
499.918	903.31
500.135	951.31
500.352	1030.31
500.569	1089.31
500.786	1063.31
501.003	1062.31
501.22	992.31
501.437	901.31
501.654	857.31
501.871	787.31
502.088	746.31
