Data from 1984.PennyLincolnUp.Lamp.En5.5.200Scan.071819.P1_HRD10591_16-58-38-971.txt Node
Date: Thu Jul 18 16:58:38 EDT 2019
User: cochatt
Spectrometer: HR+D1059
Trigger mode: 1
Integration Time (sec): 1.000000E-1
Scans to average: 1
Electric dark correction enabled: true
Nonlinearity correction enabled: false
Boxcar width: 0
XAxis mode: Wavelengths
Number of Pixels in Spectrum: 2048
>>>>>Begin Spectral Data<<<<<
223.165	-7.69
223.4	-7.69
223.635	-7.69
223.869	-19.69
224.104	-12.69
224.338	-26.69
224.573	-17.69
224.808	-19.69
225.042	-10.69
225.277	-2.69
225.511	1.31
225.746	12.31
225.98	15.31
226.215	3.31
226.449	17.31
226.683	27.31
226.918	21.31
227.152	19.31
227.387	33.31
227.621	39.31
227.856	47.31
228.09	51.31
228.324	35.31
228.559	50.31
228.793	52.31
229.027	102.31
229.262	73.31
229.496	106.31
229.73	107.31
229.964	126.31
230.199	122.31
230.433	101.31
230.667	105.31
230.901	113.31
231.136	108.31
231.37	108.31
231.604	108.31
231.838	103.31
232.072	102.31
232.306	108.31
232.541	115.31
232.775	117.31
233.009	92.31
233.243	119.31
233.477	114.31
233.711	100.31
233.945	117.31
234.179	116.31
234.413	117.31
234.647	119.31
234.881	110.31
235.115	95.31
235.349	121.31
235.583	122.31
235.817	120.31
236.051	118.31
236.285	103.31
236.519	109.31
236.753	129.31
236.987	128.31
237.221	138.31
237.455	183.31
237.689	151.31
237.922	131.31
238.156	119.31
238.39	118.31
238.624	124.31
238.858	119.31
239.091	114.31
239.325	115.31
239.559	133.31
239.793	111.31
240.027	147.31
240.26	135.31
240.494	137.31
240.728	134.31
240.961	130.31
241.195	141.31
241.429	133.31
241.662	122.31
241.896	119.31
242.13	123.31
242.363	132.31
242.597	125.31
242.83	126.31
243.064	123.31
243.298	125.31
243.531	136.31
243.765	122.31
243.998	121.31
244.232	117.31
244.465	137.31
244.699	137.31
244.932	125.31
245.166	134.31
245.399	155.31
245.633	127.31
245.866	141.31
246.099	131.31
246.333	137.31
246.566	141.31
246.8	133.31
247.033	143.31
247.266	130.31
247.5	141.31
247.733	145.31
247.966	133.31
248.2	158.31
248.433	137.31
248.666	159.31
248.899	154.31
249.133	178.31
249.366	185.31
249.599	166.31
249.832	171.31
250.066	163.31
250.299	177.31
250.532	191.31
250.765	211.31
250.998	193.31
251.231	209.31
251.465	192.31
251.698	184.31
251.931	193.31
252.164	182.31
252.397	165.31
252.63	181.31
252.863	175.31
253.096	198.31
253.329	201.31
253.562	187.31
253.795	192.31
254.028	204.31
254.261	187.31
254.494	191.31
254.727	207.31
254.96	229.31
255.193	220.31
255.426	210.31
255.659	197.31
255.892	211.31
256.124	243.31
256.357	259.31
256.59	232.31
256.823	203.31
257.056	190.31
257.289	185.31
257.521	187.31
257.754	186.31
257.987	204.31
258.22	205.31
258.452	189.31
258.685	195.31
258.918	168.31
259.151	185.31
259.383	183.31
259.616	191.31
259.849	211.31
260.081	207.31
260.314	217.31
260.547	219.31
260.779	230.31
261.012	198.31
261.244	202.31
261.477	202.31
261.71	197.31
261.942	206.31
262.175	208.31
262.407	195.31
262.64	190.31
262.872	198.31
263.105	194.31
263.337	198.31
263.57	213.31
263.802	203.31
264.035	205.31
264.267	194.31
264.499	200.31
264.732	222.31
264.964	218.31
265.197	197.31
265.429	212.31
265.661	201.31
265.894	198.31
266.126	210.31
266.358	211.31
266.591	207.31
266.823	202.31
267.055	211.31
267.287	214.31
267.52	207.31
267.752	205.31
267.984	219.31
268.216	216.31
268.448	219.31
268.681	237.31
268.913	233.31
269.145	224.31
269.377	222.31
269.609	225.31
269.841	236.31
270.073	236.31
270.306	267.31
270.538	261.31
270.77	271.31
271.002	261.31
271.234	259.31
271.466	257.31
271.698	278.31
271.93	280.31
272.162	266.31
272.394	283.31
272.626	266.31
272.858	266.31
273.09	257.31
273.322	259.31
273.553	253.31
273.785	234.31
274.017	248.31
274.249	241.31
274.481	239.31
274.713	245.31
274.945	245.31
275.176	238.31
275.408	269.31
275.64	268.31
275.872	255.31
276.104	241.31
276.335	263.31
276.567	269.31
276.799	270.31
277.031	279.31
277.262	275.31
277.494	279.31
277.726	277.31
277.957	244.31
278.189	270.31
278.421	267.31
278.652	268.31
278.884	265.31
279.115	260.31
279.347	260.31
279.579	263.31
279.81	270.31
280.042	271.31
280.273	272.31
280.505	262.31
280.736	259.31
280.968	259.31
281.199	271.31
281.431	267.31
281.662	266.31
281.894	266.31
282.125	264.31
282.356	252.31
282.588	296.31
282.819	283.31
283.051	269.31
283.282	265.31
283.513	267.31
283.745	263.31
283.976	261.31
284.207	265.31
284.439	262.31
284.67	278.31
284.901	281.31
285.132	271.31
285.364	269.31
285.595	265.31
285.826	261.31
286.057	278.31
286.288	275.31
286.52	263.31
286.751	280.31
286.982	285.31
287.213	291.31
287.444	274.31
287.675	268.31
287.906	297.31
288.138	290.31
288.369	285.31
288.6	285.31
288.831	275.31
289.062	299.31
289.293	287.31
289.524	289.31
289.755	287.31
289.986	294.31
290.217	291.31
290.448	285.31
290.679	306.31
290.91	299.31
291.141	275.31
291.371	289.31
291.602	269.31
291.833	293.31
292.064	263.31
292.295	277.31
292.526	279.31
292.757	286.31
292.987	282.31
293.218	293.31
293.449	294.31
293.68	290.31
293.91	266.31
294.141	287.31
294.372	289.31
294.603	296.31
294.833	288.31
295.064	298.31
295.295	289.31
295.525	297.31
295.756	294.31
295.987	275.31
296.217	326.31
296.448	305.31
296.679	295.31
296.909	294.31
297.14	297.31
297.37	327.31
297.601	294.31
297.831	297.31
298.062	302.31
298.292	291.31
298.523	315.31
298.753	306.31
298.984	301.31
299.214	294.31
299.445	300.31
299.675	285.31
299.905	311.31
300.136	309.31
300.366	299.31
300.597	306.31
300.827	301.31
301.057	321.31
301.288	299.31
301.518	311.31
301.748	328.31
301.979	319.31
302.209	347.31
302.439	325.31
302.669	330.31
302.9	329.31
303.13	302.31
303.36	322.31
303.59	327.31
303.82	336.31
304.051	341.31
304.281	323.31
304.511	316.31
304.741	334.31
304.971	322.31
305.201	315.31
305.431	336.31
305.661	312.31
305.891	327.31
306.121	321.31
306.352	336.31
306.582	328.31
306.812	297.31
307.042	325.31
307.272	315.31
307.502	322.31
307.731	336.31
307.961	307.31
308.191	317.31
308.421	335.31
308.651	331.31
308.881	327.31
309.111	318.31
309.341	324.31
309.571	332.31
309.8	318.31
310.03	355.31
310.26	330.31
310.49	329.31
310.72	348.31
310.949	336.31
311.179	362.31
311.409	346.31
311.639	344.31
311.868	348.31
312.098	364.31
312.328	369.31
312.557	367.31
312.787	366.31
313.017	356.31
313.246	362.31
313.476	350.31
313.706	381.31
313.935	364.31
314.165	354.31
314.394	375.31
314.624	379.31
314.853	367.31
315.083	362.31
315.312	334.31
315.542	350.31
315.771	335.31
316.001	330.31
316.23	350.31
316.46	356.31
316.689	369.31
316.919	356.31
317.148	360.31
317.377	350.31
317.607	349.31
317.836	360.31
318.065	346.31
318.295	357.31
318.524	353.31
318.753	347.31
318.983	351.31
319.212	360.31
319.441	350.31
319.67	346.31
319.9	365.31
320.129	373.31
320.358	344.31
320.587	347.31
320.816	348.31
321.046	368.31
321.275	377.31
321.504	360.31
321.733	371.31
321.962	367.31
322.191	372.31
322.42	381.31
322.649	391.31
322.878	393.31
323.108	403.31
323.337	379.31
323.566	405.31
323.795	460.31
324.024	477.31
324.253	514.31
324.482	724.31
324.71	1045.31
324.939	1400.31
325.168	1211.31
325.397	705.31
325.626	519.31
325.855	470.31
326.084	459.31
326.313	435.31
326.542	447.31
326.77	472.31
326.999	528.31
327.228	679.31
327.457	981.31
327.686	1105.31
327.914	780.31
328.143	581.31
328.372	525.31
328.6	505.31
328.829	487.31
329.058	486.31
329.287	493.31
329.515	472.31
329.744	471.31
329.972	464.31
330.201	504.31
330.43	558.31
330.658	523.31
330.887	505.31
331.115	488.31
331.344	476.31
331.572	452.31
331.801	443.31
332.03	442.31
332.258	445.31
332.486	446.31
332.715	438.31
332.943	461.31
333.172	469.31
333.4	478.31
333.629	494.31
333.857	526.31
334.085	537.31
334.314	559.31
334.542	588.31
334.771	598.31
334.999	546.31
335.227	501.31
335.455	455.31
335.684	464.31
335.912	454.31
336.14	437.31
336.369	444.31
336.597	449.31
336.825	432.31
337.053	427.31
337.281	441.31
337.51	417.31
337.738	421.31
337.966	415.31
338.194	422.31
338.422	411.31
338.65	431.31
338.878	402.31
339.106	411.31
339.334	419.31
339.562	408.31
339.79	380.31
340.018	407.31
340.246	385.31
340.474	413.31
340.702	408.31
340.93	384.31
341.158	393.31
341.386	404.31
341.614	397.31
341.842	393.31
342.07	405.31
342.298	395.31
342.526	398.31
342.754	384.31
342.981	387.31
343.209	403.31
343.437	425.31
343.665	410.31
343.893	430.31
344.12	442.31
344.348	444.31
344.576	420.31
344.804	437.31
345.031	400.31
345.259	406.31
345.487	393.31
345.714	392.31
345.942	385.31
346.17	379.31
346.397	373.31
346.625	385.31
346.853	375.31
347.08	381.31
347.308	358.31
347.535	382.31
347.763	382.31
347.99	378.31
348.218	395.31
348.445	397.31
348.673	375.31
348.9	372.31
349.128	389.31
349.355	355.31
349.583	379.31
349.81	371.31
350.037	371.31
350.265	348.31
350.492	363.31
350.72	370.31
350.947	368.31
351.174	353.31
351.402	369.31
351.629	363.31
351.856	374.31
352.083	375.31
352.311	387.31
352.538	377.31
352.765	380.31
352.992	382.31
353.22	357.31
353.447	381.31
353.674	377.31
353.901	359.31
354.128	368.31
354.355	357.31
354.583	372.31
354.81	372.31
355.037	361.31
355.264	371.31
355.491	360.31
355.718	349.31
355.945	350.31
356.172	353.31
356.399	378.31
356.626	353.31
356.853	376.31
357.08	353.31
357.307	364.31
357.534	346.31
357.761	353.31
357.988	353.31
358.215	349.31
358.441	370.31
358.668	364.31
358.895	364.31
359.122	364.31
359.349	365.31
359.576	370.31
359.802	386.31
360.029	408.31
360.256	410.31
360.483	391.31
360.709	354.31
360.936	367.31
361.163	379.31
361.39	374.31
361.616	372.31
361.843	352.31
362.07	339.31
362.296	377.31
362.523	363.31
362.749	364.31
362.976	370.31
363.203	387.31
363.429	358.31
363.656	357.31
363.882	354.31
364.109	369.31
364.335	346.31
364.562	335.31
364.788	350.31
365.015	348.31
365.241	360.31
365.468	374.31
365.694	357.31
365.92	337.31
366.147	360.31
366.373	343.31
366.599	358.31
366.826	356.31
367.052	339.31
367.278	357.31
367.505	353.31
367.731	375.31
367.957	349.31
368.184	344.31
368.41	345.31
368.636	361.31
368.862	358.31
369.089	366.31
369.315	374.31
369.541	356.31
369.767	356.31
369.993	349.31
370.219	355.31
370.445	361.31
370.672	372.31
370.898	357.31
371.124	370.31
371.35	364.31
371.576	358.31
371.802	357.31
372.028	362.31
372.254	365.31
372.48	370.31
372.706	365.31
372.932	375.31
373.158	371.31
373.384	383.31
373.61	370.31
373.835	359.31
374.061	347.31
374.287	379.31
374.513	365.31
374.739	374.31
374.965	379.31
375.191	379.31
375.416	381.31
375.642	376.31
375.868	379.31
376.094	377.31
376.319	353.31
376.545	366.31
376.771	363.31
376.997	381.31
377.222	369.31
377.448	364.31
377.674	356.31
377.899	371.31
378.125	353.31
378.35	368.31
378.576	369.31
378.802	363.31
379.027	359.31
379.253	378.31
379.478	362.31
379.704	356.31
379.929	339.31
380.155	366.31
380.38	365.31
380.606	340.31
380.831	379.31
381.057	362.31
381.282	359.31
381.507	354.31
381.733	370.31
381.958	366.31
382.184	357.31
382.409	368.31
382.634	351.31
382.86	371.31
383.085	356.31
383.31	377.31
383.535	362.31
383.761	373.31
383.986	377.31
384.211	407.31
384.436	379.31
384.662	404.31
384.887	411.31
385.112	397.31
385.337	413.31
385.562	396.31
385.787	417.31
386.013	433.31
386.238	424.31
386.463	435.31
386.688	425.31
386.913	405.31
387.138	403.31
387.363	405.31
387.588	424.31
387.813	425.31
388.038	398.31
388.263	380.31
388.488	394.31
388.713	428.31
388.938	397.31
389.163	404.31
389.387	404.31
389.612	395.31
389.837	403.31
390.062	412.31
390.287	408.31
390.512	399.31
390.736	423.31
390.961	425.31
391.186	412.31
391.411	415.31
391.636	433.31
391.86	414.31
392.085	441.31
392.31	418.31
392.534	443.31
392.759	421.31
392.984	415.31
393.208	409.31
393.433	427.31
393.658	415.31
393.882	406.31
394.107	419.31
394.331	433.31
394.556	403.31
394.78	413.31
395.005	438.31
395.229	415.31
395.454	443.31
395.678	441.31
395.903	436.31
396.127	449.31
396.352	460.31
396.576	439.31
396.801	424.31
397.025	441.31
397.249	426.31
397.474	448.31
397.698	442.31
397.922	466.31
398.147	463.31
398.371	459.31
398.595	485.31
398.82	484.31
399.044	502.31
399.268	541.31
399.492	572.31
399.717	626.31
399.941	641.31
400.165	611.31
400.389	589.31
400.613	533.31
400.837	516.31
401.062	497.31
401.286	486.31
401.51	460.31
401.734	484.31
401.958	484.31
402.182	501.31
402.406	481.31
402.63	489.31
402.854	486.31
403.078	503.31
403.302	508.31
403.526	503.31
403.75	518.31
403.974	530.31
404.198	515.31
404.422	506.31
404.645	526.31
404.869	542.31
405.093	553.31
405.317	555.31
405.541	619.31
405.765	553.31
405.988	535.31
406.212	553.31
406.436	547.31
406.66	547.31
406.883	541.31
407.107	581.31
407.331	597.31
407.555	646.31
407.778	651.31
408.002	603.31
408.226	563.31
408.449	571.31
408.673	540.31
408.896	546.31
409.12	588.31
409.344	565.31
409.567	531.31
409.791	533.31
410.014	500.31
410.238	509.31
410.461	503.31
410.685	492.31
410.908	519.31
411.132	560.31
411.355	543.31
411.578	557.31
411.802	507.31
412.025	510.31
412.249	520.31
412.472	552.31
412.695	559.31
412.919	553.31
413.142	522.31
413.365	521.31
413.589	491.31
413.812	470.31
414.035	483.31
414.258	467.31
414.482	464.31
414.705	481.31
414.928	490.31
415.151	454.31
415.374	492.31
415.597	478.31
415.821	467.31
416.044	488.31
416.267	462.31
416.49	455.31
416.713	474.31
416.936	462.31
417.159	455.31
417.382	495.31
417.605	494.31
417.828	493.31
418.051	501.31
418.274	488.31
418.497	474.31
418.72	470.31
418.943	478.31
419.166	502.31
419.389	511.31
419.611	542.31
419.834	509.31
420.057	510.31
420.28	513.31
420.503	535.31
420.726	517.31
420.948	504.31
421.171	521.31
421.394	522.31
421.617	516.31
421.839	493.31
422.062	510.31
422.285	492.31
422.507	534.31
422.73	568.31
422.953	556.31
423.175	520.31
423.398	493.31
423.621	503.31
423.843	515.31
424.066	537.31
424.288	487.31
424.511	535.31
424.733	561.31
424.956	601.31
425.178	578.31
425.401	560.31
425.623	581.31
425.846	511.31
426.068	489.31
426.291	479.31
426.513	508.31
426.735	491.31
426.958	534.31
427.18	569.31
427.402	635.31
427.625	685.31
427.847	615.31
428.069	598.31
428.292	529.31
428.514	481.31
428.736	479.31
428.958	452.31
429.181	454.31
429.403	442.31
429.625	453.31
429.847	473.31
430.069	500.31
430.292	480.31
430.514	461.31
430.736	430.31
430.958	441.31
431.18	437.31
431.402	437.31
431.624	438.31
431.846	436.31
432.068	435.31
432.29	460.31
432.512	435.31
432.734	451.31
432.956	452.31
433.178	442.31
433.4	463.31
433.622	455.31
433.844	445.31
434.066	435.31
434.287	422.31
434.509	459.31
434.731	467.31
434.953	469.31
435.175	476.31
435.397	472.31
435.618	481.31
435.84	497.31
436.062	559.31
436.284	591.31
436.505	506.31
436.727	473.31
436.949	468.31
437.17	442.31
437.392	439.31
437.614	441.31
437.835	475.31
438.057	518.31
438.278	551.31
438.5	568.31
438.721	627.31
438.943	613.31
439.165	528.31
439.386	476.31
439.608	471.31
439.829	472.31
440.05	519.31
440.272	524.31
440.493	461.31
440.715	461.31
440.936	453.31
441.158	463.31
441.379	466.31
441.6	486.31
441.822	498.31
442.043	529.31
442.264	570.31
442.486	561.31
442.707	534.31
442.928	515.31
443.149	489.31
443.371	531.31
443.592	533.31
443.813	582.31
444.034	644.31
444.255	582.31
444.476	535.31
444.698	529.31
444.919	539.31
445.14	627.31
445.361	560.31
445.582	520.31
445.803	552.31
446.024	586.31
446.245	600.31
446.466	569.31
446.687	494.31
446.908	491.31
447.129	437.31
447.35	445.31
447.571	446.31
447.792	435.31
448.013	445.31
448.234	452.31
448.455	462.31
448.675	535.31
448.896	589.31
449.117	523.31
449.338	498.31
449.559	578.31
449.779	617.31
450	539.31
450.221	444.31
450.442	428.31
450.662	421.31
450.883	431.31
451.104	421.31
451.324	414.31
451.545	415.31
451.766	406.31
451.986	423.31
452.207	406.31
452.428	394.31
452.648	390.31
452.869	421.31
453.089	411.31
453.31	393.31
453.53	420.31
453.751	412.31
453.971	413.31
454.192	417.31
454.412	395.31
454.633	405.31
454.853	385.31
455.073	397.31
455.294	412.31
455.514	417.31
455.734	440.31
455.955	393.31
456.175	390.31
456.395	374.31
456.616	354.31
456.836	373.31
457.056	377.31
457.276	368.31
457.497	374.31
457.717	400.31
457.937	366.31
458.157	385.31
458.377	392.31
458.598	393.31
458.818	429.31
459.038	469.31
459.258	481.31
459.478	455.31
459.698	444.31
459.918	436.31
460.138	441.31
460.358	462.31
460.578	470.31
460.798	487.31
461.018	468.31
461.238	464.31
461.458	477.31
461.678	463.31
461.898	497.31
462.118	461.31
462.338	487.31
462.558	486.31
462.777	494.31
462.997	529.31
463.217	573.31
463.437	579.31
463.657	550.31
463.876	538.31
464.096	531.31
464.316	508.31
464.536	534.31
464.755	536.31
464.975	510.31
465.195	511.31
465.414	526.31
465.634	477.31
465.854	482.31
466.073	450.31
466.293	415.31
466.512	441.31
466.732	419.31
466.951	407.31
467.171	405.31
467.391	421.31
467.61	424.31
467.829	430.31
468.049	428.31
468.268	421.31
468.488	441.31
468.707	412.31
468.927	398.31
469.146	411.31
469.365	415.31
469.585	383.31
469.804	420.31
470.023	409.31
470.243	427.31
470.462	412.31
470.681	431.31
470.901	440.31
471.12	429.31
471.339	436.31
471.558	427.31
471.777	429.31
471.997	434.31
472.216	447.31
472.435	477.31
472.654	454.31
472.873	415.31
473.092	393.31
473.311	413.31
473.53	426.31
473.749	411.31
473.968	445.31
474.187	490.31
474.406	484.31
474.625	429.31
474.844	418.31
475.063	406.31
475.282	431.31
475.501	437.31
475.72	422.31
475.939	413.31
476.158	413.31
476.377	432.31
476.596	443.31
476.814	425.31
477.033	434.31
477.252	440.31
477.471	443.31
477.69	426.31
477.908	442.31
478.127	454.31
478.346	470.31
478.564	447.31
478.783	469.31
479.002	485.31
479.22	498.31
479.439	491.31
479.658	500.31
479.876	506.31
480.095	511.31
480.313	532.31
480.532	533.31
480.751	515.31
480.969	541.31
481.188	615.31
481.406	662.31
481.624	570.31
481.843	498.31
482.061	501.31
482.28	489.31
482.498	459.31
482.717	476.31
482.935	469.31
483.153	465.31
483.372	468.31
483.59	484.31
483.808	471.31
484.027	458.31
484.245	470.31
484.463	483.31
484.681	477.31
484.9	475.31
485.118	494.31
485.336	462.31
485.554	484.31
485.772	463.31
485.99	486.31
486.209	496.31
486.427	497.31
486.645	494.31
486.863	499.31
487.081	484.31
487.299	480.31
487.517	502.31
487.735	513.31
487.953	500.31
488.171	491.31
488.389	485.31
488.607	485.31
488.825	473.31
489.043	497.31
489.261	498.31
489.479	486.31
489.696	512.31
489.914	507.31
490.132	531.31
490.35	522.31
490.568	524.31
490.786	523.31
491.003	532.31
491.221	554.31
491.439	540.31
491.657	540.31
491.874	572.31
492.092	582.31
492.31	557.31
492.527	572.31
492.745	561.31
492.963	545.31
493.18	590.31
493.398	581.31
493.615	579.31
493.833	573.31
494.05	595.31
494.268	567.31
494.485	578.31
494.703	558.31
494.92	581.31
495.138	562.31
495.355	577.31
495.573	566.31
495.79	554.31
496.008	564.31
496.225	581.31
496.442	554.31
496.66	602.31
496.877	583.31
497.094	593.31
497.312	607.31
497.529	596.31
497.746	603.31
497.963	622.31
498.181	643.31
498.398	664.31
498.615	661.31
498.832	665.31
499.049	731.31
499.267	770.31
499.484	804.31
499.701	886.31
499.918	941.31
500.135	996.31
500.352	1090.31
500.569	1079.31
500.786	1117.31
501.003	1069.31
501.22	1003.31
501.437	951.31
501.654	870.31
501.871	825.31
