Data from 1984.PennyLincolnUp.Lamp.En5.5.200Scan.071819.P1_HRD10591_16-58-28-968.txt Node
Date: Thu Jul 18 16:58:28 EDT 2019
User: cochatt
Spectrometer: HR+D1059
Trigger mode: 1
Integration Time (sec): 1.000000E-1
Scans to average: 1
Electric dark correction enabled: true
Nonlinearity correction enabled: false
Boxcar width: 0
XAxis mode: Wavelengths
Number of Pixels in Spectrum: 2048
>>>>>Begin Spectral Data<<<<<
223.165	-13.75
223.4	-13.75
223.635	-13.75
223.869	-6.75
224.104	-24.75
224.338	-9.75
224.573	-9.75
224.808	-6.75
225.042	-8.75
225.277	-7.75
225.511	-21.75
225.746	9.25
225.98	0.25
226.215	8.25
226.449	21.25
226.683	22.25
226.918	17.25
227.152	31.25
227.387	34.25
227.621	21.25
227.856	60.25
228.09	40.25
228.324	45.25
228.559	41.25
228.793	74.25
229.027	85.25
229.262	92.25
229.496	91.25
229.73	102.25
229.964	95.25
230.199	97.25
230.433	98.25
230.667	107.25
230.901	100.25
231.136	110.25
231.37	100.25
231.604	122.25
231.838	109.25
232.072	111.25
232.306	103.25
232.541	119.25
232.775	122.25
233.009	120.25
233.243	114.25
233.477	107.25
233.711	100.25
233.945	103.25
234.179	104.25
234.413	115.25
234.647	113.25
234.881	103.25
235.115	103.25
235.349	94.25
235.583	110.25
235.817	108.25
236.051	121.25
236.285	108.25
236.519	111.25
236.753	108.25
236.987	130.25
237.221	133.25
237.455	174.25
237.689	137.25
237.922	127.25
238.156	122.25
238.39	106.25
238.624	119.25
238.858	113.25
239.091	121.25
239.325	123.25
239.559	116.25
239.793	107.25
240.027	117.25
240.26	126.25
240.494	124.25
240.728	130.25
240.961	137.25
241.195	140.25
241.429	130.25
241.662	127.25
241.896	129.25
242.13	122.25
242.363	124.25
242.597	127.25
242.83	139.25
243.064	125.25
243.298	136.25
243.531	126.25
243.765	136.25
243.998	121.25
244.232	151.25
244.465	151.25
244.699	145.25
244.932	125.25
245.166	134.25
245.399	133.25
245.633	141.25
245.866	132.25
246.099	130.25
246.333	134.25
246.566	123.25
246.8	129.25
247.033	155.25
247.266	157.25
247.5	142.25
247.733	143.25
247.966	149.25
248.2	161.25
248.433	143.25
248.666	151.25
248.899	156.25
249.133	156.25
249.366	153.25
249.599	159.25
249.832	161.25
250.066	171.25
250.299	154.25
250.532	171.25
250.765	185.25
250.998	185.25
251.231	181.25
251.465	191.25
251.698	171.25
251.931	186.25
252.164	180.25
252.397	170.25
252.63	162.25
252.863	183.25
253.096	193.25
253.329	194.25
253.562	196.25
253.795	187.25
254.028	189.25
254.261	194.25
254.494	192.25
254.727	207.25
254.96	223.25
255.193	196.25
255.426	190.25
255.659	193.25
255.892	218.25
256.124	225.25
256.357	219.25
256.59	227.25
256.823	209.25
257.056	184.25
257.289	180.25
257.521	174.25
257.754	183.25
257.987	185.25
258.22	182.25
258.452	190.25
258.685	186.25
258.918	174.25
259.151	203.25
259.383	199.25
259.616	196.25
259.849	205.25
260.081	211.25
260.314	223.25
260.547	212.25
260.779	198.25
261.012	214.25
261.244	204.25
261.477	185.25
261.71	183.25
261.942	199.25
262.175	210.25
262.407	204.25
262.64	206.25
262.872	195.25
263.105	195.25
263.337	186.25
263.57	184.25
263.802	205.25
264.035	207.25
264.267	200.25
264.499	200.25
264.732	218.25
264.964	196.25
265.197	197.25
265.429	210.25
265.661	193.25
265.894	193.25
266.126	208.25
266.358	207.25
266.591	221.25
266.823	227.25
267.055	186.25
267.287	193.25
267.52	208.25
267.752	199.25
267.984	214.25
268.216	218.25
268.448	204.25
268.681	227.25
268.913	244.25
269.145	219.25
269.377	229.25
269.609	231.25
269.841	237.25
270.073	223.25
270.306	261.25
270.538	257.25
270.77	254.25
271.002	261.25
271.234	248.25
271.466	243.25
271.698	261.25
271.93	264.25
272.162	260.25
272.394	277.25
272.626	261.25
272.858	250.25
273.09	238.25
273.322	245.25
273.553	239.25
273.785	259.25
274.017	250.25
274.249	264.25
274.481	240.25
274.713	238.25
274.945	257.25
275.176	248.25
275.408	253.25
275.64	268.25
275.872	250.25
276.104	242.25
276.335	238.25
276.567	221.25
276.799	263.25
277.031	284.25
277.262	271.25
277.494	285.25
277.726	282.25
277.957	247.25
278.189	263.25
278.421	243.25
278.652	262.25
278.884	263.25
279.115	259.25
279.347	250.25
279.579	236.25
279.81	257.25
280.042	257.25
280.273	266.25
280.505	241.25
280.736	269.25
280.968	253.25
281.199	263.25
281.431	246.25
281.662	267.25
281.894	262.25
282.125	257.25
282.356	283.25
282.588	264.25
282.819	289.25
283.051	270.25
283.282	265.25
283.513	257.25
283.745	258.25
283.976	289.25
284.207	278.25
284.439	261.25
284.67	275.25
284.901	265.25
285.132	269.25
285.364	263.25
285.595	279.25
285.826	277.25
286.057	260.25
286.288	290.25
286.52	289.25
286.751	281.25
286.982	271.25
287.213	258.25
287.444	293.25
287.675	268.25
287.906	290.25
288.138	294.25
288.369	279.25
288.6	287.25
288.831	286.25
289.062	290.25
289.293	272.25
289.524	289.25
289.755	293.25
289.986	289.25
290.217	292.25
290.448	306.25
290.679	281.25
290.91	284.25
291.141	274.25
291.371	290.25
291.602	271.25
291.833	288.25
292.064	303.25
292.295	289.25
292.526	267.25
292.757	279.25
292.987	276.25
293.218	295.25
293.449	296.25
293.68	295.25
293.91	289.25
294.141	293.25
294.372	282.25
294.603	290.25
294.833	296.25
295.064	291.25
295.295	287.25
295.525	309.25
295.756	290.25
295.987	293.25
296.217	304.25
296.448	301.25
296.679	295.25
296.909	291.25
297.14	297.25
297.37	335.25
297.601	297.25
297.831	285.25
298.062	290.25
298.292	301.25
298.523	299.25
298.753	306.25
298.984	314.25
299.214	302.25
299.445	278.25
299.675	305.25
299.905	313.25
300.136	311.25
300.366	305.25
300.597	308.25
300.827	309.25
301.057	326.25
301.288	310.25
301.518	323.25
301.748	321.25
301.979	322.25
302.209	329.25
302.439	322.25
302.669	317.25
302.9	319.25
303.13	309.25
303.36	323.25
303.59	339.25
303.82	309.25
304.051	319.25
304.281	320.25
304.511	311.25
304.741	315.25
304.971	338.25
305.201	312.25
305.431	324.25
305.661	309.25
305.891	297.25
306.121	333.25
306.352	319.25
306.582	337.25
306.812	320.25
307.042	326.25
307.272	317.25
307.502	318.25
307.731	334.25
307.961	328.25
308.191	298.25
308.421	321.25
308.651	324.25
308.881	321.25
309.111	332.25
309.341	350.25
309.571	333.25
309.8	340.25
310.03	343.25
310.26	327.25
310.49	344.25
310.72	356.25
310.949	344.25
311.179	334.25
311.409	351.25
311.639	349.25
311.868	349.25
312.098	342.25
312.328	332.25
312.557	353.25
312.787	370.25
313.017	368.25
313.246	348.25
313.476	349.25
313.706	341.25
313.935	393.25
314.165	369.25
314.394	353.25
314.624	381.25
314.853	372.25
315.083	350.25
315.312	346.25
315.542	350.25
315.771	358.25
316.001	355.25
316.23	378.25
316.46	350.25
316.689	341.25
316.919	340.25
317.148	383.25
317.377	373.25
317.607	356.25
317.836	362.25
318.065	342.25
318.295	351.25
318.524	343.25
318.753	341.25
318.983	371.25
319.212	356.25
319.441	366.25
319.67	365.25
319.9	370.25
320.129	345.25
320.358	366.25
320.587	362.25
320.816	357.25
321.046	350.25
321.275	357.25
321.504	341.25
321.733	354.25
321.962	361.25
322.191	389.25
322.42	383.25
322.649	372.25
322.878	378.25
323.108	410.25
323.337	412.25
323.566	429.25
323.795	433.25
324.024	453.25
324.253	533.25
324.482	720.25
324.71	1043.25
324.939	1457.25
325.168	1247.25
325.397	700.25
325.626	524.25
325.855	462.25
326.084	434.25
326.313	448.25
326.542	442.25
326.77	460.25
326.999	540.25
327.228	683.25
327.457	954.25
327.686	1140.25
327.914	764.25
328.143	551.25
328.372	492.25
328.6	483.25
328.829	476.25
329.058	494.25
329.287	476.25
329.515	469.25
329.744	467.25
329.972	474.25
330.201	501.25
330.43	517.25
330.658	521.25
330.887	507.25
331.115	501.25
331.344	456.25
331.572	455.25
331.801	454.25
332.03	428.25
332.258	451.25
332.486	437.25
332.715	435.25
332.943	453.25
333.172	463.25
333.4	499.25
333.629	495.25
333.857	486.25
334.085	517.25
334.314	568.25
334.542	581.25
334.771	574.25
334.999	543.25
335.227	494.25
335.455	473.25
335.684	473.25
335.912	467.25
336.14	439.25
336.369	443.25
336.597	437.25
336.825	446.25
337.053	427.25
337.281	412.25
337.51	418.25
337.738	418.25
337.966	413.25
338.194	415.25
338.422	425.25
338.65	408.25
338.878	404.25
339.106	404.25
339.334	405.25
339.562	381.25
339.79	375.25
340.018	405.25
340.246	395.25
340.474	382.25
340.702	409.25
340.93	400.25
341.158	394.25
341.386	387.25
341.614	394.25
341.842	378.25
342.07	399.25
342.298	404.25
342.526	374.25
342.754	407.25
342.981	390.25
343.209	401.25
343.437	397.25
343.665	411.25
343.893	438.25
344.12	447.25
344.348	444.25
344.576	416.25
344.804	418.25
345.031	404.25
345.259	403.25
345.487	395.25
345.714	396.25
345.942	395.25
346.17	382.25
346.397	374.25
346.625	360.25
346.853	369.25
347.08	379.25
347.308	375.25
347.535	383.25
347.763	381.25
347.99	369.25
348.218	411.25
348.445	371.25
348.673	389.25
348.9	380.25
349.128	367.25
349.355	357.25
349.583	357.25
349.81	365.25
350.037	376.25
350.265	389.25
350.492	357.25
350.72	373.25
350.947	371.25
351.174	379.25
351.402	395.25
351.629	351.25
351.856	373.25
352.083	367.25
352.311	377.25
352.538	372.25
352.765	369.25
352.992	374.25
353.22	344.25
353.447	367.25
353.674	371.25
353.901	355.25
354.128	349.25
354.355	369.25
354.583	364.25
354.81	351.25
355.037	357.25
355.264	333.25
355.491	332.25
355.718	355.25
355.945	363.25
356.172	352.25
356.399	353.25
356.626	339.25
356.853	350.25
357.08	360.25
357.307	353.25
357.534	356.25
357.761	360.25
357.988	362.25
358.215	352.25
358.441	355.25
358.668	374.25
358.895	358.25
359.122	361.25
359.349	370.25
359.576	390.25
359.802	379.25
360.029	398.25
360.256	393.25
360.483	388.25
360.709	374.25
360.936	375.25
361.163	354.25
361.39	364.25
361.616	384.25
361.843	363.25
362.07	357.25
362.296	361.25
362.523	371.25
362.749	377.25
362.976	367.25
363.203	345.25
363.429	388.25
363.656	369.25
363.882	347.25
364.109	348.25
364.335	369.25
364.562	359.25
364.788	372.25
365.015	362.25
365.241	351.25
365.468	350.25
365.694	361.25
365.92	367.25
366.147	357.25
366.373	362.25
366.599	339.25
366.826	343.25
367.052	346.25
367.278	362.25
367.505	355.25
367.731	364.25
367.957	351.25
368.184	378.25
368.41	364.25
368.636	359.25
368.862	343.25
369.089	358.25
369.315	356.25
369.541	358.25
369.767	381.25
369.993	354.25
370.219	369.25
370.445	369.25
370.672	363.25
370.898	333.25
371.124	374.25
371.35	361.25
371.576	363.25
371.802	358.25
372.028	364.25
372.254	352.25
372.48	341.25
372.706	364.25
372.932	372.25
373.158	365.25
373.384	373.25
373.61	374.25
373.835	364.25
374.061	385.25
374.287	371.25
374.513	365.25
374.739	365.25
374.965	390.25
375.191	396.25
375.416	364.25
375.642	374.25
375.868	379.25
376.094	372.25
376.319	370.25
376.545	372.25
376.771	364.25
376.997	369.25
377.222	355.25
377.448	390.25
377.674	357.25
377.899	350.25
378.125	373.25
378.35	345.25
378.576	350.25
378.802	344.25
379.027	355.25
379.253	378.25
379.478	377.25
379.704	366.25
379.929	361.25
380.155	366.25
380.38	363.25
380.606	352.25
380.831	365.25
381.057	369.25
381.282	359.25
381.507	359.25
381.733	353.25
381.958	365.25
382.184	373.25
382.409	360.25
382.634	362.25
382.86	381.25
383.085	365.25
383.31	375.25
383.535	376.25
383.761	377.25
383.986	380.25
384.211	382.25
384.436	407.25
384.662	396.25
384.887	397.25
385.112	397.25
385.337	411.25
385.562	403.25
385.787	415.25
386.013	419.25
386.238	424.25
386.463	417.25
386.688	390.25
386.913	399.25
387.138	407.25
387.363	412.25
387.588	399.25
387.813	424.25
388.038	396.25
388.263	419.25
388.488	406.25
388.713	391.25
388.938	404.25
389.163	387.25
389.387	405.25
389.612	414.25
389.837	379.25
390.062	400.25
390.287	399.25
390.512	397.25
390.736	401.25
390.961	413.25
391.186	406.25
391.411	434.25
391.636	443.25
391.86	449.25
392.085	437.25
392.31	447.25
392.534	436.25
392.759	418.25
392.984	418.25
393.208	411.25
393.433	428.25
393.658	424.25
393.882	421.25
394.107	422.25
394.331	422.25
394.556	426.25
394.78	423.25
395.005	446.25
395.229	398.25
395.454	410.25
395.678	439.25
395.903	436.25
396.127	441.25
396.352	442.25
396.576	436.25
396.801	417.25
397.025	427.25
397.249	427.25
397.474	434.25
397.698	458.25
397.922	431.25
398.147	456.25
398.371	468.25
398.595	465.25
398.82	475.25
399.044	501.25
399.268	531.25
399.492	595.25
399.717	630.25
399.941	625.25
400.165	621.25
400.389	599.25
400.613	552.25
400.837	494.25
401.062	476.25
401.286	474.25
401.51	489.25
401.734	479.25
401.958	482.25
402.182	499.25
402.406	492.25
402.63	499.25
402.854	486.25
403.078	502.25
403.302	520.25
403.526	517.25
403.75	526.25
403.974	533.25
404.198	536.25
404.422	530.25
404.645	543.25
404.869	502.25
405.093	563.25
405.317	586.25
405.541	604.25
405.765	554.25
405.988	558.25
406.212	530.25
406.436	518.25
406.66	547.25
406.883	548.25
407.107	562.25
407.331	593.25
407.555	659.25
407.778	639.25
408.002	619.25
408.226	595.25
408.449	562.25
408.673	547.25
408.896	567.25
409.12	588.25
409.344	566.25
409.567	530.25
409.791	512.25
410.014	498.25
410.238	504.25
410.461	501.25
410.685	491.25
410.908	539.25
411.132	555.25
411.355	522.25
411.578	513.25
411.802	519.25
412.025	498.25
412.249	524.25
412.472	531.25
412.695	565.25
412.919	549.25
413.142	521.25
413.365	476.25
413.589	504.25
413.812	482.25
414.035	476.25
414.258	485.25
414.482	486.25
414.705	468.25
414.928	475.25
415.151	467.25
415.374	483.25
415.597	461.25
415.821	481.25
416.044	459.25
416.267	452.25
416.49	460.25
416.713	466.25
416.936	451.25
417.159	464.25
417.382	471.25
417.605	466.25
417.828	483.25
418.051	475.25
418.274	475.25
418.497	456.25
418.72	481.25
418.943	474.25
419.166	505.25
419.389	515.25
419.611	543.25
419.834	511.25
420.057	520.25
420.28	527.25
420.503	523.25
420.726	517.25
420.948	508.25
421.171	513.25
421.394	560.25
421.617	519.25
421.839	485.25
422.062	476.25
422.285	481.25
422.507	535.25
422.73	575.25
422.953	552.25
423.175	498.25
423.398	513.25
423.621	497.25
423.843	506.25
424.066	530.25
424.288	528.25
424.511	512.25
424.733	541.25
424.956	593.25
425.178	561.25
425.401	572.25
425.623	601.25
425.846	522.25
426.068	485.25
426.291	470.25
426.513	496.25
426.735	479.25
426.958	511.25
427.18	543.25
427.402	650.25
427.625	675.25
427.847	609.25
428.069	556.25
428.292	515.25
428.514	483.25
428.736	468.25
428.958	452.25
429.181	454.25
429.403	446.25
429.625	455.25
429.847	464.25
430.069	507.25
430.292	507.25
430.514	462.25
430.736	425.25
430.958	456.25
431.18	427.25
431.402	449.25
431.624	439.25
431.846	422.25
432.068	447.25
432.29	430.25
432.512	437.25
432.734	445.25
432.956	424.25
433.178	428.25
433.4	448.25
433.622	445.25
433.844	427.25
434.066	440.25
434.287	444.25
434.509	463.25
434.731	475.25
434.953	455.25
435.175	488.25
435.397	509.25
435.618	513.25
435.84	509.25
436.062	546.25
436.284	601.25
436.505	522.25
436.727	478.25
436.949	454.25
437.17	450.25
437.392	442.25
437.614	461.25
437.835	475.25
438.057	528.25
438.278	581.25
438.5	601.25
438.721	637.25
438.943	603.25
439.165	489.25
439.386	463.25
439.608	469.25
439.829	468.25
440.05	490.25
440.272	520.25
440.493	497.25
440.715	481.25
440.936	473.25
441.158	449.25
441.379	475.25
441.6	488.25
441.822	503.25
442.043	509.25
442.264	558.25
442.486	585.25
442.707	524.25
442.928	509.25
443.149	527.25
443.371	527.25
443.592	527.25
443.813	593.25
444.034	607.25
444.255	586.25
444.476	530.25
444.698	541.25
444.919	517.25
445.14	622.25
445.361	559.25
445.582	508.25
445.803	549.25
446.024	590.25
446.245	605.25
446.466	541.25
446.687	501.25
446.908	465.25
447.129	446.25
447.35	441.25
447.571	446.25
447.792	422.25
448.013	443.25
448.234	429.25
448.455	460.25
448.675	546.25
448.896	596.25
449.117	547.25
449.338	501.25
449.559	570.25
449.779	597.25
450	528.25
450.221	440.25
450.442	426.25
450.662	411.25
450.883	437.25
451.104	417.25
451.324	423.25
451.545	417.25
451.766	398.25
451.986	392.25
452.207	392.25
452.428	406.25
452.648	412.25
452.869	396.25
453.089	385.25
453.31	379.25
453.53	413.25
453.751	406.25
453.971	370.25
454.192	397.25
454.412	389.25
454.633	381.25
454.853	394.25
455.073	404.25
455.294	416.25
455.514	443.25
455.734	427.25
455.955	393.25
456.175	401.25
456.395	388.25
456.616	354.25
456.836	393.25
457.056	387.25
457.276	369.25
457.497	370.25
457.717	381.25
457.937	398.25
458.157	366.25
458.377	381.25
458.598	411.25
458.818	445.25
459.038	480.25
459.258	499.25
459.478	460.25
459.698	430.25
459.918	441.25
460.138	461.25
460.358	461.25
460.578	468.25
460.798	468.25
461.018	476.25
461.238	478.25
461.458	475.25
461.678	470.25
461.898	484.25
462.118	453.25
462.338	503.25
462.558	496.25
462.777	510.25
462.997	546.25
463.217	535.25
463.437	549.25
463.657	500.25
463.876	540.25
464.096	534.25
464.316	519.25
464.536	513.25
464.755	500.25
464.975	501.25
465.195	519.25
465.414	518.25
465.634	470.25
465.854	438.25
466.073	434.25
466.293	423.25
466.512	414.25
466.732	411.25
466.951	424.25
467.171	404.25
467.391	387.25
467.61	441.25
467.829	422.25
468.049	399.25
468.268	420.25
468.488	379.25
468.707	401.25
468.927	408.25
469.146	399.25
469.365	400.25
469.585	395.25
469.804	426.25
470.023	410.25
470.243	444.25
470.462	414.25
470.681	437.25
470.901	435.25
471.12	435.25
471.339	411.25
471.558	419.25
471.777	415.25
471.997	414.25
472.216	418.25
472.435	469.25
472.654	449.25
472.873	454.25
473.092	423.25
473.311	424.25
473.53	396.25
473.749	423.25
473.968	441.25
474.187	467.25
474.406	498.25
474.625	439.25
474.844	406.25
475.063	391.25
475.282	409.25
475.501	417.25
475.72	420.25
475.939	416.25
476.158	413.25
476.377	423.25
476.596	426.25
476.814	417.25
477.033	415.25
477.252	430.25
477.471	434.25
477.69	451.25
477.908	461.25
478.127	465.25
478.346	475.25
478.564	456.25
478.783	473.25
479.002	495.25
479.22	498.25
479.439	482.25
479.658	495.25
479.876	474.25
480.095	506.25
480.313	526.25
480.532	526.25
480.751	515.25
480.969	533.25
481.188	596.25
481.406	595.25
481.624	559.25
481.843	508.25
482.061	505.25
482.28	472.25
482.498	479.25
482.717	469.25
482.935	481.25
483.153	481.25
483.372	485.25
483.59	480.25
483.808	476.25
484.027	462.25
484.245	466.25
484.463	463.25
484.681	468.25
484.9	472.25
485.118	481.25
485.336	483.25
485.554	503.25
485.772	493.25
485.99	482.25
486.209	474.25
486.427	497.25
486.645	498.25
486.863	503.25
487.081	502.25
487.299	498.25
487.517	479.25
487.735	492.25
487.953	501.25
488.171	511.25
488.389	477.25
488.607	500.25
488.825	498.25
489.043	488.25
489.261	501.25
489.479	494.25
489.696	499.25
489.914	502.25
490.132	517.25
490.35	520.25
490.568	515.25
490.786	509.25
491.003	547.25
491.221	539.25
491.439	534.25
491.657	536.25
491.874	551.25
492.092	569.25
492.31	540.25
492.527	552.25
492.745	578.25
492.963	592.25
493.18	582.25
493.398	605.25
493.615	571.25
493.833	580.25
494.05	563.25
494.268	562.25
494.485	574.25
494.703	548.25
494.92	576.25
495.138	592.25
495.355	573.25
495.573	550.25
495.79	565.25
496.008	558.25
496.225	541.25
496.442	565.25
496.66	571.25
496.877	584.25
497.094	575.25
497.312	594.25
497.529	591.25
497.746	625.25
497.963	615.25
498.181	655.25
498.398	656.25
498.615	675.25
498.832	702.25
499.049	756.25
499.267	771.25
499.484	838.25
499.701	823.25
499.918	919.25
500.135	1006.25
500.352	1081.25
500.569	1113.25
500.786	1117.25
501.003	1073.25
501.22	996.25
501.437	940.25
501.654	865.25
501.871	815.25
502.088	794.25
