Data from 1984.PennyLincolnUp.Lamp.En5.5.200Scan.071819.P1_HRD10591_16-58-48-968.txt Node
Date: Thu Jul 18 16:58:48 EDT 2019
User: cochatt
Spectrometer: HR+D1059
Trigger mode: 1
Integration Time (sec): 1.000000E-1
Scans to average: 1
Electric dark correction enabled: true
Nonlinearity correction enabled: false
Boxcar width: 0
XAxis mode: Wavelengths
Number of Pixels in Spectrum: 2048
>>>>>Begin Spectral Data<<<<<
223.165	-26.56
223.4	-26.56
223.635	-26.56
223.869	-20.56
224.104	-24.56
224.338	-15.56
224.573	-14.56
224.808	2.44
225.042	-2.56
225.277	9.44
225.511	-15.56
225.746	5.44
225.98	1.44
226.215	13.44
226.449	15.44
226.683	9.44
226.918	29.44
227.152	33.44
227.387	48.44
227.621	43.44
227.856	49.44
228.09	53.44
228.324	50.44
228.559	56.44
228.793	66.44
229.027	88.44
229.262	89.44
229.496	97.44
229.73	91.44
229.964	123.44
230.199	97.44
230.433	96.44
230.667	105.44
230.901	94.44
231.136	96.44
231.37	105.44
231.604	109.44
231.838	104.44
232.072	96.44
232.306	96.44
232.541	104.44
232.775	108.44
233.009	93.44
233.243	114.44
233.477	110.44
233.711	116.44
233.945	111.44
234.179	118.44
234.413	107.44
234.647	111.44
234.881	99.44
235.115	118.44
235.349	112.44
235.583	97.44
235.817	113.44
236.051	111.44
236.285	109.44
236.519	119.44
236.753	114.44
236.987	135.44
237.221	137.44
237.455	154.44
237.689	154.44
237.922	135.44
238.156	110.44
238.39	118.44
238.624	124.44
238.858	113.44
239.091	111.44
239.325	117.44
239.559	121.44
239.793	114.44
240.027	116.44
240.26	133.44
240.494	128.44
240.728	141.44
240.961	122.44
241.195	130.44
241.429	131.44
241.662	131.44
241.896	114.44
242.13	129.44
242.363	121.44
242.597	134.44
242.83	127.44
243.064	135.44
243.298	117.44
243.531	122.44
243.765	145.44
243.998	137.44
244.232	132.44
244.465	141.44
244.699	124.44
244.932	118.44
245.166	126.44
245.399	151.44
245.633	133.44
245.866	131.44
246.099	128.44
246.333	138.44
246.566	133.44
246.8	133.44
247.033	121.44
247.266	123.44
247.5	155.44
247.733	151.44
247.966	152.44
248.2	151.44
248.433	150.44
248.666	160.44
248.899	152.44
249.133	167.44
249.366	186.44
249.599	163.44
249.832	158.44
250.066	162.44
250.299	165.44
250.532	165.44
250.765	205.44
250.998	193.44
251.231	180.44
251.465	174.44
251.698	170.44
251.931	178.44
252.164	176.44
252.397	181.44
252.63	162.44
252.863	182.44
253.096	170.44
253.329	170.44
253.562	201.44
253.795	179.44
254.028	191.44
254.261	190.44
254.494	168.44
254.727	199.44
254.96	205.44
255.193	213.44
255.426	226.44
255.659	194.44
255.892	222.44
256.124	226.44
256.357	213.44
256.59	197.44
256.823	199.44
257.056	194.44
257.289	182.44
257.521	185.44
257.754	180.44
257.987	186.44
258.22	194.44
258.452	178.44
258.685	207.44
258.918	173.44
259.151	177.44
259.383	167.44
259.616	181.44
259.849	190.44
260.081	202.44
260.314	209.44
260.547	197.44
260.779	208.44
261.012	191.44
261.244	190.44
261.477	174.44
261.71	185.44
261.942	194.44
262.175	197.44
262.407	197.44
262.64	169.44
262.872	180.44
263.105	190.44
263.337	190.44
263.57	213.44
263.802	185.44
264.035	194.44
264.267	208.44
264.499	189.44
264.732	197.44
264.964	198.44
265.197	187.44
265.429	211.44
265.661	211.44
265.894	197.44
266.126	209.44
266.358	190.44
266.591	187.44
266.823	206.44
267.055	202.44
267.287	199.44
267.52	202.44
267.752	193.44
267.984	213.44
268.216	207.44
268.448	214.44
268.681	213.44
268.913	229.44
269.145	213.44
269.377	234.44
269.609	229.44
269.841	215.44
270.073	236.44
270.306	255.44
270.538	261.44
270.77	263.44
271.002	268.44
271.234	241.44
271.466	238.44
271.698	275.44
271.93	258.44
272.162	271.44
272.394	262.44
272.626	258.44
272.858	257.44
273.09	228.44
273.322	246.44
273.553	222.44
273.785	231.44
274.017	244.44
274.249	241.44
274.481	216.44
274.713	238.44
274.945	226.44
275.176	239.44
275.408	245.44
275.64	226.44
275.872	217.44
276.104	244.44
276.335	245.44
276.567	234.44
276.799	244.44
277.031	254.44
277.262	270.44
277.494	263.44
277.726	285.44
277.957	266.44
278.189	238.44
278.421	249.44
278.652	249.44
278.884	242.44
279.115	220.44
279.347	246.44
279.579	255.44
279.81	256.44
280.042	244.44
280.273	269.44
280.505	236.44
280.736	260.44
280.968	242.44
281.199	249.44
281.431	247.44
281.662	258.44
281.894	251.44
282.125	261.44
282.356	267.44
282.588	258.44
282.819	278.44
283.051	244.44
283.282	237.44
283.513	262.44
283.745	258.44
283.976	262.44
284.207	267.44
284.439	266.44
284.67	257.44
284.901	249.44
285.132	259.44
285.364	262.44
285.595	266.44
285.826	259.44
286.057	256.44
286.288	261.44
286.52	272.44
286.751	267.44
286.982	262.44
287.213	252.44
287.444	282.44
287.675	280.44
287.906	282.44
288.138	280.44
288.369	267.44
288.6	279.44
288.831	286.44
289.062	291.44
289.293	287.44
289.524	291.44
289.755	261.44
289.986	277.44
290.217	278.44
290.448	283.44
290.679	277.44
290.91	264.44
291.141	272.44
291.371	272.44
291.602	277.44
291.833	282.44
292.064	279.44
292.295	283.44
292.526	267.44
292.757	271.44
292.987	274.44
293.218	268.44
293.449	277.44
293.68	293.44
293.91	260.44
294.141	269.44
294.372	275.44
294.603	279.44
294.833	281.44
295.064	280.44
295.295	285.44
295.525	279.44
295.756	278.44
295.987	287.44
296.217	293.44
296.448	298.44
296.679	295.44
296.909	277.44
297.14	282.44
297.37	284.44
297.601	271.44
297.831	280.44
298.062	280.44
298.292	295.44
298.523	305.44
298.753	299.44
298.984	300.44
299.214	282.44
299.445	274.44
299.675	303.44
299.905	300.44
300.136	269.44
300.366	289.44
300.597	306.44
300.827	310.44
301.057	306.44
301.288	317.44
301.518	297.44
301.748	313.44
301.979	298.44
302.209	327.44
302.439	316.44
302.669	319.44
302.9	302.44
303.13	312.44
303.36	315.44
303.59	299.44
303.82	315.44
304.051	306.44
304.281	295.44
304.511	295.44
304.741	311.44
304.971	293.44
305.201	313.44
305.431	323.44
305.661	325.44
305.891	299.44
306.121	305.44
306.352	302.44
306.582	321.44
306.812	293.44
307.042	312.44
307.272	312.44
307.502	321.44
307.731	300.44
307.961	316.44
308.191	305.44
308.421	297.44
308.651	309.44
308.881	313.44
309.111	327.44
309.341	312.44
309.571	302.44
309.8	331.44
310.03	323.44
310.26	317.44
310.49	326.44
310.72	330.44
310.949	336.44
311.179	353.44
311.409	343.44
311.639	338.44
311.868	341.44
312.098	334.44
312.328	318.44
312.557	346.44
312.787	347.44
313.017	351.44
313.246	339.44
313.476	327.44
313.706	334.44
313.935	348.44
314.165	335.44
314.394	354.44
314.624	348.44
314.853	349.44
315.083	345.44
315.312	340.44
315.542	324.44
315.771	332.44
316.001	326.44
316.23	347.44
316.46	354.44
316.689	331.44
316.919	326.44
317.148	338.44
317.377	354.44
317.607	347.44
317.836	341.44
318.065	338.44
318.295	338.44
318.524	339.44
318.753	306.44
318.983	334.44
319.212	325.44
319.441	324.44
319.67	354.44
319.9	339.44
320.129	357.44
320.358	355.44
320.587	339.44
320.816	353.44
321.046	328.44
321.275	350.44
321.504	351.44
321.733	350.44
321.962	336.44
322.191	376.44
322.42	365.44
322.649	363.44
322.878	380.44
323.108	380.44
323.337	391.44
323.566	407.44
323.795	429.44
324.024	442.44
324.253	510.44
324.482	668.44
324.71	985.44
324.939	1321.44
325.168	1132.44
325.397	617.44
325.626	502.44
325.855	463.44
326.084	428.44
326.313	401.44
326.542	406.44
326.77	425.44
326.999	500.44
327.228	651.44
327.457	901.44
327.686	1069.44
327.914	735.44
328.143	539.44
328.372	492.44
328.6	482.44
328.829	447.44
329.058	459.44
329.287	449.44
329.515	437.44
329.744	450.44
329.972	456.44
330.201	486.44
330.43	516.44
330.658	527.44
330.887	519.44
331.115	475.44
331.344	455.44
331.572	418.44
331.801	426.44
332.03	445.44
332.258	424.44
332.486	426.44
332.715	418.44
332.943	452.44
333.172	453.44
333.4	438.44
333.629	468.44
333.857	463.44
334.085	494.44
334.314	542.44
334.542	580.44
334.771	597.44
334.999	513.44
335.227	469.44
335.455	443.44
335.684	422.44
335.912	410.44
336.14	434.44
336.369	405.44
336.597	446.44
336.825	383.44
337.053	409.44
337.281	388.44
337.51	396.44
337.738	412.44
337.966	395.44
338.194	389.44
338.422	393.44
338.65	398.44
338.878	398.44
339.106	390.44
339.334	378.44
339.562	380.44
339.79	371.44
340.018	367.44
340.246	383.44
340.474	383.44
340.702	378.44
340.93	357.44
341.158	371.44
341.386	363.44
341.614	362.44
341.842	393.44
342.07	383.44
342.298	370.44
342.526	394.44
342.754	370.44
342.981	366.44
343.209	364.44
343.437	398.44
343.665	375.44
343.893	405.44
344.12	414.44
344.348	415.44
344.576	400.44
344.804	387.44
345.031	388.44
345.259	389.44
345.487	386.44
345.714	375.44
345.942	378.44
346.17	366.44
346.397	371.44
346.625	363.44
346.853	361.44
347.08	357.44
347.308	364.44
347.535	360.44
347.763	364.44
347.99	366.44
348.218	355.44
348.445	353.44
348.673	361.44
348.9	357.44
349.128	348.44
349.355	361.44
349.583	341.44
349.81	339.44
350.037	357.44
350.265	362.44
350.492	353.44
350.72	334.44
350.947	333.44
351.174	350.44
351.402	352.44
351.629	372.44
351.856	370.44
352.083	358.44
352.311	342.44
352.538	347.44
352.765	334.44
352.992	338.44
353.22	350.44
353.447	350.44
353.674	347.44
353.901	345.44
354.128	337.44
354.355	332.44
354.583	343.44
354.81	336.44
355.037	342.44
355.264	324.44
355.491	347.44
355.718	333.44
355.945	352.44
356.172	315.44
356.399	335.44
356.626	353.44
356.853	360.44
357.08	328.44
357.307	343.44
357.534	336.44
357.761	334.44
357.988	340.44
358.215	362.44
358.441	325.44
358.668	342.44
358.895	337.44
359.122	337.44
359.349	335.44
359.576	348.44
359.802	363.44
360.029	383.44
360.256	377.44
360.483	372.44
360.709	349.44
360.936	336.44
361.163	350.44
361.39	375.44
361.616	376.44
361.843	342.44
362.07	354.44
362.296	372.44
362.523	337.44
362.749	342.44
362.976	359.44
363.203	340.44
363.429	332.44
363.656	356.44
363.882	355.44
364.109	338.44
364.335	353.44
364.562	334.44
364.788	342.44
365.015	333.44
365.241	313.44
365.468	357.44
365.694	346.44
365.92	356.44
366.147	344.44
366.373	311.44
366.599	333.44
366.826	328.44
367.052	355.44
367.278	327.44
367.505	335.44
367.731	324.44
367.957	356.44
368.184	327.44
368.41	345.44
368.636	338.44
368.862	364.44
369.089	351.44
369.315	351.44
369.541	343.44
369.767	331.44
369.993	348.44
370.219	345.44
370.445	325.44
370.672	350.44
370.898	343.44
371.124	334.44
371.35	348.44
371.576	344.44
371.802	335.44
372.028	334.44
372.254	343.44
372.48	354.44
372.706	367.44
372.932	373.44
373.158	357.44
373.384	340.44
373.61	345.44
373.835	349.44
374.061	352.44
374.287	339.44
374.513	360.44
374.739	361.44
374.965	360.44
375.191	359.44
375.416	371.44
375.642	339.44
375.868	349.44
376.094	358.44
376.319	359.44
376.545	362.44
376.771	347.44
376.997	354.44
377.222	339.44
377.448	345.44
377.674	338.44
377.899	336.44
378.125	351.44
378.35	331.44
378.576	335.44
378.802	342.44
379.027	347.44
379.253	335.44
379.478	342.44
379.704	334.44
379.929	337.44
380.155	311.44
380.38	339.44
380.606	346.44
380.831	338.44
381.057	355.44
381.282	359.44
381.507	337.44
381.733	364.44
381.958	357.44
382.184	348.44
382.409	358.44
382.634	381.44
382.86	349.44
383.085	364.44
383.31	354.44
383.535	360.44
383.761	365.44
383.986	369.44
384.211	378.44
384.436	373.44
384.662	374.44
384.887	388.44
385.112	379.44
385.337	381.44
385.562	405.44
385.787	375.44
386.013	384.44
386.238	389.44
386.463	411.44
386.688	398.44
386.913	392.44
387.138	392.44
387.363	374.44
387.588	393.44
387.813	389.44
388.038	379.44
388.263	385.44
388.488	390.44
388.713	386.44
388.938	410.44
389.163	391.44
389.387	378.44
389.612	386.44
389.837	375.44
390.062	377.44
390.287	388.44
390.512	381.44
390.736	377.44
390.961	392.44
391.186	378.44
391.411	410.44
391.636	397.44
391.86	425.44
392.085	431.44
392.31	401.44
392.534	396.44
392.759	404.44
392.984	392.44
393.208	393.44
393.433	393.44
393.658	404.44
393.882	392.44
394.107	398.44
394.331	407.44
394.556	388.44
394.78	418.44
395.005	428.44
395.229	401.44
395.454	427.44
395.678	404.44
395.903	422.44
396.127	444.44
396.352	427.44
396.576	427.44
396.801	425.44
397.025	403.44
397.249	404.44
397.474	418.44
397.698	417.44
397.922	433.44
398.147	418.44
398.371	456.44
398.595	445.44
398.82	453.44
399.044	466.44
399.268	499.44
399.492	557.44
399.717	597.44
399.941	597.44
400.165	588.44
400.389	574.44
400.613	525.44
400.837	505.44
401.062	468.44
401.286	460.44
401.51	459.44
401.734	472.44
401.958	474.44
402.182	463.44
402.406	476.44
402.63	471.44
402.854	463.44
403.078	469.44
403.302	481.44
403.526	491.44
403.75	499.44
403.974	476.44
404.198	488.44
404.422	510.44
404.645	521.44
404.869	507.44
405.093	539.44
405.317	548.44
405.541	570.44
405.765	533.44
405.988	529.44
406.212	517.44
406.436	519.44
406.66	516.44
406.883	521.44
407.107	537.44
407.331	577.44
407.555	628.44
407.778	598.44
408.002	548.44
408.226	541.44
408.449	531.44
408.673	538.44
408.896	548.44
409.12	541.44
409.344	537.44
409.567	498.44
409.791	503.44
410.014	500.44
410.238	463.44
410.461	488.44
410.685	468.44
410.908	498.44
411.132	513.44
411.355	526.44
411.578	509.44
411.802	473.44
412.025	473.44
412.249	467.44
412.472	503.44
412.695	541.44
412.919	550.44
413.142	509.44
413.365	473.44
413.589	477.44
413.812	476.44
414.035	450.44
414.258	462.44
414.482	435.44
414.705	466.44
414.928	441.44
415.151	455.44
415.374	460.44
415.597	433.44
415.821	439.44
416.044	463.44
416.267	434.44
416.49	446.44
416.713	453.44
416.936	444.44
417.159	454.44
417.382	451.44
417.605	461.44
417.828	465.44
418.051	467.44
418.274	457.44
418.497	450.44
418.72	472.44
418.943	436.44
419.166	471.44
419.389	492.44
419.611	492.44
419.834	493.44
420.057	502.44
420.28	499.44
420.503	483.44
420.726	459.44
420.948	454.44
421.171	488.44
421.394	487.44
421.617	462.44
421.839	462.44
422.062	476.44
422.285	466.44
422.507	494.44
422.73	525.44
422.953	533.44
423.175	482.44
423.398	469.44
423.621	477.44
423.843	477.44
424.066	494.44
424.288	482.44
424.511	489.44
424.733	513.44
424.956	567.44
425.178	554.44
425.401	541.44
425.623	547.44
425.846	495.44
426.068	491.44
426.291	461.44
426.513	459.44
426.735	469.44
426.958	500.44
427.18	527.44
427.402	590.44
427.625	667.44
427.847	575.44
428.069	533.44
428.292	480.44
428.514	453.44
428.736	438.44
428.958	444.44
429.181	421.44
429.403	412.44
429.625	437.44
429.847	437.44
430.069	500.44
430.292	485.44
430.514	434.44
430.736	422.44
430.958	424.44
431.18	429.44
431.402	417.44
431.624	407.44
431.846	425.44
432.068	411.44
432.29	425.44
432.512	418.44
432.734	426.44
432.956	418.44
433.178	412.44
433.4	433.44
433.622	426.44
433.844	399.44
434.066	419.44
434.287	415.44
434.509	434.44
434.731	456.44
434.953	447.44
435.175	450.44
435.397	475.44
435.618	455.44
435.84	469.44
436.062	514.44
436.284	561.44
436.505	479.44
436.727	457.44
436.949	424.44
437.17	431.44
437.392	418.44
437.614	425.44
437.835	433.44
438.057	492.44
438.278	531.44
438.5	541.44
438.721	577.44
438.943	580.44
439.165	476.44
439.386	437.44
439.608	453.44
439.829	429.44
440.05	460.44
440.272	489.44
440.493	481.44
440.715	426.44
440.936	430.44
441.158	449.44
441.379	437.44
441.6	447.44
441.822	460.44
442.043	479.44
442.264	508.44
442.486	539.44
442.707	532.44
442.928	476.44
443.149	480.44
443.371	477.44
443.592	478.44
443.813	558.44
444.034	591.44
444.255	524.44
444.476	501.44
444.698	486.44
444.919	505.44
445.14	620.44
445.361	509.44
445.582	492.44
445.803	491.44
446.024	576.44
446.245	561.44
446.466	522.44
446.687	485.44
446.908	451.44
447.129	416.44
447.35	412.44
447.571	418.44
447.792	419.44
448.013	418.44
448.234	410.44
448.455	438.44
448.675	495.44
448.896	553.44
449.117	513.44
449.338	478.44
449.559	526.44
449.779	581.44
450	477.44
450.221	431.44
450.442	399.44
450.662	412.44
450.883	403.44
451.104	409.44
451.324	388.44
451.545	390.44
451.766	386.44
451.986	377.44
452.207	381.44
452.428	380.44
452.648	404.44
452.869	384.44
453.089	405.44
453.31	395.44
453.53	362.44
453.751	377.44
453.971	371.44
454.192	378.44
454.412	377.44
454.633	373.44
454.853	370.44
455.073	380.44
455.294	382.44
455.514	399.44
455.734	400.44
455.955	379.44
456.175	381.44
456.395	364.44
456.616	361.44
456.836	359.44
457.056	379.44
457.276	349.44
457.497	351.44
457.717	348.44
457.937	362.44
458.157	381.44
458.377	379.44
458.598	397.44
458.818	411.44
459.038	450.44
459.258	471.44
459.478	442.44
459.698	441.44
459.918	420.44
460.138	401.44
460.358	435.44
460.578	449.44
460.798	449.44
461.018	462.44
461.238	446.44
461.458	442.44
461.678	443.44
461.898	457.44
462.118	441.44
462.338	470.44
462.558	484.44
462.777	473.44
462.997	529.44
463.217	544.44
463.437	545.44
463.657	500.44
463.876	477.44
464.096	501.44
464.316	476.44
464.536	494.44
464.755	489.44
464.975	483.44
465.195	494.44
465.414	486.44
465.634	444.44
465.854	413.44
466.073	426.44
466.293	395.44
466.512	413.44
466.732	400.44
466.951	408.44
467.171	390.44
467.391	382.44
467.61	380.44
467.829	386.44
468.049	402.44
468.268	412.44
468.488	387.44
468.707	365.44
468.927	356.44
469.146	393.44
469.365	405.44
469.585	389.44
469.804	393.44
470.023	412.44
470.243	404.44
470.462	423.44
470.681	398.44
470.901	394.44
471.12	412.44
471.339	405.44
471.558	408.44
471.777	398.44
471.997	397.44
472.216	422.44
472.435	461.44
472.654	432.44
472.873	416.44
473.092	403.44
473.311	388.44
473.53	385.44
473.749	404.44
473.968	403.44
474.187	470.44
474.406	475.44
474.625	387.44
474.844	384.44
475.063	392.44
475.282	382.44
475.501	395.44
475.72	400.44
475.939	398.44
476.158	398.44
476.377	402.44
476.596	385.44
476.814	407.44
477.033	427.44
477.252	426.44
477.471	411.44
477.69	406.44
477.908	435.44
478.127	443.44
478.346	447.44
478.564	436.44
478.783	446.44
479.002	453.44
479.22	453.44
479.439	466.44
479.658	468.44
479.876	485.44
480.095	473.44
480.313	492.44
480.532	506.44
480.751	491.44
480.969	518.44
481.188	583.44
481.406	591.44
481.624	531.44
481.843	503.44
482.061	486.44
482.28	461.44
482.498	438.44
482.717	445.44
482.935	442.44
483.153	457.44
483.372	458.44
483.59	456.44
483.808	445.44
484.027	434.44
484.245	460.44
484.463	431.44
484.681	448.44
484.9	467.44
485.118	453.44
485.336	469.44
485.554	448.44
485.772	443.44
485.99	466.44
486.209	474.44
486.427	461.44
486.645	492.44
486.863	478.44
487.081	456.44
487.299	463.44
487.517	450.44
487.735	455.44
487.953	468.44
488.171	487.44
488.389	481.44
488.607	471.44
488.825	480.44
489.043	466.44
489.261	475.44
489.479	502.44
489.696	467.44
489.914	481.44
490.132	469.44
490.35	470.44
490.568	473.44
490.786	501.44
491.003	514.44
491.221	527.44
491.439	534.44
491.657	535.44
491.874	536.44
492.092	525.44
492.31	552.44
492.527	555.44
492.745	516.44
492.963	556.44
493.18	527.44
493.398	545.44
493.615	560.44
493.833	561.44
494.05	544.44
494.268	538.44
494.485	548.44
494.703	552.44
494.92	544.44
495.138	570.44
495.355	543.44
495.573	525.44
495.79	552.44
496.008	530.44
496.225	539.44
496.442	537.44
496.66	545.44
496.877	516.44
497.094	552.44
497.312	550.44
497.529	578.44
497.746	591.44
497.963	591.44
498.181	600.44
498.398	615.44
498.615	645.44
498.832	681.44
499.049	694.44
499.267	734.44
499.484	758.44
499.701	812.44
499.918	864.44
500.135	935.44
500.352	998.44
500.569	1040.44
500.786	1043.44
501.003	1007.44
501.22	939.44
501.437	886.44
501.654	813.44
501.871	787.44
502.088	757.44
