Data from 1984.PennyLincolnUp.Lamp.En5.5.200Scan.071819.P1_HRD10591_16-58-19-968.txt Node
Date: Thu Jul 18 16:58:19 EDT 2019
User: cochatt
Spectrometer: HR+D1059
Trigger mode: 1
Integration Time (sec): 1.000000E-1
Scans to average: 1
Electric dark correction enabled: true
Nonlinearity correction enabled: false
Boxcar width: 0
XAxis mode: Wavelengths
Number of Pixels in Spectrum: 2048
>>>>>Begin Spectral Data<<<<<
223.165	-19.88
223.4	-19.88
223.635	-19.88
223.869	-19.88
224.104	-7.88
224.338	-10.88
224.573	-22.88
224.808	-12.88
225.042	-8.88
225.277	-6.88
225.511	-1.88
225.746	5.12
225.98	5.12
226.215	16.12
226.449	15.12
226.683	17.12
226.918	21.12
227.152	32.12
227.387	37.12
227.621	40.12
227.856	36.12
228.09	60.12
228.324	53.12
228.559	53.12
228.793	68.12
229.027	86.12
229.262	83.12
229.496	93.12
229.73	117.12
229.964	119.12
230.199	105.12
230.433	86.12
230.667	108.12
230.901	103.12
231.136	93.12
231.37	112.12
231.604	97.12
231.838	117.12
232.072	123.12
232.306	99.12
232.541	107.12
232.775	107.12
233.009	110.12
233.243	102.12
233.477	107.12
233.711	102.12
233.945	109.12
234.179	103.12
234.413	102.12
234.647	97.12
234.881	109.12
235.115	107.12
235.349	111.12
235.583	122.12
235.817	125.12
236.051	111.12
236.285	102.12
236.519	121.12
236.753	113.12
236.987	128.12
237.221	141.12
237.455	159.12
237.689	145.12
237.922	125.12
238.156	121.12
238.39	115.12
238.624	108.12
238.858	116.12
239.091	112.12
239.325	118.12
239.559	129.12
239.793	113.12
240.027	128.12
240.26	127.12
240.494	139.12
240.728	131.12
240.961	133.12
241.195	142.12
241.429	132.12
241.662	128.12
241.896	120.12
242.13	125.12
242.363	119.12
242.597	137.12
242.83	122.12
243.064	130.12
243.298	122.12
243.531	135.12
243.765	129.12
243.998	119.12
244.232	123.12
244.465	135.12
244.699	143.12
244.932	117.12
245.166	131.12
245.399	146.12
245.633	136.12
245.866	151.12
246.099	140.12
246.333	139.12
246.566	132.12
246.8	139.12
247.033	140.12
247.266	142.12
247.5	157.12
247.733	156.12
247.966	146.12
248.2	137.12
248.433	156.12
248.666	143.12
248.899	158.12
249.133	163.12
249.366	174.12
249.599	176.12
249.832	172.12
250.066	171.12
250.299	172.12
250.532	166.12
250.765	175.12
250.998	199.12
251.231	177.12
251.465	179.12
251.698	171.12
251.931	167.12
252.164	179.12
252.397	153.12
252.63	177.12
252.863	189.12
253.096	179.12
253.329	187.12
253.562	193.12
253.795	189.12
254.028	189.12
254.261	186.12
254.494	190.12
254.727	202.12
254.96	218.12
255.193	227.12
255.426	196.12
255.659	190.12
255.892	208.12
256.124	200.12
256.357	218.12
256.59	218.12
256.823	204.12
257.056	196.12
257.289	178.12
257.521	193.12
257.754	177.12
257.987	187.12
258.22	171.12
258.452	182.12
258.685	199.12
258.918	182.12
259.151	198.12
259.383	195.12
259.616	196.12
259.849	199.12
260.081	200.12
260.314	221.12
260.547	227.12
260.779	214.12
261.012	203.12
261.244	197.12
261.477	210.12
261.71	193.12
261.942	182.12
262.175	205.12
262.407	196.12
262.64	177.12
262.872	192.12
263.105	199.12
263.337	210.12
263.57	196.12
263.802	193.12
264.035	179.12
264.267	182.12
264.499	203.12
264.732	198.12
264.964	200.12
265.197	182.12
265.429	199.12
265.661	199.12
265.894	202.12
266.126	201.12
266.358	195.12
266.591	194.12
266.823	196.12
267.055	201.12
267.287	198.12
267.52	206.12
267.752	201.12
267.984	198.12
268.216	218.12
268.448	221.12
268.681	212.12
268.913	214.12
269.145	259.12
269.377	244.12
269.609	233.12
269.841	233.12
270.073	240.12
270.306	237.12
270.538	269.12
270.77	251.12
271.002	233.12
271.234	245.12
271.466	265.12
271.698	275.12
271.93	286.12
272.162	259.12
272.394	275.12
272.626	272.12
272.858	261.12
273.09	261.12
273.322	245.12
273.553	241.12
273.785	239.12
274.017	234.12
274.249	247.12
274.481	233.12
274.713	234.12
274.945	226.12
275.176	231.12
275.408	235.12
275.64	237.12
275.872	243.12
276.104	263.12
276.335	263.12
276.567	229.12
276.799	261.12
277.031	258.12
277.262	258.12
277.494	267.12
277.726	271.12
277.957	259.12
278.189	259.12
278.421	257.12
278.652	238.12
278.884	251.12
279.115	247.12
279.347	247.12
279.579	261.12
279.81	241.12
280.042	239.12
280.273	258.12
280.505	271.12
280.736	251.12
280.968	244.12
281.199	241.12
281.431	254.12
281.662	249.12
281.894	267.12
282.125	260.12
282.356	270.12
282.588	272.12
282.819	277.12
283.051	255.12
283.282	246.12
283.513	251.12
283.745	263.12
283.976	251.12
284.207	264.12
284.439	260.12
284.67	257.12
284.901	261.12
285.132	261.12
285.364	274.12
285.595	263.12
285.826	263.12
286.057	273.12
286.288	271.12
286.52	247.12
286.751	274.12
286.982	277.12
287.213	251.12
287.444	256.12
287.675	287.12
287.906	284.12
288.138	283.12
288.369	292.12
288.6	281.12
288.831	270.12
289.062	281.12
289.293	299.12
289.524	276.12
289.755	289.12
289.986	283.12
290.217	281.12
290.448	276.12
290.679	289.12
290.91	282.12
291.141	284.12
291.371	285.12
291.602	283.12
291.833	271.12
292.064	279.12
292.295	270.12
292.526	267.12
292.757	276.12
292.987	272.12
293.218	281.12
293.449	291.12
293.68	265.12
293.91	286.12
294.141	277.12
294.372	276.12
294.603	286.12
294.833	275.12
295.064	297.12
295.295	269.12
295.525	281.12
295.756	305.12
295.987	274.12
296.217	319.12
296.448	297.12
296.679	295.12
296.909	295.12
297.14	301.12
297.37	281.12
297.601	305.12
297.831	295.12
298.062	296.12
298.292	294.12
298.523	294.12
298.753	321.12
298.984	311.12
299.214	290.12
299.445	280.12
299.675	294.12
299.905	285.12
300.136	308.12
300.366	296.12
300.597	310.12
300.827	309.12
301.057	307.12
301.288	317.12
301.518	330.12
301.748	331.12
301.979	323.12
302.209	298.12
302.439	303.12
302.669	310.12
302.9	321.12
303.13	323.12
303.36	328.12
303.59	333.12
303.82	330.12
304.051	329.12
304.281	309.12
304.511	313.12
304.741	326.12
304.971	318.12
305.201	321.12
305.431	344.12
305.661	320.12
305.891	313.12
306.121	308.12
306.352	324.12
306.582	305.12
306.812	326.12
307.042	317.12
307.272	313.12
307.502	327.12
307.731	322.12
307.961	313.12
308.191	313.12
308.421	321.12
308.651	298.12
308.881	314.12
309.111	337.12
309.341	325.12
309.571	319.12
309.8	341.12
310.03	345.12
310.26	350.12
310.49	323.12
310.72	332.12
310.949	362.12
311.179	363.12
311.409	351.12
311.639	330.12
311.868	350.12
312.098	346.12
312.328	346.12
312.557	345.12
312.787	349.12
313.017	368.12
313.246	362.12
313.476	343.12
313.706	361.12
313.935	345.12
314.165	359.12
314.394	351.12
314.624	361.12
314.853	340.12
315.083	342.12
315.312	366.12
315.542	327.12
315.771	337.12
316.001	345.12
316.23	351.12
316.46	353.12
316.689	353.12
316.919	357.12
317.148	351.12
317.377	365.12
317.607	352.12
317.836	348.12
318.065	344.12
318.295	350.12
318.524	358.12
318.753	335.12
318.983	349.12
319.212	346.12
319.441	351.12
319.67	340.12
319.9	354.12
320.129	340.12
320.358	355.12
320.587	349.12
320.816	343.12
321.046	345.12
321.275	356.12
321.504	344.12
321.733	327.12
321.962	373.12
322.191	372.12
322.42	381.12
322.649	398.12
322.878	387.12
323.108	398.12
323.337	389.12
323.566	413.12
323.795	423.12
324.024	456.12
324.253	510.12
324.482	696.12
324.71	956.12
324.939	1361.12
325.168	1167.12
325.397	678.12
325.626	507.12
325.855	470.12
326.084	421.12
326.313	431.12
326.542	433.12
326.77	444.12
326.999	503.12
327.228	668.12
327.457	930.12
327.686	1079.12
327.914	745.12
328.143	569.12
328.372	512.12
328.6	493.12
328.829	469.12
329.058	455.12
329.287	449.12
329.515	460.12
329.744	441.12
329.972	451.12
330.201	486.12
330.43	485.12
330.658	495.12
330.887	485.12
331.115	474.12
331.344	457.12
331.572	438.12
331.801	425.12
332.03	429.12
332.258	430.12
332.486	414.12
332.715	426.12
332.943	427.12
333.172	449.12
333.4	447.12
333.629	473.12
333.857	495.12
334.085	501.12
334.314	519.12
334.542	580.12
334.771	536.12
334.999	522.12
335.227	460.12
335.455	437.12
335.684	426.12
335.912	443.12
336.14	429.12
336.369	427.12
336.597	410.12
336.825	421.12
337.053	426.12
337.281	421.12
337.51	405.12
337.738	391.12
337.966	394.12
338.194	408.12
338.422	410.12
338.65	400.12
338.878	402.12
339.106	398.12
339.334	398.12
339.562	394.12
339.79	386.12
340.018	386.12
340.246	398.12
340.474	392.12
340.702	399.12
340.93	389.12
341.158	390.12
341.386	391.12
341.614	393.12
341.842	381.12
342.07	384.12
342.298	389.12
342.526	390.12
342.754	390.12
342.981	358.12
343.209	369.12
343.437	398.12
343.665	405.12
343.893	443.12
344.12	442.12
344.348	432.12
344.576	424.12
344.804	414.12
345.031	401.12
345.259	389.12
345.487	381.12
345.714	379.12
345.942	386.12
346.17	386.12
346.397	360.12
346.625	376.12
346.853	377.12
347.08	364.12
347.308	362.12
347.535	385.12
347.763	375.12
347.99	381.12
348.218	389.12
348.445	372.12
348.673	363.12
348.9	363.12
349.128	364.12
349.355	350.12
349.583	337.12
349.81	376.12
350.037	344.12
350.265	358.12
350.492	354.12
350.72	345.12
350.947	355.12
351.174	349.12
351.402	362.12
351.629	365.12
351.856	387.12
352.083	355.12
352.311	343.12
352.538	365.12
352.765	366.12
352.992	365.12
353.22	336.12
353.447	363.12
353.674	339.12
353.901	346.12
354.128	345.12
354.355	361.12
354.583	351.12
354.81	347.12
355.037	355.12
355.264	349.12
355.491	355.12
355.718	342.12
355.945	339.12
356.172	331.12
356.399	338.12
356.626	337.12
356.853	359.12
357.08	330.12
357.307	334.12
357.534	353.12
357.761	352.12
357.988	334.12
358.215	341.12
358.441	363.12
358.668	364.12
358.895	361.12
359.122	361.12
359.349	352.12
359.576	360.12
359.802	376.12
360.029	391.12
360.256	389.12
360.483	368.12
360.709	371.12
360.936	356.12
361.163	349.12
361.39	343.12
361.616	354.12
361.843	361.12
362.07	358.12
362.296	365.12
362.523	347.12
362.749	359.12
362.976	346.12
363.203	353.12
363.429	341.12
363.656	358.12
363.882	337.12
364.109	339.12
364.335	359.12
364.562	361.12
364.788	349.12
365.015	355.12
365.241	348.12
365.468	358.12
365.694	357.12
365.92	375.12
366.147	356.12
366.373	347.12
366.599	343.12
366.826	343.12
367.052	328.12
367.278	335.12
367.505	330.12
367.731	343.12
367.957	340.12
368.184	343.12
368.41	340.12
368.636	352.12
368.862	362.12
369.089	341.12
369.315	358.12
369.541	346.12
369.767	364.12
369.993	367.12
370.219	351.12
370.445	357.12
370.672	374.12
370.898	356.12
371.124	353.12
371.35	363.12
371.576	355.12
371.802	355.12
372.028	358.12
372.254	377.12
372.48	357.12
372.706	373.12
372.932	351.12
373.158	375.12
373.384	371.12
373.61	363.12
373.835	359.12
374.061	360.12
374.287	373.12
374.513	361.12
374.739	361.12
374.965	359.12
375.191	367.12
375.416	372.12
375.642	351.12
375.868	348.12
376.094	371.12
376.319	369.12
376.545	342.12
376.771	369.12
376.997	359.12
377.222	345.12
377.448	349.12
377.674	342.12
377.899	357.12
378.125	375.12
378.35	348.12
378.576	349.12
378.802	360.12
379.027	359.12
379.253	342.12
379.478	342.12
379.704	347.12
379.929	367.12
380.155	356.12
380.38	351.12
380.606	338.12
380.831	345.12
381.057	362.12
381.282	343.12
381.507	372.12
381.733	362.12
381.958	353.12
382.184	358.12
382.409	362.12
382.634	366.12
382.86	361.12
383.085	370.12
383.31	351.12
383.535	383.12
383.761	360.12
383.986	389.12
384.211	382.12
384.436	382.12
384.662	386.12
384.887	390.12
385.112	402.12
385.337	390.12
385.562	405.12
385.787	412.12
386.013	398.12
386.238	390.12
386.463	407.12
386.688	426.12
386.913	412.12
387.138	394.12
387.363	383.12
387.588	392.12
387.813	393.12
388.038	395.12
388.263	393.12
388.488	379.12
388.713	401.12
388.938	391.12
389.163	403.12
389.387	403.12
389.612	379.12
389.837	402.12
390.062	398.12
390.287	400.12
390.512	395.12
390.736	418.12
390.961	409.12
391.186	410.12
391.411	426.12
391.636	442.12
391.86	440.12
392.085	430.12
392.31	445.12
392.534	419.12
392.759	425.12
392.984	419.12
393.208	426.12
393.433	406.12
393.658	399.12
393.882	396.12
394.107	414.12
394.331	421.12
394.556	403.12
394.78	426.12
395.005	399.12
395.229	419.12
395.454	426.12
395.678	428.12
395.903	444.12
396.127	437.12
396.352	437.12
396.576	401.12
396.801	406.12
397.025	423.12
397.249	403.12
397.474	423.12
397.698	422.12
397.922	442.12
398.147	461.12
398.371	448.12
398.595	455.12
398.82	475.12
399.044	484.12
399.268	502.12
399.492	570.12
399.717	596.12
399.941	650.12
400.165	613.12
400.389	566.12
400.613	569.12
400.837	516.12
401.062	491.12
401.286	474.12
401.51	479.12
401.734	465.12
401.958	515.12
402.182	479.12
402.406	502.12
402.63	497.12
402.854	493.12
403.078	488.12
403.302	500.12
403.526	490.12
403.75	537.12
403.974	533.12
404.198	507.12
404.422	519.12
404.645	516.12
404.869	512.12
405.093	541.12
405.317	539.12
405.541	577.12
405.765	550.12
405.988	524.12
406.212	539.12
406.436	540.12
406.66	520.12
406.883	541.12
407.107	546.12
407.331	601.12
407.555	627.12
407.778	637.12
408.002	588.12
408.226	554.12
408.449	522.12
408.673	548.12
408.896	535.12
409.12	539.12
409.344	535.12
409.567	527.12
409.791	500.12
410.014	499.12
410.238	498.12
410.461	520.12
410.685	507.12
410.908	497.12
411.132	552.12
411.355	538.12
411.578	523.12
411.802	490.12
412.025	491.12
412.249	527.12
412.472	531.12
412.695	547.12
412.919	510.12
413.142	503.12
413.365	494.12
413.589	481.12
413.812	493.12
414.035	471.12
414.258	466.12
414.482	481.12
414.705	484.12
414.928	473.12
415.151	491.12
415.374	458.12
415.597	444.12
415.821	457.12
416.044	442.12
416.267	460.12
416.49	446.12
416.713	474.12
416.936	461.12
417.159	464.12
417.382	456.12
417.605	455.12
417.828	468.12
418.051	465.12
418.274	469.12
418.497	464.12
418.72	462.12
418.943	480.12
419.166	499.12
419.389	513.12
419.611	521.12
419.834	504.12
420.057	486.12
420.28	493.12
420.503	498.12
420.726	455.12
420.948	492.12
421.171	486.12
421.394	510.12
421.617	475.12
421.839	497.12
422.062	470.12
422.285	469.12
422.507	514.12
422.73	551.12
422.953	534.12
423.175	474.12
423.398	499.12
423.621	481.12
423.843	497.12
424.066	510.12
424.288	521.12
424.511	500.12
424.733	540.12
424.956	591.12
425.178	568.12
425.401	549.12
425.623	563.12
425.846	505.12
426.068	480.12
426.291	492.12
426.513	471.12
426.735	473.12
426.958	487.12
427.18	545.12
427.402	608.12
427.625	643.12
427.847	597.12
428.069	531.12
428.292	509.12
428.514	466.12
428.736	476.12
428.958	447.12
429.181	436.12
429.403	426.12
429.625	423.12
429.847	467.12
430.069	490.12
430.292	498.12
430.514	452.12
430.736	452.12
430.958	441.12
431.18	424.12
431.402	433.12
431.624	425.12
431.846	451.12
432.068	441.12
432.29	438.12
432.512	426.12
432.734	405.12
432.956	426.12
433.178	450.12
433.4	456.12
433.622	420.12
433.844	424.12
434.066	447.12
434.287	425.12
434.509	430.12
434.731	439.12
434.953	453.12
435.175	466.12
435.397	485.12
435.618	478.12
435.84	508.12
436.062	527.12
436.284	558.12
436.505	503.12
436.727	467.12
436.949	470.12
437.17	444.12
437.392	436.12
437.614	427.12
437.835	441.12
438.057	496.12
438.278	565.12
438.5	572.12
438.721	581.12
438.943	611.12
439.165	504.12
439.386	459.12
439.608	461.12
439.829	466.12
440.05	480.12
440.272	518.12
440.493	486.12
440.715	455.12
440.936	435.12
441.158	475.12
441.379	449.12
441.6	465.12
441.822	484.12
442.043	497.12
442.264	543.12
442.486	578.12
442.707	497.12
442.928	465.12
443.149	497.12
443.371	485.12
443.592	526.12
443.813	585.12
444.034	620.12
444.255	529.12
444.476	522.12
444.698	535.12
444.919	531.12
445.14	617.12
445.361	563.12
445.582	501.12
445.803	561.12
446.024	582.12
446.245	590.12
446.466	547.12
446.687	494.12
446.908	473.12
447.129	459.12
447.35	426.12
447.571	443.12
447.792	433.12
448.013	420.12
448.234	420.12
448.455	463.12
448.675	527.12
448.896	597.12
449.117	520.12
449.338	505.12
449.559	538.12
449.779	630.12
450	507.12
450.221	442.12
450.442	449.12
450.662	419.12
450.883	421.12
451.104	422.12
451.324	401.12
451.545	415.12
451.766	409.12
451.986	391.12
452.207	398.12
452.428	403.12
452.648	386.12
452.869	399.12
453.089	398.12
453.31	406.12
453.53	399.12
453.751	375.12
453.971	374.12
454.192	393.12
454.412	375.12
454.633	386.12
454.853	376.12
455.073	395.12
455.294	383.12
455.514	449.12
455.734	430.12
455.955	375.12
456.175	399.12
456.395	374.12
456.616	365.12
456.836	385.12
457.056	345.12
457.276	361.12
457.497	384.12
457.717	364.12
457.937	375.12
458.157	379.12
458.377	382.12
458.598	385.12
458.818	419.12
459.038	474.12
459.258	482.12
459.478	437.12
459.698	449.12
459.918	441.12
460.138	430.12
460.358	458.12
460.578	445.12
460.798	451.12
461.018	461.12
461.238	449.12
461.458	443.12
461.678	465.12
461.898	462.12
462.118	454.12
462.338	491.12
462.558	496.12
462.777	484.12
462.997	513.12
463.217	534.12
463.437	559.12
463.657	526.12
463.876	502.12
464.096	526.12
464.316	514.12
464.536	519.12
464.755	492.12
464.975	489.12
465.195	514.12
465.414	507.12
465.634	497.12
465.854	455.12
466.073	437.12
466.293	421.12
466.512	442.12
466.732	411.12
466.951	403.12
467.171	400.12
467.391	405.12
467.61	410.12
467.829	414.12
468.049	421.12
468.268	410.12
468.488	415.12
468.707	390.12
468.927	385.12
469.146	387.12
469.365	402.12
469.585	402.12
469.804	418.12
470.023	416.12
470.243	379.12
470.462	420.12
470.681	421.12
470.901	415.12
471.12	425.12
471.339	404.12
471.558	397.12
471.777	424.12
471.997	393.12
472.216	420.12
472.435	449.12
472.654	429.12
472.873	398.12
473.092	399.12
473.311	407.12
473.53	393.12
473.749	416.12
473.968	442.12
474.187	485.12
474.406	505.12
474.625	439.12
474.844	413.12
475.063	408.12
475.282	396.12
475.501	410.12
475.72	370.12
475.939	422.12
476.158	410.12
476.377	417.12
476.596	421.12
476.814	433.12
477.033	427.12
477.252	409.12
477.471	425.12
477.69	432.12
477.908	424.12
478.127	469.12
478.346	461.12
478.564	447.12
478.783	453.12
479.002	464.12
479.22	474.12
479.439	464.12
479.658	478.12
479.876	487.12
480.095	511.12
480.313	524.12
480.532	526.12
480.751	516.12
480.969	535.12
481.188	552.12
481.406	563.12
481.624	521.12
481.843	490.12
482.061	474.12
482.28	453.12
482.498	455.12
482.717	462.12
482.935	440.12
483.153	459.12
483.372	438.12
483.59	455.12
483.808	452.12
484.027	461.12
484.245	446.12
484.463	478.12
484.681	478.12
484.9	454.12
485.118	477.12
485.336	477.12
485.554	462.12
485.772	483.12
485.99	460.12
486.209	475.12
486.427	470.12
486.645	475.12
486.863	499.12
487.081	479.12
487.299	494.12
487.517	488.12
487.735	500.12
487.953	471.12
488.171	497.12
488.389	466.12
488.607	469.12
488.825	483.12
489.043	487.12
489.261	489.12
489.479	495.12
489.696	466.12
489.914	475.12
490.132	516.12
490.35	489.12
490.568	505.12
490.786	503.12
491.003	540.12
491.221	535.12
491.439	543.12
491.657	540.12
491.874	527.12
492.092	549.12
492.31	551.12
492.527	561.12
492.745	551.12
492.963	552.12
493.18	565.12
493.398	555.12
493.615	553.12
493.833	558.12
494.05	547.12
494.268	563.12
494.485	553.12
494.703	542.12
494.92	537.12
495.138	561.12
495.355	571.12
495.573	563.12
495.79	576.12
496.008	562.12
496.225	551.12
496.442	541.12
496.66	574.12
496.877	574.12
497.094	557.12
497.312	591.12
497.529	588.12
497.746	598.12
497.963	602.12
498.181	627.12
498.398	629.12
498.615	668.12
498.832	671.12
499.049	717.12
499.267	741.12
499.484	783.12
499.701	833.12
499.918	915.12
500.135	981.12
500.352	1097.12
500.569	1098.12
500.786	1074.12
501.003	1057.12
501.22	1004.12
501.437	927.12
501.654	856.12
501.871	825.12
502.088	783.12
