Data from 1984.PennyLincolnUp.Lamp.En5.5.200Scan.071819.P1_HRD10591_16-57-16-967.txt Node
Date: Thu Jul 18 16:57:16 EDT 2019
User: cochatt
Spectrometer: HR+D1059
Trigger mode: 1
Integration Time (sec): 1.000000E-1
Scans to average: 1
Electric dark correction enabled: true
Nonlinearity correction enabled: false
Boxcar width: 0
XAxis mode: Wavelengths
Number of Pixels in Spectrum: 2048
>>>>>Begin Spectral Data<<<<<
223.165	2.31
223.4	2.31
223.635	2.31
223.869	-10.69
224.104	-21.69
224.338	-24.69
224.573	-19.69
224.808	-18.69
225.042	-2.69
225.277	-5.69
225.511	-15.69
225.746	12.31
225.98	7.31
226.215	21.31
226.449	27.31
226.683	4.31
226.918	13.31
227.152	31.31
227.387	39.31
227.621	43.31
227.856	46.31
228.09	37.31
228.324	54.31
228.559	57.31
228.793	78.31
229.027	75.31
229.262	93.31
229.496	98.31
229.73	99.31
229.964	96.31
230.199	115.31
230.433	90.31
230.667	107.31
230.901	102.31
231.136	119.31
231.37	97.31
231.604	110.31
231.838	104.31
232.072	103.31
232.306	115.31
232.541	117.31
232.775	116.31
233.009	92.31
233.243	96.31
233.477	121.31
233.711	110.31
233.945	109.31
234.179	91.31
234.413	102.31
234.647	114.31
234.881	116.31
235.115	115.31
235.349	110.31
235.583	119.31
235.817	114.31
236.051	131.31
236.285	98.31
236.519	106.31
236.753	131.31
236.987	110.31
237.221	122.31
237.455	128.31
237.689	133.31
237.922	138.31
238.156	125.31
238.39	116.31
238.624	107.31
238.858	110.31
239.091	105.31
239.325	105.31
239.559	119.31
239.793	122.31
240.027	123.31
240.26	126.31
240.494	117.31
240.728	121.31
240.961	118.31
241.195	120.31
241.429	110.31
241.662	134.31
241.896	122.31
242.13	121.31
242.363	125.31
242.597	128.31
242.83	127.31
243.064	112.31
243.298	127.31
243.531	127.31
243.765	106.31
243.998	118.31
244.232	132.31
244.465	124.31
244.699	118.31
244.932	130.31
245.166	127.31
245.399	133.31
245.633	134.31
245.866	129.31
246.099	136.31
246.333	124.31
246.566	138.31
246.8	142.31
247.033	125.31
247.266	126.31
247.5	143.31
247.733	144.31
247.966	155.31
248.2	147.31
248.433	144.31
248.666	156.31
248.899	150.31
249.133	162.31
249.366	156.31
249.599	153.31
249.832	149.31
250.066	145.31
250.299	140.31
250.532	148.31
250.765	141.31
250.998	150.31
251.231	168.31
251.465	147.31
251.698	150.31
251.931	140.31
252.164	189.31
252.397	148.31
252.63	166.31
252.863	166.31
253.096	167.31
253.329	165.31
253.562	164.31
253.795	173.31
254.028	167.31
254.261	186.31
254.494	167.31
254.727	160.31
254.96	179.31
255.193	179.31
255.426	184.31
255.659	180.31
255.892	187.31
256.124	171.31
256.357	171.31
256.59	150.31
256.823	169.31
257.056	163.31
257.289	174.31
257.521	175.31
257.754	156.31
257.987	173.31
258.22	182.31
258.452	169.31
258.685	172.31
258.918	171.31
259.151	167.31
259.383	180.31
259.616	177.31
259.849	170.31
260.081	189.31
260.314	191.31
260.547	178.31
260.779	196.31
261.012	180.31
261.244	195.31
261.477	187.31
261.71	171.31
261.942	174.31
262.175	188.31
262.407	197.31
262.64	179.31
262.872	186.31
263.105	166.31
263.337	182.31
263.57	182.31
263.802	175.31
264.035	190.31
264.267	174.31
264.499	194.31
264.732	191.31
264.964	181.31
265.197	182.31
265.429	176.31
265.661	202.31
265.894	174.31
266.126	190.31
266.358	187.31
266.591	191.31
266.823	203.31
267.055	204.31
267.287	196.31
267.52	184.31
267.752	198.31
267.984	180.31
268.216	208.31
268.448	201.31
268.681	192.31
268.913	197.31
269.145	200.31
269.377	208.31
269.609	229.31
269.841	203.31
270.073	195.31
270.306	229.31
270.538	211.31
270.77	208.31
271.002	238.31
271.234	222.31
271.466	218.31
271.698	221.31
271.93	219.31
272.162	220.31
272.394	215.31
272.626	221.31
272.858	247.31
273.09	222.31
273.322	224.31
273.553	208.31
273.785	207.31
274.017	223.31
274.249	224.31
274.481	202.31
274.713	221.31
274.945	216.31
275.176	202.31
275.408	232.31
275.64	237.31
275.872	227.31
276.104	233.31
276.335	223.31
276.567	223.31
276.799	219.31
277.031	226.31
277.262	236.31
277.494	230.31
277.726	237.31
277.957	232.31
278.189	223.31
278.421	225.31
278.652	230.31
278.884	222.31
279.115	233.31
279.347	240.31
279.579	232.31
279.81	243.31
280.042	229.31
280.273	233.31
280.505	232.31
280.736	239.31
280.968	262.31
281.199	240.31
281.431	228.31
281.662	214.31
281.894	230.31
282.125	246.31
282.356	249.31
282.588	265.31
282.819	247.31
283.051	243.31
283.282	239.31
283.513	251.31
283.745	236.31
283.976	221.31
284.207	230.31
284.439	234.31
284.67	237.31
284.901	244.31
285.132	249.31
285.364	239.31
285.595	267.31
285.826	227.31
286.057	245.31
286.288	231.31
286.52	260.31
286.751	260.31
286.982	255.31
287.213	265.31
287.444	251.31
287.675	258.31
287.906	244.31
288.138	271.31
288.369	260.31
288.6	262.31
288.831	252.31
289.062	272.31
289.293	269.31
289.524	266.31
289.755	266.31
289.986	250.31
290.217	277.31
290.448	257.31
290.679	257.31
290.91	252.31
291.141	273.31
291.371	289.31
291.602	263.31
291.833	261.31
292.064	256.31
292.295	244.31
292.526	278.31
292.757	263.31
292.987	253.31
293.218	264.31
293.449	268.31
293.68	260.31
293.91	279.31
294.141	282.31
294.372	272.31
294.603	280.31
294.833	267.31
295.064	266.31
295.295	274.31
295.525	287.31
295.756	278.31
295.987	291.31
296.217	270.31
296.448	267.31
296.679	278.31
296.909	276.31
297.14	282.31
297.37	266.31
297.601	281.31
297.831	281.31
298.062	280.31
298.292	274.31
298.523	298.31
298.753	292.31
298.984	272.31
299.214	278.31
299.445	281.31
299.675	286.31
299.905	279.31
300.136	288.31
300.366	284.31
300.597	286.31
300.827	269.31
301.057	302.31
301.288	288.31
301.518	285.31
301.748	295.31
301.979	313.31
302.209	295.31
302.439	308.31
302.669	291.31
302.9	284.31
303.13	298.31
303.36	287.31
303.59	295.31
303.82	307.31
304.051	300.31
304.281	285.31
304.511	276.31
304.741	310.31
304.971	287.31
305.201	304.31
305.431	283.31
305.661	294.31
305.891	309.31
306.121	314.31
306.352	294.31
306.582	283.31
306.812	288.31
307.042	286.31
307.272	295.31
307.502	274.31
307.731	281.31
307.961	290.31
308.191	297.31
308.421	307.31
308.651	285.31
308.881	286.31
309.111	291.31
309.341	292.31
309.571	290.31
309.8	299.31
310.03	301.31
310.26	303.31
310.49	303.31
310.72	310.31
310.949	318.31
311.179	317.31
311.409	297.31
311.639	304.31
311.868	295.31
312.098	319.31
312.328	336.31
312.557	317.31
312.787	319.31
313.017	318.31
313.246	325.31
313.476	309.31
313.706	351.31
313.935	316.31
314.165	300.31
314.394	320.31
314.624	323.31
314.853	323.31
315.083	296.31
315.312	328.31
315.542	332.31
315.771	324.31
316.001	320.31
316.23	315.31
316.46	322.31
316.689	316.31
316.919	301.31
317.148	325.31
317.377	323.31
317.607	324.31
317.836	304.31
318.065	319.31
318.295	330.31
318.524	307.31
318.753	302.31
318.983	333.31
319.212	317.31
319.441	324.31
319.67	324.31
319.9	320.31
320.129	321.31
320.358	307.31
320.587	329.31
320.816	317.31
321.046	318.31
321.275	314.31
321.504	311.31
321.733	351.31
321.962	331.31
322.191	321.31
322.42	339.31
322.649	328.31
322.878	340.31
323.108	324.31
323.337	361.31
323.566	342.31
323.795	336.31
324.024	358.31
324.253	398.31
324.482	493.31
324.71	607.31
324.939	834.31
325.168	726.31
325.397	471.31
325.626	394.31
325.855	363.31
326.084	345.31
326.313	370.31
326.542	353.31
326.77	368.31
326.999	395.31
327.228	474.31
327.457	598.31
327.686	669.31
327.914	502.31
328.143	411.31
328.372	377.31
328.6	362.31
328.829	369.31
329.058	378.31
329.287	349.31
329.515	354.31
329.744	336.31
329.972	361.31
330.201	388.31
330.43	374.31
330.658	379.31
330.887	383.31
331.115	386.31
331.344	376.31
331.572	362.31
331.801	380.31
332.03	376.31
332.258	373.31
332.486	386.31
332.715	372.31
332.943	385.31
333.172	392.31
333.4	387.31
333.629	405.31
333.857	422.31
334.085	413.31
334.314	407.31
334.542	406.31
334.771	410.31
334.999	393.31
335.227	414.31
335.455	412.31
335.684	406.31
335.912	389.31
336.14	381.31
336.369	398.31
336.597	402.31
336.825	362.31
337.053	360.31
337.281	365.31
337.51	372.31
337.738	374.31
337.966	367.31
338.194	377.31
338.422	348.31
338.65	361.31
338.878	377.31
339.106	365.31
339.334	376.31
339.562	340.31
339.79	347.31
340.018	356.31
340.246	348.31
340.474	366.31
340.702	335.31
340.93	357.31
341.158	346.31
341.386	355.31
341.614	358.31
341.842	348.31
342.07	355.31
342.298	336.31
342.526	346.31
342.754	336.31
342.981	338.31
343.209	351.31
343.437	376.31
343.665	359.31
343.893	374.31
344.12	395.31
344.348	400.31
344.576	371.31
344.804	363.31
345.031	376.31
345.259	358.31
345.487	354.31
345.714	360.31
345.942	350.31
346.17	344.31
346.397	347.31
346.625	347.31
346.853	344.31
347.08	330.31
347.308	339.31
347.535	331.31
347.763	342.31
347.99	336.31
348.218	348.31
348.445	347.31
348.673	343.31
348.9	340.31
349.128	323.31
349.355	302.31
349.583	317.31
349.81	318.31
350.037	336.31
350.265	333.31
350.492	330.31
350.72	333.31
350.947	320.31
351.174	344.31
351.402	346.31
351.629	331.31
351.856	317.31
352.083	336.31
352.311	324.31
352.538	329.31
352.765	328.31
352.992	324.31
353.22	326.31
353.447	318.31
353.674	315.31
353.901	317.31
354.128	317.31
354.355	311.31
354.583	320.31
354.81	331.31
355.037	336.31
355.264	328.31
355.491	311.31
355.718	322.31
355.945	317.31
356.172	335.31
356.399	326.31
356.626	317.31
356.853	354.31
357.08	331.31
357.307	317.31
357.534	307.31
357.761	316.31
357.988	302.31
358.215	317.31
358.441	331.31
358.668	347.31
358.895	332.31
359.122	337.31
359.349	327.31
359.576	326.31
359.802	332.31
360.029	355.31
360.256	335.31
360.483	351.31
360.709	337.31
360.936	340.31
361.163	323.31
361.39	330.31
361.616	318.31
361.843	331.31
362.07	325.31
362.296	334.31
362.523	342.31
362.749	336.31
362.976	336.31
363.203	324.31
363.429	338.31
363.656	326.31
363.882	305.31
364.109	312.31
364.335	336.31
364.562	340.31
364.788	314.31
365.015	319.31
365.241	331.31
365.468	316.31
365.694	316.31
365.92	322.31
366.147	335.31
366.373	316.31
366.599	323.31
366.826	327.31
367.052	334.31
367.278	315.31
367.505	321.31
367.731	334.31
367.957	336.31
368.184	327.31
368.41	317.31
368.636	334.31
368.862	330.31
369.089	318.31
369.315	332.31
369.541	328.31
369.767	327.31
369.993	328.31
370.219	318.31
370.445	322.31
370.672	333.31
370.898	337.31
371.124	335.31
371.35	338.31
371.576	342.31
371.802	364.31
372.028	316.31
372.254	333.31
372.48	322.31
372.706	332.31
372.932	338.31
373.158	344.31
373.384	335.31
373.61	332.31
373.835	340.31
374.061	338.31
374.287	347.31
374.513	345.31
374.739	345.31
374.965	354.31
375.191	351.31
375.416	351.31
375.642	346.31
375.868	336.31
376.094	348.31
376.319	338.31
376.545	346.31
376.771	327.31
376.997	344.31
377.222	314.31
377.448	338.31
377.674	328.31
377.899	334.31
378.125	328.31
378.35	325.31
378.576	339.31
378.802	328.31
379.027	322.31
379.253	339.31
379.478	322.31
379.704	341.31
379.929	341.31
380.155	319.31
380.38	324.31
380.606	330.31
380.831	326.31
381.057	349.31
381.282	333.31
381.507	328.31
381.733	347.31
381.958	329.31
382.184	332.31
382.409	349.31
382.634	348.31
382.86	367.31
383.085	353.31
383.31	362.31
383.535	362.31
383.761	357.31
383.986	367.31
384.211	366.31
384.436	391.31
384.662	363.31
384.887	369.31
385.112	374.31
385.337	394.31
385.562	385.31
385.787	393.31
386.013	386.31
386.238	388.31
386.463	396.31
386.688	407.31
386.913	383.31
387.138	372.31
387.363	395.31
387.588	374.31
387.813	372.31
388.038	372.31
388.263	392.31
388.488	378.31
388.713	362.31
388.938	382.31
389.163	366.31
389.387	355.31
389.612	356.31
389.837	344.31
390.062	370.31
390.287	374.31
390.512	388.31
390.736	371.31
390.961	378.31
391.186	382.31
391.411	407.31
391.636	396.31
391.86	392.31
392.085	413.31
392.31	389.31
392.534	397.31
392.759	394.31
392.984	386.31
393.208	379.31
393.433	401.31
393.658	391.31
393.882	379.31
394.107	392.31
394.331	396.31
394.556	387.31
394.78	391.31
395.005	396.31
395.229	407.31
395.454	397.31
395.678	394.31
395.903	397.31
396.127	410.31
396.352	407.31
396.576	400.31
396.801	381.31
397.025	416.31
397.249	407.31
397.474	404.31
397.698	412.31
397.922	413.31
398.147	419.31
398.371	416.31
398.595	422.31
398.82	418.31
399.044	452.31
399.268	478.31
399.492	523.31
399.717	578.31
399.941	595.31
400.165	565.31
400.389	556.31
400.613	529.31
400.837	481.31
401.062	448.31
401.286	444.31
401.51	444.31
401.734	441.31
401.958	440.31
402.182	436.31
402.406	445.31
402.63	442.31
402.854	431.31
403.078	456.31
403.302	466.31
403.526	462.31
403.75	487.31
403.974	482.31
404.198	484.31
404.422	455.31
404.645	472.31
404.869	466.31
405.093	471.31
405.317	490.31
405.541	504.31
405.765	481.31
405.988	469.31
406.212	487.31
406.436	496.31
406.66	495.31
406.883	517.31
407.107	516.31
407.331	517.31
407.555	569.31
407.778	570.31
408.002	545.31
408.226	504.31
408.449	510.31
408.673	491.31
408.896	501.31
409.12	503.31
409.344	504.31
409.567	474.31
409.791	478.31
410.014	462.31
410.238	460.31
410.461	453.31
410.685	460.31
410.908	468.31
411.132	461.31
411.355	463.31
411.578	467.31
411.802	452.31
412.025	443.31
412.249	456.31
412.472	456.31
412.695	451.31
412.919	443.31
413.142	447.31
413.365	427.31
413.589	426.31
413.812	454.31
414.035	449.31
414.258	445.31
414.482	438.31
414.705	428.31
414.928	413.31
415.151	438.31
415.374	420.31
415.597	432.31
415.821	427.31
416.044	434.31
416.267	434.31
416.49	428.31
416.713	434.31
416.936	421.31
417.159	424.31
417.382	443.31
417.605	413.31
417.828	421.31
418.051	447.31
418.274	436.31
418.497	432.31
418.72	437.31
418.943	441.31
419.166	453.31
419.389	462.31
419.611	460.31
419.834	427.31
420.057	454.31
420.28	431.31
420.503	431.31
420.726	431.31
420.948	462.31
421.171	479.31
421.394	444.31
421.617	431.31
421.839	440.31
422.062	431.31
422.285	431.31
422.507	474.31
422.73	496.31
422.953	500.31
423.175	484.31
423.398	440.31
423.621	463.31
423.843	439.31
424.066	464.31
424.288	455.31
424.511	464.31
424.733	468.31
424.956	509.31
425.178	488.31
425.401	475.31
425.623	508.31
425.846	458.31
426.068	460.31
426.291	454.31
426.513	413.31
426.735	439.31
426.958	450.31
427.18	454.31
427.402	523.31
427.625	548.31
427.847	506.31
428.069	426.31
428.292	438.31
428.514	408.31
428.736	405.31
428.958	418.31
429.181	403.31
429.403	417.31
429.625	408.31
429.847	411.31
430.069	434.31
430.292	442.31
430.514	405.31
430.736	398.31
430.958	399.31
431.18	382.31
431.402	384.31
431.624	389.31
431.846	399.31
432.068	386.31
432.29	404.31
432.512	391.31
432.734	393.31
432.956	386.31
433.178	395.31
433.4	420.31
433.622	399.31
433.844	412.31
434.066	409.31
434.287	401.31
434.509	434.31
434.731	399.31
434.953	429.31
435.175	447.31
435.397	442.31
435.618	442.31
435.84	443.31
436.062	460.31
436.284	491.31
436.505	448.31
436.727	423.31
436.949	398.31
437.17	392.31
437.392	407.31
437.614	399.31
437.835	412.31
438.057	446.31
438.278	477.31
438.5	492.31
438.721	511.31
438.943	506.31
439.165	441.31
439.386	410.31
439.608	413.31
439.829	404.31
440.05	421.31
440.272	432.31
440.493	409.31
440.715	409.31
440.936	420.31
441.158	399.31
441.379	428.31
441.6	418.31
441.822	453.31
442.043	454.31
442.264	487.31
442.486	497.31
442.707	447.31
442.928	441.31
443.149	432.31
443.371	451.31
443.592	450.31
443.813	484.31
444.034	532.31
444.255	516.31
444.476	465.31
444.698	469.31
444.919	486.31
445.14	566.31
445.361	506.31
445.582	451.31
445.803	449.31
446.024	480.31
446.245	479.31
446.466	459.31
446.687	441.31
446.908	412.31
447.129	400.31
447.35	387.31
447.571	405.31
447.792	393.31
448.013	376.31
448.234	391.31
448.455	391.31
448.675	437.31
448.896	478.31
449.117	453.31
449.338	408.31
449.559	462.31
449.779	529.31
450	441.31
450.221	410.31
450.442	390.31
450.662	376.31
450.883	365.31
451.104	370.31
451.324	363.31
451.545	371.31
451.766	367.31
451.986	376.31
452.207	334.31
452.428	335.31
452.648	354.31
452.869	358.31
453.089	365.31
453.31	347.31
453.53	359.31
453.751	338.31
453.971	364.31
454.192	367.31
454.412	332.31
454.633	343.31
454.853	338.31
455.073	329.31
455.294	358.31
455.514	374.31
455.734	370.31
455.955	342.31
456.175	349.31
456.395	342.31
456.616	344.31
456.836	343.31
457.056	328.31
457.276	343.31
457.497	351.31
457.717	340.31
457.937	343.31
458.157	338.31
458.377	345.31
458.598	363.31
458.818	373.31
459.038	410.31
459.258	444.31
459.478	415.31
459.698	388.31
459.918	405.31
460.138	424.31
460.358	412.31
460.578	413.31
460.798	430.31
461.018	435.31
461.238	435.31
461.458	424.31
461.678	421.31
461.898	434.31
462.118	444.31
462.338	465.31
462.558	476.31
462.777	459.31
462.997	495.31
463.217	503.31
463.437	487.31
463.657	488.31
463.876	464.31
464.096	479.31
464.316	469.31
464.536	469.31
464.755	460.31
464.975	470.31
465.195	452.31
465.414	458.31
465.634	404.31
465.854	413.31
466.073	406.31
466.293	391.31
466.512	381.31
466.732	378.31
466.951	371.31
467.171	348.31
467.391	375.31
467.61	368.31
467.829	374.31
468.049	367.31
468.268	367.31
468.488	377.31
468.707	374.31
468.927	365.31
469.146	367.31
469.365	378.31
469.585	366.31
469.804	400.31
470.023	410.31
470.243	388.31
470.462	416.31
470.681	391.31
470.901	396.31
471.12	382.31
471.339	388.31
471.558	376.31
471.777	374.31
471.997	368.31
472.216	372.31
472.435	366.31
472.654	356.31
472.873	361.31
473.092	365.31
473.311	367.31
473.53	359.31
473.749	391.31
473.968	398.31
474.187	397.31
474.406	432.31
474.625	387.31
474.844	358.31
475.063	370.31
475.282	376.31
475.501	389.31
475.72	386.31
475.939	364.31
476.158	374.31
476.377	389.31
476.596	387.31
476.814	387.31
477.033	397.31
477.252	382.31
477.471	399.31
477.69	386.31
477.908	398.31
478.127	418.31
478.346	423.31
478.564	412.31
478.783	419.31
479.002	434.31
479.22	431.31
479.439	432.31
479.658	443.31
479.876	428.31
480.095	424.31
480.313	474.31
480.532	465.31
480.751	455.31
480.969	430.31
481.188	438.31
481.406	435.31
481.624	423.31
481.843	436.31
482.061	425.31
482.28	410.31
482.498	420.31
482.717	406.31
482.935	408.31
483.153	416.31
483.372	452.31
483.59	407.31
483.808	423.31
484.027	413.31
484.245	430.31
484.463	421.31
484.681	424.31
484.9	435.31
485.118	450.31
485.336	444.31
485.554	446.31
485.772	438.31
485.99	459.31
486.209	443.31
486.427	461.31
486.645	458.31
486.863	461.31
487.081	441.31
487.299	438.31
487.517	436.31
487.735	444.31
487.953	434.31
488.171	451.31
488.389	446.31
488.607	415.31
488.825	447.31
489.043	461.31
489.261	450.31
489.479	454.31
489.696	433.31
489.914	451.31
490.132	452.31
490.35	448.31
490.568	431.31
490.786	456.31
491.003	443.31
491.221	473.31
491.439	458.31
491.657	449.31
491.874	467.31
492.092	479.31
492.31	486.31
492.527	470.31
492.745	467.31
492.963	476.31
493.18	471.31
493.398	468.31
493.615	502.31
493.833	468.31
494.05	478.31
494.268	480.31
494.485	496.31
494.703	490.31
494.92	508.31
495.138	465.31
495.355	494.31
495.573	478.31
495.79	490.31
496.008	504.31
496.225	498.31
496.442	498.31
496.66	502.31
496.877	492.31
497.094	516.31
497.312	520.31
497.529	541.31
497.746	527.31
497.963	530.31
498.181	562.31
498.398	565.31
498.615	596.31
498.832	640.31
499.049	639.31
499.267	697.31
499.484	738.31
499.701	757.31
499.918	847.31
500.135	873.31
500.352	987.31
500.569	986.31
500.786	1020.31
501.003	974.31
501.22	919.31
501.437	857.31
501.654	768.31
501.871	750.31
502.088	698.31
502.305	666.31
