Data from 1984.PennyLincolnUp.Lamp.En5.5.200Scan.071819.P1_HRD10591_16-58-33-968.txt Node
Date: Thu Jul 18 16:58:33 EDT 2019
User: cochatt
Spectrometer: HR+D1059
Trigger mode: 1
Integration Time (sec): 1.000000E-1
Scans to average: 1
Electric dark correction enabled: true
Nonlinearity correction enabled: false
Boxcar width: 0
XAxis mode: Wavelengths
Number of Pixels in Spectrum: 2048
>>>>>Begin Spectral Data<<<<<
223.165	-15.19
223.4	-15.19
223.635	-15.19
223.869	-22.19
224.104	-22.19
224.338	-0.19
224.573	-23.19
224.808	-2.19
225.042	-11.19
225.277	-14.19
225.511	-7.19
225.746	1.81
225.98	4.81
226.215	11.81
226.449	18.81
226.683	22.81
226.918	25.81
227.152	31.81
227.387	25.81
227.621	35.81
227.856	37.81
228.09	51.81
228.324	55.81
228.559	54.81
228.793	55.81
229.027	93.81
229.262	84.81
229.496	95.81
229.73	115.81
229.964	122.81
230.199	105.81
230.433	101.81
230.667	103.81
230.901	97.81
231.136	86.81
231.37	94.81
231.604	97.81
231.838	105.81
232.072	97.81
232.306	100.81
232.541	115.81
232.775	109.81
233.009	110.81
233.243	115.81
233.477	99.81
233.711	120.81
233.945	108.81
234.179	100.81
234.413	115.81
234.647	113.81
234.881	103.81
235.115	90.81
235.349	117.81
235.583	107.81
235.817	116.81
236.051	107.81
236.285	106.81
236.519	119.81
236.753	108.81
236.987	128.81
237.221	148.81
237.455	175.81
237.689	151.81
237.922	132.81
238.156	122.81
238.39	117.81
238.624	114.81
238.858	106.81
239.091	112.81
239.325	112.81
239.559	108.81
239.793	104.81
240.027	125.81
240.26	126.81
240.494	123.81
240.728	118.81
240.961	128.81
241.195	130.81
241.429	123.81
241.662	126.81
241.896	113.81
242.13	110.81
242.363	115.81
242.597	119.81
242.83	134.81
243.064	124.81
243.298	139.81
243.531	134.81
243.765	121.81
243.998	128.81
244.232	128.81
244.465	139.81
244.699	126.81
244.932	108.81
245.166	133.81
245.399	143.81
245.633	126.81
245.866	130.81
246.099	140.81
246.333	138.81
246.566	124.81
246.8	136.81
247.033	135.81
247.266	155.81
247.5	149.81
247.733	156.81
247.966	150.81
248.2	165.81
248.433	158.81
248.666	150.81
248.899	152.81
249.133	163.81
249.366	176.81
249.599	164.81
249.832	156.81
250.066	176.81
250.299	161.81
250.532	191.81
250.765	187.81
250.998	197.81
251.231	188.81
251.465	180.81
251.698	166.81
251.931	184.81
252.164	170.81
252.397	168.81
252.63	168.81
252.863	165.81
253.096	178.81
253.329	193.81
253.562	184.81
253.795	179.81
254.028	192.81
254.261	180.81
254.494	192.81
254.727	191.81
254.96	207.81
255.193	196.81
255.426	202.81
255.659	210.81
255.892	212.81
256.124	226.81
256.357	233.81
256.59	210.81
256.823	207.81
257.056	192.81
257.289	199.81
257.521	185.81
257.754	208.81
257.987	194.81
258.22	179.81
258.452	179.81
258.685	190.81
258.918	178.81
259.151	179.81
259.383	181.81
259.616	185.81
259.849	183.81
260.081	195.81
260.314	202.81
260.547	207.81
260.779	196.81
261.012	199.81
261.244	190.81
261.477	196.81
261.71	215.81
261.942	199.81
262.175	199.81
262.407	186.81
262.64	174.81
262.872	176.81
263.105	189.81
263.337	201.81
263.57	201.81
263.802	182.81
264.035	194.81
264.267	216.81
264.499	192.81
264.732	179.81
264.964	181.81
265.197	190.81
265.429	194.81
265.661	180.81
265.894	190.81
266.126	204.81
266.358	210.81
266.591	188.81
266.823	201.81
267.055	207.81
267.287	224.81
267.52	194.81
267.752	208.81
267.984	193.81
268.216	203.81
268.448	214.81
268.681	214.81
268.913	218.81
269.145	241.81
269.377	240.81
269.609	239.81
269.841	226.81
270.073	236.81
270.306	247.81
270.538	267.81
270.77	270.81
271.002	263.81
271.234	248.81
271.466	264.81
271.698	251.81
271.93	263.81
272.162	257.81
272.394	267.81
272.626	257.81
272.858	263.81
273.09	227.81
273.322	246.81
273.553	252.81
273.785	245.81
274.017	243.81
274.249	225.81
274.481	246.81
274.713	238.81
274.945	264.81
275.176	235.81
275.408	235.81
275.64	238.81
275.872	252.81
276.104	255.81
276.335	233.81
276.567	249.81
276.799	258.81
277.031	262.81
277.262	270.81
277.494	276.81
277.726	249.81
277.957	263.81
278.189	259.81
278.421	251.81
278.652	262.81
278.884	256.81
279.115	262.81
279.347	260.81
279.579	240.81
279.81	260.81
280.042	255.81
280.273	259.81
280.505	252.81
280.736	254.81
280.968	246.81
281.199	267.81
281.431	270.81
281.662	264.81
281.894	248.81
282.125	267.81
282.356	284.81
282.588	272.81
282.819	271.81
283.051	258.81
283.282	258.81
283.513	264.81
283.745	269.81
283.976	279.81
284.207	259.81
284.439	279.81
284.67	266.81
284.901	266.81
285.132	256.81
285.364	267.81
285.595	271.81
285.826	286.81
286.057	256.81
286.288	275.81
286.52	276.81
286.751	265.81
286.982	265.81
287.213	271.81
287.444	286.81
287.675	273.81
287.906	272.81
288.138	270.81
288.369	295.81
288.6	296.81
288.831	275.81
289.062	274.81
289.293	290.81
289.524	271.81
289.755	269.81
289.986	291.81
290.217	266.81
290.448	282.81
290.679	291.81
290.91	279.81
291.141	289.81
291.371	290.81
291.602	277.81
291.833	278.81
292.064	289.81
292.295	278.81
292.526	299.81
292.757	279.81
292.987	275.81
293.218	266.81
293.449	283.81
293.68	282.81
293.91	281.81
294.141	263.81
294.372	286.81
294.603	288.81
294.833	272.81
295.064	290.81
295.295	285.81
295.525	282.81
295.756	276.81
295.987	283.81
296.217	309.81
296.448	308.81
296.679	295.81
296.909	284.81
297.14	279.81
297.37	297.81
297.601	292.81
297.831	277.81
298.062	294.81
298.292	298.81
298.523	298.81
298.753	306.81
298.984	293.81
299.214	286.81
299.445	281.81
299.675	313.81
299.905	294.81
300.136	317.81
300.366	296.81
300.597	306.81
300.827	313.81
301.057	321.81
301.288	321.81
301.518	313.81
301.748	316.81
301.979	308.81
302.209	307.81
302.439	332.81
302.669	309.81
302.9	323.81
303.13	310.81
303.36	298.81
303.59	302.81
303.82	313.81
304.051	330.81
304.281	308.81
304.511	316.81
304.741	303.81
304.971	296.81
305.201	289.81
305.431	313.81
305.661	312.81
305.891	311.81
306.121	306.81
306.352	320.81
306.582	298.81
306.812	315.81
307.042	327.81
307.272	321.81
307.502	314.81
307.731	328.81
307.961	319.81
308.191	320.81
308.421	303.81
308.651	312.81
308.881	317.81
309.111	337.81
309.341	322.81
309.571	328.81
309.8	364.81
310.03	332.81
310.26	330.81
310.49	340.81
310.72	330.81
310.949	336.81
311.179	347.81
311.409	341.81
311.639	350.81
311.868	338.81
312.098	337.81
312.328	359.81
312.557	357.81
312.787	374.81
313.017	373.81
313.246	368.81
313.476	336.81
313.706	331.81
313.935	366.81
314.165	349.81
314.394	350.81
314.624	358.81
314.853	355.81
315.083	345.81
315.312	340.81
315.542	346.81
315.771	337.81
316.001	327.81
316.23	352.81
316.46	344.81
316.689	328.81
316.919	363.81
317.148	369.81
317.377	357.81
317.607	345.81
317.836	353.81
318.065	355.81
318.295	354.81
318.524	350.81
318.753	327.81
318.983	361.81
319.212	336.81
319.441	351.81
319.67	351.81
319.9	341.81
320.129	346.81
320.358	359.81
320.587	342.81
320.816	358.81
321.046	354.81
321.275	371.81
321.504	362.81
321.733	363.81
321.962	362.81
322.191	372.81
322.42	364.81
322.649	378.81
322.878	386.81
323.108	401.81
323.337	397.81
323.566	412.81
323.795	427.81
324.024	471.81
324.253	524.81
324.482	694.81
324.71	993.81
324.939	1404.81
325.168	1223.81
325.397	668.81
325.626	523.81
325.855	460.81
326.084	421.81
326.313	410.81
326.542	446.81
326.77	464.81
326.999	533.81
327.228	670.81
327.457	952.81
327.686	1094.81
327.914	776.81
328.143	567.81
328.372	522.81
328.6	514.81
328.829	470.81
329.058	472.81
329.287	467.81
329.515	464.81
329.744	440.81
329.972	464.81
330.201	492.81
330.43	550.81
330.658	515.81
330.887	508.81
331.115	464.81
331.344	459.81
331.572	437.81
331.801	441.81
332.03	461.81
332.258	425.81
332.486	407.81
332.715	432.81
332.943	428.81
333.172	455.81
333.4	452.81
333.629	484.81
333.857	483.81
334.085	508.81
334.314	550.81
334.542	569.81
334.771	587.81
334.999	519.81
335.227	483.81
335.455	447.81
335.684	435.81
335.912	411.81
336.14	438.81
336.369	414.81
336.597	422.81
336.825	420.81
337.053	424.81
337.281	429.81
337.51	423.81
337.738	406.81
337.966	414.81
338.194	415.81
338.422	416.81
338.65	408.81
338.878	402.81
339.106	402.81
339.334	412.81
339.562	399.81
339.79	398.81
340.018	391.81
340.246	388.81
340.474	400.81
340.702	410.81
340.93	384.81
341.158	384.81
341.386	389.81
341.614	387.81
341.842	385.81
342.07	389.81
342.298	404.81
342.526	394.81
342.754	380.81
342.981	402.81
343.209	385.81
343.437	386.81
343.665	418.81
343.893	405.81
344.12	433.81
344.348	411.81
344.576	400.81
344.804	410.81
345.031	387.81
345.259	398.81
345.487	387.81
345.714	380.81
345.942	385.81
346.17	370.81
346.397	366.81
346.625	376.81
346.853	350.81
347.08	362.81
347.308	372.81
347.535	376.81
347.763	369.81
347.99	350.81
348.218	360.81
348.445	385.81
348.673	372.81
348.9	376.81
349.128	371.81
349.355	376.81
349.583	362.81
349.81	382.81
350.037	362.81
350.265	366.81
350.492	372.81
350.72	365.81
350.947	359.81
351.174	372.81
351.402	357.81
351.629	361.81
351.856	366.81
352.083	359.81
352.311	368.81
352.538	358.81
352.765	370.81
352.992	366.81
353.22	345.81
353.447	355.81
353.674	356.81
353.901	343.81
354.128	347.81
354.355	352.81
354.583	353.81
354.81	342.81
355.037	364.81
355.264	359.81
355.491	360.81
355.718	343.81
355.945	340.81
356.172	333.81
356.399	339.81
356.626	347.81
356.853	361.81
357.08	346.81
357.307	322.81
357.534	350.81
357.761	341.81
357.988	359.81
358.215	349.81
358.441	342.81
358.668	342.81
358.895	347.81
359.122	344.81
359.349	361.81
359.576	351.81
359.802	369.81
360.029	384.81
360.256	386.81
360.483	363.81
360.709	368.81
360.936	374.81
361.163	350.81
361.39	358.81
361.616	361.81
361.843	378.81
362.07	363.81
362.296	356.81
362.523	362.81
362.749	337.81
362.976	370.81
363.203	362.81
363.429	348.81
363.656	374.81
363.882	349.81
364.109	332.81
364.335	355.81
364.562	344.81
364.788	361.81
365.015	353.81
365.241	335.81
365.468	355.81
365.694	346.81
365.92	370.81
366.147	358.81
366.373	341.81
366.599	345.81
366.826	341.81
367.052	350.81
367.278	348.81
367.505	358.81
367.731	351.81
367.957	347.81
368.184	342.81
368.41	372.81
368.636	348.81
368.862	384.81
369.089	366.81
369.315	364.81
369.541	347.81
369.767	339.81
369.993	338.81
370.219	348.81
370.445	346.81
370.672	353.81
370.898	349.81
371.124	354.81
371.35	382.81
371.576	355.81
371.802	357.81
372.028	368.81
372.254	368.81
372.48	340.81
372.706	364.81
372.932	386.81
373.158	362.81
373.384	368.81
373.61	350.81
373.835	355.81
374.061	352.81
374.287	356.81
374.513	367.81
374.739	370.81
374.965	382.81
375.191	371.81
375.416	375.81
375.642	369.81
375.868	362.81
376.094	370.81
376.319	362.81
376.545	355.81
376.771	370.81
376.997	362.81
377.222	338.81
377.448	359.81
377.674	374.81
377.899	355.81
378.125	365.81
378.35	363.81
378.576	348.81
378.802	342.81
379.027	347.81
379.253	348.81
379.478	341.81
379.704	335.81
379.929	367.81
380.155	338.81
380.38	345.81
380.606	352.81
380.831	349.81
381.057	356.81
381.282	335.81
381.507	354.81
381.733	369.81
381.958	344.81
382.184	366.81
382.409	352.81
382.634	369.81
382.86	360.81
383.085	364.81
383.31	368.81
383.535	368.81
383.761	372.81
383.986	386.81
384.211	379.81
384.436	396.81
384.662	405.81
384.887	392.81
385.112	389.81
385.337	400.81
385.562	388.81
385.787	420.81
386.013	420.81
386.238	412.81
386.463	407.81
386.688	408.81
386.913	397.81
387.138	372.81
387.363	383.81
387.588	388.81
387.813	397.81
388.038	417.81
388.263	390.81
388.488	386.81
388.713	410.81
388.938	391.81
389.163	401.81
389.387	415.81
389.612	386.81
389.837	383.81
390.062	399.81
390.287	394.81
390.512	402.81
390.736	390.81
390.961	410.81
391.186	403.81
391.411	436.81
391.636	400.81
391.86	427.81
392.085	442.81
392.31	425.81
392.534	418.81
392.759	432.81
392.984	417.81
393.208	410.81
393.433	422.81
393.658	416.81
393.882	414.81
394.107	393.81
394.331	410.81
394.556	412.81
394.78	430.81
395.005	424.81
395.229	401.81
395.454	411.81
395.678	411.81
395.903	424.81
396.127	440.81
396.352	444.81
396.576	437.81
396.801	434.81
397.025	427.81
397.249	418.81
397.474	425.81
397.698	443.81
397.922	446.81
398.147	438.81
398.371	456.81
398.595	460.81
398.82	472.81
399.044	500.81
399.268	517.81
399.492	567.81
399.717	608.81
399.941	648.81
400.165	627.81
400.389	602.81
400.613	536.81
400.837	495.81
401.062	506.81
401.286	495.81
401.51	496.81
401.734	472.81
401.958	468.81
402.182	460.81
402.406	514.81
402.63	503.81
402.854	492.81
403.078	499.81
403.302	502.81
403.526	519.81
403.75	520.81
403.974	525.81
404.198	505.81
404.422	500.81
404.645	528.81
404.869	507.81
405.093	549.81
405.317	582.81
405.541	595.81
405.765	530.81
405.988	527.81
406.212	531.81
406.436	532.81
406.66	543.81
406.883	538.81
407.107	558.81
407.331	602.81
407.555	616.81
407.778	626.81
408.002	582.81
408.226	580.81
408.449	528.81
408.673	534.81
408.896	537.81
409.12	579.81
409.344	546.81
409.567	501.81
409.791	497.81
410.014	479.81
410.238	500.81
410.461	486.81
410.685	489.81
410.908	517.81
411.132	506.81
411.355	507.81
411.578	499.81
411.802	508.81
412.025	474.81
412.249	514.81
412.472	510.81
412.695	539.81
412.919	555.81
413.142	527.81
413.365	490.81
413.589	477.81
413.812	480.81
414.035	476.81
414.258	482.81
414.482	491.81
414.705	476.81
414.928	478.81
415.151	486.81
415.374	489.81
415.597	457.81
415.821	454.81
416.044	460.81
416.267	480.81
416.49	439.81
416.713	460.81
416.936	456.81
417.159	471.81
417.382	460.81
417.605	443.81
417.828	475.81
418.051	449.81
418.274	473.81
418.497	466.81
418.72	464.81
418.943	458.81
419.166	489.81
419.389	508.81
419.611	514.81
419.834	500.81
420.057	483.81
420.28	522.81
420.503	500.81
420.726	506.81
420.948	487.81
421.171	503.81
421.394	520.81
421.617	481.81
421.839	466.81
422.062	491.81
422.285	463.81
422.507	533.81
422.73	573.81
422.953	522.81
423.175	511.81
423.398	496.81
423.621	488.81
423.843	516.81
424.066	502.81
424.288	486.81
424.511	519.81
424.733	567.81
424.956	587.81
425.178	581.81
425.401	566.81
425.623	558.81
425.846	507.81
426.068	485.81
426.291	486.81
426.513	467.81
426.735	480.81
426.958	495.81
427.18	554.81
427.402	642.81
427.625	670.81
427.847	592.81
428.069	534.81
428.292	515.81
428.514	489.81
428.736	456.81
428.958	463.81
429.181	426.81
429.403	429.81
429.625	454.81
429.847	444.81
430.069	494.81
430.292	506.81
430.514	458.81
430.736	434.81
430.958	426.81
431.18	419.81
431.402	423.81
431.624	426.81
431.846	434.81
432.068	440.81
432.29	428.81
432.512	433.81
432.734	423.81
432.956	419.81
433.178	440.81
433.4	418.81
433.622	434.81
433.844	436.81
434.066	445.81
434.287	457.81
434.509	445.81
434.731	466.81
434.953	478.81
435.175	490.81
435.397	492.81
435.618	466.81
435.84	505.81
436.062	545.81
436.284	582.81
436.505	512.81
436.727	435.81
436.949	437.81
437.17	438.81
437.392	430.81
437.614	448.81
437.835	457.81
438.057	494.81
438.278	561.81
438.5	562.81
438.721	603.81
438.943	573.81
439.165	501.81
439.386	479.81
439.608	463.81
439.829	444.81
440.05	480.81
440.272	518.81
440.493	480.81
440.715	463.81
440.936	460.81
441.158	452.81
441.379	457.81
441.6	467.81
441.822	468.81
442.043	489.81
442.264	546.81
442.486	554.81
442.707	520.81
442.928	498.81
443.149	483.81
443.371	499.81
443.592	536.81
443.813	593.81
444.034	616.81
444.255	552.81
444.476	545.81
444.698	518.81
444.919	535.81
445.14	615.81
445.361	553.81
445.582	511.81
445.803	515.81
446.024	577.81
446.245	595.81
446.466	547.81
446.687	483.81
446.908	463.81
447.129	443.81
447.35	444.81
447.571	441.81
447.792	434.81
448.013	427.81
448.234	420.81
448.455	463.81
448.675	514.81
448.896	579.81
449.117	515.81
449.338	487.81
449.559	563.81
449.779	623.81
450	523.81
450.221	445.81
450.442	410.81
450.662	412.81
450.883	426.81
451.104	402.81
451.324	421.81
451.545	405.81
451.766	393.81
451.986	388.81
452.207	381.81
452.428	384.81
452.648	389.81
452.869	398.81
453.089	385.81
453.31	408.81
453.53	393.81
453.751	400.81
453.971	390.81
454.192	394.81
454.412	389.81
454.633	375.81
454.853	382.81
455.073	384.81
455.294	411.81
455.514	432.81
455.734	407.81
455.955	380.81
456.175	368.81
456.395	362.81
456.616	359.81
456.836	361.81
457.056	354.81
457.276	357.81
457.497	356.81
457.717	385.81
457.937	372.81
458.157	386.81
458.377	378.81
458.598	398.81
458.818	420.81
459.038	475.81
459.258	494.81
459.478	448.81
459.698	435.81
459.918	449.81
460.138	451.81
460.358	472.81
460.578	455.81
460.798	458.81
461.018	459.81
461.238	467.81
461.458	454.81
461.678	451.81
461.898	464.81
462.118	465.81
462.338	488.81
462.558	514.81
462.777	497.81
462.997	509.81
463.217	525.81
463.437	551.81
463.657	494.81
463.876	496.81
464.096	506.81
464.316	511.81
464.536	508.81
464.755	508.81
464.975	468.81
465.195	514.81
465.414	531.81
465.634	484.81
465.854	464.81
466.073	437.81
466.293	414.81
466.512	404.81
466.732	399.81
466.951	408.81
467.171	425.81
467.391	400.81
467.61	408.81
467.829	386.81
468.049	412.81
468.268	424.81
468.488	414.81
468.707	392.81
468.927	380.81
469.146	405.81
469.365	405.81
469.585	401.81
469.804	408.81
470.023	403.81
470.243	423.81
470.462	426.81
470.681	407.81
470.901	425.81
471.12	421.81
471.339	401.81
471.558	413.81
471.777	403.81
471.997	419.81
472.216	418.81
472.435	465.81
472.654	442.81
472.873	412.81
473.092	416.81
473.311	402.81
473.53	404.81
473.749	420.81
473.968	434.81
474.187	483.81
474.406	492.81
474.625	434.81
474.844	420.81
475.063	389.81
475.282	400.81
475.501	404.81
475.72	423.81
475.939	405.81
476.158	407.81
476.377	422.81
476.596	434.81
476.814	424.81
477.033	420.81
477.252	410.81
477.471	425.81
477.69	415.81
477.908	422.81
478.127	457.81
478.346	443.81
478.564	467.81
478.783	470.81
479.002	447.81
479.22	456.81
479.439	474.81
479.658	483.81
479.876	485.81
480.095	515.81
480.313	518.81
480.532	530.81
480.751	516.81
480.969	525.81
481.188	582.81
481.406	631.81
481.624	534.81
481.843	490.81
482.061	474.81
482.28	476.81
482.498	474.81
482.717	478.81
482.935	470.81
483.153	456.81
483.372	464.81
483.59	467.81
483.808	446.81
484.027	447.81
484.245	459.81
484.463	458.81
484.681	477.81
484.9	464.81
485.118	469.81
485.336	471.81
485.554	484.81
485.772	456.81
485.99	467.81
486.209	473.81
486.427	481.81
486.645	495.81
486.863	508.81
487.081	489.81
487.299	507.81
487.517	492.81
487.735	463.81
487.953	490.81
488.171	500.81
488.389	468.81
488.607	487.81
488.825	482.81
489.043	473.81
489.261	491.81
489.479	499.81
489.696	482.81
489.914	503.81
490.132	495.81
490.35	503.81
490.568	487.81
490.786	515.81
491.003	551.81
491.221	532.81
491.439	532.81
491.657	533.81
491.874	563.81
492.092	543.81
492.31	562.81
492.527	564.81
492.745	581.81
492.963	574.81
493.18	590.81
493.398	580.81
493.615	576.81
493.833	570.81
494.05	559.81
494.268	567.81
494.485	563.81
494.703	585.81
494.92	558.81
495.138	535.81
495.355	560.81
495.573	565.81
495.79	566.81
496.008	577.81
496.225	597.81
496.442	575.81
496.66	567.81
496.877	541.81
497.094	560.81
497.312	574.81
497.529	594.81
497.746	588.81
497.963	604.81
498.181	633.81
498.398	664.81
498.615	666.81
498.832	676.81
499.049	734.81
499.267	767.81
499.484	798.81
499.701	837.81
499.918	896.81
500.135	1027.81
500.352	1075.81
500.569	1113.81
500.786	1147.81
501.003	1036.81
501.22	989.81
501.437	912.81
501.654	842.81
501.871	808.81
502.088	775.81
