Data from 1984.PennyLincolnUp.Lamp.En5.5.200Scan.071819.P1_HRD10591_16-58-11-967.txt Node
Date: Thu Jul 18 16:58:11 EDT 2019
User: cochatt
Spectrometer: HR+D1059
Trigger mode: 1
Integration Time (sec): 1.000000E-1
Scans to average: 1
Electric dark correction enabled: true
Nonlinearity correction enabled: false
Boxcar width: 0
XAxis mode: Wavelengths
Number of Pixels in Spectrum: 2048
>>>>>Begin Spectral Data<<<<<
223.165	3.75
223.4	3.75
223.635	3.75
223.869	-20.25
224.104	-10.25
224.338	-12.25
224.573	-24.25
224.808	-10.25
225.042	-20.25
225.277	-10.25
225.511	2.75
225.746	3.75
225.98	4.75
226.215	17.75
226.449	4.75
226.683	-6.25
226.918	28.75
227.152	47.75
227.387	37.75
227.621	53.75
227.856	41.75
228.09	47.75
228.324	61.75
228.559	45.75
228.793	68.75
229.027	77.75
229.262	83.75
229.496	100.75
229.73	122.75
229.964	111.75
230.199	110.75
230.433	104.75
230.667	89.75
230.901	100.75
231.136	97.75
231.37	105.75
231.604	93.75
231.838	99.75
232.072	112.75
232.306	104.75
232.541	109.75
232.775	106.75
233.009	115.75
233.243	95.75
233.477	104.75
233.711	117.75
233.945	106.75
234.179	112.75
234.413	115.75
234.647	101.75
234.881	108.75
235.115	128.75
235.349	113.75
235.583	113.75
235.817	116.75
236.051	111.75
236.285	121.75
236.519	116.75
236.753	122.75
236.987	128.75
237.221	140.75
237.455	171.75
237.689	144.75
237.922	127.75
238.156	137.75
238.39	130.75
238.624	123.75
238.858	125.75
239.091	121.75
239.325	123.75
239.559	125.75
239.793	126.75
240.027	127.75
240.26	123.75
240.494	140.75
240.728	131.75
240.961	130.75
241.195	124.75
241.429	133.75
241.662	118.75
241.896	123.75
242.13	126.75
242.363	125.75
242.597	105.75
242.83	129.75
243.064	139.75
243.298	132.75
243.531	146.75
243.765	131.75
243.998	124.75
244.232	140.75
244.465	133.75
244.699	128.75
244.932	130.75
245.166	152.75
245.399	140.75
245.633	141.75
245.866	150.75
246.099	133.75
246.333	147.75
246.566	138.75
246.8	136.75
247.033	153.75
247.266	122.75
247.5	161.75
247.733	141.75
247.966	161.75
248.2	153.75
248.433	145.75
248.666	146.75
248.899	161.75
249.133	174.75
249.366	170.75
249.599	150.75
249.832	148.75
250.066	169.75
250.299	170.75
250.532	160.75
250.765	198.75
250.998	170.75
251.231	176.75
251.465	178.75
251.698	183.75
251.931	177.75
252.164	181.75
252.397	185.75
252.63	193.75
252.863	185.75
253.096	185.75
253.329	188.75
253.562	207.75
253.795	200.75
254.028	172.75
254.261	173.75
254.494	176.75
254.727	204.75
254.96	212.75
255.193	214.75
255.426	197.75
255.659	207.75
255.892	203.75
256.124	210.75
256.357	221.75
256.59	198.75
256.823	199.75
257.056	199.75
257.289	192.75
257.521	169.75
257.754	201.75
257.987	185.75
258.22	178.75
258.452	185.75
258.685	181.75
258.918	184.75
259.151	175.75
259.383	187.75
259.616	210.75
259.849	188.75
260.081	195.75
260.314	231.75
260.547	208.75
260.779	207.75
261.012	206.75
261.244	198.75
261.477	201.75
261.71	205.75
261.942	203.75
262.175	190.75
262.407	206.75
262.64	195.75
262.872	212.75
263.105	187.75
263.337	192.75
263.57	194.75
263.802	191.75
264.035	192.75
264.267	182.75
264.499	188.75
264.732	192.75
264.964	204.75
265.197	187.75
265.429	191.75
265.661	203.75
265.894	202.75
266.126	202.75
266.358	216.75
266.591	196.75
266.823	219.75
267.055	222.75
267.287	225.75
267.52	207.75
267.752	217.75
267.984	208.75
268.216	232.75
268.448	203.75
268.681	217.75
268.913	218.75
269.145	236.75
269.377	239.75
269.609	236.75
269.841	249.75
270.073	238.75
270.306	238.75
270.538	255.75
270.77	261.75
271.002	247.75
271.234	253.75
271.466	266.75
271.698	256.75
271.93	281.75
272.162	267.75
272.394	261.75
272.626	235.75
272.858	258.75
273.09	255.75
273.322	240.75
273.553	244.75
273.785	242.75
274.017	243.75
274.249	249.75
274.481	239.75
274.713	236.75
274.945	235.75
275.176	251.75
275.408	240.75
275.64	235.75
275.872	224.75
276.104	244.75
276.335	256.75
276.567	249.75
276.799	248.75
277.031	266.75
277.262	277.75
277.494	275.75
277.726	269.75
277.957	273.75
278.189	259.75
278.421	250.75
278.652	225.75
278.884	257.75
279.115	258.75
279.347	246.75
279.579	249.75
279.81	245.75
280.042	259.75
280.273	263.75
280.505	232.75
280.736	244.75
280.968	269.75
281.199	240.75
281.431	227.75
281.662	257.75
281.894	252.75
282.125	259.75
282.356	271.75
282.588	291.75
282.819	267.75
283.051	264.75
283.282	247.75
283.513	269.75
283.745	270.75
283.976	254.75
284.207	282.75
284.439	261.75
284.67	277.75
284.901	265.75
285.132	261.75
285.364	262.75
285.595	262.75
285.826	255.75
286.057	273.75
286.288	268.75
286.52	273.75
286.751	272.75
286.982	275.75
287.213	284.75
287.444	277.75
287.675	291.75
287.906	282.75
288.138	280.75
288.369	275.75
288.6	295.75
288.831	283.75
289.062	304.75
289.293	280.75
289.524	285.75
289.755	276.75
289.986	285.75
290.217	282.75
290.448	279.75
290.679	278.75
290.91	283.75
291.141	269.75
291.371	281.75
291.602	296.75
291.833	290.75
292.064	268.75
292.295	285.75
292.526	294.75
292.757	273.75
292.987	280.75
293.218	278.75
293.449	294.75
293.68	290.75
293.91	274.75
294.141	272.75
294.372	255.75
294.603	283.75
294.833	289.75
295.064	303.75
295.295	276.75
295.525	270.75
295.756	267.75
295.987	280.75
296.217	299.75
296.448	316.75
296.679	290.75
296.909	307.75
297.14	273.75
297.37	298.75
297.601	307.75
297.831	288.75
298.062	300.75
298.292	306.75
298.523	325.75
298.753	294.75
298.984	293.75
299.214	306.75
299.445	288.75
299.675	313.75
299.905	318.75
300.136	300.75
300.366	322.75
300.597	303.75
300.827	297.75
301.057	311.75
301.288	309.75
301.518	314.75
301.748	310.75
301.979	311.75
302.209	304.75
302.439	317.75
302.669	316.75
302.9	317.75
303.13	319.75
303.36	327.75
303.59	337.75
303.82	322.75
304.051	333.75
304.281	298.75
304.511	307.75
304.741	325.75
304.971	329.75
305.201	323.75
305.431	304.75
305.661	319.75
305.891	311.75
306.121	311.75
306.352	336.75
306.582	325.75
306.812	324.75
307.042	320.75
307.272	310.75
307.502	330.75
307.731	320.75
307.961	331.75
308.191	319.75
308.421	316.75
308.651	332.75
308.881	310.75
309.111	300.75
309.341	329.75
309.571	321.75
309.8	319.75
310.03	317.75
310.26	325.75
310.49	323.75
310.72	330.75
310.949	347.75
311.179	333.75
311.409	342.75
311.639	356.75
311.868	323.75
312.098	361.75
312.328	334.75
312.557	381.75
312.787	369.75
313.017	351.75
313.246	340.75
313.476	337.75
313.706	344.75
313.935	351.75
314.165	357.75
314.394	358.75
314.624	373.75
314.853	343.75
315.083	341.75
315.312	358.75
315.542	351.75
315.771	320.75
316.001	344.75
316.23	334.75
316.46	324.75
316.689	341.75
316.919	343.75
317.148	335.75
317.377	344.75
317.607	325.75
317.836	331.75
318.065	344.75
318.295	339.75
318.524	343.75
318.753	342.75
318.983	336.75
319.212	323.75
319.441	360.75
319.67	345.75
319.9	348.75
320.129	347.75
320.358	348.75
320.587	341.75
320.816	350.75
321.046	359.75
321.275	372.75
321.504	366.75
321.733	355.75
321.962	356.75
322.191	365.75
322.42	370.75
322.649	375.75
322.878	385.75
323.108	383.75
323.337	417.75
323.566	424.75
323.795	423.75
324.024	468.75
324.253	538.75
324.482	690.75
324.71	953.75
324.939	1364.75
325.168	1186.75
325.397	679.75
325.626	500.75
325.855	460.75
326.084	428.75
326.313	431.75
326.542	457.75
326.77	458.75
326.999	508.75
327.228	646.75
327.457	913.75
327.686	1055.75
327.914	720.75
328.143	573.75
328.372	505.75
328.6	474.75
328.829	452.75
329.058	472.75
329.287	460.75
329.515	465.75
329.744	442.75
329.972	421.75
330.201	491.75
330.43	486.75
330.658	496.75
330.887	511.75
331.115	481.75
331.344	449.75
331.572	430.75
331.801	437.75
332.03	448.75
332.258	442.75
332.486	455.75
332.715	447.75
332.943	437.75
333.172	442.75
333.4	480.75
333.629	456.75
333.857	500.75
334.085	491.75
334.314	518.75
334.542	535.75
334.771	519.75
334.999	485.75
335.227	445.75
335.455	446.75
335.684	433.75
335.912	442.75
336.14	419.75
336.369	445.75
336.597	436.75
336.825	419.75
337.053	415.75
337.281	417.75
337.51	424.75
337.738	406.75
337.966	395.75
338.194	424.75
338.422	409.75
338.65	387.75
338.878	402.75
339.106	396.75
339.334	407.75
339.562	407.75
339.79	397.75
340.018	402.75
340.246	392.75
340.474	395.75
340.702	385.75
340.93	392.75
341.158	374.75
341.386	373.75
341.614	377.75
341.842	378.75
342.07	403.75
342.298	383.75
342.526	374.75
342.754	386.75
342.981	379.75
343.209	397.75
343.437	394.75
343.665	415.75
343.893	422.75
344.12	439.75
344.348	442.75
344.576	407.75
344.804	415.75
345.031	390.75
345.259	394.75
345.487	395.75
345.714	374.75
345.942	381.75
346.17	367.75
346.397	387.75
346.625	358.75
346.853	362.75
347.08	374.75
347.308	379.75
347.535	362.75
347.763	390.75
347.99	381.75
348.218	388.75
348.445	395.75
348.673	373.75
348.9	362.75
349.128	373.75
349.355	363.75
349.583	363.75
349.81	346.75
350.037	356.75
350.265	352.75
350.492	362.75
350.72	348.75
350.947	353.75
351.174	338.75
351.402	370.75
351.629	377.75
351.856	363.75
352.083	356.75
352.311	356.75
352.538	364.75
352.765	370.75
352.992	361.75
353.22	375.75
353.447	342.75
353.674	357.75
353.901	351.75
354.128	346.75
354.355	334.75
354.583	354.75
354.81	357.75
355.037	333.75
355.264	361.75
355.491	346.75
355.718	345.75
355.945	375.75
356.172	349.75
356.399	352.75
356.626	342.75
356.853	350.75
357.08	354.75
357.307	357.75
357.534	352.75
357.761	356.75
357.988	343.75
358.215	354.75
358.441	343.75
358.668	344.75
358.895	348.75
359.122	348.75
359.349	362.75
359.576	371.75
359.802	385.75
360.029	376.75
360.256	378.75
360.483	362.75
360.709	348.75
360.936	360.75
361.163	360.75
361.39	361.75
361.616	351.75
361.843	360.75
362.07	360.75
362.296	357.75
362.523	369.75
362.749	345.75
362.976	333.75
363.203	357.75
363.429	348.75
363.656	361.75
363.882	343.75
364.109	358.75
364.335	346.75
364.562	353.75
364.788	338.75
365.015	353.75
365.241	347.75
365.468	343.75
365.694	350.75
365.92	338.75
366.147	345.75
366.373	347.75
366.599	331.75
366.826	334.75
367.052	331.75
367.278	350.75
367.505	352.75
367.731	345.75
367.957	339.75
368.184	368.75
368.41	351.75
368.636	359.75
368.862	372.75
369.089	356.75
369.315	357.75
369.541	349.75
369.767	373.75
369.993	377.75
370.219	349.75
370.445	337.75
370.672	349.75
370.898	340.75
371.124	352.75
371.35	354.75
371.576	361.75
371.802	363.75
372.028	357.75
372.254	338.75
372.48	353.75
372.706	384.75
372.932	368.75
373.158	362.75
373.384	367.75
373.61	356.75
373.835	334.75
374.061	348.75
374.287	360.75
374.513	367.75
374.739	379.75
374.965	378.75
375.191	381.75
375.416	379.75
375.642	364.75
375.868	357.75
376.094	355.75
376.319	347.75
376.545	373.75
376.771	353.75
376.997	342.75
377.222	331.75
377.448	343.75
377.674	347.75
377.899	341.75
378.125	330.75
378.35	344.75
378.576	367.75
378.802	340.75
379.027	355.75
379.253	355.75
379.478	340.75
379.704	364.75
379.929	340.75
380.155	343.75
380.38	369.75
380.606	355.75
380.831	339.75
381.057	360.75
381.282	342.75
381.507	361.75
381.733	346.75
381.958	348.75
382.184	346.75
382.409	370.75
382.634	373.75
382.86	364.75
383.085	363.75
383.31	354.75
383.535	378.75
383.761	391.75
383.986	405.75
384.211	388.75
384.436	400.75
384.662	388.75
384.887	387.75
385.112	384.75
385.337	407.75
385.562	380.75
385.787	400.75
386.013	412.75
386.238	413.75
386.463	416.75
386.688	405.75
386.913	384.75
387.138	404.75
387.363	409.75
387.588	405.75
387.813	405.75
388.038	407.75
388.263	406.75
388.488	408.75
388.713	424.75
388.938	387.75
389.163	415.75
389.387	401.75
389.612	391.75
389.837	413.75
390.062	388.75
390.287	388.75
390.512	383.75
390.736	377.75
390.961	385.75
391.186	404.75
391.411	406.75
391.636	420.75
391.86	419.75
392.085	428.75
392.31	417.75
392.534	428.75
392.759	422.75
392.984	428.75
393.208	395.75
393.433	419.75
393.658	419.75
393.882	409.75
394.107	392.75
394.331	415.75
394.556	385.75
394.78	434.75
395.005	409.75
395.229	409.75
395.454	441.75
395.678	422.75
395.903	423.75
396.127	460.75
396.352	452.75
396.576	415.75
396.801	399.75
397.025	412.75
397.249	423.75
397.474	425.75
397.698	434.75
397.922	458.75
398.147	446.75
398.371	453.75
398.595	445.75
398.82	460.75
399.044	483.75
399.268	533.75
399.492	547.75
399.717	612.75
399.941	618.75
400.165	594.75
400.389	564.75
400.613	525.75
400.837	502.75
401.062	501.75
401.286	486.75
401.51	481.75
401.734	485.75
401.958	474.75
402.182	481.75
402.406	492.75
402.63	499.75
402.854	466.75
403.078	505.75
403.302	503.75
403.526	496.75
403.75	507.75
403.974	537.75
404.198	511.75
404.422	514.75
404.645	530.75
404.869	531.75
405.093	560.75
405.317	563.75
405.541	576.75
405.765	545.75
405.988	509.75
406.212	533.75
406.436	554.75
406.66	549.75
406.883	530.75
407.107	552.75
407.331	592.75
407.555	664.75
407.778	610.75
408.002	580.75
408.226	534.75
408.449	553.75
408.673	533.75
408.896	553.75
409.12	581.75
409.344	580.75
409.567	522.75
409.791	507.75
410.014	480.75
410.238	519.75
410.461	486.75
410.685	480.75
410.908	498.75
411.132	542.75
411.355	536.75
411.578	500.75
411.802	475.75
412.025	479.75
412.249	519.75
412.472	513.75
412.695	552.75
412.919	535.75
413.142	502.75
413.365	501.75
413.589	511.75
413.812	469.75
414.035	477.75
414.258	442.75
414.482	467.75
414.705	473.75
414.928	453.75
415.151	470.75
415.374	476.75
415.597	472.75
415.821	458.75
416.044	447.75
416.267	464.75
416.49	448.75
416.713	459.75
416.936	448.75
417.159	457.75
417.382	480.75
417.605	449.75
417.828	458.75
418.051	474.75
418.274	452.75
418.497	458.75
418.72	463.75
418.943	462.75
419.166	480.75
419.389	517.75
419.611	501.75
419.834	474.75
420.057	509.75
420.28	492.75
420.503	470.75
420.726	471.75
420.948	469.75
421.171	503.75
421.394	498.75
421.617	482.75
421.839	487.75
422.062	467.75
422.285	475.75
422.507	518.75
422.73	557.75
422.953	538.75
423.175	494.75
423.398	491.75
423.621	471.75
423.843	497.75
424.066	505.75
424.288	504.75
424.511	536.75
424.733	534.75
424.956	575.75
425.178	559.75
425.401	552.75
425.623	569.75
425.846	519.75
426.068	501.75
426.291	479.75
426.513	478.75
426.735	485.75
426.958	499.75
427.18	554.75
427.402	617.75
427.625	665.75
427.847	581.75
428.069	538.75
428.292	519.75
428.514	481.75
428.736	470.75
428.958	447.75
429.181	443.75
429.403	447.75
429.625	452.75
429.847	465.75
430.069	496.75
430.292	486.75
430.514	442.75
430.736	436.75
430.958	449.75
431.18	417.75
431.402	412.75
431.624	423.75
431.846	415.75
432.068	436.75
432.29	404.75
432.512	415.75
432.734	437.75
432.956	426.75
433.178	449.75
433.4	440.75
433.622	420.75
433.844	433.75
434.066	428.75
434.287	417.75
434.509	419.75
434.731	469.75
434.953	458.75
435.175	478.75
435.397	486.75
435.618	481.75
435.84	501.75
436.062	543.75
436.284	541.75
436.505	488.75
436.727	443.75
436.949	452.75
437.17	444.75
437.392	440.75
437.614	439.75
437.835	460.75
438.057	508.75
438.278	541.75
438.5	565.75
438.721	611.75
438.943	599.75
439.165	486.75
439.386	474.75
439.608	468.75
439.829	461.75
440.05	468.75
440.272	512.75
440.493	504.75
440.715	477.75
440.936	457.75
441.158	448.75
441.379	454.75
441.6	486.75
441.822	489.75
442.043	511.75
442.264	553.75
442.486	552.75
442.707	512.75
442.928	496.75
443.149	496.75
443.371	517.75
443.592	534.75
443.813	572.75
444.034	607.75
444.255	547.75
444.476	536.75
444.698	539.75
444.919	506.75
445.14	611.75
445.361	559.75
445.582	507.75
445.803	554.75
446.024	599.75
446.245	559.75
446.466	541.75
446.687	489.75
446.908	491.75
447.129	447.75
447.35	465.75
447.571	420.75
447.792	433.75
448.013	404.75
448.234	447.75
448.455	470.75
448.675	518.75
448.896	585.75
449.117	513.75
449.338	493.75
449.559	577.75
449.779	621.75
450	508.75
450.221	444.75
450.442	412.75
450.662	427.75
450.883	427.75
451.104	446.75
451.324	426.75
451.545	417.75
451.766	401.75
451.986	384.75
452.207	405.75
452.428	393.75
452.648	394.75
452.869	393.75
453.089	373.75
453.31	403.75
453.53	395.75
453.751	389.75
453.971	401.75
454.192	397.75
454.412	381.75
454.633	404.75
454.853	388.75
455.073	400.75
455.294	400.75
455.514	460.75
455.734	428.75
455.955	375.75
456.175	374.75
456.395	379.75
456.616	353.75
456.836	395.75
457.056	379.75
457.276	371.75
457.497	370.75
457.717	362.75
457.937	369.75
458.157	373.75
458.377	375.75
458.598	396.75
458.818	460.75
459.038	477.75
459.258	476.75
459.478	458.75
459.698	444.75
459.918	423.75
460.138	449.75
460.358	469.75
460.578	453.75
460.798	444.75
461.018	452.75
461.238	468.75
461.458	457.75
461.678	449.75
461.898	467.75
462.118	445.75
462.338	473.75
462.558	508.75
462.777	496.75
462.997	519.75
463.217	549.75
463.437	551.75
463.657	526.75
463.876	528.75
464.096	490.75
464.316	513.75
464.536	502.75
464.755	527.75
464.975	496.75
465.195	497.75
465.414	516.75
465.634	474.75
465.854	455.75
466.073	422.75
466.293	426.75
466.512	416.75
466.732	384.75
466.951	403.75
467.171	400.75
467.391	415.75
467.61	411.75
467.829	418.75
468.049	395.75
468.268	415.75
468.488	415.75
468.707	408.75
468.927	391.75
469.146	391.75
469.365	384.75
469.585	379.75
469.804	377.75
470.023	423.75
470.243	413.75
470.462	413.75
470.681	432.75
470.901	430.75
471.12	398.75
471.339	402.75
471.558	412.75
471.777	412.75
471.997	399.75
472.216	408.75
472.435	433.75
472.654	425.75
472.873	408.75
473.092	411.75
473.311	390.75
473.53	404.75
473.749	411.75
473.968	426.75
474.187	464.75
474.406	487.75
474.625	454.75
474.844	415.75
475.063	400.75
475.282	382.75
475.501	382.75
475.72	379.75
475.939	398.75
476.158	415.75
476.377	413.75
476.596	418.75
476.814	404.75
477.033	403.75
477.252	413.75
477.471	407.75
477.69	417.75
477.908	452.75
478.127	437.75
478.346	450.75
478.564	453.75
478.783	482.75
479.002	461.75
479.22	480.75
479.439	486.75
479.658	479.75
479.876	486.75
480.095	498.75
480.313	529.75
480.532	513.75
480.751	519.75
480.969	496.75
481.188	535.75
481.406	573.75
481.624	501.75
481.843	485.75
482.061	486.75
482.28	465.75
482.498	455.75
482.717	469.75
482.935	470.75
483.153	464.75
483.372	445.75
483.59	453.75
483.808	467.75
484.027	469.75
484.245	452.75
484.463	483.75
484.681	459.75
484.9	473.75
485.118	469.75
485.336	464.75
485.554	472.75
485.772	467.75
485.99	474.75
486.209	483.75
486.427	500.75
486.645	476.75
486.863	471.75
487.081	507.75
487.299	472.75
487.517	497.75
487.735	486.75
487.953	460.75
488.171	465.75
488.389	505.75
488.607	476.75
488.825	476.75
489.043	486.75
489.261	488.75
489.479	491.75
489.696	481.75
489.914	499.75
490.132	515.75
490.35	499.75
490.568	502.75
490.786	501.75
491.003	519.75
491.221	526.75
491.439	526.75
491.657	524.75
491.874	535.75
492.092	561.75
492.31	565.75
492.527	547.75
492.745	540.75
492.963	553.75
493.18	568.75
493.398	564.75
493.615	552.75
493.833	548.75
494.05	575.75
494.268	541.75
494.485	548.75
494.703	525.75
494.92	555.75
495.138	553.75
495.355	560.75
495.573	538.75
495.79	525.75
496.008	572.75
496.225	577.75
496.442	588.75
496.66	581.75
496.877	570.75
497.094	589.75
497.312	607.75
497.529	575.75
497.746	603.75
497.963	604.75
498.181	614.75
498.398	652.75
498.615	676.75
498.832	687.75
499.049	708.75
499.267	735.75
499.484	795.75
499.701	844.75
499.918	885.75
500.135	981.75
500.352	1037.75
500.569	1053.75
500.786	1093.75
501.003	1080.75
501.22	1001.75
501.437	933.75
501.654	822.75
501.871	798.75
502.088	753.75
