Data from 1984.PennyLincolnUp.Lamp.En5.5.200Scan.071819.P1_HRD10591_16-58-20-968.txt Node
Date: Thu Jul 18 16:58:20 EDT 2019
User: cochatt
Spectrometer: HR+D1059
Trigger mode: 1
Integration Time (sec): 1.000000E-1
Scans to average: 1
Electric dark correction enabled: true
Nonlinearity correction enabled: false
Boxcar width: 0
XAxis mode: Wavelengths
Number of Pixels in Spectrum: 2048
>>>>>Begin Spectral Data<<<<<
223.165	-12.06
223.4	-12.06
223.635	-12.06
223.869	-21.06
224.104	-25.06
224.338	-20.06
224.573	-12.06
224.808	-10.06
225.042	-11.06
225.277	-5.06
225.511	8.94
225.746	12.94
225.98	5.94
226.215	5.94
226.449	11.94
226.683	18.94
226.918	22.94
227.152	28.94
227.387	19.94
227.621	37.94
227.856	54.94
228.09	40.94
228.324	41.94
228.559	48.94
228.793	64.94
229.027	82.94
229.262	87.94
229.496	99.94
229.73	87.94
229.964	117.94
230.199	115.94
230.433	97.94
230.667	100.94
230.901	120.94
231.136	95.94
231.37	102.94
231.604	109.94
231.838	116.94
232.072	122.94
232.306	105.94
232.541	112.94
232.775	98.94
233.009	113.94
233.243	109.94
233.477	128.94
233.711	114.94
233.945	113.94
234.179	106.94
234.413	123.94
234.647	104.94
234.881	114.94
235.115	112.94
235.349	109.94
235.583	115.94
235.817	99.94
236.051	116.94
236.285	103.94
236.519	116.94
236.753	116.94
236.987	118.94
237.221	141.94
237.455	175.94
237.689	130.94
237.922	128.94
238.156	114.94
238.39	118.94
238.624	119.94
238.858	100.94
239.091	106.94
239.325	111.94
239.559	108.94
239.793	110.94
240.027	123.94
240.26	133.94
240.494	140.94
240.728	134.94
240.961	134.94
241.195	121.94
241.429	118.94
241.662	125.94
241.896	133.94
242.13	125.94
242.363	116.94
242.597	117.94
242.83	121.94
243.064	125.94
243.298	141.94
243.531	128.94
243.765	147.94
243.998	123.94
244.232	131.94
244.465	132.94
244.699	133.94
244.932	144.94
245.166	124.94
245.399	152.94
245.633	134.94
245.866	134.94
246.099	150.94
246.333	121.94
246.566	138.94
246.8	134.94
247.033	137.94
247.266	150.94
247.5	142.94
247.733	145.94
247.966	150.94
248.2	163.94
248.433	151.94
248.666	146.94
248.899	180.94
249.133	185.94
249.366	180.94
249.599	187.94
249.832	176.94
250.066	172.94
250.299	174.94
250.532	179.94
250.765	186.94
250.998	207.94
251.231	193.94
251.465	177.94
251.698	172.94
251.931	172.94
252.164	177.94
252.397	166.94
252.63	178.94
252.863	178.94
253.096	167.94
253.329	172.94
253.562	169.94
253.795	187.94
254.028	187.94
254.261	180.94
254.494	179.94
254.727	205.94
254.96	211.94
255.193	204.94
255.426	202.94
255.659	200.94
255.892	215.94
256.124	218.94
256.357	232.94
256.59	216.94
256.823	191.94
257.056	199.94
257.289	177.94
257.521	191.94
257.754	185.94
257.987	190.94
258.22	172.94
258.452	172.94
258.685	195.94
258.918	174.94
259.151	194.94
259.383	193.94
259.616	184.94
259.849	204.94
260.081	189.94
260.314	202.94
260.547	219.94
260.779	214.94
261.012	183.94
261.244	189.94
261.477	194.94
261.71	201.94
261.942	198.94
262.175	213.94
262.407	218.94
262.64	183.94
262.872	178.94
263.105	184.94
263.337	198.94
263.57	186.94
263.802	185.94
264.035	204.94
264.267	200.94
264.499	204.94
264.732	201.94
264.964	190.94
265.197	184.94
265.429	195.94
265.661	188.94
265.894	186.94
266.126	207.94
266.358	201.94
266.591	205.94
266.823	199.94
267.055	218.94
267.287	216.94
267.52	202.94
267.752	198.94
267.984	217.94
268.216	221.94
268.448	205.94
268.681	215.94
268.913	246.94
269.145	254.94
269.377	234.94
269.609	226.94
269.841	224.94
270.073	248.94
270.306	241.94
270.538	260.94
270.77	250.94
271.002	241.94
271.234	260.94
271.466	268.94
271.698	259.94
271.93	259.94
272.162	265.94
272.394	253.94
272.626	266.94
272.858	266.94
273.09	252.94
273.322	236.94
273.553	250.94
273.785	227.94
274.017	243.94
274.249	237.94
274.481	254.94
274.713	218.94
274.945	247.94
275.176	233.94
275.408	260.94
275.64	240.94
275.872	256.94
276.104	240.94
276.335	272.94
276.567	239.94
276.799	259.94
277.031	268.94
277.262	264.94
277.494	262.94
277.726	263.94
277.957	266.94
278.189	253.94
278.421	246.94
278.652	249.94
278.884	242.94
279.115	256.94
279.347	251.94
279.579	242.94
279.81	253.94
280.042	244.94
280.273	258.94
280.505	256.94
280.736	242.94
280.968	264.94
281.199	260.94
281.431	251.94
281.662	262.94
281.894	261.94
282.125	245.94
282.356	274.94
282.588	270.94
282.819	279.94
283.051	261.94
283.282	272.94
283.513	264.94
283.745	268.94
283.976	264.94
284.207	267.94
284.439	277.94
284.67	281.94
284.901	270.94
285.132	276.94
285.364	265.94
285.595	262.94
285.826	273.94
286.057	261.94
286.288	260.94
286.52	237.94
286.751	272.94
286.982	278.94
287.213	269.94
287.444	281.94
287.675	281.94
287.906	268.94
288.138	284.94
288.369	286.94
288.6	285.94
288.831	266.94
289.062	283.94
289.293	281.94
289.524	270.94
289.755	284.94
289.986	283.94
290.217	284.94
290.448	282.94
290.679	279.94
290.91	268.94
291.141	272.94
291.371	281.94
291.602	283.94
291.833	278.94
292.064	257.94
292.295	285.94
292.526	270.94
292.757	268.94
292.987	269.94
293.218	282.94
293.449	294.94
293.68	297.94
293.91	283.94
294.141	284.94
294.372	289.94
294.603	285.94
294.833	293.94
295.064	279.94
295.295	287.94
295.525	291.94
295.756	280.94
295.987	287.94
296.217	281.94
296.448	310.94
296.679	284.94
296.909	288.94
297.14	271.94
297.37	294.94
297.601	304.94
297.831	296.94
298.062	293.94
298.292	290.94
298.523	308.94
298.753	337.94
298.984	301.94
299.214	306.94
299.445	305.94
299.675	293.94
299.905	294.94
300.136	300.94
300.366	301.94
300.597	310.94
300.827	312.94
301.057	310.94
301.288	306.94
301.518	326.94
301.748	317.94
301.979	304.94
302.209	330.94
302.439	326.94
302.669	326.94
302.9	333.94
303.13	324.94
303.36	327.94
303.59	307.94
303.82	330.94
304.051	313.94
304.281	328.94
304.511	317.94
304.741	323.94
304.971	300.94
305.201	325.94
305.431	316.94
305.661	309.94
305.891	314.94
306.121	316.94
306.352	310.94
306.582	316.94
306.812	314.94
307.042	307.94
307.272	309.94
307.502	294.94
307.731	314.94
307.961	331.94
308.191	316.94
308.421	322.94
308.651	329.94
308.881	309.94
309.111	316.94
309.341	332.94
309.571	330.94
309.8	327.94
310.03	354.94
310.26	361.94
310.49	327.94
310.72	327.94
310.949	359.94
311.179	366.94
311.409	328.94
311.639	337.94
311.868	337.94
312.098	332.94
312.328	346.94
312.557	370.94
312.787	361.94
313.017	347.94
313.246	348.94
313.476	330.94
313.706	341.94
313.935	361.94
314.165	354.94
314.394	362.94
314.624	374.94
314.853	323.94
315.083	363.94
315.312	369.94
315.542	348.94
315.771	339.94
316.001	342.94
316.23	344.94
316.46	339.94
316.689	319.94
316.919	345.94
317.148	353.94
317.377	344.94
317.607	343.94
317.836	350.94
318.065	353.94
318.295	333.94
318.524	344.94
318.753	356.94
318.983	349.94
319.212	371.94
319.441	344.94
319.67	332.94
319.9	359.94
320.129	345.94
320.358	341.94
320.587	354.94
320.816	362.94
321.046	348.94
321.275	356.94
321.504	356.94
321.733	357.94
321.962	360.94
322.191	366.94
322.42	376.94
322.649	373.94
322.878	384.94
323.108	420.94
323.337	405.94
323.566	408.94
323.795	424.94
324.024	455.94
324.253	540.94
324.482	688.94
324.71	989.94
324.939	1385.94
325.168	1158.94
325.397	667.94
325.626	518.94
325.855	441.94
326.084	444.94
326.313	426.94
326.542	435.94
326.77	450.94
326.999	512.94
327.228	661.94
327.457	884.94
327.686	1070.94
327.914	775.94
328.143	555.94
328.372	526.94
328.6	472.94
328.829	446.94
329.058	472.94
329.287	476.94
329.515	467.94
329.744	436.94
329.972	435.94
330.201	494.94
330.43	500.94
330.658	513.94
330.887	493.94
331.115	478.94
331.344	449.94
331.572	436.94
331.801	451.94
332.03	436.94
332.258	416.94
332.486	415.94
332.715	427.94
332.943	442.94
333.172	466.94
333.4	481.94
333.629	508.94
333.857	509.94
334.085	507.94
334.314	518.94
334.542	594.94
334.771	568.94
334.999	534.94
335.227	485.94
335.455	452.94
335.684	452.94
335.912	444.94
336.14	436.94
336.369	417.94
336.597	426.94
336.825	420.94
337.053	421.94
337.281	410.94
337.51	416.94
337.738	426.94
337.966	405.94
338.194	409.94
338.422	401.94
338.65	417.94
338.878	406.94
339.106	414.94
339.334	417.94
339.562	392.94
339.79	396.94
340.018	372.94
340.246	398.94
340.474	395.94
340.702	397.94
340.93	388.94
341.158	388.94
341.386	390.94
341.614	397.94
341.842	369.94
342.07	395.94
342.298	392.94
342.526	380.94
342.754	378.94
342.981	372.94
343.209	388.94
343.437	398.94
343.665	397.94
343.893	406.94
344.12	411.94
344.348	442.94
344.576	410.94
344.804	409.94
345.031	392.94
345.259	393.94
345.487	402.94
345.714	394.94
345.942	388.94
346.17	368.94
346.397	379.94
346.625	390.94
346.853	375.94
347.08	359.94
347.308	402.94
347.535	388.94
347.763	400.94
347.99	380.94
348.218	374.94
348.445	361.94
348.673	355.94
348.9	361.94
349.128	366.94
349.355	357.94
349.583	350.94
349.81	360.94
350.037	371.94
350.265	356.94
350.492	357.94
350.72	361.94
350.947	353.94
351.174	391.94
351.402	374.94
351.629	363.94
351.856	374.94
352.083	373.94
352.311	378.94
352.538	369.94
352.765	374.94
352.992	347.94
353.22	352.94
353.447	370.94
353.674	373.94
353.901	374.94
354.128	349.94
354.355	377.94
354.583	372.94
354.81	348.94
355.037	338.94
355.264	353.94
355.491	340.94
355.718	338.94
355.945	348.94
356.172	357.94
356.399	341.94
356.626	354.94
356.853	349.94
357.08	344.94
357.307	350.94
357.534	373.94
357.761	347.94
357.988	370.94
358.215	348.94
358.441	346.94
358.668	346.94
358.895	331.94
359.122	354.94
359.349	350.94
359.576	360.94
359.802	364.94
360.029	389.94
360.256	372.94
360.483	376.94
360.709	356.94
360.936	379.94
361.163	384.94
361.39	390.94
361.616	363.94
361.843	352.94
362.07	363.94
362.296	344.94
362.523	365.94
362.749	345.94
362.976	358.94
363.203	370.94
363.429	334.94
363.656	350.94
363.882	359.94
364.109	349.94
364.335	349.94
364.562	357.94
364.788	345.94
365.015	362.94
365.241	350.94
365.468	354.94
365.694	367.94
365.92	346.94
366.147	342.94
366.373	340.94
366.599	343.94
366.826	353.94
367.052	358.94
367.278	361.94
367.505	340.94
367.731	343.94
367.957	341.94
368.184	338.94
368.41	344.94
368.636	352.94
368.862	365.94
369.089	353.94
369.315	361.94
369.541	363.94
369.767	359.94
369.993	355.94
370.219	354.94
370.445	346.94
370.672	353.94
370.898	363.94
371.124	346.94
371.35	366.94
371.576	363.94
371.802	346.94
372.028	356.94
372.254	355.94
372.48	375.94
372.706	370.94
372.932	367.94
373.158	355.94
373.384	357.94
373.61	351.94
373.835	367.94
374.061	352.94
374.287	376.94
374.513	358.94
374.739	364.94
374.965	387.94
375.191	372.94
375.416	380.94
375.642	381.94
375.868	365.94
376.094	350.94
376.319	350.94
376.545	362.94
376.771	341.94
376.997	349.94
377.222	362.94
377.448	363.94
377.674	370.94
377.899	365.94
378.125	349.94
378.35	341.94
378.576	357.94
378.802	358.94
379.027	334.94
379.253	347.94
379.478	364.94
379.704	341.94
379.929	349.94
380.155	347.94
380.38	353.94
380.606	370.94
380.831	353.94
381.057	357.94
381.282	352.94
381.507	351.94
381.733	352.94
381.958	368.94
382.184	360.94
382.409	363.94
382.634	378.94
382.86	366.94
383.085	380.94
383.31	378.94
383.535	381.94
383.761	379.94
383.986	402.94
384.211	380.94
384.436	392.94
384.662	391.94
384.887	402.94
385.112	404.94
385.337	402.94
385.562	404.94
385.787	393.94
386.013	409.94
386.238	401.94
386.463	408.94
386.688	387.94
386.913	419.94
387.138	404.94
387.363	406.94
387.588	404.94
387.813	410.94
388.038	397.94
388.263	409.94
388.488	403.94
388.713	398.94
388.938	398.94
389.163	414.94
389.387	400.94
389.612	396.94
389.837	388.94
390.062	386.94
390.287	406.94
390.512	402.94
390.736	389.94
390.961	385.94
391.186	413.94
391.411	399.94
391.636	409.94
391.86	423.94
392.085	435.94
392.31	421.94
392.534	432.94
392.759	431.94
392.984	425.94
393.208	394.94
393.433	434.94
393.658	422.94
393.882	408.94
394.107	418.94
394.331	391.94
394.556	431.94
394.78	448.94
395.005	418.94
395.229	411.94
395.454	431.94
395.678	448.94
395.903	438.94
396.127	443.94
396.352	441.94
396.576	418.94
396.801	409.94
397.025	428.94
397.249	447.94
397.474	436.94
397.698	453.94
397.922	458.94
398.147	456.94
398.371	474.94
398.595	477.94
398.82	469.94
399.044	483.94
399.268	502.94
399.492	575.94
399.717	625.94
399.941	652.94
400.165	636.94
400.389	590.94
400.613	541.94
400.837	505.94
401.062	491.94
401.286	484.94
401.51	491.94
401.734	464.94
401.958	496.94
402.182	480.94
402.406	500.94
402.63	501.94
402.854	496.94
403.078	498.94
403.302	498.94
403.526	513.94
403.75	520.94
403.974	520.94
404.198	512.94
404.422	514.94
404.645	526.94
404.869	535.94
405.093	550.94
405.317	566.94
405.541	573.94
405.765	555.94
405.988	526.94
406.212	522.94
406.436	530.94
406.66	549.94
406.883	527.94
407.107	565.94
407.331	606.94
407.555	625.94
407.778	635.94
408.002	590.94
408.226	551.94
408.449	538.94
408.673	536.94
408.896	548.94
409.12	568.94
409.344	571.94
409.567	504.94
409.791	507.94
410.014	497.94
410.238	494.94
410.461	498.94
410.685	502.94
410.908	497.94
411.132	536.94
411.355	540.94
411.578	518.94
411.802	520.94
412.025	501.94
412.249	503.94
412.472	518.94
412.695	542.94
412.919	523.94
413.142	499.94
413.365	488.94
413.589	478.94
413.812	488.94
414.035	482.94
414.258	461.94
414.482	457.94
414.705	465.94
414.928	459.94
415.151	470.94
415.374	461.94
415.597	457.94
415.821	472.94
416.044	463.94
416.267	474.94
416.49	450.94
416.713	467.94
416.936	441.94
417.159	453.94
417.382	469.94
417.605	467.94
417.828	485.94
418.051	495.94
418.274	458.94
418.497	461.94
418.72	461.94
418.943	454.94
419.166	478.94
419.389	530.94
419.611	522.94
419.834	514.94
420.057	507.94
420.28	516.94
420.503	504.94
420.726	483.94
420.948	482.94
421.171	517.94
421.394	529.94
421.617	500.94
421.839	475.94
422.062	467.94
422.285	485.94
422.507	514.94
422.73	551.94
422.953	527.94
423.175	500.94
423.398	510.94
423.621	499.94
423.843	530.94
424.066	510.94
424.288	500.94
424.511	492.94
424.733	538.94
424.956	580.94
425.178	557.94
425.401	567.94
425.623	578.94
425.846	521.94
426.068	489.94
426.291	482.94
426.513	472.94
426.735	469.94
426.958	503.94
427.18	563.94
427.402	630.94
427.625	688.94
427.847	590.94
428.069	557.94
428.292	504.94
428.514	450.94
428.736	457.94
428.958	449.94
429.181	429.94
429.403	423.94
429.625	442.94
429.847	450.94
430.069	496.94
430.292	493.94
430.514	418.94
430.736	444.94
430.958	422.94
431.18	456.94
431.402	429.94
431.624	434.94
431.846	423.94
432.068	421.94
432.29	439.94
432.512	422.94
432.734	440.94
432.956	420.94
433.178	447.94
433.4	426.94
433.622	438.94
433.844	420.94
434.066	422.94
434.287	421.94
434.509	473.94
434.731	449.94
434.953	477.94
435.175	500.94
435.397	486.94
435.618	498.94
435.84	491.94
436.062	547.94
436.284	562.94
436.505	489.94
436.727	464.94
436.949	452.94
437.17	429.94
437.392	448.94
437.614	458.94
437.835	456.94
438.057	520.94
438.278	552.94
438.5	573.94
438.721	600.94
438.943	604.94
439.165	505.94
439.386	457.94
439.608	483.94
439.829	458.94
440.05	464.94
440.272	514.94
440.493	488.94
440.715	462.94
440.936	452.94
441.158	431.94
441.379	454.94
441.6	480.94
441.822	488.94
442.043	510.94
442.264	546.94
442.486	572.94
442.707	502.94
442.928	477.94
443.149	499.94
443.371	508.94
443.592	554.94
443.813	579.94
444.034	636.94
444.255	543.94
444.476	525.94
444.698	528.94
444.919	519.94
445.14	618.94
445.361	556.94
445.582	504.94
445.803	537.94
446.024	572.94
446.245	569.94
446.466	549.94
446.687	494.94
446.908	472.94
447.129	440.94
447.35	442.94
447.571	434.94
447.792	427.94
448.013	439.94
448.234	440.94
448.455	453.94
448.675	526.94
448.896	602.94
449.117	514.94
449.338	498.94
449.559	546.94
449.779	634.94
450	524.94
450.221	442.94
450.442	436.94
450.662	430.94
450.883	399.94
451.104	443.94
451.324	418.94
451.545	406.94
451.766	408.94
451.986	408.94
452.207	392.94
452.428	398.94
452.648	396.94
452.869	393.94
453.089	406.94
453.31	411.94
453.53	393.94
453.751	383.94
453.971	387.94
454.192	408.94
454.412	392.94
454.633	384.94
454.853	393.94
455.073	383.94
455.294	393.94
455.514	438.94
455.734	422.94
455.955	392.94
456.175	378.94
456.395	358.94
456.616	376.94
456.836	371.94
457.056	361.94
457.276	366.94
457.497	372.94
457.717	378.94
457.937	385.94
458.157	381.94
458.377	380.94
458.598	396.94
458.818	451.94
459.038	490.94
459.258	485.94
459.478	452.94
459.698	432.94
459.918	438.94
460.138	444.94
460.358	448.94
460.578	475.94
460.798	466.94
461.018	464.94
461.238	472.94
461.458	464.94
461.678	469.94
461.898	480.94
462.118	457.94
462.338	483.94
462.558	513.94
462.777	484.94
462.997	514.94
463.217	549.94
463.437	559.94
463.657	542.94
463.876	518.94
464.096	523.94
464.316	509.94
464.536	525.94
464.755	511.94
464.975	513.94
465.195	517.94
465.414	501.94
465.634	455.94
465.854	463.94
466.073	457.94
466.293	425.94
466.512	412.94
466.732	408.94
466.951	404.94
467.171	403.94
467.391	415.94
467.61	418.94
467.829	427.94
468.049	422.94
468.268	401.94
468.488	406.94
468.707	416.94
468.927	391.94
469.146	388.94
469.365	392.94
469.585	410.94
469.804	400.94
470.023	427.94
470.243	433.94
470.462	424.94
470.681	428.94
470.901	409.94
471.12	430.94
471.339	407.94
471.558	420.94
471.777	414.94
471.997	406.94
472.216	422.94
472.435	442.94
472.654	433.94
472.873	416.94
473.092	408.94
473.311	391.94
473.53	408.94
473.749	426.94
473.968	433.94
474.187	478.94
474.406	494.94
474.625	437.94
474.844	389.94
475.063	397.94
475.282	402.94
475.501	402.94
475.72	422.94
475.939	419.94
476.158	404.94
476.377	408.94
476.596	416.94
476.814	422.94
477.033	433.94
477.252	434.94
477.471	413.94
477.69	442.94
477.908	456.94
478.127	451.94
478.346	442.94
478.564	480.94
478.783	456.94
479.002	476.94
479.22	461.94
479.439	472.94
479.658	482.94
479.876	489.94
480.095	485.94
480.313	514.94
480.532	524.94
480.751	522.94
480.969	496.94
481.188	568.94
481.406	600.94
481.624	545.94
481.843	498.94
482.061	480.94
482.28	489.94
482.498	478.94
482.717	468.94
482.935	445.94
483.153	452.94
483.372	482.94
483.59	466.94
483.808	481.94
484.027	457.94
484.245	442.94
484.463	458.94
484.681	472.94
484.9	476.94
485.118	481.94
485.336	486.94
485.554	462.94
485.772	486.94
485.99	460.94
486.209	488.94
486.427	474.94
486.645	485.94
486.863	484.94
487.081	493.94
487.299	474.94
487.517	489.94
487.735	477.94
487.953	481.94
488.171	502.94
488.389	477.94
488.607	473.94
488.825	504.94
489.043	487.94
489.261	498.94
489.479	502.94
489.696	497.94
489.914	493.94
490.132	510.94
490.35	504.94
490.568	518.94
490.786	504.94
491.003	520.94
491.221	521.94
491.439	551.94
491.657	548.94
491.874	557.94
492.092	579.94
492.31	529.94
492.527	571.94
492.745	572.94
492.963	576.94
493.18	561.94
493.398	568.94
493.615	571.94
493.833	568.94
494.05	568.94
494.268	569.94
494.485	553.94
494.703	541.94
494.92	557.94
495.138	532.94
495.355	558.94
495.573	544.94
495.79	586.94
496.008	578.94
496.225	552.94
496.442	560.94
496.66	564.94
496.877	577.94
497.094	595.94
497.312	589.94
497.529	589.94
497.746	598.94
497.963	610.94
498.181	633.94
498.398	631.94
498.615	666.94
498.832	682.94
499.049	708.94
499.267	753.94
499.484	789.94
499.701	843.94
499.918	899.94
500.135	989.94
500.352	1067.94
500.569	1112.94
500.786	1098.94
501.003	1081.94
501.22	995.94
501.437	928.94
501.654	877.94
501.871	824.94
502.088	748.94
