Data from 1984.PennyLincolnUp.Lamp.En5.5.200Scan.071819.P1_HRD10591_17-00-27-969.txt Node
Date: Thu Jul 18 17:00:27 EDT 2019
User: cochatt
Spectrometer: HR+D1059
Trigger mode: 1
Integration Time (sec): 1.000000E-1
Scans to average: 1
Electric dark correction enabled: true
Nonlinearity correction enabled: false
Boxcar width: 0
XAxis mode: Wavelengths
Number of Pixels in Spectrum: 2048
>>>>>Begin Spectral Data<<<<<
223.165	-25.88
223.4	-25.88
223.635	-25.88
223.869	-25.88
224.104	-11.88
224.338	0.12
224.573	2.12
224.808	-3.88
225.042	-9.88
225.277	-14.88
225.511	-1.88
225.746	6.12
225.98	13.12
226.215	5.12
226.449	21.12
226.683	13.12
226.918	9.12
227.152	24.12
227.387	37.12
227.621	46.12
227.856	54.12
228.09	52.12
228.324	55.12
228.559	65.12
228.793	69.12
229.027	91.12
229.262	96.12
229.496	101.12
229.73	88.12
229.964	126.12
230.199	113.12
230.433	120.12
230.667	109.12
230.901	118.12
231.136	96.12
231.37	98.12
231.604	112.12
231.838	107.12
232.072	109.12
232.306	110.12
232.541	112.12
232.775	121.12
233.009	122.12
233.243	97.12
233.477	116.12
233.711	98.12
233.945	101.12
234.179	120.12
234.413	110.12
234.647	113.12
234.881	109.12
235.115	114.12
235.349	108.12
235.583	113.12
235.817	108.12
236.051	112.12
236.285	110.12
236.519	112.12
236.753	124.12
236.987	140.12
237.221	130.12
237.455	158.12
237.689	141.12
237.922	112.12
238.156	134.12
238.39	126.12
238.624	109.12
238.858	111.12
239.091	109.12
239.325	128.12
239.559	130.12
239.793	118.12
240.027	122.12
240.26	128.12
240.494	144.12
240.728	133.12
240.961	141.12
241.195	132.12
241.429	138.12
241.662	118.12
241.896	133.12
242.13	127.12
242.363	123.12
242.597	128.12
242.83	126.12
243.064	128.12
243.298	140.12
243.531	137.12
243.765	136.12
243.998	136.12
244.232	138.12
244.465	127.12
244.699	125.12
244.932	143.12
245.166	129.12
245.399	146.12
245.633	141.12
245.866	145.12
246.099	136.12
246.333	120.12
246.566	141.12
246.8	142.12
247.033	159.12
247.266	146.12
247.5	138.12
247.733	151.12
247.966	150.12
248.2	156.12
248.433	162.12
248.666	175.12
248.899	162.12
249.133	177.12
249.366	172.12
249.599	174.12
249.832	165.12
250.066	196.12
250.299	173.12
250.532	209.12
250.765	231.12
250.998	233.12
251.231	201.12
251.465	188.12
251.698	183.12
251.931	176.12
252.164	180.12
252.397	180.12
252.63	180.12
252.863	188.12
253.096	177.12
253.329	193.12
253.562	197.12
253.795	180.12
254.028	181.12
254.261	200.12
254.494	200.12
254.727	197.12
254.96	219.12
255.193	210.12
255.426	203.12
255.659	214.12
255.892	258.12
256.124	299.12
256.357	326.12
256.59	272.12
256.823	231.12
257.056	211.12
257.289	198.12
257.521	201.12
257.754	199.12
257.987	193.12
258.22	205.12
258.452	197.12
258.685	187.12
258.918	198.12
259.151	206.12
259.383	199.12
259.616	194.12
259.849	202.12
260.081	216.12
260.314	221.12
260.547	215.12
260.779	209.12
261.012	214.12
261.244	218.12
261.477	201.12
261.71	198.12
261.942	219.12
262.175	200.12
262.407	218.12
262.64	203.12
262.872	199.12
263.105	173.12
263.337	200.12
263.57	199.12
263.802	205.12
264.035	200.12
264.267	214.12
264.499	203.12
264.732	197.12
264.964	204.12
265.197	194.12
265.429	206.12
265.661	219.12
265.894	204.12
266.126	207.12
266.358	224.12
266.591	223.12
266.823	226.12
267.055	215.12
267.287	228.12
267.52	223.12
267.752	219.12
267.984	210.12
268.216	213.12
268.448	224.12
268.681	228.12
268.913	224.12
269.145	240.12
269.377	249.12
269.609	235.12
269.841	244.12
270.073	250.12
270.306	266.12
270.538	272.12
270.77	265.12
271.002	257.12
271.234	247.12
271.466	264.12
271.698	263.12
271.93	268.12
272.162	280.12
272.394	281.12
272.626	271.12
272.858	240.12
273.09	247.12
273.322	248.12
273.553	234.12
273.785	243.12
274.017	246.12
274.249	246.12
274.481	229.12
274.713	244.12
274.945	252.12
275.176	272.12
275.408	258.12
275.64	240.12
275.872	249.12
276.104	264.12
276.335	261.12
276.567	259.12
276.799	245.12
277.031	294.12
277.262	299.12
277.494	299.12
277.726	293.12
277.957	277.12
278.189	265.12
278.421	260.12
278.652	255.12
278.884	261.12
279.115	250.12
279.347	256.12
279.579	261.12
279.81	269.12
280.042	270.12
280.273	288.12
280.505	260.12
280.736	270.12
280.968	260.12
281.199	249.12
281.431	249.12
281.662	261.12
281.894	274.12
282.125	246.12
282.356	268.12
282.588	300.12
282.819	305.12
283.051	292.12
283.282	273.12
283.513	262.12
283.745	271.12
283.976	285.12
284.207	276.12
284.439	290.12
284.67	290.12
284.901	277.12
285.132	261.12
285.364	279.12
285.595	280.12
285.826	285.12
286.057	290.12
286.288	270.12
286.52	279.12
286.751	293.12
286.982	278.12
287.213	274.12
287.444	262.12
287.675	315.12
287.906	280.12
288.138	287.12
288.369	295.12
288.6	311.12
288.831	294.12
289.062	303.12
289.293	277.12
289.524	289.12
289.755	286.12
289.986	282.12
290.217	288.12
290.448	285.12
290.679	284.12
290.91	297.12
291.141	298.12
291.371	301.12
291.602	301.12
291.833	271.12
292.064	271.12
292.295	286.12
292.526	274.12
292.757	290.12
292.987	305.12
293.218	267.12
293.449	301.12
293.68	303.12
293.91	287.12
294.141	298.12
294.372	285.12
294.603	295.12
294.833	287.12
295.064	291.12
295.295	302.12
295.525	282.12
295.756	296.12
295.987	268.12
296.217	315.12
296.448	308.12
296.679	293.12
296.909	282.12
297.14	300.12
297.37	308.12
297.601	324.12
297.831	322.12
298.062	302.12
298.292	290.12
298.523	310.12
298.753	302.12
298.984	290.12
299.214	300.12
299.445	295.12
299.675	312.12
299.905	294.12
300.136	303.12
300.366	312.12
300.597	311.12
300.827	301.12
301.057	312.12
301.288	330.12
301.518	314.12
301.748	323.12
301.979	337.12
302.209	323.12
302.439	318.12
302.669	312.12
302.9	335.12
303.13	338.12
303.36	344.12
303.59	320.12
303.82	336.12
304.051	345.12
304.281	351.12
304.511	306.12
304.741	327.12
304.971	322.12
305.201	300.12
305.431	349.12
305.661	314.12
305.891	315.12
306.121	310.12
306.352	322.12
306.582	298.12
306.812	316.12
307.042	318.12
307.272	333.12
307.502	312.12
307.731	325.12
307.961	319.12
308.191	324.12
308.421	323.12
308.651	325.12
308.881	325.12
309.111	301.12
309.341	337.12
309.571	341.12
309.8	350.12
310.03	357.12
310.26	349.12
310.49	328.12
310.72	364.12
310.949	346.12
311.179	362.12
311.409	334.12
311.639	357.12
311.868	345.12
312.098	361.12
312.328	363.12
312.557	359.12
312.787	365.12
313.017	378.12
313.246	341.12
313.476	342.12
313.706	354.12
313.935	364.12
314.165	367.12
314.394	378.12
314.624	358.12
314.853	346.12
315.083	372.12
315.312	353.12
315.542	345.12
315.771	364.12
316.001	339.12
316.23	345.12
316.46	335.12
316.689	347.12
316.919	360.12
317.148	344.12
317.377	353.12
317.607	369.12
317.836	379.12
318.065	372.12
318.295	350.12
318.524	345.12
318.753	372.12
318.983	348.12
319.212	342.12
319.441	363.12
319.67	360.12
319.9	372.12
320.129	367.12
320.358	363.12
320.587	363.12
320.816	367.12
321.046	345.12
321.275	369.12
321.504	370.12
321.733	368.12
321.962	389.12
322.191	384.12
322.42	395.12
322.649	385.12
322.878	397.12
323.108	398.12
323.337	417.12
323.566	437.12
323.795	456.12
324.024	493.12
324.253	558.12
324.482	757.12
324.71	1080.12
324.939	1507.12
325.168	1284.12
325.397	728.12
325.626	539.12
325.855	456.12
326.084	440.12
326.313	446.12
326.542	449.12
326.77	473.12
326.999	526.12
327.228	718.12
327.457	1011.12
327.686	1164.12
327.914	850.12
328.143	626.12
328.372	606.12
328.6	560.12
328.829	519.12
329.058	491.12
329.287	536.12
329.515	507.12
329.744	516.12
329.972	570.12
330.201	640.12
330.43	712.12
330.658	675.12
330.887	593.12
331.115	540.12
331.344	484.12
331.572	472.12
331.801	489.12
332.03	476.12
332.258	457.12
332.486	458.12
332.715	476.12
332.943	486.12
333.172	482.12
333.4	502.12
333.629	544.12
333.857	547.12
334.085	596.12
334.314	711.12
334.542	844.12
334.771	835.12
334.999	678.12
335.227	555.12
335.455	510.12
335.684	469.12
335.912	481.12
336.14	481.12
336.369	461.12
336.597	438.12
336.825	448.12
337.053	439.12
337.281	426.12
337.51	427.12
337.738	432.12
337.966	431.12
338.194	418.12
338.422	408.12
338.65	433.12
338.878	410.12
339.106	406.12
339.334	412.12
339.562	389.12
339.79	388.12
340.018	390.12
340.246	419.12
340.474	406.12
340.702	386.12
340.93	411.12
341.158	396.12
341.386	384.12
341.614	379.12
341.842	396.12
342.07	406.12
342.298	386.12
342.526	398.12
342.754	392.12
342.981	384.12
343.209	398.12
343.437	404.12
343.665	419.12
343.893	432.12
344.12	431.12
344.348	435.12
344.576	429.12
344.804	439.12
345.031	408.12
345.259	408.12
345.487	383.12
345.714	384.12
345.942	375.12
346.17	382.12
346.397	365.12
346.625	384.12
346.853	361.12
347.08	384.12
347.308	376.12
347.535	382.12
347.763	370.12
347.99	377.12
348.218	380.12
348.445	365.12
348.673	375.12
348.9	392.12
349.128	386.12
349.355	366.12
349.583	378.12
349.81	365.12
350.037	356.12
350.265	363.12
350.492	360.12
350.72	380.12
350.947	368.12
351.174	369.12
351.402	377.12
351.629	405.12
351.856	365.12
352.083	368.12
352.311	384.12
352.538	370.12
352.765	392.12
352.992	362.12
353.22	375.12
353.447	362.12
353.674	337.12
353.901	386.12
354.128	383.12
354.355	344.12
354.583	370.12
354.81	365.12
355.037	325.12
355.264	359.12
355.491	352.12
355.718	344.12
355.945	358.12
356.172	371.12
356.399	356.12
356.626	370.12
356.853	354.12
357.08	360.12
357.307	359.12
357.534	357.12
357.761	332.12
357.988	356.12
358.215	372.12
358.441	358.12
358.668	364.12
358.895	367.12
359.122	361.12
359.349	366.12
359.576	355.12
359.802	386.12
360.029	398.12
360.256	393.12
360.483	381.12
360.709	375.12
360.936	373.12
361.163	360.12
361.39	372.12
361.616	366.12
361.843	374.12
362.07	365.12
362.296	378.12
362.523	361.12
362.749	368.12
362.976	360.12
363.203	371.12
363.429	352.12
363.656	363.12
363.882	369.12
364.109	358.12
364.335	356.12
364.562	356.12
364.788	354.12
365.015	346.12
365.241	364.12
365.468	352.12
365.694	373.12
365.92	367.12
366.147	342.12
366.373	354.12
366.599	349.12
366.826	345.12
367.052	349.12
367.278	348.12
367.505	356.12
367.731	353.12
367.957	346.12
368.184	357.12
368.41	356.12
368.636	370.12
368.862	368.12
369.089	360.12
369.315	364.12
369.541	368.12
369.767	380.12
369.993	367.12
370.219	353.12
370.445	363.12
370.672	380.12
370.898	354.12
371.124	354.12
371.35	366.12
371.576	366.12
371.802	381.12
372.028	367.12
372.254	360.12
372.48	359.12
372.706	384.12
372.932	365.12
373.158	363.12
373.384	383.12
373.61	382.12
373.835	370.12
374.061	365.12
374.287	376.12
374.513	377.12
374.739	363.12
374.965	405.12
375.191	384.12
375.416	384.12
375.642	367.12
375.868	375.12
376.094	350.12
376.319	358.12
376.545	357.12
376.771	354.12
376.997	354.12
377.222	364.12
377.448	376.12
377.674	368.12
377.899	345.12
378.125	360.12
378.35	353.12
378.576	365.12
378.802	356.12
379.027	360.12
379.253	351.12
379.478	362.12
379.704	366.12
379.929	366.12
380.155	353.12
380.38	364.12
380.606	354.12
380.831	349.12
381.057	363.12
381.282	346.12
381.507	356.12
381.733	355.12
381.958	390.12
382.184	377.12
382.409	350.12
382.634	362.12
382.86	378.12
383.085	383.12
383.31	376.12
383.535	384.12
383.761	389.12
383.986	394.12
384.211	396.12
384.436	397.12
384.662	385.12
384.887	386.12
385.112	407.12
385.337	391.12
385.562	410.12
385.787	409.12
386.013	417.12
386.238	404.12
386.463	429.12
386.688	404.12
386.913	389.12
387.138	398.12
387.363	417.12
387.588	396.12
387.813	402.12
388.038	432.12
388.263	392.12
388.488	408.12
388.713	408.12
388.938	400.12
389.163	413.12
389.387	401.12
389.612	409.12
389.837	417.12
390.062	417.12
390.287	400.12
390.512	403.12
390.736	410.12
390.961	422.12
391.186	415.12
391.411	417.12
391.636	429.12
391.86	417.12
392.085	443.12
392.31	428.12
392.534	436.12
392.759	419.12
392.984	426.12
393.208	422.12
393.433	452.12
393.658	399.12
393.882	399.12
394.107	411.12
394.331	410.12
394.556	397.12
394.78	440.12
395.005	436.12
395.229	426.12
395.454	432.12
395.678	437.12
395.903	448.12
396.127	450.12
396.352	460.12
396.576	429.12
396.801	441.12
397.025	429.12
397.249	429.12
397.474	476.12
397.698	461.12
397.922	428.12
398.147	449.12
398.371	469.12
398.595	466.12
398.82	504.12
399.044	499.12
399.268	529.12
399.492	571.12
399.717	613.12
399.941	623.12
400.165	619.12
400.389	602.12
400.613	527.12
400.837	505.12
401.062	478.12
401.286	482.12
401.51	508.12
401.734	458.12
401.958	481.12
402.182	513.12
402.406	493.12
402.63	508.12
402.854	508.12
403.078	496.12
403.302	512.12
403.526	504.12
403.75	523.12
403.974	538.12
404.198	498.12
404.422	540.12
404.645	540.12
404.869	565.12
405.093	600.12
405.317	614.12
405.541	672.12
405.765	585.12
405.988	554.12
406.212	553.12
406.436	562.12
406.66	567.12
406.883	546.12
407.107	553.12
407.331	592.12
407.555	646.12
407.778	634.12
408.002	607.12
408.226	557.12
408.449	536.12
408.673	559.12
408.896	553.12
409.12	571.12
409.344	556.12
409.567	520.12
409.791	522.12
410.014	506.12
410.238	503.12
410.461	512.12
410.685	504.12
410.908	512.12
411.132	541.12
411.355	564.12
411.578	529.12
411.802	503.12
412.025	524.12
412.249	547.12
412.472	578.12
412.695	607.12
412.919	616.12
413.142	585.12
413.365	526.12
413.589	534.12
413.812	501.12
414.035	489.12
414.258	488.12
414.482	498.12
414.705	481.12
414.928	480.12
415.151	488.12
415.374	487.12
415.597	491.12
415.821	475.12
416.044	466.12
416.267	454.12
416.49	473.12
416.713	471.12
416.936	452.12
417.159	462.12
417.382	474.12
417.605	477.12
417.828	486.12
418.051	501.12
418.274	476.12
418.497	477.12
418.72	494.12
418.943	488.12
419.166	487.12
419.389	533.12
419.611	504.12
419.834	505.12
420.057	542.12
420.28	536.12
420.503	540.12
420.726	511.12
420.948	516.12
421.171	537.12
421.394	541.12
421.617	493.12
421.839	477.12
422.062	467.12
422.285	490.12
422.507	501.12
422.73	552.12
422.953	559.12
423.175	516.12
423.398	504.12
423.621	490.12
423.843	516.12
424.066	522.12
424.288	518.12
424.511	503.12
424.733	556.12
424.956	592.12
425.178	568.12
425.401	563.12
425.623	580.12
425.846	524.12
426.068	513.12
426.291	480.12
426.513	474.12
426.735	476.12
426.958	512.12
427.18	538.12
427.402	631.12
427.625	688.12
427.847	620.12
428.069	582.12
428.292	531.12
428.514	506.12
428.736	456.12
428.958	456.12
429.181	455.12
429.403	451.12
429.625	448.12
429.847	450.12
430.069	513.12
430.292	491.12
430.514	458.12
430.736	446.12
430.958	453.12
431.18	440.12
431.402	448.12
431.624	441.12
431.846	440.12
432.068	437.12
432.29	438.12
432.512	449.12
432.734	439.12
432.956	441.12
433.178	428.12
433.4	425.12
433.622	430.12
433.844	438.12
434.066	439.12
434.287	448.12
434.509	461.12
434.731	464.12
434.953	476.12
435.175	483.12
435.397	485.12
435.618	496.12
435.84	496.12
436.062	551.12
436.284	594.12
436.505	506.12
436.727	465.12
436.949	462.12
437.17	448.12
437.392	445.12
437.614	453.12
437.835	461.12
438.057	494.12
438.278	568.12
438.5	573.12
438.721	619.12
438.943	606.12
439.165	496.12
439.386	456.12
439.608	490.12
439.829	485.12
440.05	478.12
440.272	529.12
440.493	507.12
440.715	467.12
440.936	474.12
441.158	463.12
441.379	440.12
441.6	470.12
441.822	479.12
442.043	496.12
442.264	565.12
442.486	586.12
442.707	521.12
442.928	471.12
443.149	477.12
443.371	486.12
443.592	551.12
443.813	587.12
444.034	626.12
444.255	572.12
444.476	528.12
444.698	516.12
444.919	545.12
445.14	644.12
445.361	568.12
445.582	536.12
445.803	540.12
446.024	590.12
446.245	599.12
446.466	548.12
446.687	494.12
446.908	466.12
447.129	451.12
447.35	433.12
447.571	446.12
447.792	412.12
448.013	440.12
448.234	440.12
448.455	466.12
448.675	506.12
448.896	605.12
449.117	522.12
449.338	507.12
449.559	591.12
449.779	623.12
450	520.12
450.221	452.12
450.442	408.12
450.662	402.12
450.883	421.12
451.104	430.12
451.324	423.12
451.545	414.12
451.766	425.12
451.986	384.12
452.207	386.12
452.428	416.12
452.648	428.12
452.869	406.12
453.089	399.12
453.31	405.12
453.53	377.12
453.751	381.12
453.971	372.12
454.192	390.12
454.412	377.12
454.633	389.12
454.853	376.12
455.073	383.12
455.294	398.12
455.514	412.12
455.734	416.12
455.955	397.12
456.175	380.12
456.395	387.12
456.616	379.12
456.836	385.12
457.056	364.12
457.276	359.12
457.497	388.12
457.717	386.12
457.937	377.12
458.157	406.12
458.377	397.12
458.598	406.12
458.818	422.12
459.038	452.12
459.258	508.12
459.478	470.12
459.698	453.12
459.918	466.12
460.138	470.12
460.358	467.12
460.578	468.12
460.798	468.12
461.018	462.12
461.238	464.12
461.458	454.12
461.678	467.12
461.898	477.12
462.118	474.12
462.338	479.12
462.558	502.12
462.777	480.12
462.997	552.12
463.217	558.12
463.437	590.12
463.657	535.12
463.876	504.12
464.096	514.12
464.316	495.12
464.536	541.12
464.755	520.12
464.975	509.12
465.195	520.12
465.414	525.12
465.634	491.12
465.854	463.12
466.073	429.12
466.293	432.12
466.512	430.12
466.732	410.12
466.951	404.12
467.171	400.12
467.391	413.12
467.61	414.12
467.829	424.12
468.049	444.12
468.268	464.12
468.488	442.12
468.707	426.12
468.927	414.12
469.146	385.12
469.365	388.12
469.585	429.12
469.804	422.12
470.023	422.12
470.243	432.12
470.462	422.12
470.681	443.12
470.901	417.12
471.12	429.12
471.339	412.12
471.558	417.12
471.777	418.12
471.997	455.12
472.216	500.12
472.435	577.12
472.654	563.12
472.873	471.12
473.092	426.12
473.311	432.12
473.53	401.12
473.749	442.12
473.968	435.12
474.187	497.12
474.406	511.12
474.625	460.12
474.844	406.12
475.063	408.12
475.282	418.12
475.501	420.12
475.72	424.12
475.939	417.12
476.158	425.12
476.377	410.12
476.596	428.12
476.814	435.12
477.033	407.12
477.252	445.12
477.471	444.12
477.69	442.12
477.908	461.12
478.127	474.12
478.346	468.12
478.564	500.12
478.783	487.12
479.002	476.12
479.22	478.12
479.439	487.12
479.658	494.12
479.876	502.12
480.095	525.12
480.313	527.12
480.532	537.12
480.751	548.12
480.969	594.12
481.188	752.12
481.406	866.12
481.624	664.12
481.843	580.12
482.061	552.12
482.28	523.12
482.498	493.12
482.717	504.12
482.935	495.12
483.153	476.12
483.372	500.12
483.59	470.12
483.808	470.12
484.027	468.12
484.245	490.12
484.463	483.12
484.681	526.12
484.9	478.12
485.118	468.12
485.336	491.12
485.554	479.12
485.772	485.12
485.99	474.12
486.209	485.12
486.427	503.12
486.645	520.12
486.863	508.12
487.081	504.12
487.299	504.12
487.517	501.12
487.735	494.12
487.953	509.12
488.171	528.12
488.389	525.12
488.607	509.12
488.825	512.12
489.043	520.12
489.261	521.12
489.479	516.12
489.696	528.12
489.914	516.12
490.132	536.12
490.35	556.12
490.568	533.12
490.786	561.12
491.003	554.12
491.221	573.12
491.439	583.12
491.657	597.12
491.874	602.12
492.092	616.12
492.31	617.12
492.527	610.12
492.745	620.12
492.963	640.12
493.18	603.12
493.398	631.12
493.615	606.12
493.833	614.12
494.05	620.12
494.268	611.12
494.485	587.12
494.703	623.12
494.92	584.12
495.138	589.12
495.355	593.12
495.573	592.12
495.79	578.12
496.008	572.12
496.225	574.12
496.442	588.12
496.66	602.12
496.877	599.12
497.094	603.12
497.312	585.12
497.529	604.12
497.746	632.12
497.963	618.12
498.181	637.12
498.398	634.12
498.615	681.12
498.832	717.12
499.049	740.12
499.267	772.12
499.484	806.12
499.701	857.12
499.918	897.12
500.135	972.12
500.352	1105.12
500.569	1112.12
500.786	1158.12
501.003	1048.12
501.22	1001.12
501.437	915.12
501.654	875.12
501.871	825.12
502.088	784.12
