Data from 1984.PennyLincolnUp.Lamp.En5.5.200Scan.071819.P1_HRD10591_16-58-53-968.txt Node
Date: Thu Jul 18 16:58:53 EDT 2019
User: cochatt
Spectrometer: HR+D1059
Trigger mode: 1
Integration Time (sec): 1.000000E-1
Scans to average: 1
Electric dark correction enabled: true
Nonlinearity correction enabled: false
Boxcar width: 0
XAxis mode: Wavelengths
Number of Pixels in Spectrum: 2048
>>>>>Begin Spectral Data<<<<<
223.165	-16.31
223.4	-16.31
223.635	-16.31
223.869	-12.31
224.104	-29.31
224.338	-19.31
224.573	-20.31
224.808	-8.31
225.042	6.69
225.277	2.69
225.511	-13.31
225.746	1.69
225.98	6.69
226.215	8.69
226.449	10.69
226.683	22.69
226.918	20.69
227.152	38.69
227.387	44.69
227.621	26.69
227.856	41.69
228.09	43.69
228.324	47.69
228.559	59.69
228.793	49.69
229.027	91.69
229.262	99.69
229.496	91.69
229.73	110.69
229.964	129.69
230.199	107.69
230.433	110.69
230.667	107.69
230.901	111.69
231.136	107.69
231.37	103.69
231.604	112.69
231.838	117.69
232.072	122.69
232.306	116.69
232.541	103.69
232.775	101.69
233.009	105.69
233.243	105.69
233.477	114.69
233.711	107.69
233.945	112.69
234.179	109.69
234.413	111.69
234.647	125.69
234.881	109.69
235.115	104.69
235.349	105.69
235.583	117.69
235.817	107.69
236.051	90.69
236.285	107.69
236.519	115.69
236.753	116.69
236.987	119.69
237.221	144.69
237.455	162.69
237.689	124.69
237.922	126.69
238.156	118.69
238.39	123.69
238.624	125.69
238.858	110.69
239.091	105.69
239.325	123.69
239.559	104.69
239.793	125.69
240.027	114.69
240.26	128.69
240.494	135.69
240.728	126.69
240.961	124.69
241.195	134.69
241.429	126.69
241.662	126.69
241.896	138.69
242.13	130.69
242.363	126.69
242.597	120.69
242.83	128.69
243.064	127.69
243.298	143.69
243.531	129.69
243.765	128.69
243.998	144.69
244.232	136.69
244.465	121.69
244.699	143.69
244.932	127.69
245.166	122.69
245.399	138.69
245.633	137.69
245.866	135.69
246.099	136.69
246.333	143.69
246.566	137.69
246.8	127.69
247.033	132.69
247.266	138.69
247.5	140.69
247.733	156.69
247.966	158.69
248.2	170.69
248.433	138.69
248.666	148.69
248.899	159.69
249.133	156.69
249.366	164.69
249.599	144.69
249.832	159.69
250.066	164.69
250.299	156.69
250.532	185.69
250.765	202.69
250.998	188.69
251.231	192.69
251.465	186.69
251.698	170.69
251.931	162.69
252.164	165.69
252.397	166.69
252.63	155.69
252.863	198.69
253.096	178.69
253.329	178.69
253.562	195.69
253.795	180.69
254.028	186.69
254.261	180.69
254.494	171.69
254.727	190.69
254.96	218.69
255.193	222.69
255.426	201.69
255.659	204.69
255.892	228.69
256.124	226.69
256.357	254.69
256.59	210.69
256.823	199.69
257.056	182.69
257.289	194.69
257.521	198.69
257.754	197.69
257.987	190.69
258.22	201.69
258.452	197.69
258.685	187.69
258.918	161.69
259.151	182.69
259.383	192.69
259.616	191.69
259.849	195.69
260.081	202.69
260.314	213.69
260.547	211.69
260.779	188.69
261.012	194.69
261.244	179.69
261.477	187.69
261.71	191.69
261.942	210.69
262.175	210.69
262.407	185.69
262.64	188.69
262.872	175.69
263.105	178.69
263.337	184.69
263.57	196.69
263.802	199.69
264.035	182.69
264.267	182.69
264.499	174.69
264.732	187.69
264.964	200.69
265.197	189.69
265.429	183.69
265.661	186.69
265.894	191.69
266.126	197.69
266.358	190.69
266.591	207.69
266.823	197.69
267.055	202.69
267.287	210.69
267.52	206.69
267.752	214.69
267.984	208.69
268.216	203.69
268.448	230.69
268.681	213.69
268.913	226.69
269.145	208.69
269.377	224.69
269.609	236.69
269.841	238.69
270.073	218.69
270.306	246.69
270.538	242.69
270.77	234.69
271.002	233.69
271.234	238.69
271.466	246.69
271.698	248.69
271.93	238.69
272.162	242.69
272.394	266.69
272.626	246.69
272.858	246.69
273.09	229.69
273.322	243.69
273.553	224.69
273.785	225.69
274.017	229.69
274.249	232.69
274.481	251.69
274.713	231.69
274.945	233.69
275.176	229.69
275.408	248.69
275.64	238.69
275.872	237.69
276.104	238.69
276.335	238.69
276.567	232.69
276.799	238.69
277.031	251.69
277.262	269.69
277.494	258.69
277.726	279.69
277.957	250.69
278.189	249.69
278.421	256.69
278.652	256.69
278.884	258.69
279.115	245.69
279.347	256.69
279.579	239.69
279.81	235.69
280.042	239.69
280.273	236.69
280.505	239.69
280.736	244.69
280.968	253.69
281.199	242.69
281.431	256.69
281.662	249.69
281.894	250.69
282.125	245.69
282.356	275.69
282.588	270.69
282.819	280.69
283.051	255.69
283.282	265.69
283.513	265.69
283.745	277.69
283.976	256.69
284.207	262.69
284.439	251.69
284.67	244.69
284.901	272.69
285.132	277.69
285.364	247.69
285.595	260.69
285.826	271.69
286.057	263.69
286.288	270.69
286.52	263.69
286.751	253.69
286.982	258.69
287.213	262.69
287.444	278.69
287.675	264.69
287.906	274.69
288.138	272.69
288.369	297.69
288.6	292.69
288.831	285.69
289.062	276.69
289.293	279.69
289.524	286.69
289.755	273.69
289.986	269.69
290.217	278.69
290.448	274.69
290.679	288.69
290.91	262.69
291.141	268.69
291.371	274.69
291.602	279.69
291.833	265.69
292.064	295.69
292.295	283.69
292.526	267.69
292.757	281.69
292.987	285.69
293.218	256.69
293.449	285.69
293.68	278.69
293.91	295.69
294.141	285.69
294.372	262.69
294.603	263.69
294.833	272.69
295.064	281.69
295.295	286.69
295.525	294.69
295.756	289.69
295.987	285.69
296.217	287.69
296.448	296.69
296.679	272.69
296.909	273.69
297.14	287.69
297.37	281.69
297.601	285.69
297.831	283.69
298.062	288.69
298.292	284.69
298.523	288.69
298.753	288.69
298.984	280.69
299.214	291.69
299.445	297.69
299.675	290.69
299.905	297.69
300.136	306.69
300.366	295.69
300.597	289.69
300.827	312.69
301.057	312.69
301.288	314.69
301.518	320.69
301.748	314.69
301.979	330.69
302.209	298.69
302.439	307.69
302.669	320.69
302.9	301.69
303.13	298.69
303.36	303.69
303.59	341.69
303.82	320.69
304.051	310.69
304.281	306.69
304.511	303.69
304.741	301.69
304.971	320.69
305.201	308.69
305.431	309.69
305.661	308.69
305.891	296.69
306.121	320.69
306.352	313.69
306.582	314.69
306.812	300.69
307.042	317.69
307.272	301.69
307.502	306.69
307.731	305.69
307.961	310.69
308.191	313.69
308.421	306.69
308.651	302.69
308.881	298.69
309.111	319.69
309.341	296.69
309.571	301.69
309.8	310.69
310.03	320.69
310.26	326.69
310.49	325.69
310.72	343.69
310.949	336.69
311.179	329.69
311.409	331.69
311.639	339.69
311.868	336.69
312.098	343.69
312.328	339.69
312.557	344.69
312.787	366.69
313.017	347.69
313.246	342.69
313.476	341.69
313.706	348.69
313.935	358.69
314.165	334.69
314.394	360.69
314.624	352.69
314.853	349.69
315.083	333.69
315.312	348.69
315.542	331.69
315.771	333.69
316.001	343.69
316.23	342.69
316.46	343.69
316.689	351.69
316.919	339.69
317.148	362.69
317.377	337.69
317.607	344.69
317.836	354.69
318.065	352.69
318.295	344.69
318.524	326.69
318.753	299.69
318.983	327.69
319.212	345.69
319.441	333.69
319.67	356.69
319.9	328.69
320.129	323.69
320.358	330.69
320.587	334.69
320.816	331.69
321.046	356.69
321.275	341.69
321.504	350.69
321.733	352.69
321.962	351.69
322.191	359.69
322.42	359.69
322.649	377.69
322.878	380.69
323.108	375.69
323.337	389.69
323.566	414.69
323.795	419.69
324.024	429.69
324.253	522.69
324.482	687.69
324.71	1018.69
324.939	1336.69
325.168	1169.69
325.397	654.69
325.626	483.69
325.855	450.69
326.084	426.69
326.313	425.69
326.542	422.69
326.77	438.69
326.999	474.69
327.228	657.69
327.457	902.69
327.686	1071.69
327.914	762.69
328.143	543.69
328.372	505.69
328.6	485.69
328.829	478.69
329.058	456.69
329.287	454.69
329.515	445.69
329.744	428.69
329.972	466.69
330.201	499.69
330.43	549.69
330.658	526.69
330.887	495.69
331.115	454.69
331.344	463.69
331.572	424.69
331.801	438.69
332.03	416.69
332.258	410.69
332.486	420.69
332.715	425.69
332.943	436.69
333.172	455.69
333.4	453.69
333.629	471.69
333.857	474.69
334.085	540.69
334.314	549.69
334.542	598.69
334.771	599.69
334.999	535.69
335.227	484.69
335.455	450.69
335.684	444.69
335.912	445.69
336.14	411.69
336.369	437.69
336.597	429.69
336.825	429.69
337.053	408.69
337.281	412.69
337.51	418.69
337.738	387.69
337.966	410.69
338.194	376.69
338.422	390.69
338.65	394.69
338.878	390.69
339.106	390.69
339.334	390.69
339.562	383.69
339.79	384.69
340.018	365.69
340.246	379.69
340.474	361.69
340.702	370.69
340.93	361.69
341.158	375.69
341.386	394.69
341.614	374.69
341.842	376.69
342.07	355.69
342.298	374.69
342.526	350.69
342.754	367.69
342.981	365.69
343.209	366.69
343.437	375.69
343.665	393.69
343.893	412.69
344.12	423.69
344.348	405.69
344.576	391.69
344.804	390.69
345.031	392.69
345.259	387.69
345.487	376.69
345.714	386.69
345.942	354.69
346.17	353.69
346.397	368.69
346.625	364.69
346.853	356.69
347.08	365.69
347.308	371.69
347.535	355.69
347.763	374.69
347.99	362.69
348.218	352.69
348.445	372.69
348.673	358.69
348.9	356.69
349.128	353.69
349.355	337.69
349.583	339.69
349.81	370.69
350.037	352.69
350.265	338.69
350.492	369.69
350.72	320.69
350.947	345.69
351.174	349.69
351.402	341.69
351.629	347.69
351.856	350.69
352.083	358.69
352.311	358.69
352.538	348.69
352.765	360.69
352.992	329.69
353.22	340.69
353.447	335.69
353.674	358.69
353.901	355.69
354.128	354.69
354.355	348.69
354.583	338.69
354.81	326.69
355.037	343.69
355.264	336.69
355.491	340.69
355.718	343.69
355.945	366.69
356.172	358.69
356.399	340.69
356.626	335.69
356.853	342.69
357.08	339.69
357.307	323.69
357.534	335.69
357.761	350.69
357.988	342.69
358.215	343.69
358.441	341.69
358.668	356.69
358.895	354.69
359.122	341.69
359.349	356.69
359.576	360.69
359.802	373.69
360.029	378.69
360.256	389.69
360.483	364.69
360.709	348.69
360.936	352.69
361.163	344.69
361.39	362.69
361.616	346.69
361.843	333.69
362.07	371.69
362.296	350.69
362.523	342.69
362.749	342.69
362.976	351.69
363.203	344.69
363.429	314.69
363.656	330.69
363.882	328.69
364.109	334.69
364.335	328.69
364.562	327.69
364.788	345.69
365.015	341.69
365.241	348.69
365.468	354.69
365.694	349.69
365.92	341.69
366.147	334.69
366.373	335.69
366.599	324.69
366.826	355.69
367.052	334.69
367.278	331.69
367.505	339.69
367.731	336.69
367.957	336.69
368.184	362.69
368.41	343.69
368.636	346.69
368.862	344.69
369.089	341.69
369.315	343.69
369.541	340.69
369.767	340.69
369.993	333.69
370.219	326.69
370.445	331.69
370.672	347.69
370.898	331.69
371.124	345.69
371.35	332.69
371.576	346.69
371.802	350.69
372.028	334.69
372.254	350.69
372.48	367.69
372.706	335.69
372.932	365.69
373.158	360.69
373.384	362.69
373.61	332.69
373.835	351.69
374.061	348.69
374.287	359.69
374.513	351.69
374.739	344.69
374.965	378.69
375.191	370.69
375.416	359.69
375.642	371.69
375.868	370.69
376.094	344.69
376.319	344.69
376.545	359.69
376.771	343.69
376.997	358.69
377.222	341.69
377.448	351.69
377.674	342.69
377.899	355.69
378.125	353.69
378.35	341.69
378.576	352.69
378.802	332.69
379.027	326.69
379.253	341.69
379.478	348.69
379.704	346.69
379.929	326.69
380.155	346.69
380.38	360.69
380.606	340.69
380.831	345.69
381.057	339.69
381.282	335.69
381.507	341.69
381.733	334.69
381.958	354.69
382.184	365.69
382.409	371.69
382.634	371.69
382.86	361.69
383.085	344.69
383.31	358.69
383.535	371.69
383.761	359.69
383.986	384.69
384.211	374.69
384.436	370.69
384.662	381.69
384.887	367.69
385.112	386.69
385.337	378.69
385.562	394.69
385.787	395.69
386.013	390.69
386.238	397.69
386.463	391.69
386.688	408.69
386.913	391.69
387.138	382.69
387.363	391.69
387.588	397.69
387.813	392.69
388.038	382.69
388.263	384.69
388.488	388.69
388.713	375.69
388.938	386.69
389.163	384.69
389.387	394.69
389.612	365.69
389.837	380.69
390.062	382.69
390.287	367.69
390.512	380.69
390.736	394.69
390.961	387.69
391.186	384.69
391.411	390.69
391.636	413.69
391.86	404.69
392.085	408.69
392.31	397.69
392.534	386.69
392.759	414.69
392.984	414.69
393.208	400.69
393.433	399.69
393.658	406.69
393.882	405.69
394.107	399.69
394.331	396.69
394.556	397.69
394.78	398.69
395.005	415.69
395.229	399.69
395.454	422.69
395.678	411.69
395.903	430.69
396.127	436.69
396.352	420.69
396.576	397.69
396.801	407.69
397.025	405.69
397.249	428.69
397.474	414.69
397.698	424.69
397.922	420.69
398.147	441.69
398.371	444.69
398.595	454.69
398.82	456.69
399.044	468.69
399.268	511.69
399.492	547.69
399.717	616.69
399.941	613.69
400.165	603.69
400.389	570.69
400.613	520.69
400.837	498.69
401.062	490.69
401.286	465.69
401.51	450.69
401.734	459.69
401.958	457.69
402.182	482.69
402.406	480.69
402.63	473.69
402.854	469.69
403.078	461.69
403.302	468.69
403.526	492.69
403.75	507.69
403.974	474.69
404.198	496.69
404.422	502.69
404.645	510.69
404.869	521.69
405.093	542.69
405.317	566.69
405.541	578.69
405.765	532.69
405.988	494.69
406.212	510.69
406.436	512.69
406.66	522.69
406.883	518.69
407.107	544.69
407.331	574.69
407.555	613.69
407.778	618.69
408.002	586.69
408.226	522.69
408.449	529.69
408.673	508.69
408.896	521.69
409.12	558.69
409.344	518.69
409.567	532.69
409.791	482.69
410.014	466.69
410.238	473.69
410.461	475.69
410.685	482.69
410.908	492.69
411.132	499.69
411.355	494.69
411.578	518.69
411.802	467.69
412.025	460.69
412.249	470.69
412.472	496.69
412.695	543.69
412.919	543.69
413.142	485.69
413.365	468.69
413.589	464.69
413.812	468.69
414.035	458.69
414.258	451.69
414.482	435.69
414.705	436.69
414.928	451.69
415.151	467.69
415.374	445.69
415.597	440.69
415.821	442.69
416.044	472.69
416.267	437.69
416.49	439.69
416.713	438.69
416.936	450.69
417.159	447.69
417.382	462.69
417.605	470.69
417.828	458.69
418.051	453.69
418.274	459.69
418.497	460.69
418.72	429.69
418.943	452.69
419.166	472.69
419.389	487.69
419.611	512.69
419.834	488.69
420.057	484.69
420.28	489.69
420.503	492.69
420.726	491.69
420.948	479.69
421.171	503.69
421.394	523.69
421.617	472.69
421.839	451.69
422.062	455.69
422.285	465.69
422.507	510.69
422.73	534.69
422.953	535.69
423.175	501.69
423.398	472.69
423.621	477.69
423.843	492.69
424.066	470.69
424.288	495.69
424.511	489.69
424.733	518.69
424.956	550.69
425.178	539.69
425.401	531.69
425.623	553.69
425.846	489.69
426.068	462.69
426.291	470.69
426.513	463.69
426.735	464.69
426.958	469.69
427.18	514.69
427.402	599.69
427.625	674.69
427.847	568.69
428.069	548.69
428.292	490.69
428.514	466.69
428.736	445.69
428.958	427.69
429.181	422.69
429.403	419.69
429.625	432.69
429.847	467.69
430.069	480.69
430.292	477.69
430.514	440.69
430.736	442.69
430.958	405.69
431.18	420.69
431.402	413.69
431.624	404.69
431.846	394.69
432.068	404.69
432.29	426.69
432.512	422.69
432.734	414.69
432.956	422.69
433.178	429.69
433.4	413.69
433.622	416.69
433.844	415.69
434.066	414.69
434.287	423.69
434.509	439.69
434.731	427.69
434.953	450.69
435.175	457.69
435.397	458.69
435.618	460.69
435.84	475.69
436.062	510.69
436.284	555.69
436.505	485.69
436.727	440.69
436.949	439.69
437.17	416.69
437.392	403.69
437.614	426.69
437.835	436.69
438.057	494.69
438.278	532.69
438.5	525.69
438.721	567.69
438.943	569.69
439.165	468.69
439.386	444.69
439.608	452.69
439.829	431.69
440.05	482.69
440.272	480.69
440.493	447.69
440.715	435.69
440.936	437.69
441.158	440.69
441.379	435.69
441.6	444.69
441.822	470.69
442.043	475.69
442.264	523.69
442.486	538.69
442.707	492.69
442.928	463.69
443.149	465.69
443.371	477.69
443.592	510.69
443.813	572.69
444.034	583.69
444.255	524.69
444.476	493.69
444.698	496.69
444.919	519.69
445.14	614.69
445.361	563.69
445.582	517.69
445.803	514.69
446.024	555.69
446.245	557.69
446.466	522.69
446.687	453.69
446.908	438.69
447.129	421.69
447.35	446.69
447.571	412.69
447.792	401.69
448.013	412.69
448.234	420.69
448.455	453.69
448.675	510.69
448.896	581.69
449.117	483.69
449.338	463.69
449.559	541.69
449.779	595.69
450	490.69
450.221	438.69
450.442	413.69
450.662	403.69
450.883	398.69
451.104	388.69
451.324	404.69
451.545	395.69
451.766	396.69
451.986	399.69
452.207	366.69
452.428	370.69
452.648	375.69
452.869	381.69
453.089	364.69
453.31	381.69
453.53	386.69
453.751	370.69
453.971	385.69
454.192	379.69
454.412	388.69
454.633	365.69
454.853	355.69
455.073	377.69
455.294	414.69
455.514	413.69
455.734	402.69
455.955	368.69
456.175	372.69
456.395	367.69
456.616	363.69
456.836	382.69
457.056	372.69
457.276	385.69
457.497	370.69
457.717	376.69
457.937	380.69
458.157	357.69
458.377	365.69
458.598	405.69
458.818	426.69
459.038	477.69
459.258	468.69
459.478	418.69
459.698	432.69
459.918	431.69
460.138	419.69
460.358	435.69
460.578	472.69
460.798	452.69
461.018	452.69
461.238	453.69
461.458	451.69
461.678	439.69
461.898	450.69
462.118	461.69
462.338	480.69
462.558	470.69
462.777	486.69
462.997	499.69
463.217	526.69
463.437	532.69
463.657	503.69
463.876	495.69
464.096	485.69
464.316	483.69
464.536	493.69
464.755	495.69
464.975	471.69
465.195	482.69
465.414	484.69
465.634	448.69
465.854	412.69
466.073	408.69
466.293	401.69
466.512	398.69
466.732	376.69
466.951	392.69
467.171	366.69
467.391	394.69
467.61	388.69
467.829	422.69
468.049	394.69
468.268	416.69
468.488	397.69
468.707	387.69
468.927	408.69
469.146	396.69
469.365	385.69
469.585	392.69
469.804	414.69
470.023	404.69
470.243	410.69
470.462	387.69
470.681	422.69
470.901	435.69
471.12	410.69
471.339	404.69
471.558	410.69
471.777	404.69
471.997	387.69
472.216	423.69
472.435	482.69
472.654	456.69
472.873	412.69
473.092	390.69
473.311	397.69
473.53	403.69
473.749	390.69
473.968	427.69
474.187	477.69
474.406	466.69
474.625	390.69
474.844	386.69
475.063	394.69
475.282	385.69
475.501	393.69
475.72	399.69
475.939	395.69
476.158	397.69
476.377	395.69
476.596	400.69
476.814	424.69
477.033	416.69
477.252	411.69
477.471	415.69
477.69	419.69
477.908	422.69
478.127	439.69
478.346	448.69
478.564	456.69
478.783	467.69
479.002	460.69
479.22	475.69
479.439	459.69
479.658	460.69
479.876	470.69
480.095	482.69
480.313	490.69
480.532	517.69
480.751	484.69
480.969	499.69
481.188	587.69
481.406	624.69
481.624	532.69
481.843	494.69
482.061	455.69
482.28	468.69
482.498	454.69
482.717	454.69
482.935	452.69
483.153	452.69
483.372	464.69
483.59	451.69
483.808	451.69
484.027	469.69
484.245	448.69
484.463	447.69
484.681	459.69
484.9	454.69
485.118	477.69
485.336	473.69
485.554	479.69
485.772	453.69
485.99	445.69
486.209	463.69
486.427	486.69
486.645	484.69
486.863	472.69
487.081	464.69
487.299	468.69
487.517	458.69
487.735	483.69
487.953	474.69
488.171	456.69
488.389	485.69
488.607	470.69
488.825	470.69
489.043	472.69
489.261	483.69
489.479	468.69
489.696	463.69
489.914	492.69
490.132	484.69
490.35	482.69
490.568	503.69
490.786	491.69
491.003	508.69
491.221	516.69
491.439	541.69
491.657	524.69
491.874	550.69
492.092	548.69
492.31	554.69
492.527	557.69
492.745	548.69
492.963	538.69
493.18	545.69
493.398	564.69
493.615	548.69
493.833	568.69
494.05	539.69
494.268	542.69
494.485	542.69
494.703	540.69
494.92	555.69
495.138	532.69
495.355	548.69
495.573	554.69
495.79	552.69
496.008	547.69
496.225	552.69
496.442	544.69
496.66	531.69
496.877	555.69
497.094	542.69
497.312	542.69
497.529	546.69
497.746	590.69
497.963	560.69
498.181	609.69
498.398	628.69
498.615	628.69
498.832	649.69
499.049	677.69
499.267	707.69
499.484	751.69
499.701	818.69
499.918	877.69
500.135	938.69
500.352	1018.69
500.569	1051.69
500.786	1043.69
501.003	993.69
501.22	942.69
501.437	855.69
501.654	819.69
501.871	805.69
502.088	743.69
