Data from 1984.PennyLincolnUp.Lamp.En5.5.200Scan.071819.P1_HRD10591_16-58-56-968.txt Node
Date: Thu Jul 18 16:58:56 EDT 2019
User: cochatt
Spectrometer: HR+D1059
Trigger mode: 1
Integration Time (sec): 1.000000E-1
Scans to average: 1
Electric dark correction enabled: true
Nonlinearity correction enabled: false
Boxcar width: 0
XAxis mode: Wavelengths
Number of Pixels in Spectrum: 2048
>>>>>Begin Spectral Data<<<<<
223.165	-13.56
223.4	-13.56
223.635	-13.56
223.869	-32.56
224.104	-18.56
224.338	-14.56
224.573	-16.56
224.808	-10.56
225.042	-8.56
225.277	-4.56
225.511	-8.56
225.746	9.44
225.98	8.44
226.215	11.44
226.449	19.44
226.683	19.44
226.918	17.44
227.152	42.44
227.387	33.44
227.621	38.44
227.856	39.44
228.09	34.44
228.324	55.44
228.559	64.44
228.793	72.44
229.027	75.44
229.262	88.44
229.496	84.44
229.73	102.44
229.964	122.44
230.199	99.44
230.433	107.44
230.667	105.44
230.901	87.44
231.136	109.44
231.37	110.44
231.604	118.44
231.838	103.44
232.072	102.44
232.306	100.44
232.541	99.44
232.775	107.44
233.009	105.44
233.243	104.44
233.477	112.44
233.711	112.44
233.945	105.44
234.179	110.44
234.413	100.44
234.647	106.44
234.881	116.44
235.115	105.44
235.349	107.44
235.583	124.44
235.817	120.44
236.051	111.44
236.285	101.44
236.519	117.44
236.753	120.44
236.987	122.44
237.221	156.44
237.455	178.44
237.689	137.44
237.922	125.44
238.156	108.44
238.39	113.44
238.624	122.44
238.858	108.44
239.091	112.44
239.325	109.44
239.559	98.44
239.793	116.44
240.027	112.44
240.26	114.44
240.494	139.44
240.728	125.44
240.961	131.44
241.195	122.44
241.429	132.44
241.662	128.44
241.896	121.44
242.13	129.44
242.363	118.44
242.597	132.44
242.83	133.44
243.064	130.44
243.298	138.44
243.531	112.44
243.765	124.44
243.998	131.44
244.232	126.44
244.465	131.44
244.699	131.44
244.932	155.44
245.166	130.44
245.399	136.44
245.633	122.44
245.866	137.44
246.099	141.44
246.333	129.44
246.566	141.44
246.8	162.44
247.033	160.44
247.266	150.44
247.5	151.44
247.733	154.44
247.966	158.44
248.2	138.44
248.433	141.44
248.666	154.44
248.899	163.44
249.133	162.44
249.366	170.44
249.599	183.44
249.832	162.44
250.066	164.44
250.299	177.44
250.532	164.44
250.765	193.44
250.998	191.44
251.231	207.44
251.465	199.44
251.698	172.44
251.931	164.44
252.164	173.44
252.397	172.44
252.63	176.44
252.863	182.44
253.096	176.44
253.329	182.44
253.562	178.44
253.795	184.44
254.028	179.44
254.261	196.44
254.494	179.44
254.727	187.44
254.96	200.44
255.193	197.44
255.426	192.44
255.659	190.44
255.892	199.44
256.124	231.44
256.357	244.44
256.59	218.44
256.823	199.44
257.056	191.44
257.289	202.44
257.521	186.44
257.754	178.44
257.987	188.44
258.22	201.44
258.452	174.44
258.685	182.44
258.918	197.44
259.151	190.44
259.383	195.44
259.616	202.44
259.849	199.44
260.081	184.44
260.314	211.44
260.547	212.44
260.779	197.44
261.012	195.44
261.244	198.44
261.477	204.44
261.71	190.44
261.942	188.44
262.175	191.44
262.407	202.44
262.64	186.44
262.872	201.44
263.105	192.44
263.337	195.44
263.57	192.44
263.802	185.44
264.035	157.44
264.267	196.44
264.499	205.44
264.732	189.44
264.964	178.44
265.197	195.44
265.429	183.44
265.661	181.44
265.894	198.44
266.126	194.44
266.358	208.44
266.591	210.44
266.823	209.44
267.055	233.44
267.287	201.44
267.52	186.44
267.752	195.44
267.984	202.44
268.216	210.44
268.448	211.44
268.681	213.44
268.913	211.44
269.145	227.44
269.377	227.44
269.609	229.44
269.841	228.44
270.073	224.44
270.306	246.44
270.538	256.44
270.77	247.44
271.002	244.44
271.234	240.44
271.466	261.44
271.698	249.44
271.93	252.44
272.162	260.44
272.394	257.44
272.626	267.44
272.858	241.44
273.09	252.44
273.322	224.44
273.553	225.44
273.785	247.44
274.017	248.44
274.249	229.44
274.481	248.44
274.713	233.44
274.945	260.44
275.176	238.44
275.408	222.44
275.64	256.44
275.872	223.44
276.104	229.44
276.335	254.44
276.567	248.44
276.799	247.44
277.031	267.44
277.262	291.44
277.494	282.44
277.726	258.44
277.957	237.44
278.189	248.44
278.421	232.44
278.652	263.44
278.884	229.44
279.115	250.44
279.347	268.44
279.579	261.44
279.81	259.44
280.042	268.44
280.273	267.44
280.505	251.44
280.736	258.44
280.968	236.44
281.199	256.44
281.431	252.44
281.662	267.44
281.894	275.44
282.125	267.44
282.356	268.44
282.588	276.44
282.819	287.44
283.051	249.44
283.282	265.44
283.513	269.44
283.745	277.44
283.976	258.44
284.207	263.44
284.439	244.44
284.67	256.44
284.901	253.44
285.132	274.44
285.364	270.44
285.595	264.44
285.826	264.44
286.057	266.44
286.288	269.44
286.52	258.44
286.751	285.44
286.982	249.44
287.213	273.44
287.444	280.44
287.675	276.44
287.906	283.44
288.138	288.44
288.369	286.44
288.6	279.44
288.831	282.44
289.062	289.44
289.293	270.44
289.524	274.44
289.755	285.44
289.986	275.44
290.217	293.44
290.448	290.44
290.679	258.44
290.91	274.44
291.141	275.44
291.371	266.44
291.602	280.44
291.833	266.44
292.064	290.44
292.295	287.44
292.526	279.44
292.757	299.44
292.987	276.44
293.218	288.44
293.449	280.44
293.68	271.44
293.91	267.44
294.141	277.44
294.372	285.44
294.603	294.44
294.833	291.44
295.064	283.44
295.295	266.44
295.525	285.44
295.756	284.44
295.987	285.44
296.217	312.44
296.448	313.44
296.679	280.44
296.909	281.44
297.14	284.44
297.37	292.44
297.601	305.44
297.831	275.44
298.062	295.44
298.292	278.44
298.523	289.44
298.753	290.44
298.984	298.44
299.214	275.44
299.445	312.44
299.675	278.44
299.905	290.44
300.136	294.44
300.366	307.44
300.597	318.44
300.827	324.44
301.057	305.44
301.288	305.44
301.518	324.44
301.748	311.44
301.979	322.44
302.209	324.44
302.439	314.44
302.669	309.44
302.9	329.44
303.13	317.44
303.36	313.44
303.59	307.44
303.82	338.44
304.051	306.44
304.281	315.44
304.511	320.44
304.741	311.44
304.971	296.44
305.201	300.44
305.431	320.44
305.661	316.44
305.891	316.44
306.121	314.44
306.352	324.44
306.582	309.44
306.812	314.44
307.042	310.44
307.272	312.44
307.502	311.44
307.731	319.44
307.961	319.44
308.191	308.44
308.421	310.44
308.651	322.44
308.881	305.44
309.111	311.44
309.341	328.44
309.571	311.44
309.8	317.44
310.03	327.44
310.26	330.44
310.49	330.44
310.72	307.44
310.949	332.44
311.179	347.44
311.409	353.44
311.639	353.44
311.868	341.44
312.098	345.44
312.328	342.44
312.557	341.44
312.787	372.44
313.017	351.44
313.246	360.44
313.476	351.44
313.706	350.44
313.935	344.44
314.165	340.44
314.394	334.44
314.624	341.44
314.853	353.44
315.083	353.44
315.312	352.44
315.542	346.44
315.771	349.44
316.001	362.44
316.23	349.44
316.46	343.44
316.689	339.44
316.919	339.44
317.148	358.44
317.377	368.44
317.607	354.44
317.836	356.44
318.065	345.44
318.295	331.44
318.524	344.44
318.753	336.44
318.983	339.44
319.212	335.44
319.441	354.44
319.67	347.44
319.9	345.44
320.129	327.44
320.358	340.44
320.587	355.44
320.816	336.44
321.046	346.44
321.275	367.44
321.504	338.44
321.733	357.44
321.962	340.44
322.191	362.44
322.42	368.44
322.649	381.44
322.878	386.44
323.108	358.44
323.337	398.44
323.566	419.44
323.795	419.44
324.024	464.44
324.253	524.44
324.482	681.44
324.71	994.44
324.939	1394.44
325.168	1171.44
325.397	675.44
325.626	498.44
325.855	448.44
326.084	416.44
326.313	421.44
326.542	427.44
326.77	469.44
326.999	532.44
327.228	668.44
327.457	920.44
327.686	1073.44
327.914	756.44
328.143	557.44
328.372	518.44
328.6	483.44
328.829	463.44
329.058	453.44
329.287	490.44
329.515	470.44
329.744	462.44
329.972	474.44
330.201	511.44
330.43	538.44
330.658	530.44
330.887	504.44
331.115	490.44
331.344	445.44
331.572	420.44
331.801	436.44
332.03	454.44
332.258	426.44
332.486	423.44
332.715	426.44
332.943	443.44
333.172	435.44
333.4	460.44
333.629	478.44
333.857	491.44
334.085	523.44
334.314	595.44
334.542	598.44
334.771	599.44
334.999	506.44
335.227	483.44
335.455	464.44
335.684	448.44
335.912	440.44
336.14	440.44
336.369	442.44
336.597	424.44
336.825	432.44
337.053	404.44
337.281	399.44
337.51	417.44
337.738	409.44
337.966	378.44
338.194	406.44
338.422	396.44
338.65	388.44
338.878	394.44
339.106	398.44
339.334	404.44
339.562	397.44
339.79	386.44
340.018	376.44
340.246	380.44
340.474	388.44
340.702	380.44
340.93	392.44
341.158	386.44
341.386	377.44
341.614	391.44
341.842	374.44
342.07	374.44
342.298	373.44
342.526	376.44
342.754	381.44
342.981	384.44
343.209	359.44
343.437	387.44
343.665	396.44
343.893	397.44
344.12	404.44
344.348	412.44
344.576	399.44
344.804	393.44
345.031	382.44
345.259	390.44
345.487	393.44
345.714	379.44
345.942	366.44
346.17	361.44
346.397	366.44
346.625	381.44
346.853	362.44
347.08	357.44
347.308	365.44
347.535	362.44
347.763	371.44
347.99	372.44
348.218	363.44
348.445	360.44
348.673	385.44
348.9	364.44
349.128	370.44
349.355	344.44
349.583	356.44
349.81	368.44
350.037	358.44
350.265	335.44
350.492	355.44
350.72	343.44
350.947	376.44
351.174	352.44
351.402	360.44
351.629	351.44
351.856	358.44
352.083	362.44
352.311	352.44
352.538	364.44
352.765	356.44
352.992	357.44
353.22	359.44
353.447	361.44
353.674	354.44
353.901	331.44
354.128	336.44
354.355	333.44
354.583	346.44
354.81	349.44
355.037	354.44
355.264	363.44
355.491	346.44
355.718	350.44
355.945	350.44
356.172	353.44
356.399	346.44
356.626	328.44
356.853	346.44
357.08	354.44
357.307	360.44
357.534	345.44
357.761	343.44
357.988	350.44
358.215	372.44
358.441	324.44
358.668	347.44
358.895	345.44
359.122	354.44
359.349	349.44
359.576	353.44
359.802	382.44
360.029	359.44
360.256	374.44
360.483	376.44
360.709	349.44
360.936	357.44
361.163	361.44
361.39	379.44
361.616	341.44
361.843	350.44
362.07	361.44
362.296	365.44
362.523	362.44
362.749	338.44
362.976	363.44
363.203	362.44
363.429	354.44
363.656	345.44
363.882	340.44
364.109	335.44
364.335	338.44
364.562	342.44
364.788	354.44
365.015	350.44
365.241	349.44
365.468	346.44
365.694	361.44
365.92	340.44
366.147	354.44
366.373	349.44
366.599	341.44
366.826	333.44
367.052	343.44
367.278	350.44
367.505	349.44
367.731	352.44
367.957	328.44
368.184	338.44
368.41	332.44
368.636	365.44
368.862	343.44
369.089	354.44
369.315	349.44
369.541	357.44
369.767	360.44
369.993	354.44
370.219	351.44
370.445	344.44
370.672	346.44
370.898	352.44
371.124	337.44
371.35	361.44
371.576	359.44
371.802	345.44
372.028	347.44
372.254	351.44
372.48	369.44
372.706	352.44
372.932	353.44
373.158	370.44
373.384	358.44
373.61	350.44
373.835	358.44
374.061	363.44
374.287	366.44
374.513	353.44
374.739	360.44
374.965	364.44
375.191	341.44
375.416	368.44
375.642	376.44
375.868	363.44
376.094	356.44
376.319	356.44
376.545	363.44
376.771	345.44
376.997	357.44
377.222	344.44
377.448	356.44
377.674	351.44
377.899	346.44
378.125	340.44
378.35	356.44
378.576	331.44
378.802	351.44
379.027	358.44
379.253	361.44
379.478	354.44
379.704	336.44
379.929	357.44
380.155	346.44
380.38	345.44
380.606	347.44
380.831	338.44
381.057	368.44
381.282	362.44
381.507	344.44
381.733	353.44
381.958	355.44
382.184	349.44
382.409	355.44
382.634	378.44
382.86	346.44
383.085	362.44
383.31	387.44
383.535	382.44
383.761	373.44
383.986	378.44
384.211	378.44
384.436	369.44
384.662	389.44
384.887	385.44
385.112	388.44
385.337	395.44
385.562	386.44
385.787	392.44
386.013	409.44
386.238	392.44
386.463	414.44
386.688	388.44
386.913	401.44
387.138	392.44
387.363	404.44
387.588	395.44
387.813	379.44
388.038	382.44
388.263	402.44
388.488	405.44
388.713	409.44
388.938	396.44
389.163	392.44
389.387	388.44
389.612	387.44
389.837	393.44
390.062	372.44
390.287	379.44
390.512	395.44
390.736	396.44
390.961	393.44
391.186	414.44
391.411	407.44
391.636	394.44
391.86	423.44
392.085	434.44
392.31	438.44
392.534	423.44
392.759	406.44
392.984	420.44
393.208	401.44
393.433	395.44
393.658	396.44
393.882	394.44
394.107	410.44
394.331	415.44
394.556	392.44
394.78	419.44
395.005	406.44
395.229	420.44
395.454	410.44
395.678	432.44
395.903	437.44
396.127	434.44
396.352	425.44
396.576	425.44
396.801	406.44
397.025	418.44
397.249	427.44
397.474	422.44
397.698	444.44
397.922	442.44
398.147	450.44
398.371	455.44
398.595	451.44
398.82	465.44
399.044	481.44
399.268	516.44
399.492	565.44
399.717	595.44
399.941	616.44
400.165	613.44
400.389	575.44
400.613	549.44
400.837	496.44
401.062	488.44
401.286	501.44
401.51	487.44
401.734	447.44
401.958	481.44
402.182	459.44
402.406	487.44
402.63	478.44
402.854	482.44
403.078	492.44
403.302	496.44
403.526	486.44
403.75	500.44
403.974	517.44
404.198	510.44
404.422	517.44
404.645	504.44
404.869	534.44
405.093	557.44
405.317	586.44
405.541	585.44
405.765	545.44
405.988	527.44
406.212	529.44
406.436	539.44
406.66	525.44
406.883	508.44
407.107	561.44
407.331	595.44
407.555	614.44
407.778	633.44
408.002	592.44
408.226	560.44
408.449	554.44
408.673	524.44
408.896	556.44
409.12	578.44
409.344	540.44
409.567	500.44
409.791	500.44
410.014	474.44
410.238	495.44
410.461	512.44
410.685	480.44
410.908	509.44
411.132	517.44
411.355	499.44
411.578	532.44
411.802	496.44
412.025	472.44
412.249	511.44
412.472	546.44
412.695	553.44
412.919	554.44
413.142	512.44
413.365	483.44
413.589	507.44
413.812	485.44
414.035	457.44
414.258	471.44
414.482	472.44
414.705	450.44
414.928	463.44
415.151	450.44
415.374	468.44
415.597	460.44
415.821	456.44
416.044	450.44
416.267	456.44
416.49	432.44
416.713	446.44
416.936	449.44
417.159	437.44
417.382	453.44
417.605	445.44
417.828	455.44
418.051	464.44
418.274	475.44
418.497	460.44
418.72	452.44
418.943	461.44
419.166	504.44
419.389	515.44
419.611	504.44
419.834	492.44
420.057	481.44
420.28	494.44
420.503	480.44
420.726	505.44
420.948	500.44
421.171	508.44
421.394	515.44
421.617	457.44
421.839	475.44
422.062	461.44
422.285	476.44
422.507	537.44
422.73	560.44
422.953	524.44
423.175	488.44
423.398	469.44
423.621	486.44
423.843	499.44
424.066	497.44
424.288	505.44
424.511	492.44
424.733	532.44
424.956	556.44
425.178	550.44
425.401	552.44
425.623	571.44
425.846	496.44
426.068	462.44
426.291	465.44
426.513	484.44
426.735	457.44
426.958	498.44
427.18	563.44
427.402	612.44
427.625	641.44
427.847	594.44
428.069	556.44
428.292	523.44
428.514	459.44
428.736	441.44
428.958	444.44
429.181	436.44
429.403	423.44
429.625	447.44
429.847	484.44
430.069	497.44
430.292	479.44
430.514	433.44
430.736	439.44
430.958	428.44
431.18	429.44
431.402	429.44
431.624	425.44
431.846	433.44
432.068	417.44
432.29	432.44
432.512	425.44
432.734	424.44
432.956	442.44
433.178	450.44
433.4	444.44
433.622	432.44
433.844	437.44
434.066	414.44
434.287	417.44
434.509	453.44
434.731	423.44
434.953	453.44
435.175	462.44
435.397	480.44
435.618	481.44
435.84	475.44
436.062	552.44
436.284	563.44
436.505	487.44
436.727	454.44
436.949	436.44
437.17	427.44
437.392	425.44
437.614	436.44
437.835	453.44
438.057	504.44
438.278	528.44
438.5	557.44
438.721	607.44
438.943	566.44
439.165	502.44
439.386	446.44
439.608	450.44
439.829	441.44
440.05	456.44
440.272	491.44
440.493	478.44
440.715	464.44
440.936	456.44
441.158	453.44
441.379	467.44
441.6	471.44
441.822	485.44
442.043	514.44
442.264	546.44
442.486	574.44
442.707	504.44
442.928	470.44
443.149	471.44
443.371	515.44
443.592	513.44
443.813	565.44
444.034	602.44
444.255	541.44
444.476	502.44
444.698	514.44
444.919	518.44
445.14	611.44
445.361	554.44
445.582	530.44
445.803	521.44
446.024	581.44
446.245	585.44
446.466	546.44
446.687	486.44
446.908	446.44
447.129	418.44
447.35	428.44
447.571	435.44
447.792	418.44
448.013	422.44
448.234	418.44
448.455	442.44
448.675	539.44
448.896	575.44
449.117	534.44
449.338	512.44
449.559	540.44
449.779	600.44
450	503.44
450.221	446.44
450.442	418.44
450.662	404.44
450.883	430.44
451.104	432.44
451.324	404.44
451.545	394.44
451.766	398.44
451.986	358.44
452.207	380.44
452.428	392.44
452.648	385.44
452.869	376.44
453.089	387.44
453.31	383.44
453.53	383.44
453.751	401.44
453.971	370.44
454.192	369.44
454.412	386.44
454.633	375.44
454.853	360.44
455.073	365.44
455.294	379.44
455.514	431.44
455.734	420.44
455.955	369.44
456.175	379.44
456.395	360.44
456.616	353.44
456.836	355.44
457.056	363.44
457.276	362.44
457.497	369.44
457.717	338.44
457.937	367.44
458.157	386.44
458.377	382.44
458.598	418.44
458.818	434.44
459.038	456.44
459.258	480.44
459.478	443.44
459.698	427.44
459.918	429.44
460.138	446.44
460.358	451.44
460.578	450.44
460.798	439.44
461.018	460.44
461.238	449.44
461.458	453.44
461.678	463.44
461.898	440.44
462.118	458.44
462.338	485.44
462.558	490.44
462.777	502.44
462.997	510.44
463.217	531.44
463.437	553.44
463.657	532.44
463.876	496.44
464.096	506.44
464.316	514.44
464.536	504.44
464.755	504.44
464.975	498.44
465.195	499.44
465.414	499.44
465.634	456.44
465.854	446.44
466.073	435.44
466.293	409.44
466.512	412.44
466.732	422.44
466.951	398.44
467.171	398.44
467.391	401.44
467.61	400.44
467.829	420.44
468.049	400.44
468.268	403.44
468.488	408.44
468.707	406.44
468.927	417.44
469.146	388.44
469.365	386.44
469.585	394.44
469.804	397.44
470.023	412.44
470.243	428.44
470.462	422.44
470.681	412.44
470.901	413.44
471.12	410.44
471.339	420.44
471.558	396.44
471.777	401.44
471.997	414.44
472.216	421.44
472.435	466.44
472.654	472.44
472.873	436.44
473.092	406.44
473.311	408.44
473.53	378.44
473.749	401.44
473.968	426.44
474.187	474.44
474.406	475.44
474.625	426.44
474.844	419.44
475.063	426.44
475.282	398.44
475.501	394.44
475.72	414.44
475.939	415.44
476.158	420.44
476.377	412.44
476.596	412.44
476.814	410.44
477.033	416.44
477.252	427.44
477.471	414.44
477.69	430.44
477.908	443.44
478.127	445.44
478.346	437.44
478.564	458.44
478.783	453.44
479.002	494.44
479.22	468.44
479.439	470.44
479.658	474.44
479.876	490.44
480.095	468.44
480.313	513.44
480.532	520.44
480.751	509.44
480.969	530.44
481.188	593.44
481.406	655.44
481.624	554.44
481.843	489.44
482.061	481.44
482.28	493.44
482.498	469.44
482.717	474.44
482.935	464.44
483.153	469.44
483.372	429.44
483.59	439.44
483.808	468.44
484.027	445.44
484.245	459.44
484.463	446.44
484.681	464.44
484.9	466.44
485.118	459.44
485.336	466.44
485.554	492.44
485.772	485.44
485.99	469.44
486.209	482.44
486.427	470.44
486.645	486.44
486.863	479.44
487.081	478.44
487.299	512.44
487.517	478.44
487.735	489.44
487.953	469.44
488.171	479.44
488.389	471.44
488.607	485.44
488.825	481.44
489.043	479.44
489.261	482.44
489.479	502.44
489.696	498.44
489.914	487.44
490.132	514.44
490.35	502.44
490.568	517.44
490.786	497.44
491.003	524.44
491.221	525.44
491.439	522.44
491.657	551.44
491.874	544.44
492.092	564.44
492.31	560.44
492.527	556.44
492.745	578.44
492.963	588.44
493.18	574.44
493.398	570.44
493.615	550.44
493.833	580.44
494.05	563.44
494.268	562.44
494.485	549.44
494.703	557.44
494.92	556.44
495.138	563.44
495.355	576.44
495.573	566.44
495.79	561.44
496.008	547.44
496.225	561.44
496.442	564.44
496.66	564.44
496.877	555.44
497.094	569.44
497.312	588.44
497.529	590.44
497.746	589.44
497.963	601.44
498.181	633.44
498.398	651.44
498.615	651.44
498.832	696.44
499.049	710.44
499.267	742.44
499.484	771.44
499.701	841.44
499.918	892.44
500.135	976.44
500.352	1048.44
500.569	1088.44
500.786	1088.44
501.003	1056.44
501.22	988.44
501.437	939.44
501.654	842.44
501.871	805.44
502.088	752.44
