Data from 1984.PennyLincolnUp.Lamp.En5.5.200Scan.071819.P1_HRD10591_16-59-09-968.txt Node
Date: Thu Jul 18 16:59:09 EDT 2019
User: cochatt
Spectrometer: HR+D1059
Trigger mode: 1
Integration Time (sec): 1.000000E-1
Scans to average: 1
Electric dark correction enabled: true
Nonlinearity correction enabled: false
Boxcar width: 0
XAxis mode: Wavelengths
Number of Pixels in Spectrum: 2048
>>>>>Begin Spectral Data<<<<<
223.165	-17.62
223.4	-17.62
223.635	-17.62
223.869	-2.62
224.104	-28.62
224.338	-13.62
224.573	-23.62
224.808	-2.62
225.042	1.38
225.277	2.38
225.511	-14.62
225.746	6.38
225.98	12.38
226.215	9.38
226.449	7.38
226.683	26.38
226.918	21.38
227.152	16.38
227.387	32.38
227.621	36.38
227.856	22.38
228.09	32.38
228.324	37.38
228.559	46.38
228.793	53.38
229.027	102.38
229.262	92.38
229.496	104.38
229.73	104.38
229.964	113.38
230.199	118.38
230.433	107.38
230.667	113.38
230.901	114.38
231.136	95.38
231.37	97.38
231.604	113.38
231.838	103.38
232.072	115.38
232.306	108.38
232.541	100.38
232.775	100.38
233.009	106.38
233.243	110.38
233.477	105.38
233.711	100.38
233.945	96.38
234.179	107.38
234.413	98.38
234.647	121.38
234.881	96.38
235.115	110.38
235.349	94.38
235.583	91.38
235.817	120.38
236.051	105.38
236.285	110.38
236.519	105.38
236.753	110.38
236.987	134.38
237.221	136.38
237.455	166.38
237.689	148.38
237.922	128.38
238.156	124.38
238.39	121.38
238.624	120.38
238.858	112.38
239.091	106.38
239.325	122.38
239.559	108.38
239.793	111.38
240.027	122.38
240.26	121.38
240.494	128.38
240.728	124.38
240.961	143.38
241.195	123.38
241.429	136.38
241.662	131.38
241.896	104.38
242.13	132.38
242.363	124.38
242.597	126.38
242.83	128.38
243.064	133.38
243.298	117.38
243.531	128.38
243.765	130.38
243.998	130.38
244.232	129.38
244.465	129.38
244.699	121.38
244.932	134.38
245.166	120.38
245.399	135.38
245.633	131.38
245.866	124.38
246.099	132.38
246.333	133.38
246.566	131.38
246.8	140.38
247.033	124.38
247.266	133.38
247.5	133.38
247.733	134.38
247.966	143.38
248.2	152.38
248.433	156.38
248.666	140.38
248.899	157.38
249.133	169.38
249.366	152.38
249.599	158.38
249.832	149.38
250.066	155.38
250.299	174.38
250.532	171.38
250.765	181.38
250.998	194.38
251.231	180.38
251.465	181.38
251.698	186.38
251.931	176.38
252.164	175.38
252.397	177.38
252.63	165.38
252.863	168.38
253.096	192.38
253.329	177.38
253.562	175.38
253.795	176.38
254.028	176.38
254.261	183.38
254.494	178.38
254.727	202.38
254.96	204.38
255.193	212.38
255.426	179.38
255.659	203.38
255.892	204.38
256.124	248.38
256.357	248.38
256.59	218.38
256.823	207.38
257.056	202.38
257.289	191.38
257.521	179.38
257.754	195.38
257.987	180.38
258.22	175.38
258.452	183.38
258.685	177.38
258.918	179.38
259.151	167.38
259.383	186.38
259.616	188.38
259.849	187.38
260.081	190.38
260.314	204.38
260.547	214.38
260.779	207.38
261.012	202.38
261.244	192.38
261.477	205.38
261.71	192.38
261.942	190.38
262.175	186.38
262.407	201.38
262.64	188.38
262.872	198.38
263.105	187.38
263.337	191.38
263.57	195.38
263.802	194.38
264.035	194.38
264.267	191.38
264.499	200.38
264.732	211.38
264.964	190.38
265.197	201.38
265.429	195.38
265.661	202.38
265.894	195.38
266.126	214.38
266.358	190.38
266.591	209.38
266.823	199.38
267.055	208.38
267.287	203.38
267.52	214.38
267.752	209.38
267.984	210.38
268.216	219.38
268.448	209.38
268.681	204.38
268.913	214.38
269.145	224.38
269.377	238.38
269.609	218.38
269.841	244.38
270.073	248.38
270.306	238.38
270.538	261.38
270.77	256.38
271.002	252.38
271.234	239.38
271.466	254.38
271.698	259.38
271.93	274.38
272.162	244.38
272.394	252.38
272.626	251.38
272.858	234.38
273.09	252.38
273.322	243.38
273.553	244.38
273.785	233.38
274.017	230.38
274.249	238.38
274.481	230.38
274.713	234.38
274.945	248.38
275.176	226.38
275.408	235.38
275.64	242.38
275.872	243.38
276.104	242.38
276.335	253.38
276.567	251.38
276.799	234.38
277.031	258.38
277.262	256.38
277.494	257.38
277.726	267.38
277.957	247.38
278.189	251.38
278.421	249.38
278.652	258.38
278.884	259.38
279.115	260.38
279.347	255.38
279.579	244.38
279.81	232.38
280.042	243.38
280.273	264.38
280.505	253.38
280.736	258.38
280.968	256.38
281.199	247.38
281.431	238.38
281.662	269.38
281.894	254.38
282.125	275.38
282.356	256.38
282.588	292.38
282.819	273.38
283.051	261.38
283.282	246.38
283.513	256.38
283.745	266.38
283.976	261.38
284.207	267.38
284.439	267.38
284.67	274.38
284.901	262.38
285.132	274.38
285.364	268.38
285.595	277.38
285.826	273.38
286.057	258.38
286.288	265.38
286.52	279.38
286.751	270.38
286.982	266.38
287.213	283.38
287.444	255.38
287.675	275.38
287.906	264.38
288.138	276.38
288.369	248.38
288.6	265.38
288.831	283.38
289.062	272.38
289.293	283.38
289.524	288.38
289.755	270.38
289.986	273.38
290.217	280.38
290.448	263.38
290.679	283.38
290.91	270.38
291.141	283.38
291.371	283.38
291.602	285.38
291.833	274.38
292.064	283.38
292.295	276.38
292.526	267.38
292.757	269.38
292.987	273.38
293.218	277.38
293.449	279.38
293.68	272.38
293.91	275.38
294.141	280.38
294.372	267.38
294.603	266.38
294.833	277.38
295.064	290.38
295.295	272.38
295.525	270.38
295.756	295.38
295.987	277.38
296.217	300.38
296.448	296.38
296.679	292.38
296.909	289.38
297.14	280.38
297.37	311.38
297.601	303.38
297.831	294.38
298.062	275.38
298.292	273.38
298.523	288.38
298.753	289.38
298.984	276.38
299.214	303.38
299.445	304.38
299.675	287.38
299.905	299.38
300.136	298.38
300.366	296.38
300.597	297.38
300.827	306.38
301.057	311.38
301.288	311.38
301.518	292.38
301.748	324.38
301.979	307.38
302.209	334.38
302.439	329.38
302.669	308.38
302.9	313.38
303.13	300.38
303.36	315.38
303.59	322.38
303.82	322.38
304.051	304.38
304.281	324.38
304.511	316.38
304.741	318.38
304.971	295.38
305.201	310.38
305.431	292.38
305.661	320.38
305.891	308.38
306.121	313.38
306.352	330.38
306.582	310.38
306.812	311.38
307.042	324.38
307.272	311.38
307.502	307.38
307.731	320.38
307.961	306.38
308.191	316.38
308.421	306.38
308.651	301.38
308.881	321.38
309.111	299.38
309.341	320.38
309.571	324.38
309.8	327.38
310.03	314.38
310.26	342.38
310.49	326.38
310.72	332.38
310.949	341.38
311.179	339.38
311.409	358.38
311.639	342.38
311.868	317.38
312.098	331.38
312.328	344.38
312.557	351.38
312.787	360.38
313.017	353.38
313.246	338.38
313.476	344.38
313.706	341.38
313.935	340.38
314.165	352.38
314.394	355.38
314.624	376.38
314.853	361.38
315.083	348.38
315.312	330.38
315.542	342.38
315.771	323.38
316.001	342.38
316.23	349.38
316.46	339.38
316.689	323.38
316.919	349.38
317.148	352.38
317.377	360.38
317.607	346.38
317.836	338.38
318.065	337.38
318.295	346.38
318.524	338.38
318.753	329.38
318.983	338.38
319.212	331.38
319.441	339.38
319.67	347.38
319.9	338.38
320.129	350.38
320.358	361.38
320.587	340.38
320.816	355.38
321.046	346.38
321.275	380.38
321.504	352.38
321.733	368.38
321.962	366.38
322.191	386.38
322.42	368.38
322.649	389.38
322.878	376.38
323.108	383.38
323.337	395.38
323.566	414.38
323.795	420.38
324.024	469.38
324.253	520.38
324.482	664.38
324.71	1032.38
324.939	1432.38
325.168	1205.38
325.397	665.38
325.626	510.38
325.855	436.38
326.084	416.38
326.313	418.38
326.542	430.38
326.77	444.38
326.999	508.38
327.228	638.38
327.457	938.38
327.686	1097.38
327.914	801.38
328.143	570.38
328.372	520.38
328.6	490.38
328.829	455.38
329.058	470.38
329.287	476.38
329.515	478.38
329.744	464.38
329.972	500.38
330.201	536.38
330.43	585.38
330.658	550.38
330.887	498.38
331.115	490.38
331.344	466.38
331.572	425.38
331.801	438.38
332.03	458.38
332.258	444.38
332.486	428.38
332.715	433.38
332.943	440.38
333.172	448.38
333.4	456.38
333.629	482.38
333.857	486.38
334.085	543.38
334.314	604.38
334.542	635.38
334.771	646.38
334.999	562.38
335.227	504.38
335.455	466.38
335.684	455.38
335.912	428.38
336.14	420.38
336.369	413.38
336.597	428.38
336.825	426.38
337.053	428.38
337.281	417.38
337.51	406.38
337.738	400.38
337.966	418.38
338.194	413.38
338.422	407.38
338.65	426.38
338.878	398.38
339.106	393.38
339.334	399.38
339.562	394.38
339.79	368.38
340.018	376.38
340.246	388.38
340.474	376.38
340.702	378.38
340.93	385.38
341.158	396.38
341.386	389.38
341.614	375.38
341.842	381.38
342.07	390.38
342.298	362.38
342.526	370.38
342.754	378.38
342.981	373.38
343.209	375.38
343.437	388.38
343.665	405.38
343.893	408.38
344.12	428.38
344.348	430.38
344.576	398.38
344.804	410.38
345.031	403.38
345.259	373.38
345.487	375.38
345.714	384.38
345.942	377.38
346.17	361.38
346.397	374.38
346.625	361.38
346.853	370.38
347.08	374.38
347.308	376.38
347.535	355.38
347.763	370.38
347.99	387.38
348.218	363.38
348.445	382.38
348.673	372.38
348.9	371.38
349.128	360.38
349.355	353.38
349.583	343.38
349.81	372.38
350.037	342.38
350.265	349.38
350.492	342.38
350.72	360.38
350.947	339.38
351.174	350.38
351.402	363.38
351.629	354.38
351.856	359.38
352.083	339.38
352.311	363.38
352.538	358.38
352.765	351.38
352.992	352.38
353.22	351.38
353.447	377.38
353.674	359.38
353.901	348.38
354.128	342.38
354.355	338.38
354.583	356.38
354.81	347.38
355.037	366.38
355.264	343.38
355.491	342.38
355.718	370.38
355.945	346.38
356.172	340.38
356.399	342.38
356.626	335.38
356.853	349.38
357.08	353.38
357.307	358.38
357.534	336.38
357.761	347.38
357.988	347.38
358.215	345.38
358.441	339.38
358.668	346.38
358.895	358.38
359.122	350.38
359.349	340.38
359.576	341.38
359.802	371.38
360.029	366.38
360.256	368.38
360.483	374.38
360.709	355.38
360.936	350.38
361.163	361.38
361.39	340.38
361.616	349.38
361.843	356.38
362.07	360.38
362.296	343.38
362.523	355.38
362.749	342.38
362.976	344.38
363.203	357.38
363.429	350.38
363.656	347.38
363.882	356.38
364.109	350.38
364.335	349.38
364.562	343.38
364.788	352.38
365.015	350.38
365.241	334.38
365.468	355.38
365.694	365.38
365.92	366.38
366.147	338.38
366.373	344.38
366.599	355.38
366.826	371.38
367.052	338.38
367.278	347.38
367.505	348.38
367.731	327.38
367.957	355.38
368.184	341.38
368.41	344.38
368.636	354.38
368.862	367.38
369.089	357.38
369.315	340.38
369.541	328.38
369.767	346.38
369.993	319.38
370.219	335.38
370.445	343.38
370.672	359.38
370.898	343.38
371.124	373.38
371.35	348.38
371.576	350.38
371.802	339.38
372.028	356.38
372.254	346.38
372.48	344.38
372.706	380.38
372.932	366.38
373.158	379.38
373.384	378.38
373.61	363.38
373.835	366.38
374.061	355.38
374.287	363.38
374.513	372.38
374.739	382.38
374.965	375.38
375.191	373.38
375.416	391.38
375.642	369.38
375.868	392.38
376.094	356.38
376.319	349.38
376.545	358.38
376.771	346.38
376.997	367.38
377.222	355.38
377.448	364.38
377.674	367.38
377.899	352.38
378.125	346.38
378.35	349.38
378.576	350.38
378.802	338.38
379.027	346.38
379.253	362.38
379.478	336.38
379.704	351.38
379.929	358.38
380.155	361.38
380.38	351.38
380.606	353.38
380.831	355.38
381.057	352.38
381.282	350.38
381.507	336.38
381.733	352.38
381.958	352.38
382.184	338.38
382.409	365.38
382.634	360.38
382.86	366.38
383.085	388.38
383.31	374.38
383.535	376.38
383.761	380.38
383.986	361.38
384.211	387.38
384.436	370.38
384.662	392.38
384.887	411.38
385.112	403.38
385.337	379.38
385.562	387.38
385.787	398.38
386.013	405.38
386.238	407.38
386.463	402.38
386.688	382.38
386.913	390.38
387.138	415.38
387.363	377.38
387.588	400.38
387.813	398.38
388.038	399.38
388.263	402.38
388.488	431.38
388.713	396.38
388.938	407.38
389.163	392.38
389.387	407.38
389.612	381.38
389.837	379.38
390.062	386.38
390.287	393.38
390.512	392.38
390.736	378.38
390.961	374.38
391.186	407.38
391.411	421.38
391.636	419.38
391.86	432.38
392.085	434.38
392.31	437.38
392.534	411.38
392.759	416.38
392.984	392.38
393.208	402.38
393.433	407.38
393.658	409.38
393.882	409.38
394.107	394.38
394.331	423.38
394.556	411.38
394.78	418.38
395.005	389.38
395.229	403.38
395.454	404.38
395.678	414.38
395.903	418.38
396.127	433.38
396.352	441.38
396.576	422.38
396.801	403.38
397.025	410.38
397.249	421.38
397.474	423.38
397.698	437.38
397.922	446.38
398.147	446.38
398.371	452.38
398.595	449.38
398.82	460.38
399.044	490.38
399.268	520.38
399.492	559.38
399.717	624.38
399.941	614.38
400.165	596.38
400.389	583.38
400.613	529.38
400.837	500.38
401.062	461.38
401.286	470.38
401.51	479.38
401.734	482.38
401.958	463.38
402.182	469.38
402.406	500.38
402.63	516.38
402.854	491.38
403.078	508.38
403.302	499.38
403.526	503.38
403.75	506.38
403.974	522.38
404.198	521.38
404.422	511.38
404.645	524.38
404.869	523.38
405.093	548.38
405.317	586.38
405.541	605.38
405.765	574.38
405.988	539.38
406.212	524.38
406.436	528.38
406.66	536.38
406.883	555.38
407.107	547.38
407.331	584.38
407.555	628.38
407.778	623.38
408.002	600.38
408.226	550.38
408.449	532.38
408.673	544.38
408.896	559.38
409.12	546.38
409.344	557.38
409.567	516.38
409.791	526.38
410.014	486.38
410.238	488.38
410.461	476.38
410.685	501.38
410.908	514.38
411.132	524.38
411.355	528.38
411.578	511.38
411.802	516.38
412.025	504.38
412.249	506.38
412.472	549.38
412.695	581.38
412.919	542.38
413.142	517.38
413.365	499.38
413.589	480.38
413.812	479.38
414.035	466.38
414.258	469.38
414.482	470.38
414.705	470.38
414.928	475.38
415.151	482.38
415.374	438.38
415.597	461.38
415.821	452.38
416.044	442.38
416.267	438.38
416.49	459.38
416.713	427.38
416.936	460.38
417.159	464.38
417.382	456.38
417.605	466.38
417.828	461.38
418.051	481.38
418.274	470.38
418.497	454.38
418.72	467.38
418.943	468.38
419.166	504.38
419.389	533.38
419.611	518.38
419.834	517.38
420.057	499.38
420.28	506.38
420.503	498.38
420.726	512.38
420.948	475.38
421.171	498.38
421.394	510.38
421.617	497.38
421.839	498.38
422.062	465.38
422.285	460.38
422.507	505.38
422.73	556.38
422.953	519.38
423.175	482.38
423.398	466.38
423.621	470.38
423.843	511.38
424.066	494.38
424.288	508.38
424.511	496.38
424.733	525.38
424.956	580.38
425.178	574.38
425.401	561.38
425.623	540.38
425.846	498.38
426.068	482.38
426.291	464.38
426.513	482.38
426.735	461.38
426.958	507.38
427.18	534.38
427.402	623.38
427.625	647.38
427.847	593.38
428.069	540.38
428.292	521.38
428.514	498.38
428.736	458.38
428.958	455.38
429.181	440.38
429.403	412.38
429.625	425.38
429.847	448.38
430.069	506.38
430.292	485.38
430.514	436.38
430.736	424.38
430.958	438.38
431.18	449.38
431.402	430.38
431.624	418.38
431.846	419.38
432.068	423.38
432.29	435.38
432.512	435.38
432.734	437.38
432.956	439.38
433.178	441.38
433.4	435.38
433.622	439.38
433.844	389.38
434.066	416.38
434.287	444.38
434.509	434.38
434.731	434.38
434.953	461.38
435.175	476.38
435.397	464.38
435.618	476.38
435.84	481.38
436.062	534.38
436.284	583.38
436.505	506.38
436.727	453.38
436.949	449.38
437.17	449.38
437.392	427.38
437.614	446.38
437.835	452.38
438.057	490.38
438.278	544.38
438.5	552.38
438.721	617.38
438.943	584.38
439.165	494.38
439.386	459.38
439.608	458.38
439.829	440.38
440.05	457.38
440.272	500.38
440.493	470.38
440.715	464.38
440.936	455.38
441.158	450.38
441.379	464.38
441.6	470.38
441.822	482.38
442.043	512.38
442.264	543.38
442.486	575.38
442.707	509.38
442.928	468.38
443.149	491.38
443.371	489.38
443.592	531.38
443.813	594.38
444.034	614.38
444.255	537.38
444.476	504.38
444.698	528.38
444.919	521.38
445.14	598.38
445.361	555.38
445.582	515.38
445.803	543.38
446.024	582.38
446.245	582.38
446.466	541.38
446.687	480.38
446.908	464.38
447.129	439.38
447.35	435.38
447.571	437.38
447.792	410.38
448.013	438.38
448.234	453.38
448.455	469.38
448.675	535.38
448.896	574.38
449.117	518.38
449.338	484.38
449.559	560.38
449.779	595.38
450	499.38
450.221	422.38
450.442	406.38
450.662	411.38
450.883	406.38
451.104	438.38
451.324	413.38
451.545	392.38
451.766	406.38
451.986	378.38
452.207	394.38
452.428	394.38
452.648	389.38
452.869	379.38
453.089	389.38
453.31	403.38
453.53	368.38
453.751	392.38
453.971	378.38
454.192	381.38
454.412	395.38
454.633	379.38
454.853	364.38
455.073	390.38
455.294	394.38
455.514	423.38
455.734	406.38
455.955	366.38
456.175	373.38
456.395	362.38
456.616	347.38
456.836	380.38
457.056	370.38
457.276	362.38
457.497	366.38
457.717	386.38
457.937	371.38
458.157	391.38
458.377	375.38
458.598	398.38
458.818	419.38
459.038	475.38
459.258	487.38
459.478	437.38
459.698	437.38
459.918	434.38
460.138	448.38
460.358	444.38
460.578	449.38
460.798	455.38
461.018	457.38
461.238	459.38
461.458	466.38
461.678	449.38
461.898	460.38
462.118	448.38
462.338	463.38
462.558	492.38
462.777	499.38
462.997	506.38
463.217	550.38
463.437	532.38
463.657	515.38
463.876	508.38
464.096	514.38
464.316	495.38
464.536	506.38
464.755	506.38
464.975	497.38
465.195	489.38
465.414	498.38
465.634	477.38
465.854	442.38
466.073	416.38
466.293	427.38
466.512	414.38
466.732	420.38
466.951	408.38
467.171	400.38
467.391	409.38
467.61	420.38
467.829	412.38
468.049	410.38
468.268	416.38
468.488	393.38
468.707	400.38
468.927	404.38
469.146	402.38
469.365	414.38
469.585	376.38
469.804	406.38
470.023	396.38
470.243	404.38
470.462	419.38
470.681	427.38
470.901	427.38
471.12	421.38
471.339	436.38
471.558	410.38
471.777	397.38
471.997	405.38
472.216	421.38
472.435	483.38
472.654	476.38
472.873	410.38
473.092	400.38
473.311	418.38
473.53	406.38
473.749	417.38
473.968	446.38
474.187	478.38
474.406	491.38
474.625	430.38
474.844	398.38
475.063	410.38
475.282	383.38
475.501	405.38
475.72	405.38
475.939	403.38
476.158	422.38
476.377	400.38
476.596	404.38
476.814	445.38
477.033	427.38
477.252	428.38
477.471	412.38
477.69	432.38
477.908	446.38
478.127	459.38
478.346	450.38
478.564	438.38
478.783	479.38
479.002	478.38
479.22	461.38
479.439	473.38
479.658	479.38
479.876	479.38
480.095	499.38
480.313	512.38
480.532	516.38
480.751	522.38
480.969	556.38
481.188	622.38
481.406	680.38
481.624	576.38
481.843	540.38
482.061	489.38
482.28	490.38
482.498	501.38
482.717	484.38
482.935	462.38
483.153	476.38
483.372	445.38
483.59	453.38
483.808	461.38
484.027	465.38
484.245	468.38
484.463	464.38
484.681	498.38
484.9	487.38
485.118	466.38
485.336	472.38
485.554	467.38
485.772	470.38
485.99	472.38
486.209	491.38
486.427	471.38
486.645	489.38
486.863	497.38
487.081	506.38
487.299	481.38
487.517	490.38
487.735	499.38
487.953	482.38
488.171	479.38
488.389	476.38
488.607	486.38
488.825	482.38
489.043	486.38
489.261	486.38
489.479	492.38
489.696	519.38
489.914	482.38
490.132	498.38
490.35	520.38
490.568	520.38
490.786	514.38
491.003	502.38
491.221	521.38
491.439	531.38
491.657	530.38
491.874	545.38
492.092	549.38
492.31	549.38
492.527	570.38
492.745	564.38
492.963	586.38
493.18	583.38
493.398	585.38
493.615	561.38
493.833	554.38
494.05	561.38
494.268	564.38
494.485	550.38
494.703	562.38
494.92	554.38
495.138	579.38
495.355	570.38
495.573	572.38
495.79	547.38
496.008	578.38
496.225	550.38
496.442	568.38
496.66	572.38
496.877	582.38
497.094	594.38
497.312	591.38
497.529	568.38
497.746	594.38
497.963	585.38
498.181	603.38
498.398	648.38
498.615	649.38
498.832	683.38
499.049	712.38
499.267	784.38
499.484	780.38
499.701	848.38
499.918	895.38
500.135	971.38
500.352	1030.38
500.569	1073.38
500.786	1129.38
501.003	1047.38
501.22	964.38
501.437	886.38
501.654	859.38
501.871	816.38
502.088	774.38
