Data from 1984.PennyLincolnUp.Lamp.En5.5.200Scan.071819.P1_HRD10591_16-58-31-968.txt Node
Date: Thu Jul 18 16:58:31 EDT 2019
User: cochatt
Spectrometer: HR+D1059
Trigger mode: 1
Integration Time (sec): 1.000000E-1
Scans to average: 1
Electric dark correction enabled: true
Nonlinearity correction enabled: false
Boxcar width: 0
XAxis mode: Wavelengths
Number of Pixels in Spectrum: 2048
>>>>>Begin Spectral Data<<<<<
223.165	-9.56
223.4	-9.56
223.635	-9.56
223.869	-16.56
224.104	-13.56
224.338	-13.56
224.573	-27.56
224.808	-4.56
225.042	-12.56
225.277	-9.56
225.511	-13.56
225.746	2.44
225.98	6.44
226.215	11.44
226.449	24.44
226.683	21.44
226.918	21.44
227.152	33.44
227.387	26.44
227.621	33.44
227.856	45.44
228.09	43.44
228.324	43.44
228.559	61.44
228.793	65.44
229.027	75.44
229.262	96.44
229.496	102.44
229.73	98.44
229.964	122.44
230.199	104.44
230.433	75.44
230.667	100.44
230.901	110.44
231.136	108.44
231.37	98.44
231.604	99.44
231.838	98.44
232.072	98.44
232.306	99.44
232.541	102.44
232.775	94.44
233.009	99.44
233.243	101.44
233.477	122.44
233.711	106.44
233.945	103.44
234.179	107.44
234.413	120.44
234.647	117.44
234.881	110.44
235.115	114.44
235.349	84.44
235.583	93.44
235.817	119.44
236.051	119.44
236.285	100.44
236.519	119.44
236.753	104.44
236.987	113.44
237.221	131.44
237.455	145.44
237.689	149.44
237.922	127.44
238.156	104.44
238.39	124.44
238.624	110.44
238.858	102.44
239.091	103.44
239.325	99.44
239.559	111.44
239.793	121.44
240.027	123.44
240.26	123.44
240.494	119.44
240.728	118.44
240.961	138.44
241.195	121.44
241.429	131.44
241.662	125.44
241.896	113.44
242.13	121.44
242.363	123.44
242.597	110.44
242.83	114.44
243.064	110.44
243.298	120.44
243.531	112.44
243.765	124.44
243.998	129.44
244.232	125.44
244.465	118.44
244.699	129.44
244.932	133.44
245.166	134.44
245.399	130.44
245.633	141.44
245.866	129.44
246.099	135.44
246.333	146.44
246.566	118.44
246.8	141.44
247.033	137.44
247.266	151.44
247.5	145.44
247.733	128.44
247.966	142.44
248.2	168.44
248.433	156.44
248.666	150.44
248.899	156.44
249.133	164.44
249.366	166.44
249.599	163.44
249.832	171.44
250.066	161.44
250.299	168.44
250.532	184.44
250.765	199.44
250.998	186.44
251.231	209.44
251.465	169.44
251.698	165.44
251.931	170.44
252.164	178.44
252.397	185.44
252.63	174.44
252.863	170.44
253.096	177.44
253.329	178.44
253.562	199.44
253.795	179.44
254.028	182.44
254.261	186.44
254.494	186.44
254.727	201.44
254.96	221.44
255.193	220.44
255.426	206.44
255.659	214.44
255.892	210.44
256.124	227.44
256.357	235.44
256.59	219.44
256.823	185.44
257.056	181.44
257.289	184.44
257.521	203.44
257.754	196.44
257.987	181.44
258.22	185.44
258.452	178.44
258.685	180.44
258.918	173.44
259.151	188.44
259.383	200.44
259.616	197.44
259.849	192.44
260.081	193.44
260.314	187.44
260.547	207.44
260.779	201.44
261.012	199.44
261.244	197.44
261.477	211.44
261.71	204.44
261.942	202.44
262.175	211.44
262.407	207.44
262.64	180.44
262.872	184.44
263.105	179.44
263.337	210.44
263.57	197.44
263.802	181.44
264.035	206.44
264.267	196.44
264.499	206.44
264.732	188.44
264.964	202.44
265.197	194.44
265.429	194.44
265.661	193.44
265.894	205.44
266.126	182.44
266.358	202.44
266.591	213.44
266.823	185.44
267.055	219.44
267.287	208.44
267.52	202.44
267.752	199.44
267.984	209.44
268.216	211.44
268.448	228.44
268.681	205.44
268.913	206.44
269.145	241.44
269.377	233.44
269.609	249.44
269.841	239.44
270.073	238.44
270.306	238.44
270.538	257.44
270.77	262.44
271.002	263.44
271.234	227.44
271.466	233.44
271.698	244.44
271.93	261.44
272.162	264.44
272.394	264.44
272.626	265.44
272.858	254.44
273.09	253.44
273.322	242.44
273.553	217.44
273.785	237.44
274.017	250.44
274.249	245.44
274.481	239.44
274.713	227.44
274.945	230.44
275.176	229.44
275.408	245.44
275.64	243.44
275.872	247.44
276.104	225.44
276.335	235.44
276.567	250.44
276.799	218.44
277.031	280.44
277.262	265.44
277.494	272.44
277.726	271.44
277.957	250.44
278.189	247.44
278.421	244.44
278.652	253.44
278.884	244.44
279.115	230.44
279.347	251.44
279.579	244.44
279.81	245.44
280.042	258.44
280.273	263.44
280.505	253.44
280.736	262.44
280.968	246.44
281.199	240.44
281.431	256.44
281.662	264.44
281.894	261.44
282.125	257.44
282.356	272.44
282.588	261.44
282.819	290.44
283.051	261.44
283.282	237.44
283.513	270.44
283.745	259.44
283.976	266.44
284.207	263.44
284.439	254.44
284.67	275.44
284.901	263.44
285.132	259.44
285.364	286.44
285.595	282.44
285.826	278.44
286.057	269.44
286.288	265.44
286.52	257.44
286.751	271.44
286.982	293.44
287.213	271.44
287.444	300.44
287.675	269.44
287.906	266.44
288.138	281.44
288.369	280.44
288.6	274.44
288.831	286.44
289.062	264.44
289.293	275.44
289.524	277.44
289.755	272.44
289.986	268.44
290.217	275.44
290.448	278.44
290.679	279.44
290.91	283.44
291.141	261.44
291.371	267.44
291.602	261.44
291.833	276.44
292.064	255.44
292.295	280.44
292.526	279.44
292.757	284.44
292.987	266.44
293.218	271.44
293.449	279.44
293.68	291.44
293.91	289.44
294.141	284.44
294.372	292.44
294.603	279.44
294.833	277.44
295.064	273.44
295.295	278.44
295.525	297.44
295.756	301.44
295.987	289.44
296.217	289.44
296.448	314.44
296.679	313.44
296.909	303.44
297.14	287.44
297.37	287.44
297.601	281.44
297.831	303.44
298.062	278.44
298.292	305.44
298.523	306.44
298.753	306.44
298.984	294.44
299.214	292.44
299.445	286.44
299.675	301.44
299.905	315.44
300.136	267.44
300.366	290.44
300.597	298.44
300.827	308.44
301.057	293.44
301.288	315.44
301.518	318.44
301.748	335.44
301.979	318.44
302.209	308.44
302.439	290.44
302.669	331.44
302.9	312.44
303.13	287.44
303.36	299.44
303.59	313.44
303.82	314.44
304.051	316.44
304.281	323.44
304.511	330.44
304.741	313.44
304.971	307.44
305.201	293.44
305.431	315.44
305.661	299.44
305.891	295.44
306.121	314.44
306.352	323.44
306.582	317.44
306.812	334.44
307.042	317.44
307.272	307.44
307.502	319.44
307.731	306.44
307.961	301.44
308.191	301.44
308.421	312.44
308.651	331.44
308.881	306.44
309.111	328.44
309.341	319.44
309.571	328.44
309.8	319.44
310.03	331.44
310.26	328.44
310.49	338.44
310.72	338.44
310.949	344.44
311.179	333.44
311.409	357.44
311.639	329.44
311.868	332.44
312.098	342.44
312.328	340.44
312.557	338.44
312.787	376.44
313.017	368.44
313.246	346.44
313.476	354.44
313.706	349.44
313.935	337.44
314.165	366.44
314.394	350.44
314.624	347.44
314.853	342.44
315.083	353.44
315.312	356.44
315.542	356.44
315.771	335.44
316.001	346.44
316.23	342.44
316.46	327.44
316.689	341.44
316.919	320.44
317.148	357.44
317.377	357.44
317.607	337.44
317.836	338.44
318.065	325.44
318.295	357.44
318.524	349.44
318.753	341.44
318.983	342.44
319.212	346.44
319.441	352.44
319.67	346.44
319.9	347.44
320.129	336.44
320.358	351.44
320.587	352.44
320.816	344.44
321.046	369.44
321.275	365.44
321.504	342.44
321.733	349.44
321.962	382.44
322.191	377.44
322.42	359.44
322.649	383.44
322.878	382.44
323.108	380.44
323.337	395.44
323.566	430.44
323.795	433.44
324.024	465.44
324.253	543.44
324.482	703.44
324.71	1026.44
324.939	1382.44
325.168	1182.44
325.397	663.44
325.626	502.44
325.855	423.44
326.084	427.44
326.313	422.44
326.542	437.44
326.77	444.44
326.999	504.44
327.228	673.44
327.457	932.44
327.686	1103.44
327.914	779.44
328.143	559.44
328.372	516.44
328.6	483.44
328.829	456.44
329.058	448.44
329.287	471.44
329.515	457.44
329.744	431.44
329.972	493.44
330.201	496.44
330.43	529.44
330.658	530.44
330.887	497.44
331.115	499.44
331.344	440.44
331.572	431.44
331.801	431.44
332.03	460.44
332.258	434.44
332.486	432.44
332.715	423.44
332.943	435.44
333.172	463.44
333.4	463.44
333.629	450.44
333.857	497.44
334.085	505.44
334.314	532.44
334.542	589.44
334.771	584.44
334.999	524.44
335.227	484.44
335.455	456.44
335.684	438.44
335.912	429.44
336.14	420.44
336.369	405.44
336.597	433.44
336.825	434.44
337.053	424.44
337.281	413.44
337.51	404.44
337.738	409.44
337.966	400.44
338.194	407.44
338.422	395.44
338.65	408.44
338.878	372.44
339.106	382.44
339.334	406.44
339.562	390.44
339.79	391.44
340.018	403.44
340.246	373.44
340.474	395.44
340.702	374.44
340.93	385.44
341.158	384.44
341.386	384.44
341.614	370.44
341.842	377.44
342.07	395.44
342.298	379.44
342.526	390.44
342.754	384.44
342.981	393.44
343.209	396.44
343.437	398.44
343.665	396.44
343.893	399.44
344.12	431.44
344.348	411.44
344.576	421.44
344.804	403.44
345.031	407.44
345.259	401.44
345.487	365.44
345.714	386.44
345.942	396.44
346.17	371.44
346.397	373.44
346.625	370.44
346.853	339.44
347.08	357.44
347.308	373.44
347.535	365.44
347.763	378.44
347.99	364.44
348.218	355.44
348.445	375.44
348.673	366.44
348.9	374.44
349.128	366.44
349.355	347.44
349.583	360.44
349.81	356.44
350.037	356.44
350.265	340.44
350.492	353.44
350.72	389.44
350.947	345.44
351.174	369.44
351.402	376.44
351.629	360.44
351.856	373.44
352.083	365.44
352.311	363.44
352.538	358.44
352.765	363.44
352.992	351.44
353.22	367.44
353.447	369.44
353.674	359.44
353.901	349.44
354.128	345.44
354.355	342.44
354.583	350.44
354.81	363.44
355.037	358.44
355.264	340.44
355.491	336.44
355.718	351.44
355.945	344.44
356.172	339.44
356.399	353.44
356.626	342.44
356.853	347.44
357.08	341.44
357.307	336.44
357.534	345.44
357.761	327.44
357.988	344.44
358.215	333.44
358.441	347.44
358.668	352.44
358.895	326.44
359.122	346.44
359.349	351.44
359.576	372.44
359.802	357.44
360.029	373.44
360.256	381.44
360.483	370.44
360.709	363.44
360.936	369.44
361.163	335.44
361.39	360.44
361.616	353.44
361.843	354.44
362.07	351.44
362.296	342.44
362.523	355.44
362.749	339.44
362.976	365.44
363.203	359.44
363.429	351.44
363.656	365.44
363.882	351.44
364.109	350.44
364.335	352.44
364.562	338.44
364.788	332.44
365.015	354.44
365.241	351.44
365.468	354.44
365.694	336.44
365.92	337.44
366.147	361.44
366.373	355.44
366.599	370.44
366.826	336.44
367.052	349.44
367.278	350.44
367.505	351.44
367.731	335.44
367.957	339.44
368.184	340.44
368.41	337.44
368.636	367.44
368.862	366.44
369.089	360.44
369.315	359.44
369.541	357.44
369.767	349.44
369.993	351.44
370.219	338.44
370.445	364.44
370.672	327.44
370.898	361.44
371.124	357.44
371.35	349.44
371.576	341.44
371.802	354.44
372.028	348.44
372.254	327.44
372.48	353.44
372.706	365.44
372.932	371.44
373.158	353.44
373.384	349.44
373.61	353.44
373.835	369.44
374.061	342.44
374.287	353.44
374.513	365.44
374.739	355.44
374.965	381.44
375.191	373.44
375.416	357.44
375.642	371.44
375.868	357.44
376.094	359.44
376.319	349.44
376.545	336.44
376.771	346.44
376.997	351.44
377.222	353.44
377.448	330.44
377.674	337.44
377.899	346.44
378.125	346.44
378.35	340.44
378.576	338.44
378.802	341.44
379.027	338.44
379.253	351.44
379.478	339.44
379.704	352.44
379.929	370.44
380.155	335.44
380.38	335.44
380.606	337.44
380.831	332.44
381.057	357.44
381.282	361.44
381.507	355.44
381.733	351.44
381.958	376.44
382.184	343.44
382.409	365.44
382.634	338.44
382.86	360.44
383.085	368.44
383.31	361.44
383.535	375.44
383.761	375.44
383.986	369.44
384.211	376.44
384.436	382.44
384.662	385.44
384.887	381.44
385.112	382.44
385.337	397.44
385.562	392.44
385.787	401.44
386.013	407.44
386.238	415.44
386.463	415.44
386.688	405.44
386.913	397.44
387.138	385.44
387.363	399.44
387.588	405.44
387.813	396.44
388.038	386.44
388.263	388.44
388.488	395.44
388.713	403.44
388.938	417.44
389.163	402.44
389.387	390.44
389.612	404.44
389.837	389.44
390.062	393.44
390.287	384.44
390.512	394.44
390.736	378.44
390.961	403.44
391.186	389.44
391.411	401.44
391.636	423.44
391.86	423.44
392.085	441.44
392.31	433.44
392.534	425.44
392.759	402.44
392.984	420.44
393.208	396.44
393.433	418.44
393.658	386.44
393.882	391.44
394.107	397.44
394.331	400.44
394.556	406.44
394.78	398.44
395.005	399.44
395.229	401.44
395.454	441.44
395.678	425.44
395.903	443.44
396.127	424.44
396.352	438.44
396.576	405.44
396.801	421.44
397.025	409.44
397.249	426.44
397.474	422.44
397.698	419.44
397.922	440.44
398.147	453.44
398.371	430.44
398.595	447.44
398.82	479.44
399.044	498.44
399.268	519.44
399.492	555.44
399.717	607.44
399.941	632.44
400.165	618.44
400.389	613.44
400.613	519.44
400.837	480.44
401.062	474.44
401.286	475.44
401.51	478.44
401.734	475.44
401.958	484.44
402.182	475.44
402.406	474.44
402.63	480.44
402.854	484.44
403.078	479.44
403.302	492.44
403.526	507.44
403.75	495.44
403.974	516.44
404.198	497.44
404.422	495.44
404.645	517.44
404.869	529.44
405.093	536.44
405.317	564.44
405.541	601.44
405.765	577.44
405.988	502.44
406.212	522.44
406.436	520.44
406.66	519.44
406.883	520.44
407.107	563.44
407.331	603.44
407.555	638.44
407.778	645.44
408.002	573.44
408.226	551.44
408.449	546.44
408.673	535.44
408.896	542.44
409.12	550.44
409.344	546.44
409.567	505.44
409.791	518.44
410.014	511.44
410.238	494.44
410.461	515.44
410.685	491.44
410.908	517.44
411.132	530.44
411.355	503.44
411.578	519.44
411.802	512.44
412.025	485.44
412.249	501.44
412.472	517.44
412.695	555.44
412.919	545.44
413.142	509.44
413.365	473.44
413.589	490.44
413.812	462.44
414.035	467.44
414.258	451.44
414.482	464.44
414.705	489.44
414.928	473.44
415.151	478.44
415.374	474.44
415.597	469.44
415.821	442.44
416.044	437.44
416.267	454.44
416.49	462.44
416.713	461.44
416.936	486.44
417.159	464.44
417.382	456.44
417.605	468.44
417.828	467.44
418.051	486.44
418.274	490.44
418.497	452.44
418.72	454.44
418.943	453.44
419.166	493.44
419.389	517.44
419.611	504.44
419.834	494.44
420.057	473.44
420.28	478.44
420.503	485.44
420.726	486.44
420.948	506.44
421.171	501.44
421.394	523.44
421.617	472.44
421.839	484.44
422.062	489.44
422.285	484.44
422.507	521.44
422.73	550.44
422.953	540.44
423.175	520.44
423.398	479.44
423.621	478.44
423.843	511.44
424.066	505.44
424.288	493.44
424.511	516.44
424.733	539.44
424.956	574.44
425.178	571.44
425.401	550.44
425.623	566.44
425.846	507.44
426.068	477.44
426.291	449.44
426.513	458.44
426.735	464.44
426.958	511.44
427.18	549.44
427.402	610.44
427.625	662.44
427.847	603.44
428.069	531.44
428.292	501.44
428.514	461.44
428.736	441.44
428.958	451.44
429.181	426.44
429.403	422.44
429.625	446.44
429.847	444.44
430.069	485.44
430.292	487.44
430.514	439.44
430.736	425.44
430.958	440.44
431.18	435.44
431.402	406.44
431.624	437.44
431.846	424.44
432.068	425.44
432.29	444.44
432.512	422.44
432.734	427.44
432.956	419.44
433.178	426.44
433.4	445.44
433.622	413.44
433.844	424.44
434.066	419.44
434.287	420.44
434.509	457.44
434.731	442.44
434.953	465.44
435.175	470.44
435.397	504.44
435.618	464.44
435.84	458.44
436.062	533.44
436.284	557.44
436.505	505.44
436.727	469.44
436.949	426.44
437.17	416.44
437.392	429.44
437.614	446.44
437.835	467.44
438.057	479.44
438.278	561.44
438.5	571.44
438.721	582.44
438.943	578.44
439.165	490.44
439.386	449.44
439.608	459.44
439.829	454.44
440.05	459.44
440.272	494.44
440.493	495.44
440.715	461.44
440.936	445.44
441.158	451.44
441.379	459.44
441.6	472.44
441.822	487.44
442.043	521.44
442.264	544.44
442.486	565.44
442.707	517.44
442.928	482.44
443.149	507.44
443.371	517.44
443.592	511.44
443.813	573.44
444.034	633.44
444.255	553.44
444.476	496.44
444.698	496.44
444.919	546.44
445.14	587.44
445.361	554.44
445.582	509.44
445.803	530.44
446.024	587.44
446.245	599.44
446.466	527.44
446.687	462.44
446.908	450.44
447.129	439.44
447.35	425.44
447.571	419.44
447.792	421.44
448.013	414.44
448.234	423.44
448.455	455.44
448.675	531.44
448.896	604.44
449.117	511.44
449.338	484.44
449.559	548.44
449.779	626.44
450	503.44
450.221	457.44
450.442	405.44
450.662	400.44
450.883	422.44
451.104	427.44
451.324	417.44
451.545	403.44
451.766	400.44
451.986	409.44
452.207	396.44
452.428	395.44
452.648	387.44
452.869	379.44
453.089	386.44
453.31	393.44
453.53	402.44
453.751	374.44
453.971	392.44
454.192	374.44
454.412	375.44
454.633	387.44
454.853	378.44
455.073	391.44
455.294	399.44
455.514	452.44
455.734	444.44
455.955	379.44
456.175	371.44
456.395	360.44
456.616	381.44
456.836	359.44
457.056	367.44
457.276	377.44
457.497	369.44
457.717	399.44
457.937	381.44
458.157	392.44
458.377	391.44
458.598	392.44
458.818	419.44
459.038	466.44
459.258	479.44
459.478	447.44
459.698	434.44
459.918	413.44
460.138	439.44
460.358	432.44
460.578	442.44
460.798	451.44
461.018	478.44
461.238	472.44
461.458	448.44
461.678	462.44
461.898	446.44
462.118	466.44
462.338	495.44
462.558	473.44
462.777	481.44
462.997	545.44
463.217	549.44
463.437	536.44
463.657	535.44
463.876	519.44
464.096	495.44
464.316	499.44
464.536	532.44
464.755	498.44
464.975	499.44
465.195	484.44
465.414	505.44
465.634	465.44
465.854	454.44
466.073	409.44
466.293	415.44
466.512	393.44
466.732	401.44
466.951	429.44
467.171	400.44
467.391	414.44
467.61	406.44
467.829	419.44
468.049	409.44
468.268	409.44
468.488	406.44
468.707	394.44
468.927	405.44
469.146	387.44
469.365	387.44
469.585	410.44
469.804	409.44
470.023	402.44
470.243	412.44
470.462	417.44
470.681	431.44
470.901	450.44
471.12	426.44
471.339	415.44
471.558	404.44
471.777	422.44
471.997	410.44
472.216	432.44
472.435	448.44
472.654	438.44
472.873	427.44
473.092	398.44
473.311	410.44
473.53	386.44
473.749	395.44
473.968	439.44
474.187	467.44
474.406	463.44
474.625	432.44
474.844	409.44
475.063	405.44
475.282	391.44
475.501	402.44
475.72	402.44
475.939	393.44
476.158	401.44
476.377	421.44
476.596	409.44
476.814	408.44
477.033	402.44
477.252	418.44
477.471	425.44
477.69	429.44
477.908	441.44
478.127	453.44
478.346	451.44
478.564	463.44
478.783	454.44
479.002	451.44
479.22	478.44
479.439	462.44
479.658	495.44
479.876	486.44
480.095	461.44
480.313	513.44
480.532	520.44
480.751	528.44
480.969	522.44
481.188	575.44
481.406	606.44
481.624	538.44
481.843	506.44
482.061	483.44
482.28	462.44
482.498	467.44
482.717	453.44
482.935	461.44
483.153	457.44
483.372	461.44
483.59	470.44
483.808	423.44
484.027	449.44
484.245	458.44
484.463	453.44
484.681	456.44
484.9	441.44
485.118	478.44
485.336	466.44
485.554	458.44
485.772	454.44
485.99	451.44
486.209	492.44
486.427	478.44
486.645	483.44
486.863	483.44
487.081	475.44
487.299	478.44
487.517	499.44
487.735	483.44
487.953	503.44
488.171	489.44
488.389	479.44
488.607	502.44
488.825	486.44
489.043	471.44
489.261	475.44
489.479	507.44
489.696	497.44
489.914	478.44
490.132	475.44
490.35	482.44
490.568	520.44
490.786	521.44
491.003	516.44
491.221	522.44
491.439	543.44
491.657	545.44
491.874	532.44
492.092	541.44
492.31	559.44
492.527	566.44
492.745	574.44
492.963	566.44
493.18	587.44
493.398	554.44
493.615	554.44
493.833	543.44
494.05	562.44
494.268	561.44
494.485	559.44
494.703	583.44
494.92	555.44
495.138	544.44
495.355	566.44
495.573	549.44
495.79	565.44
496.008	569.44
496.225	574.44
496.442	555.44
496.66	569.44
496.877	559.44
497.094	575.44
497.312	600.44
497.529	579.44
497.746	593.44
497.963	599.44
498.181	632.44
498.398	625.44
498.615	649.44
498.832	685.44
499.049	713.44
499.267	747.44
499.484	779.44
499.701	847.44
499.918	884.44
500.135	964.44
500.352	1063.44
500.569	1112.44
500.786	1093.44
501.003	1075.44
501.22	993.44
501.437	917.44
501.654	829.44
501.871	811.44
502.088	722.44
