Data from 1984.PennyLincolnUp.Lamp.En5.5.200Scan.071819.P1_HRD10591_16-57-10-967.txt Node
Date: Thu Jul 18 16:57:10 EDT 2019
User: cochatt
Spectrometer: HR+D1059
Trigger mode: 1
Integration Time (sec): 1.000000E-1
Scans to average: 1
Electric dark correction enabled: true
Nonlinearity correction enabled: false
Boxcar width: 0
XAxis mode: Wavelengths
Number of Pixels in Spectrum: 2048
>>>>>Begin Spectral Data<<<<<
223.165	-16.75
223.4	-16.75
223.635	-16.75
223.869	-21.75
224.104	-8.75
224.338	-12.75
224.573	-9.75
224.808	-21.75
225.042	-17.75
225.277	-1.75
225.511	1.25
225.746	9.25
225.98	12.25
226.215	9.25
226.449	12.25
226.683	21.25
226.918	18.25
227.152	27.25
227.387	32.25
227.621	23.25
227.856	44.25
228.09	36.25
228.324	43.25
228.559	51.25
228.793	59.25
229.027	89.25
229.262	96.25
229.496	99.25
229.73	100.25
229.964	98.25
230.199	115.25
230.433	91.25
230.667	113.25
230.901	101.25
231.136	102.25
231.37	102.25
231.604	107.25
231.838	98.25
232.072	93.25
232.306	87.25
232.541	90.25
232.775	103.25
233.009	100.25
233.243	92.25
233.477	102.25
233.711	113.25
233.945	94.25
234.179	104.25
234.413	107.25
234.647	93.25
234.881	107.25
235.115	122.25
235.349	92.25
235.583	86.25
235.817	97.25
236.051	94.25
236.285	87.25
236.519	110.25
236.753	104.25
236.987	113.25
237.221	112.25
237.455	146.25
237.689	120.25
237.922	107.25
238.156	103.25
238.39	99.25
238.624	114.25
238.858	109.25
239.091	118.25
239.325	97.25
239.559	112.25
239.793	114.25
240.027	105.25
240.26	124.25
240.494	118.25
240.728	99.25
240.961	126.25
241.195	122.25
241.429	120.25
241.662	108.25
241.896	126.25
242.13	110.25
242.363	110.25
242.597	119.25
242.83	121.25
243.064	102.25
243.298	124.25
243.531	118.25
243.765	117.25
243.998	124.25
244.232	131.25
244.465	126.25
244.699	123.25
244.932	130.25
245.166	106.25
245.399	133.25
245.633	112.25
245.866	130.25
246.099	119.25
246.333	119.25
246.566	143.25
246.8	132.25
247.033	127.25
247.266	125.25
247.5	138.25
247.733	128.25
247.966	136.25
248.2	142.25
248.433	134.25
248.666	145.25
248.899	128.25
249.133	122.25
249.366	156.25
249.599	143.25
249.832	152.25
250.066	140.25
250.299	148.25
250.532	136.25
250.765	144.25
250.998	147.25
251.231	156.25
251.465	158.25
251.698	160.25
251.931	166.25
252.164	158.25
252.397	142.25
252.63	149.25
252.863	162.25
253.096	174.25
253.329	186.25
253.562	150.25
253.795	155.25
254.028	146.25
254.261	164.25
254.494	168.25
254.727	158.25
254.96	164.25
255.193	187.25
255.426	165.25
255.659	155.25
255.892	178.25
256.124	144.25
256.357	164.25
256.59	153.25
256.823	168.25
257.056	177.25
257.289	166.25
257.521	165.25
257.754	168.25
257.987	169.25
258.22	172.25
258.452	152.25
258.685	172.25
258.918	141.25
259.151	162.25
259.383	182.25
259.616	170.25
259.849	158.25
260.081	194.25
260.314	184.25
260.547	165.25
260.779	160.25
261.012	161.25
261.244	163.25
261.477	183.25
261.71	168.25
261.942	168.25
262.175	165.25
262.407	197.25
262.64	170.25
262.872	168.25
263.105	175.25
263.337	180.25
263.57	162.25
263.802	164.25
264.035	169.25
264.267	179.25
264.499	175.25
264.732	185.25
264.964	172.25
265.197	184.25
265.429	185.25
265.661	180.25
265.894	182.25
266.126	185.25
266.358	185.25
266.591	187.25
266.823	164.25
267.055	171.25
267.287	188.25
267.52	195.25
267.752	183.25
267.984	180.25
268.216	201.25
268.448	204.25
268.681	188.25
268.913	203.25
269.145	177.25
269.377	191.25
269.609	200.25
269.841	200.25
270.073	215.25
270.306	210.25
270.538	216.25
270.77	230.25
271.002	216.25
271.234	207.25
271.466	217.25
271.698	207.25
271.93	230.25
272.162	222.25
272.394	225.25
272.626	206.25
272.858	228.25
273.09	216.25
273.322	209.25
273.553	210.25
273.785	217.25
274.017	205.25
274.249	209.25
274.481	217.25
274.713	207.25
274.945	211.25
275.176	215.25
275.408	221.25
275.64	220.25
275.872	232.25
276.104	213.25
276.335	223.25
276.567	222.25
276.799	223.25
277.031	234.25
277.262	226.25
277.494	218.25
277.726	228.25
277.957	238.25
278.189	227.25
278.421	238.25
278.652	222.25
278.884	221.25
279.115	212.25
279.347	222.25
279.579	220.25
279.81	229.25
280.042	232.25
280.273	211.25
280.505	227.25
280.736	234.25
280.968	216.25
281.199	215.25
281.431	237.25
281.662	238.25
281.894	226.25
282.125	244.25
282.356	233.25
282.588	250.25
282.819	256.25
283.051	235.25
283.282	234.25
283.513	239.25
283.745	240.25
283.976	225.25
284.207	224.25
284.439	234.25
284.67	242.25
284.901	245.25
285.132	226.25
285.364	248.25
285.595	248.25
285.826	243.25
286.057	255.25
286.288	251.25
286.52	256.25
286.751	253.25
286.982	244.25
287.213	259.25
287.444	252.25
287.675	237.25
287.906	231.25
288.138	252.25
288.369	263.25
288.6	261.25
288.831	242.25
289.062	267.25
289.293	263.25
289.524	239.25
289.755	261.25
289.986	239.25
290.217	254.25
290.448	240.25
290.679	253.25
290.91	243.25
291.141	248.25
291.371	266.25
291.602	247.25
291.833	254.25
292.064	246.25
292.295	258.25
292.526	254.25
292.757	269.25
292.987	262.25
293.218	260.25
293.449	260.25
293.68	257.25
293.91	251.25
294.141	268.25
294.372	259.25
294.603	251.25
294.833	269.25
295.064	262.25
295.295	247.25
295.525	271.25
295.756	262.25
295.987	268.25
296.217	269.25
296.448	270.25
296.679	268.25
296.909	262.25
297.14	266.25
297.37	289.25
297.601	267.25
297.831	259.25
298.062	246.25
298.292	272.25
298.523	267.25
298.753	275.25
298.984	273.25
299.214	275.25
299.445	282.25
299.675	255.25
299.905	259.25
300.136	262.25
300.366	259.25
300.597	274.25
300.827	260.25
301.057	291.25
301.288	278.25
301.518	299.25
301.748	282.25
301.979	316.25
302.209	284.25
302.439	310.25
302.669	287.25
302.9	276.25
303.13	280.25
303.36	295.25
303.59	283.25
303.82	279.25
304.051	293.25
304.281	279.25
304.511	274.25
304.741	288.25
304.971	294.25
305.201	299.25
305.431	279.25
305.661	294.25
305.891	300.25
306.121	293.25
306.352	282.25
306.582	288.25
306.812	276.25
307.042	285.25
307.272	281.25
307.502	263.25
307.731	278.25
307.961	289.25
308.191	280.25
308.421	277.25
308.651	286.25
308.881	271.25
309.111	294.25
309.341	278.25
309.571	289.25
309.8	291.25
310.03	320.25
310.26	279.25
310.49	307.25
310.72	302.25
310.949	306.25
311.179	278.25
311.409	292.25
311.639	304.25
311.868	296.25
312.098	296.25
312.328	308.25
312.557	310.25
312.787	314.25
313.017	304.25
313.246	305.25
313.476	299.25
313.706	296.25
313.935	313.25
314.165	328.25
314.394	321.25
314.624	326.25
314.853	315.25
315.083	305.25
315.312	306.25
315.542	297.25
315.771	316.25
316.001	302.25
316.23	316.25
316.46	315.25
316.689	298.25
316.919	307.25
317.148	312.25
317.377	313.25
317.607	308.25
317.836	304.25
318.065	313.25
318.295	313.25
318.524	312.25
318.753	284.25
318.983	317.25
319.212	298.25
319.441	319.25
319.67	326.25
319.9	291.25
320.129	309.25
320.358	307.25
320.587	315.25
320.816	306.25
321.046	307.25
321.275	321.25
321.504	321.25
321.733	326.25
321.962	328.25
322.191	314.25
322.42	311.25
322.649	321.25
322.878	339.25
323.108	327.25
323.337	324.25
323.566	344.25
323.795	347.25
324.024	361.25
324.253	376.25
324.482	454.25
324.71	609.25
324.939	861.25
325.168	726.25
325.397	439.25
325.626	363.25
325.855	366.25
326.084	342.25
326.313	378.25
326.542	355.25
326.77	343.25
326.999	378.25
327.228	456.25
327.457	625.25
327.686	708.25
327.914	486.25
328.143	390.25
328.372	371.25
328.6	373.25
328.829	352.25
329.058	352.25
329.287	351.25
329.515	342.25
329.744	342.25
329.972	351.25
330.201	350.25
330.43	351.25
330.658	371.25
330.887	360.25
331.115	362.25
331.344	372.25
331.572	384.25
331.801	374.25
332.03	362.25
332.258	359.25
332.486	363.25
332.715	379.25
332.943	379.25
333.172	381.25
333.4	386.25
333.629	405.25
333.857	405.25
334.085	410.25
334.314	406.25
334.542	394.25
334.771	421.25
334.999	396.25
335.227	402.25
335.455	406.25
335.684	389.25
335.912	382.25
336.14	380.25
336.369	362.25
336.597	395.25
336.825	351.25
337.053	384.25
337.281	362.25
337.51	359.25
337.738	364.25
337.966	361.25
338.194	366.25
338.422	352.25
338.65	348.25
338.878	359.25
339.106	350.25
339.334	368.25
339.562	350.25
339.79	354.25
340.018	339.25
340.246	341.25
340.474	340.25
340.702	339.25
340.93	338.25
341.158	362.25
341.386	351.25
341.614	334.25
341.842	339.25
342.07	359.25
342.298	340.25
342.526	325.25
342.754	352.25
342.981	341.25
343.209	344.25
343.437	373.25
343.665	351.25
343.893	370.25
344.12	390.25
344.348	387.25
344.576	369.25
344.804	354.25
345.031	353.25
345.259	352.25
345.487	358.25
345.714	327.25
345.942	330.25
346.17	326.25
346.397	324.25
346.625	331.25
346.853	324.25
347.08	331.25
347.308	334.25
347.535	327.25
347.763	340.25
347.99	323.25
348.218	343.25
348.445	335.25
348.673	336.25
348.9	326.25
349.128	312.25
349.355	308.25
349.583	325.25
349.81	329.25
350.037	306.25
350.265	314.25
350.492	332.25
350.72	318.25
350.947	312.25
351.174	313.25
351.402	318.25
351.629	324.25
351.856	332.25
352.083	328.25
352.311	320.25
352.538	325.25
352.765	330.25
352.992	315.25
353.22	322.25
353.447	322.25
353.674	322.25
353.901	306.25
354.128	329.25
354.355	313.25
354.583	305.25
354.81	330.25
355.037	315.25
355.264	307.25
355.491	315.25
355.718	338.25
355.945	325.25
356.172	306.25
356.399	315.25
356.626	323.25
356.853	311.25
357.08	336.25
357.307	319.25
357.534	319.25
357.761	309.25
357.988	322.25
358.215	299.25
358.441	319.25
358.668	327.25
358.895	315.25
359.122	327.25
359.349	334.25
359.576	319.25
359.802	336.25
360.029	339.25
360.256	329.25
360.483	331.25
360.709	343.25
360.936	336.25
361.163	312.25
361.39	315.25
361.616	331.25
361.843	337.25
362.07	304.25
362.296	327.25
362.523	321.25
362.749	323.25
362.976	313.25
363.203	319.25
363.429	311.25
363.656	323.25
363.882	324.25
364.109	322.25
364.335	312.25
364.562	315.25
364.788	331.25
365.015	315.25
365.241	321.25
365.468	316.25
365.694	304.25
365.92	320.25
366.147	302.25
366.373	328.25
366.599	311.25
366.826	307.25
367.052	305.25
367.278	318.25
367.505	309.25
367.731	318.25
367.957	306.25
368.184	310.25
368.41	315.25
368.636	310.25
368.862	306.25
369.089	312.25
369.315	327.25
369.541	321.25
369.767	319.25
369.993	315.25
370.219	327.25
370.445	334.25
370.672	328.25
370.898	312.25
371.124	327.25
371.35	336.25
371.576	352.25
371.802	330.25
372.028	329.25
372.254	328.25
372.48	339.25
372.706	348.25
372.932	346.25
373.158	355.25
373.384	338.25
373.61	354.25
373.835	330.25
374.061	323.25
374.287	326.25
374.513	334.25
374.739	342.25
374.965	347.25
375.191	376.25
375.416	346.25
375.642	338.25
375.868	345.25
376.094	324.25
376.319	338.25
376.545	334.25
376.771	334.25
376.997	335.25
377.222	331.25
377.448	328.25
377.674	324.25
377.899	340.25
378.125	320.25
378.35	313.25
378.576	329.25
378.802	321.25
379.027	332.25
379.253	335.25
379.478	332.25
379.704	346.25
379.929	332.25
380.155	310.25
380.38	310.25
380.606	327.25
380.831	352.25
381.057	338.25
381.282	344.25
381.507	329.25
381.733	339.25
381.958	330.25
382.184	366.25
382.409	344.25
382.634	358.25
382.86	326.25
383.085	342.25
383.31	351.25
383.535	346.25
383.761	357.25
383.986	357.25
384.211	355.25
384.436	367.25
384.662	366.25
384.887	392.25
385.112	385.25
385.337	402.25
385.562	400.25
385.787	395.25
386.013	392.25
386.238	374.25
386.463	385.25
386.688	395.25
386.913	383.25
387.138	400.25
387.363	386.25
387.588	388.25
387.813	397.25
388.038	380.25
388.263	384.25
388.488	397.25
388.713	386.25
388.938	376.25
389.163	373.25
389.387	371.25
389.612	359.25
389.837	361.25
390.062	385.25
390.287	382.25
390.512	364.25
390.736	372.25
390.961	378.25
391.186	382.25
391.411	416.25
391.636	400.25
391.86	409.25
392.085	406.25
392.31	392.25
392.534	394.25
392.759	400.25
392.984	381.25
393.208	399.25
393.433	425.25
393.658	427.25
393.882	394.25
394.107	399.25
394.331	384.25
394.556	369.25
394.78	386.25
395.005	399.25
395.229	388.25
395.454	398.25
395.678	386.25
395.903	403.25
396.127	414.25
396.352	403.25
396.576	410.25
396.801	418.25
397.025	396.25
397.249	427.25
397.474	413.25
397.698	404.25
397.922	401.25
398.147	408.25
398.371	409.25
398.595	406.25
398.82	439.25
399.044	469.25
399.268	484.25
399.492	502.25
399.717	592.25
399.941	576.25
400.165	594.25
400.389	531.25
400.613	500.25
400.837	470.25
401.062	459.25
401.286	436.25
401.51	447.25
401.734	456.25
401.958	444.25
402.182	430.25
402.406	449.25
402.63	452.25
402.854	462.25
403.078	465.25
403.302	453.25
403.526	477.25
403.75	446.25
403.974	481.25
404.198	485.25
404.422	473.25
404.645	480.25
404.869	501.25
405.093	484.25
405.317	483.25
405.541	494.25
405.765	446.25
405.988	476.25
406.212	458.25
406.436	479.25
406.66	475.25
406.883	472.25
407.107	494.25
407.331	528.25
407.555	567.25
407.778	569.25
408.002	550.25
408.226	516.25
408.449	501.25
408.673	461.25
408.896	500.25
409.12	496.25
409.344	500.25
409.567	476.25
409.791	495.25
410.014	459.25
410.238	455.25
410.461	479.25
410.685	459.25
410.908	462.25
411.132	454.25
411.355	500.25
411.578	458.25
411.802	458.25
412.025	437.25
412.249	434.25
412.472	443.25
412.695	458.25
412.919	444.25
413.142	433.25
413.365	444.25
413.589	426.25
413.812	434.25
414.035	433.25
414.258	427.25
414.482	435.25
414.705	435.25
414.928	446.25
415.151	417.25
415.374	449.25
415.597	434.25
415.821	442.25
416.044	418.25
416.267	410.25
416.49	443.25
416.713	428.25
416.936	413.25
417.159	422.25
417.382	427.25
417.605	412.25
417.828	440.25
418.051	436.25
418.274	431.25
418.497	415.25
418.72	419.25
418.943	423.25
419.166	452.25
419.389	475.25
419.611	468.25
419.834	469.25
420.057	446.25
420.28	441.25
420.503	402.25
420.726	432.25
420.948	430.25
421.171	440.25
421.394	462.25
421.617	447.25
421.839	440.25
422.062	439.25
422.285	410.25
422.507	469.25
422.73	496.25
422.953	489.25
423.175	428.25
423.398	446.25
423.621	434.25
423.843	450.25
424.066	471.25
424.288	442.25
424.511	453.25
424.733	475.25
424.956	494.25
425.178	478.25
425.401	486.25
425.623	495.25
425.846	463.25
426.068	437.25
426.291	433.25
426.513	416.25
426.735	437.25
426.958	460.25
427.18	459.25
427.402	505.25
427.625	529.25
427.847	456.25
428.069	424.25
428.292	422.25
428.514	407.25
428.736	407.25
428.958	403.25
429.181	413.25
429.403	387.25
429.625	392.25
429.847	391.25
430.069	426.25
430.292	420.25
430.514	404.25
430.736	400.25
430.958	392.25
431.18	399.25
431.402	396.25
431.624	394.25
431.846	407.25
432.068	386.25
432.29	393.25
432.512	402.25
432.734	394.25
432.956	385.25
433.178	408.25
433.4	394.25
433.622	376.25
433.844	402.25
434.066	396.25
434.287	395.25
434.509	393.25
434.731	412.25
434.953	439.25
435.175	420.25
435.397	436.25
435.618	440.25
435.84	457.25
436.062	469.25
436.284	509.25
436.505	442.25
436.727	401.25
436.949	402.25
437.17	412.25
437.392	396.25
437.614	401.25
437.835	374.25
438.057	414.25
438.278	457.25
438.5	480.25
438.721	480.25
438.943	480.25
439.165	408.25
439.386	404.25
439.608	392.25
439.829	403.25
440.05	404.25
440.272	424.25
440.493	420.25
440.715	410.25
440.936	409.25
441.158	395.25
441.379	423.25
441.6	423.25
441.822	438.25
442.043	446.25
442.264	453.25
442.486	468.25
442.707	450.25
442.928	447.25
443.149	436.25
443.371	452.25
443.592	459.25
443.813	496.25
444.034	518.25
444.255	488.25
444.476	464.25
444.698	479.25
444.919	477.25
445.14	578.25
445.361	515.25
445.582	461.25
445.803	467.25
446.024	468.25
446.245	502.25
446.466	442.25
446.687	412.25
446.908	414.25
447.129	394.25
447.35	394.25
447.571	387.25
447.792	384.25
448.013	369.25
448.234	386.25
448.455	409.25
448.675	450.25
448.896	453.25
449.117	407.25
449.338	418.25
449.559	451.25
449.779	500.25
450	412.25
450.221	389.25
450.442	374.25
450.662	384.25
450.883	382.25
451.104	380.25
451.324	377.25
451.545	337.25
451.766	369.25
451.986	348.25
452.207	364.25
452.428	350.25
452.648	368.25
452.869	353.25
453.089	364.25
453.31	361.25
453.53	359.25
453.751	350.25
453.971	350.25
454.192	346.25
454.412	331.25
454.633	365.25
454.853	350.25
455.073	334.25
455.294	362.25
455.514	369.25
455.734	372.25
455.955	354.25
456.175	340.25
456.395	327.25
456.616	333.25
456.836	336.25
457.056	325.25
457.276	342.25
457.497	353.25
457.717	346.25
457.937	342.25
458.157	343.25
458.377	363.25
458.598	357.25
458.818	361.25
459.038	405.25
459.258	426.25
459.478	396.25
459.698	397.25
459.918	400.25
460.138	422.25
460.358	407.25
460.578	437.25
460.798	427.25
461.018	447.25
461.238	440.25
461.458	428.25
461.678	422.25
461.898	443.25
462.118	441.25
462.338	457.25
462.558	460.25
462.777	469.25
462.997	492.25
463.217	522.25
463.437	517.25
463.657	499.25
463.876	480.25
464.096	482.25
464.316	478.25
464.536	484.25
464.755	460.25
464.975	453.25
465.195	473.25
465.414	469.25
465.634	424.25
465.854	434.25
466.073	392.25
466.293	390.25
466.512	380.25
466.732	376.25
466.951	370.25
467.171	380.25
467.391	382.25
467.61	388.25
467.829	390.25
468.049	375.25
468.268	382.25
468.488	361.25
468.707	346.25
468.927	354.25
469.146	354.25
469.365	363.25
469.585	355.25
469.804	395.25
470.023	376.25
470.243	382.25
470.462	361.25
470.681	388.25
470.901	394.25
471.12	383.25
471.339	388.25
471.558	384.25
471.777	390.25
471.997	380.25
472.216	380.25
472.435	376.25
472.654	377.25
472.873	368.25
473.092	347.25
473.311	359.25
473.53	361.25
473.749	374.25
473.968	384.25
474.187	404.25
474.406	399.25
474.625	386.25
474.844	377.25
475.063	370.25
475.282	355.25
475.501	390.25
475.72	380.25
475.939	377.25
476.158	381.25
476.377	387.25
476.596	363.25
476.814	367.25
477.033	386.25
477.252	408.25
477.471	404.25
477.69	413.25
477.908	426.25
478.127	419.25
478.346	430.25
478.564	436.25
478.783	424.25
479.002	430.25
479.22	430.25
479.439	443.25
479.658	446.25
479.876	449.25
480.095	443.25
480.313	464.25
480.532	488.25
480.751	468.25
480.969	454.25
481.188	448.25
481.406	438.25
481.624	418.25
481.843	445.25
482.061	421.25
482.28	434.25
482.498	424.25
482.717	434.25
482.935	420.25
483.153	419.25
483.372	421.25
483.59	420.25
483.808	424.25
484.027	404.25
484.245	449.25
484.463	424.25
484.681	440.25
484.9	442.25
485.118	436.25
485.336	449.25
485.554	429.25
485.772	455.25
485.99	453.25
486.209	431.25
486.427	460.25
486.645	445.25
486.863	466.25
487.081	446.25
487.299	436.25
487.517	466.25
487.735	449.25
487.953	468.25
488.171	456.25
488.389	438.25
488.607	443.25
488.825	428.25
489.043	459.25
489.261	434.25
489.479	430.25
489.696	460.25
489.914	443.25
490.132	445.25
490.35	443.25
490.568	467.25
490.786	439.25
491.003	471.25
491.221	457.25
491.439	476.25
491.657	452.25
491.874	467.25
492.092	467.25
492.31	447.25
492.527	466.25
492.745	452.25
492.963	473.25
493.18	478.25
493.398	475.25
493.615	510.25
493.833	494.25
494.05	489.25
494.268	473.25
494.485	488.25
494.703	465.25
494.92	491.25
495.138	463.25
495.355	488.25
495.573	492.25
495.79	500.25
496.008	488.25
496.225	516.25
496.442	500.25
496.66	510.25
496.877	516.25
497.094	528.25
497.312	498.25
497.529	539.25
497.746	521.25
497.963	530.25
498.181	558.25
498.398	574.25
498.615	633.25
498.832	644.25
499.049	645.25
499.267	683.25
499.484	764.25
499.701	816.25
499.918	878.25
500.135	911.25
500.352	995.25
500.569	1012.25
500.786	1035.25
501.003	985.25
501.22	924.25
501.437	839.25
501.654	762.25
501.871	742.25
502.088	699.25
502.305	675.25
