Data from 1984.PennyLincolnUp.Lamp.En5.5.200Scan.071819.P1_HRD10591_16-57-58-968.txt Node
Date: Thu Jul 18 16:57:58 EDT 2019
User: cochatt
Spectrometer: HR+D1059
Trigger mode: 1
Integration Time (sec): 1.000000E-1
Scans to average: 1
Electric dark correction enabled: true
Nonlinearity correction enabled: false
Boxcar width: 0
XAxis mode: Wavelengths
Number of Pixels in Spectrum: 2048
>>>>>Begin Spectral Data<<<<<
223.165	-9.19
223.4	-9.19
223.635	-9.19
223.869	-28.19
224.104	-29.19
224.338	-13.19
224.573	-20.19
224.808	-4.19
225.042	3.81
225.277	-12.19
225.511	-8.19
225.746	2.81
225.98	4.81
226.215	10.81
226.449	16.81
226.683	23.81
226.918	27.81
227.152	33.81
227.387	22.81
227.621	41.81
227.856	44.81
228.09	40.81
228.324	49.81
228.559	63.81
228.793	63.81
229.027	85.81
229.262	100.81
229.496	100.81
229.73	114.81
229.964	120.81
230.199	127.81
230.433	93.81
230.667	107.81
230.901	104.81
231.136	109.81
231.37	107.81
231.604	102.81
231.838	103.81
232.072	111.81
232.306	106.81
232.541	109.81
232.775	102.81
233.009	114.81
233.243	115.81
233.477	101.81
233.711	116.81
233.945	125.81
234.179	128.81
234.413	103.81
234.647	114.81
234.881	125.81
235.115	111.81
235.349	123.81
235.583	109.81
235.817	102.81
236.051	116.81
236.285	123.81
236.519	116.81
236.753	116.81
236.987	120.81
237.221	150.81
237.455	163.81
237.689	139.81
237.922	115.81
238.156	112.81
238.39	125.81
238.624	127.81
238.858	118.81
239.091	125.81
239.325	115.81
239.559	129.81
239.793	128.81
240.027	128.81
240.26	117.81
240.494	128.81
240.728	137.81
240.961	124.81
241.195	117.81
241.429	128.81
241.662	139.81
241.896	115.81
242.13	113.81
242.363	120.81
242.597	132.81
242.83	120.81
243.064	135.81
243.298	132.81
243.531	134.81
243.765	120.81
243.998	127.81
244.232	121.81
244.465	136.81
244.699	128.81
244.932	149.81
245.166	148.81
245.399	145.81
245.633	151.81
245.866	150.81
246.099	140.81
246.333	141.81
246.566	131.81
246.8	144.81
247.033	137.81
247.266	134.81
247.5	154.81
247.733	156.81
247.966	156.81
248.2	158.81
248.433	156.81
248.666	166.81
248.899	143.81
249.133	169.81
249.366	183.81
249.599	173.81
249.832	158.81
250.066	148.81
250.299	147.81
250.532	181.81
250.765	186.81
250.998	175.81
251.231	188.81
251.465	189.81
251.698	190.81
251.931	156.81
252.164	158.81
252.397	168.81
252.63	176.81
252.863	173.81
253.096	182.81
253.329	187.81
253.562	184.81
253.795	190.81
254.028	180.81
254.261	195.81
254.494	181.81
254.727	207.81
254.96	212.81
255.193	222.81
255.426	214.81
255.659	187.81
255.892	191.81
256.124	205.81
256.357	210.81
256.59	196.81
256.823	194.81
257.056	175.81
257.289	181.81
257.521	187.81
257.754	190.81
257.987	173.81
258.22	190.81
258.452	188.81
258.685	189.81
258.918	195.81
259.151	187.81
259.383	186.81
259.616	184.81
259.849	187.81
260.081	199.81
260.314	206.81
260.547	208.81
260.779	183.81
261.012	195.81
261.244	195.81
261.477	198.81
261.71	171.81
261.942	186.81
262.175	208.81
262.407	219.81
262.64	194.81
262.872	194.81
263.105	192.81
263.337	204.81
263.57	199.81
263.802	188.81
264.035	181.81
264.267	200.81
264.499	184.81
264.732	194.81
264.964	195.81
265.197	198.81
265.429	198.81
265.661	217.81
265.894	200.81
266.126	205.81
266.358	200.81
266.591	216.81
266.823	199.81
267.055	190.81
267.287	210.81
267.52	190.81
267.752	217.81
267.984	210.81
268.216	200.81
268.448	194.81
268.681	207.81
268.913	215.81
269.145	238.81
269.377	215.81
269.609	230.81
269.841	216.81
270.073	243.81
270.306	249.81
270.538	252.81
270.77	244.81
271.002	271.81
271.234	226.81
271.466	256.81
271.698	250.81
271.93	266.81
272.162	264.81
272.394	235.81
272.626	261.81
272.858	240.81
273.09	246.81
273.322	264.81
273.553	236.81
273.785	226.81
274.017	231.81
274.249	241.81
274.481	222.81
274.713	238.81
274.945	230.81
275.176	226.81
275.408	236.81
275.64	234.81
275.872	238.81
276.104	238.81
276.335	225.81
276.567	268.81
276.799	247.81
277.031	255.81
277.262	263.81
277.494	278.81
277.726	251.81
277.957	266.81
278.189	253.81
278.421	261.81
278.652	257.81
278.884	244.81
279.115	236.81
279.347	239.81
279.579	259.81
279.81	244.81
280.042	240.81
280.273	260.81
280.505	251.81
280.736	233.81
280.968	229.81
281.199	263.81
281.431	248.81
281.662	256.81
281.894	267.81
282.125	264.81
282.356	280.81
282.588	265.81
282.819	262.81
283.051	262.81
283.282	266.81
283.513	264.81
283.745	279.81
283.976	266.81
284.207	266.81
284.439	260.81
284.67	262.81
284.901	262.81
285.132	259.81
285.364	265.81
285.595	256.81
285.826	254.81
286.057	268.81
286.288	283.81
286.52	278.81
286.751	240.81
286.982	270.81
287.213	269.81
287.444	286.81
287.675	288.81
287.906	288.81
288.138	273.81
288.369	266.81
288.6	293.81
288.831	276.81
289.062	267.81
289.293	273.81
289.524	270.81
289.755	260.81
289.986	264.81
290.217	277.81
290.448	276.81
290.679	280.81
290.91	280.81
291.141	266.81
291.371	283.81
291.602	271.81
291.833	273.81
292.064	262.81
292.295	281.81
292.526	262.81
292.757	292.81
292.987	279.81
293.218	284.81
293.449	285.81
293.68	282.81
293.91	282.81
294.141	260.81
294.372	268.81
294.603	279.81
294.833	299.81
295.064	274.81
295.295	282.81
295.525	287.81
295.756	278.81
295.987	291.81
296.217	288.81
296.448	296.81
296.679	318.81
296.909	292.81
297.14	291.81
297.37	291.81
297.601	297.81
297.831	301.81
298.062	311.81
298.292	291.81
298.523	284.81
298.753	287.81
298.984	298.81
299.214	314.81
299.445	287.81
299.675	283.81
299.905	308.81
300.136	306.81
300.366	273.81
300.597	322.81
300.827	310.81
301.057	310.81
301.288	312.81
301.518	314.81
301.748	321.81
301.979	323.81
302.209	293.81
302.439	321.81
302.669	312.81
302.9	298.81
303.13	323.81
303.36	308.81
303.59	320.81
303.82	315.81
304.051	319.81
304.281	310.81
304.511	285.81
304.741	312.81
304.971	312.81
305.201	317.81
305.431	301.81
305.661	313.81
305.891	315.81
306.121	298.81
306.352	319.81
306.582	303.81
306.812	301.81
307.042	308.81
307.272	308.81
307.502	308.81
307.731	303.81
307.961	298.81
308.191	316.81
308.421	328.81
308.651	311.81
308.881	314.81
309.111	336.81
309.341	312.81
309.571	322.81
309.8	324.81
310.03	317.81
310.26	342.81
310.49	308.81
310.72	359.81
310.949	329.81
311.179	338.81
311.409	326.81
311.639	328.81
311.868	336.81
312.098	347.81
312.328	323.81
312.557	359.81
312.787	320.81
313.017	356.81
313.246	350.81
313.476	335.81
313.706	341.81
313.935	339.81
314.165	346.81
314.394	357.81
314.624	351.81
314.853	351.81
315.083	355.81
315.312	367.81
315.542	332.81
315.771	337.81
316.001	342.81
316.23	323.81
316.46	328.81
316.689	336.81
316.919	347.81
317.148	341.81
317.377	331.81
317.607	339.81
317.836	330.81
318.065	342.81
318.295	332.81
318.524	348.81
318.753	339.81
318.983	348.81
319.212	326.81
319.441	324.81
319.67	348.81
319.9	345.81
320.129	356.81
320.358	341.81
320.587	350.81
320.816	339.81
321.046	357.81
321.275	336.81
321.504	350.81
321.733	355.81
321.962	366.81
322.191	359.81
322.42	366.81
322.649	375.81
322.878	384.81
323.108	365.81
323.337	380.81
323.566	380.81
323.795	415.81
324.024	432.81
324.253	484.81
324.482	638.81
324.71	911.81
324.939	1220.81
325.168	1098.81
325.397	622.81
325.626	494.81
325.855	440.81
326.084	404.81
326.313	406.81
326.542	407.81
326.77	446.81
326.999	501.81
327.228	604.81
327.457	844.81
327.686	975.81
327.914	683.81
328.143	519.81
328.372	462.81
328.6	469.81
328.829	455.81
329.058	416.81
329.287	431.81
329.515	425.81
329.744	430.81
329.972	415.81
330.201	423.81
330.43	429.81
330.658	444.81
330.887	465.81
331.115	446.81
331.344	413.81
331.572	434.81
331.801	418.81
332.03	413.81
332.258	401.81
332.486	421.81
332.715	418.81
332.943	427.81
333.172	411.81
333.4	441.81
333.629	453.81
333.857	445.81
334.085	447.81
334.314	472.81
334.542	472.81
334.771	468.81
334.999	432.81
335.227	441.81
335.455	450.81
335.684	433.81
335.912	412.81
336.14	422.81
336.369	422.81
336.597	404.81
336.825	404.81
337.053	394.81
337.281	419.81
337.51	398.81
337.738	397.81
337.966	389.81
338.194	379.81
338.422	382.81
338.65	383.81
338.878	375.81
339.106	384.81
339.334	392.81
339.562	377.81
339.79	377.81
340.018	385.81
340.246	378.81
340.474	396.81
340.702	361.81
340.93	382.81
341.158	381.81
341.386	387.81
341.614	405.81
341.842	382.81
342.07	377.81
342.298	358.81
342.526	378.81
342.754	363.81
342.981	350.81
343.209	383.81
343.437	374.81
343.665	401.81
343.893	417.81
344.12	407.81
344.348	416.81
344.576	413.81
344.804	396.81
345.031	390.81
345.259	394.81
345.487	391.81
345.714	363.81
345.942	381.81
346.17	376.81
346.397	380.81
346.625	361.81
346.853	348.81
347.08	353.81
347.308	352.81
347.535	359.81
347.763	365.81
347.99	370.81
348.218	372.81
348.445	357.81
348.673	372.81
348.9	354.81
349.128	356.81
349.355	348.81
349.583	359.81
349.81	356.81
350.037	349.81
350.265	360.81
350.492	351.81
350.72	355.81
350.947	357.81
351.174	366.81
351.402	346.81
351.629	348.81
351.856	373.81
352.083	373.81
352.311	359.81
352.538	371.81
352.765	359.81
352.992	361.81
353.22	357.81
353.447	350.81
353.674	335.81
353.901	349.81
354.128	351.81
354.355	345.81
354.583	343.81
354.81	333.81
355.037	347.81
355.264	351.81
355.491	331.81
355.718	326.81
355.945	354.81
356.172	354.81
356.399	355.81
356.626	355.81
356.853	333.81
357.08	347.81
357.307	342.81
357.534	340.81
357.761	340.81
357.988	363.81
358.215	340.81
358.441	341.81
358.668	343.81
358.895	335.81
359.122	346.81
359.349	342.81
359.576	347.81
359.802	365.81
360.029	372.81
360.256	378.81
360.483	357.81
360.709	359.81
360.936	336.81
361.163	365.81
361.39	348.81
361.616	367.81
361.843	352.81
362.07	338.81
362.296	355.81
362.523	325.81
362.749	340.81
362.976	356.81
363.203	354.81
363.429	344.81
363.656	367.81
363.882	341.81
364.109	340.81
364.335	326.81
364.562	328.81
364.788	327.81
365.015	340.81
365.241	364.81
365.468	368.81
365.694	340.81
365.92	350.81
366.147	340.81
366.373	347.81
366.599	331.81
366.826	349.81
367.052	339.81
367.278	338.81
367.505	344.81
367.731	367.81
367.957	335.81
368.184	346.81
368.41	325.81
368.636	343.81
368.862	366.81
369.089	349.81
369.315	347.81
369.541	335.81
369.767	351.81
369.993	349.81
370.219	343.81
370.445	344.81
370.672	341.81
370.898	344.81
371.124	334.81
371.35	354.81
371.576	360.81
371.802	362.81
372.028	337.81
372.254	340.81
372.48	351.81
372.706	353.81
372.932	365.81
373.158	359.81
373.384	371.81
373.61	351.81
373.835	361.81
374.061	356.81
374.287	360.81
374.513	374.81
374.739	382.81
374.965	362.81
375.191	373.81
375.416	377.81
375.642	362.81
375.868	366.81
376.094	357.81
376.319	367.81
376.545	343.81
376.771	361.81
376.997	359.81
377.222	353.81
377.448	359.81
377.674	353.81
377.899	354.81
378.125	343.81
378.35	344.81
378.576	346.81
378.802	350.81
379.027	350.81
379.253	353.81
379.478	351.81
379.704	358.81
379.929	354.81
380.155	371.81
380.38	337.81
380.606	348.81
380.831	346.81
381.057	356.81
381.282	347.81
381.507	352.81
381.733	350.81
381.958	343.81
382.184	341.81
382.409	381.81
382.634	363.81
382.86	348.81
383.085	361.81
383.31	366.81
383.535	376.81
383.761	375.81
383.986	359.81
384.211	386.81
384.436	375.81
384.662	372.81
384.887	390.81
385.112	382.81
385.337	400.81
385.562	379.81
385.787	390.81
386.013	410.81
386.238	417.81
386.463	407.81
386.688	389.81
386.913	388.81
387.138	389.81
387.363	419.81
387.588	395.81
387.813	389.81
388.038	380.81
388.263	381.81
388.488	401.81
388.713	410.81
388.938	398.81
389.163	383.81
389.387	390.81
389.612	392.81
389.837	382.81
390.062	389.81
390.287	404.81
390.512	394.81
390.736	399.81
390.961	384.81
391.186	415.81
391.411	416.81
391.636	439.81
391.86	410.81
392.085	432.81
392.31	432.81
392.534	405.81
392.759	393.81
392.984	400.81
393.208	415.81
393.433	414.81
393.658	410.81
393.882	406.81
394.107	395.81
394.331	390.81
394.556	403.81
394.78	411.81
395.005	404.81
395.229	416.81
395.454	419.81
395.678	428.81
395.903	445.81
396.127	448.81
396.352	408.81
396.576	421.81
396.801	418.81
397.025	429.81
397.249	410.81
397.474	426.81
397.698	415.81
397.922	428.81
398.147	432.81
398.371	459.81
398.595	458.81
398.82	452.81
399.044	473.81
399.268	513.81
399.492	554.81
399.717	604.81
399.941	623.81
400.165	600.81
400.389	571.81
400.613	542.81
400.837	510.81
401.062	492.81
401.286	461.81
401.51	448.81
401.734	476.81
401.958	467.81
402.182	477.81
402.406	492.81
402.63	486.81
402.854	480.81
403.078	501.81
403.302	487.81
403.526	501.81
403.75	480.81
403.974	501.81
404.198	510.81
404.422	521.81
404.645	502.81
404.869	483.81
405.093	510.81
405.317	548.81
405.541	548.81
405.765	519.81
405.988	493.81
406.212	502.81
406.436	510.81
406.66	536.81
406.883	519.81
407.107	551.81
407.331	567.81
407.555	617.81
407.778	622.81
408.002	569.81
408.226	538.81
408.449	526.81
408.673	508.81
408.896	535.81
409.12	551.81
409.344	542.81
409.567	492.81
409.791	500.81
410.014	493.81
410.238	491.81
410.461	514.81
410.685	480.81
410.908	511.81
411.132	473.81
411.355	508.81
411.578	517.81
411.802	499.81
412.025	503.81
412.249	502.81
412.472	483.81
412.695	490.81
412.919	531.81
413.142	482.81
413.365	466.81
413.589	460.81
413.812	440.81
414.035	451.81
414.258	454.81
414.482	457.81
414.705	458.81
414.928	459.81
415.151	465.81
415.374	470.81
415.597	463.81
415.821	443.81
416.044	440.81
416.267	452.81
416.49	460.81
416.713	443.81
416.936	461.81
417.159	452.81
417.382	447.81
417.605	456.81
417.828	439.81
418.051	471.81
418.274	470.81
418.497	453.81
418.72	468.81
418.943	474.81
419.166	489.81
419.389	494.81
419.611	502.81
419.834	500.81
420.057	470.81
420.28	493.81
420.503	462.81
420.726	480.81
420.948	481.81
421.171	508.81
421.394	510.81
421.617	473.81
421.839	466.81
422.062	455.81
422.285	482.81
422.507	522.81
422.73	543.81
422.953	538.81
423.175	507.81
423.398	475.81
423.621	484.81
423.843	490.81
424.066	506.81
424.288	491.81
424.511	498.81
424.733	526.81
424.956	566.81
425.178	549.81
425.401	539.81
425.623	573.81
425.846	503.81
426.068	468.81
426.291	484.81
426.513	480.81
426.735	455.81
426.958	474.81
427.18	534.81
427.402	613.81
427.625	620.81
427.847	570.81
428.069	498.81
428.292	482.81
428.514	458.81
428.736	444.81
428.958	428.81
429.181	420.81
429.403	428.81
429.625	426.81
429.847	443.81
430.069	484.81
430.292	472.81
430.514	450.81
430.736	440.81
430.958	429.81
431.18	434.81
431.402	420.81
431.624	420.81
431.846	436.81
432.068	417.81
432.29	435.81
432.512	420.81
432.734	424.81
432.956	416.81
433.178	426.81
433.4	414.81
433.622	427.81
433.844	410.81
434.066	428.81
434.287	420.81
434.509	424.81
434.731	445.81
434.953	442.81
435.175	471.81
435.397	456.81
435.618	469.81
435.84	492.81
436.062	541.81
436.284	575.81
436.505	467.81
436.727	461.81
436.949	442.81
437.17	439.81
437.392	446.81
437.614	452.81
437.835	443.81
438.057	483.81
438.278	531.81
438.5	544.81
438.721	609.81
438.943	571.81
439.165	480.81
439.386	459.81
439.608	444.81
439.829	461.81
440.05	457.81
440.272	482.81
440.493	484.81
440.715	469.81
440.936	423.81
441.158	431.81
441.379	458.81
441.6	436.81
441.822	474.81
442.043	496.81
442.264	523.81
442.486	572.81
442.707	505.81
442.928	483.81
443.149	493.81
443.371	475.81
443.592	527.81
443.813	572.81
444.034	600.81
444.255	531.81
444.476	535.81
444.698	515.81
444.919	499.81
445.14	632.81
445.361	556.81
445.582	480.81
445.803	531.81
446.024	532.81
446.245	548.81
446.466	518.81
446.687	468.81
446.908	455.81
447.129	440.81
447.35	424.81
447.571	428.81
447.792	407.81
448.013	408.81
448.234	421.81
448.455	446.81
448.675	514.81
448.896	542.81
449.117	499.81
449.338	468.81
449.559	546.81
449.779	587.81
450	504.81
450.221	421.81
450.442	426.81
450.662	419.81
450.883	421.81
451.104	397.81
451.324	394.81
451.545	400.81
451.766	399.81
451.986	379.81
452.207	393.81
452.428	378.81
452.648	393.81
452.869	395.81
453.089	396.81
453.31	421.81
453.53	370.81
453.751	365.81
453.971	364.81
454.192	381.81
454.412	380.81
454.633	367.81
454.853	386.81
455.073	371.81
455.294	385.81
455.514	425.81
455.734	413.81
455.955	379.81
456.175	375.81
456.395	360.81
456.616	339.81
456.836	352.81
457.056	365.81
457.276	364.81
457.497	375.81
457.717	358.81
457.937	378.81
458.157	376.81
458.377	376.81
458.598	383.81
458.818	424.81
459.038	478.81
459.258	457.81
459.478	436.81
459.698	417.81
459.918	404.81
460.138	455.81
460.358	430.81
460.578	439.81
460.798	437.81
461.018	461.81
461.238	451.81
461.458	446.81
461.678	455.81
461.898	457.81
462.118	474.81
462.338	503.81
462.558	490.81
462.777	500.81
462.997	518.81
463.217	558.81
463.437	549.81
463.657	517.81
463.876	496.81
464.096	502.81
464.316	494.81
464.536	516.81
464.755	490.81
464.975	497.81
465.195	479.81
465.414	506.81
465.634	445.81
465.854	460.81
466.073	421.81
466.293	404.81
466.512	413.81
466.732	404.81
466.951	397.81
467.171	404.81
467.391	406.81
467.61	382.81
467.829	388.81
468.049	408.81
468.268	391.81
468.488	387.81
468.707	390.81
468.927	392.81
469.146	387.81
469.365	386.81
469.585	387.81
469.804	407.81
470.023	374.81
470.243	424.81
470.462	425.81
470.681	408.81
470.901	407.81
471.12	406.81
471.339	387.81
471.558	393.81
471.777	394.81
471.997	388.81
472.216	386.81
472.435	407.81
472.654	406.81
472.873	401.81
473.092	387.81
473.311	378.81
473.53	386.81
473.749	400.81
473.968	412.81
474.187	463.81
474.406	473.81
474.625	426.81
474.844	390.81
475.063	378.81
475.282	374.81
475.501	387.81
475.72	394.81
475.939	404.81
476.158	414.81
476.377	394.81
476.596	391.81
476.814	417.81
477.033	422.81
477.252	419.81
477.471	421.81
477.69	438.81
477.908	412.81
478.127	452.81
478.346	440.81
478.564	453.81
478.783	452.81
479.002	456.81
479.22	458.81
479.439	454.81
479.658	478.81
479.876	477.81
480.095	485.81
480.313	526.81
480.532	491.81
480.751	495.81
480.969	504.81
481.188	519.81
481.406	512.81
481.624	473.81
481.843	464.81
482.061	435.81
482.28	448.81
482.498	445.81
482.717	438.81
482.935	447.81
483.153	450.81
483.372	441.81
483.59	451.81
483.808	452.81
484.027	458.81
484.245	461.81
484.463	458.81
484.681	444.81
484.9	437.81
485.118	440.81
485.336	459.81
485.554	463.81
485.772	485.81
485.99	468.81
486.209	474.81
486.427	458.81
486.645	464.81
486.863	493.81
487.081	472.81
487.299	491.81
487.517	457.81
487.735	479.81
487.953	486.81
488.171	478.81
488.389	463.81
488.607	474.81
488.825	466.81
489.043	490.81
489.261	470.81
489.479	481.81
489.696	484.81
489.914	487.81
490.132	499.81
490.35	491.81
490.568	495.81
490.786	516.81
491.003	495.81
491.221	492.81
491.439	489.81
491.657	500.81
491.874	503.81
492.092	554.81
492.31	520.81
492.527	541.81
492.745	521.81
492.963	536.81
493.18	533.81
493.398	532.81
493.615	540.81
493.833	532.81
494.05	528.81
494.268	533.81
494.485	534.81
494.703	530.81
494.92	535.81
495.138	527.81
495.355	533.81
495.573	538.81
495.79	508.81
496.008	531.81
496.225	526.81
496.442	543.81
496.66	546.81
496.877	554.81
497.094	569.81
497.312	587.81
497.529	577.81
497.746	584.81
497.963	612.81
498.181	600.81
498.398	611.81
498.615	644.81
498.832	674.81
499.049	698.81
499.267	737.81
499.484	780.81
499.701	834.81
499.918	865.81
500.135	947.81
500.352	1022.81
500.569	1073.81
500.786	1061.81
501.003	1036.81
501.22	966.81
501.437	873.81
501.654	818.81
501.871	787.81
502.088	740.81
