Data from 1984.PennyLincolnUp.Lamp.En5.5.200Scan.071819.P1_HRD10591_16-58-25-989.txt Node
Date: Thu Jul 18 16:58:25 EDT 2019
User: cochatt
Spectrometer: HR+D1059
Trigger mode: 1
Integration Time (sec): 1.000000E-1
Scans to average: 1
Electric dark correction enabled: true
Nonlinearity correction enabled: false
Boxcar width: 0
XAxis mode: Wavelengths
Number of Pixels in Spectrum: 2048
>>>>>Begin Spectral Data<<<<<
223.165	-17.81
223.4	-17.81
223.635	-17.81
223.869	-16.81
224.104	-4.81
224.338	-17.81
224.573	-9.81
224.808	-2.81
225.042	-17.81
225.277	-5.81
225.511	4.19
225.746	3.19
225.98	1.19
226.215	5.19
226.449	11.19
226.683	12.19
226.918	29.19
227.152	27.19
227.387	46.19
227.621	39.19
227.856	48.19
228.09	45.19
228.324	58.19
228.559	61.19
228.793	63.19
229.027	70.19
229.262	103.19
229.496	98.19
229.73	109.19
229.964	129.19
230.199	108.19
230.433	92.19
230.667	113.19
230.901	96.19
231.136	109.19
231.37	113.19
231.604	101.19
231.838	105.19
232.072	105.19
232.306	111.19
232.541	117.19
232.775	112.19
233.009	112.19
233.243	117.19
233.477	109.19
233.711	123.19
233.945	110.19
234.179	115.19
234.413	113.19
234.647	107.19
234.881	113.19
235.115	90.19
235.349	109.19
235.583	118.19
235.817	123.19
236.051	103.19
236.285	104.19
236.519	124.19
236.753	123.19
236.987	122.19
237.221	150.19
237.455	169.19
237.689	137.19
237.922	132.19
238.156	129.19
238.39	115.19
238.624	126.19
238.858	131.19
239.091	118.19
239.325	141.19
239.559	104.19
239.793	118.19
240.027	117.19
240.26	130.19
240.494	135.19
240.728	141.19
240.961	135.19
241.195	136.19
241.429	124.19
241.662	129.19
241.896	125.19
242.13	122.19
242.363	137.19
242.597	114.19
242.83	123.19
243.064	126.19
243.298	144.19
243.531	133.19
243.765	142.19
243.998	122.19
244.232	134.19
244.465	118.19
244.699	141.19
244.932	137.19
245.166	142.19
245.399	140.19
245.633	148.19
245.866	144.19
246.099	130.19
246.333	147.19
246.566	140.19
246.8	145.19
247.033	140.19
247.266	143.19
247.5	140.19
247.733	169.19
247.966	156.19
248.2	144.19
248.433	143.19
248.666	177.19
248.899	169.19
249.133	174.19
249.366	196.19
249.599	161.19
249.832	151.19
250.066	163.19
250.299	161.19
250.532	180.19
250.765	187.19
250.998	191.19
251.231	213.19
251.465	186.19
251.698	153.19
251.931	170.19
252.164	172.19
252.397	172.19
252.63	178.19
252.863	181.19
253.096	185.19
253.329	195.19
253.562	193.19
253.795	184.19
254.028	190.19
254.261	202.19
254.494	182.19
254.727	202.19
254.96	236.19
255.193	230.19
255.426	229.19
255.659	214.19
255.892	218.19
256.124	213.19
256.357	242.19
256.59	219.19
256.823	194.19
257.056	200.19
257.289	184.19
257.521	193.19
257.754	186.19
257.987	186.19
258.22	197.19
258.452	192.19
258.685	189.19
258.918	172.19
259.151	189.19
259.383	201.19
259.616	205.19
259.849	198.19
260.081	189.19
260.314	209.19
260.547	213.19
260.779	222.19
261.012	202.19
261.244	199.19
261.477	211.19
261.71	208.19
261.942	198.19
262.175	197.19
262.407	207.19
262.64	193.19
262.872	198.19
263.105	189.19
263.337	201.19
263.57	190.19
263.802	197.19
264.035	197.19
264.267	194.19
264.499	196.19
264.732	205.19
264.964	221.19
265.197	213.19
265.429	209.19
265.661	201.19
265.894	207.19
266.126	207.19
266.358	207.19
266.591	201.19
266.823	221.19
267.055	214.19
267.287	200.19
267.52	214.19
267.752	203.19
267.984	203.19
268.216	213.19
268.448	210.19
268.681	219.19
268.913	222.19
269.145	236.19
269.377	236.19
269.609	245.19
269.841	243.19
270.073	236.19
270.306	249.19
270.538	265.19
270.77	268.19
271.002	261.19
271.234	254.19
271.466	238.19
271.698	259.19
271.93	276.19
272.162	261.19
272.394	279.19
272.626	252.19
272.858	249.19
273.09	259.19
273.322	249.19
273.553	244.19
273.785	238.19
274.017	259.19
274.249	238.19
274.481	248.19
274.713	243.19
274.945	249.19
275.176	263.19
275.408	248.19
275.64	257.19
275.872	235.19
276.104	231.19
276.335	258.19
276.567	267.19
276.799	278.19
277.031	276.19
277.262	292.19
277.494	277.19
277.726	254.19
277.957	262.19
278.189	270.19
278.421	255.19
278.652	255.19
278.884	246.19
279.115	262.19
279.347	269.19
279.579	260.19
279.81	269.19
280.042	279.19
280.273	246.19
280.505	267.19
280.736	267.19
280.968	266.19
281.199	241.19
281.431	271.19
281.662	266.19
281.894	262.19
282.125	252.19
282.356	270.19
282.588	290.19
282.819	286.19
283.051	271.19
283.282	259.19
283.513	269.19
283.745	270.19
283.976	290.19
284.207	276.19
284.439	254.19
284.67	279.19
284.901	284.19
285.132	268.19
285.364	266.19
285.595	255.19
285.826	284.19
286.057	274.19
286.288	269.19
286.52	282.19
286.751	273.19
286.982	270.19
287.213	289.19
287.444	279.19
287.675	278.19
287.906	292.19
288.138	284.19
288.369	285.19
288.6	294.19
288.831	272.19
289.062	278.19
289.293	277.19
289.524	278.19
289.755	299.19
289.986	282.19
290.217	279.19
290.448	284.19
290.679	296.19
290.91	285.19
291.141	285.19
291.371	288.19
291.602	278.19
291.833	310.19
292.064	273.19
292.295	285.19
292.526	289.19
292.757	281.19
292.987	279.19
293.218	292.19
293.449	284.19
293.68	275.19
293.91	275.19
294.141	291.19
294.372	298.19
294.603	282.19
294.833	304.19
295.064	285.19
295.295	301.19
295.525	283.19
295.756	288.19
295.987	309.19
296.217	314.19
296.448	308.19
296.679	299.19
296.909	299.19
297.14	295.19
297.37	286.19
297.601	303.19
297.831	302.19
298.062	297.19
298.292	293.19
298.523	328.19
298.753	321.19
298.984	324.19
299.214	312.19
299.445	311.19
299.675	295.19
299.905	307.19
300.136	311.19
300.366	303.19
300.597	313.19
300.827	329.19
301.057	341.19
301.288	330.19
301.518	330.19
301.748	324.19
301.979	320.19
302.209	330.19
302.439	331.19
302.669	327.19
302.9	322.19
303.13	317.19
303.36	321.19
303.59	318.19
303.82	314.19
304.051	301.19
304.281	314.19
304.511	302.19
304.741	323.19
304.971	317.19
305.201	349.19
305.431	318.19
305.661	302.19
305.891	327.19
306.121	312.19
306.352	317.19
306.582	311.19
306.812	300.19
307.042	326.19
307.272	324.19
307.502	309.19
307.731	334.19
307.961	321.19
308.191	321.19
308.421	339.19
308.651	331.19
308.881	315.19
309.111	325.19
309.341	337.19
309.571	327.19
309.8	337.19
310.03	334.19
310.26	338.19
310.49	346.19
310.72	356.19
310.949	346.19
311.179	329.19
311.409	361.19
311.639	340.19
311.868	341.19
312.098	331.19
312.328	360.19
312.557	347.19
312.787	384.19
313.017	359.19
313.246	358.19
313.476	362.19
313.706	345.19
313.935	369.19
314.165	359.19
314.394	361.19
314.624	376.19
314.853	344.19
315.083	337.19
315.312	364.19
315.542	350.19
315.771	357.19
316.001	341.19
316.23	352.19
316.46	341.19
316.689	360.19
316.919	354.19
317.148	349.19
317.377	339.19
317.607	361.19
317.836	355.19
318.065	354.19
318.295	347.19
318.524	363.19
318.753	344.19
318.983	360.19
319.212	371.19
319.441	361.19
319.67	354.19
319.9	338.19
320.129	348.19
320.358	373.19
320.587	345.19
320.816	352.19
321.046	378.19
321.275	371.19
321.504	364.19
321.733	344.19
321.962	388.19
322.191	385.19
322.42	403.19
322.649	390.19
322.878	376.19
323.108	400.19
323.337	413.19
323.566	409.19
323.795	445.19
324.024	448.19
324.253	542.19
324.482	699.19
324.71	1023.19
324.939	1388.19
325.168	1219.19
325.397	699.19
325.626	526.19
325.855	442.19
326.084	453.19
326.313	447.19
326.542	453.19
326.77	469.19
326.999	542.19
327.228	708.19
327.457	973.19
327.686	1140.19
327.914	797.19
328.143	577.19
328.372	526.19
328.6	487.19
328.829	459.19
329.058	471.19
329.287	500.19
329.515	460.19
329.744	469.19
329.972	480.19
330.201	529.19
330.43	533.19
330.658	535.19
330.887	520.19
331.115	510.19
331.344	464.19
331.572	450.19
331.801	435.19
332.03	450.19
332.258	454.19
332.486	441.19
332.715	452.19
332.943	439.19
333.172	478.19
333.4	488.19
333.629	466.19
333.857	506.19
334.085	526.19
334.314	554.19
334.542	577.19
334.771	574.19
334.999	526.19
335.227	472.19
335.455	455.19
335.684	433.19
335.912	426.19
336.14	442.19
336.369	427.19
336.597	437.19
336.825	446.19
337.053	425.19
337.281	416.19
337.51	412.19
337.738	419.19
337.966	398.19
338.194	417.19
338.422	412.19
338.65	405.19
338.878	400.19
339.106	397.19
339.334	411.19
339.562	389.19
339.79	398.19
340.018	413.19
340.246	391.19
340.474	380.19
340.702	387.19
340.93	401.19
341.158	383.19
341.386	389.19
341.614	398.19
341.842	398.19
342.07	374.19
342.298	376.19
342.526	384.19
342.754	386.19
342.981	391.19
343.209	377.19
343.437	385.19
343.665	414.19
343.893	430.19
344.12	439.19
344.348	422.19
344.576	425.19
344.804	403.19
345.031	403.19
345.259	387.19
345.487	409.19
345.714	389.19
345.942	363.19
346.17	377.19
346.397	361.19
346.625	371.19
346.853	375.19
347.08	390.19
347.308	372.19
347.535	377.19
347.763	380.19
347.99	364.19
348.218	375.19
348.445	379.19
348.673	395.19
348.9	380.19
349.128	379.19
349.355	355.19
349.583	359.19
349.81	367.19
350.037	371.19
350.265	352.19
350.492	359.19
350.72	377.19
350.947	375.19
351.174	366.19
351.402	383.19
351.629	378.19
351.856	393.19
352.083	393.19
352.311	387.19
352.538	377.19
352.765	372.19
352.992	398.19
353.22	353.19
353.447	350.19
353.674	357.19
353.901	349.19
354.128	357.19
354.355	344.19
354.583	363.19
354.81	347.19
355.037	375.19
355.264	363.19
355.491	362.19
355.718	356.19
355.945	342.19
356.172	342.19
356.399	355.19
356.626	354.19
356.853	375.19
357.08	363.19
357.307	349.19
357.534	365.19
357.761	357.19
357.988	365.19
358.215	353.19
358.441	341.19
358.668	341.19
358.895	370.19
359.122	349.19
359.349	361.19
359.576	370.19
359.802	387.19
360.029	403.19
360.256	391.19
360.483	392.19
360.709	371.19
360.936	370.19
361.163	346.19
361.39	361.19
361.616	367.19
361.843	383.19
362.07	345.19
362.296	350.19
362.523	351.19
362.749	361.19
362.976	342.19
363.203	360.19
363.429	351.19
363.656	337.19
363.882	363.19
364.109	374.19
364.335	366.19
364.562	347.19
364.788	354.19
365.015	369.19
365.241	340.19
365.468	365.19
365.694	365.19
365.92	346.19
366.147	355.19
366.373	339.19
366.599	347.19
366.826	356.19
367.052	348.19
367.278	346.19
367.505	344.19
367.731	334.19
367.957	343.19
368.184	353.19
368.41	345.19
368.636	364.19
368.862	357.19
369.089	371.19
369.315	356.19
369.541	343.19
369.767	347.19
369.993	356.19
370.219	347.19
370.445	353.19
370.672	360.19
370.898	359.19
371.124	339.19
371.35	335.19
371.576	357.19
371.802	357.19
372.028	355.19
372.254	363.19
372.48	375.19
372.706	362.19
372.932	371.19
373.158	352.19
373.384	377.19
373.61	350.19
373.835	362.19
374.061	359.19
374.287	359.19
374.513	361.19
374.739	384.19
374.965	387.19
375.191	385.19
375.416	377.19
375.642	378.19
375.868	376.19
376.094	365.19
376.319	360.19
376.545	358.19
376.771	373.19
376.997	357.19
377.222	367.19
377.448	362.19
377.674	355.19
377.899	376.19
378.125	359.19
378.35	365.19
378.576	377.19
378.802	341.19
379.027	365.19
379.253	351.19
379.478	357.19
379.704	357.19
379.929	363.19
380.155	356.19
380.38	362.19
380.606	375.19
380.831	362.19
381.057	359.19
381.282	340.19
381.507	351.19
381.733	349.19
381.958	342.19
382.184	355.19
382.409	369.19
382.634	367.19
382.86	366.19
383.085	373.19
383.31	375.19
383.535	388.19
383.761	383.19
383.986	383.19
384.211	396.19
384.436	405.19
384.662	397.19
384.887	399.19
385.112	398.19
385.337	384.19
385.562	409.19
385.787	394.19
386.013	418.19
386.238	409.19
386.463	420.19
386.688	415.19
386.913	401.19
387.138	398.19
387.363	410.19
387.588	401.19
387.813	419.19
388.038	436.19
388.263	412.19
388.488	406.19
388.713	429.19
388.938	392.19
389.163	409.19
389.387	404.19
389.612	390.19
389.837	417.19
390.062	384.19
390.287	404.19
390.512	405.19
390.736	397.19
390.961	412.19
391.186	405.19
391.411	413.19
391.636	406.19
391.86	448.19
392.085	414.19
392.31	435.19
392.534	425.19
392.759	429.19
392.984	420.19
393.208	409.19
393.433	419.19
393.658	421.19
393.882	413.19
394.107	426.19
394.331	420.19
394.556	427.19
394.78	420.19
395.005	449.19
395.229	419.19
395.454	440.19
395.678	427.19
395.903	435.19
396.127	434.19
396.352	429.19
396.576	433.19
396.801	419.19
397.025	420.19
397.249	439.19
397.474	437.19
397.698	450.19
397.922	451.19
398.147	446.19
398.371	463.19
398.595	479.19
398.82	475.19
399.044	482.19
399.268	533.19
399.492	574.19
399.717	602.19
399.941	672.19
400.165	618.19
400.389	599.19
400.613	543.19
400.837	503.19
401.062	492.19
401.286	491.19
401.51	484.19
401.734	493.19
401.958	473.19
402.182	482.19
402.406	502.19
402.63	492.19
402.854	491.19
403.078	502.19
403.302	501.19
403.526	497.19
403.75	512.19
403.974	525.19
404.198	548.19
404.422	523.19
404.645	548.19
404.869	560.19
405.093	541.19
405.317	576.19
405.541	619.19
405.765	563.19
405.988	529.19
406.212	525.19
406.436	539.19
406.66	555.19
406.883	573.19
407.107	557.19
407.331	594.19
407.555	628.19
407.778	620.19
408.002	606.19
408.226	561.19
408.449	579.19
408.673	543.19
408.896	559.19
409.12	616.19
409.344	591.19
409.567	500.19
409.791	510.19
410.014	478.19
410.238	494.19
410.461	499.19
410.685	511.19
410.908	499.19
411.132	528.19
411.355	515.19
411.578	532.19
411.802	509.19
412.025	500.19
412.249	515.19
412.472	529.19
412.695	577.19
412.919	567.19
413.142	515.19
413.365	526.19
413.589	498.19
413.812	474.19
414.035	476.19
414.258	476.19
414.482	474.19
414.705	478.19
414.928	469.19
415.151	466.19
415.374	478.19
415.597	482.19
415.821	468.19
416.044	442.19
416.267	461.19
416.49	478.19
416.713	461.19
416.936	463.19
417.159	477.19
417.382	469.19
417.605	461.19
417.828	470.19
418.051	488.19
418.274	485.19
418.497	482.19
418.72	469.19
418.943	460.19
419.166	510.19
419.389	527.19
419.611	499.19
419.834	518.19
420.057	511.19
420.28	514.19
420.503	485.19
420.726	500.19
420.948	499.19
421.171	525.19
421.394	513.19
421.617	525.19
421.839	494.19
422.062	486.19
422.285	470.19
422.507	517.19
422.73	566.19
422.953	556.19
423.175	521.19
423.398	495.19
423.621	515.19
423.843	503.19
424.066	519.19
424.288	515.19
424.511	519.19
424.733	538.19
424.956	580.19
425.178	571.19
425.401	559.19
425.623	566.19
425.846	533.19
426.068	499.19
426.291	506.19
426.513	468.19
426.735	487.19
426.958	518.19
427.18	551.19
427.402	625.19
427.625	673.19
427.847	593.19
428.069	559.19
428.292	498.19
428.514	497.19
428.736	462.19
428.958	451.19
429.181	461.19
429.403	451.19
429.625	435.19
429.847	464.19
430.069	494.19
430.292	487.19
430.514	463.19
430.736	451.19
430.958	449.19
431.18	422.19
431.402	431.19
431.624	417.19
431.846	440.19
432.068	437.19
432.29	444.19
432.512	427.19
432.734	425.19
432.956	434.19
433.178	450.19
433.4	423.19
433.622	414.19
433.844	438.19
434.066	445.19
434.287	437.19
434.509	427.19
434.731	476.19
434.953	483.19
435.175	470.19
435.397	474.19
435.618	485.19
435.84	532.19
436.062	532.19
436.284	592.19
436.505	533.19
436.727	457.19
436.949	437.19
437.17	442.19
437.392	437.19
437.614	449.19
437.835	459.19
438.057	521.19
438.278	560.19
438.5	571.19
438.721	589.19
438.943	597.19
439.165	484.19
439.386	447.19
439.608	493.19
439.829	471.19
440.05	488.19
440.272	498.19
440.493	468.19
440.715	461.19
440.936	445.19
441.158	463.19
441.379	476.19
441.6	484.19
441.822	492.19
442.043	524.19
442.264	546.19
442.486	596.19
442.707	529.19
442.928	493.19
443.149	469.19
443.371	509.19
443.592	534.19
443.813	577.19
444.034	632.19
444.255	569.19
444.476	533.19
444.698	539.19
444.919	524.19
445.14	634.19
445.361	565.19
445.582	517.19
445.803	561.19
446.024	597.19
446.245	591.19
446.466	540.19
446.687	477.19
446.908	469.19
447.129	456.19
447.35	438.19
447.571	436.19
447.792	434.19
448.013	440.19
448.234	442.19
448.455	468.19
448.675	519.19
448.896	591.19
449.117	519.19
449.338	485.19
449.559	558.19
449.779	596.19
450	517.19
450.221	469.19
450.442	449.19
450.662	407.19
450.883	406.19
451.104	429.19
451.324	409.19
451.545	423.19
451.766	401.19
451.986	407.19
452.207	385.19
452.428	402.19
452.648	405.19
452.869	380.19
453.089	393.19
453.31	403.19
453.53	390.19
453.751	405.19
453.971	401.19
454.192	414.19
454.412	387.19
454.633	381.19
454.853	377.19
455.073	389.19
455.294	406.19
455.514	454.19
455.734	428.19
455.955	378.19
456.175	390.19
456.395	385.19
456.616	391.19
456.836	378.19
457.056	366.19
457.276	360.19
457.497	378.19
457.717	387.19
457.937	364.19
458.157	396.19
458.377	400.19
458.598	399.19
458.818	456.19
459.038	482.19
459.258	502.19
459.478	480.19
459.698	429.19
459.918	456.19
460.138	467.19
460.358	487.19
460.578	466.19
460.798	480.19
461.018	476.19
461.238	464.19
461.458	446.19
461.678	462.19
461.898	501.19
462.118	473.19
462.338	494.19
462.558	504.19
462.777	507.19
462.997	549.19
463.217	525.19
463.437	598.19
463.657	537.19
463.876	509.19
464.096	517.19
464.316	503.19
464.536	509.19
464.755	527.19
464.975	494.19
465.195	495.19
465.414	504.19
465.634	473.19
465.854	463.19
466.073	426.19
466.293	420.19
466.512	430.19
466.732	438.19
466.951	422.19
467.171	411.19
467.391	409.19
467.61	419.19
467.829	442.19
468.049	434.19
468.268	426.19
468.488	409.19
468.707	397.19
468.927	398.19
469.146	408.19
469.365	398.19
469.585	402.19
469.804	424.19
470.023	408.19
470.243	422.19
470.462	431.19
470.681	444.19
470.901	429.19
471.12	429.19
471.339	417.19
471.558	430.19
471.777	428.19
471.997	425.19
472.216	417.19
472.435	475.19
472.654	443.19
472.873	434.19
473.092	408.19
473.311	402.19
473.53	410.19
473.749	399.19
473.968	400.19
474.187	479.19
474.406	487.19
474.625	438.19
474.844	423.19
475.063	416.19
475.282	403.19
475.501	411.19
475.72	419.19
475.939	415.19
476.158	420.19
476.377	418.19
476.596	423.19
476.814	428.19
477.033	426.19
477.252	446.19
477.471	438.19
477.69	427.19
477.908	441.19
478.127	436.19
478.346	453.19
478.564	457.19
478.783	460.19
479.002	485.19
479.22	469.19
479.439	491.19
479.658	478.19
479.876	484.19
480.095	505.19
480.313	539.19
480.532	529.19
480.751	526.19
480.969	523.19
481.188	630.19
481.406	609.19
481.624	533.19
481.843	525.19
482.061	501.19
482.28	476.19
482.498	487.19
482.717	466.19
482.935	494.19
483.153	452.19
483.372	456.19
483.59	479.19
483.808	482.19
484.027	475.19
484.245	476.19
484.463	468.19
484.681	457.19
484.9	469.19
485.118	463.19
485.336	459.19
485.554	484.19
485.772	485.19
485.99	491.19
486.209	479.19
486.427	483.19
486.645	508.19
486.863	486.19
487.081	503.19
487.299	515.19
487.517	498.19
487.735	489.19
487.953	515.19
488.171	496.19
488.389	497.19
488.607	482.19
488.825	511.19
489.043	473.19
489.261	494.19
489.479	515.19
489.696	484.19
489.914	492.19
490.132	515.19
490.35	501.19
490.568	490.19
490.786	543.19
491.003	525.19
491.221	559.19
491.439	534.19
491.657	564.19
491.874	582.19
492.092	548.19
492.31	554.19
492.527	565.19
492.745	575.19
492.963	567.19
493.18	579.19
493.398	585.19
493.615	574.19
493.833	569.19
494.05	566.19
494.268	578.19
494.485	562.19
494.703	567.19
494.92	576.19
495.138	573.19
495.355	568.19
495.573	582.19
495.79	565.19
496.008	595.19
496.225	558.19
496.442	565.19
496.66	581.19
496.877	586.19
497.094	589.19
497.312	600.19
497.529	602.19
497.746	607.19
497.963	603.19
498.181	631.19
498.398	655.19
498.615	673.19
498.832	714.19
499.049	718.19
499.267	757.19
499.484	824.19
499.701	851.19
499.918	910.19
500.135	1014.19
500.352	1069.19
500.569	1126.19
500.786	1099.19
501.003	1094.19
501.22	987.19
501.437	925.19
501.654	879.19
501.871	809.19
502.088	761.19
