Data from 1984.PennyLincolnUp.Lamp.En5.5.200Scan.071819.P1_HRD10591_16-57-09-967.txt Node
Date: Thu Jul 18 16:57:09 EDT 2019
User: cochatt
Spectrometer: HR+D1059
Trigger mode: 1
Integration Time (sec): 1.000000E-1
Scans to average: 1
Electric dark correction enabled: true
Nonlinearity correction enabled: false
Boxcar width: 0
XAxis mode: Wavelengths
Number of Pixels in Spectrum: 2048
>>>>>Begin Spectral Data<<<<<
223.165	-23.5
223.4	-23.5
223.635	-23.5
223.869	-19.5
224.104	-17.5
224.338	-11.5
224.573	-19.5
224.808	-17.5
225.042	-6.5
225.277	1.5
225.511	12.5
225.746	13.5
225.98	14.5
226.215	-2.5
226.449	21.5
226.683	24.5
226.918	9.5
227.152	20.5
227.387	30.5
227.621	47.5
227.856	37.5
228.09	55.5
228.324	65.5
228.559	52.5
228.793	66.5
229.027	82.5
229.262	93.5
229.496	101.5
229.73	112.5
229.964	123.5
230.199	122.5
230.433	112.5
230.667	106.5
230.901	99.5
231.136	95.5
231.37	114.5
231.604	102.5
231.838	103.5
232.072	110.5
232.306	102.5
232.541	112.5
232.775	105.5
233.009	127.5
233.243	106.5
233.477	105.5
233.711	116.5
233.945	113.5
234.179	110.5
234.413	110.5
234.647	114.5
234.881	109.5
235.115	110.5
235.349	114.5
235.583	108.5
235.817	118.5
236.051	107.5
236.285	115.5
236.519	112.5
236.753	112.5
236.987	116.5
237.221	140.5
237.455	178.5
237.689	163.5
237.922	118.5
238.156	114.5
238.39	130.5
238.624	110.5
238.858	111.5
239.091	109.5
239.325	108.5
239.559	104.5
239.793	123.5
240.027	119.5
240.26	125.5
240.494	127.5
240.728	111.5
240.961	149.5
241.195	118.5
241.429	114.5
241.662	136.5
241.896	125.5
242.13	122.5
242.363	130.5
242.597	125.5
242.83	114.5
243.064	134.5
243.298	104.5
243.531	128.5
243.765	137.5
243.998	127.5
244.232	145.5
244.465	124.5
244.699	138.5
244.932	130.5
245.166	145.5
245.399	133.5
245.633	122.5
245.866	132.5
246.099	136.5
246.333	140.5
246.566	142.5
246.8	135.5
247.033	140.5
247.266	140.5
247.5	149.5
247.733	163.5
247.966	166.5
248.2	166.5
248.433	169.5
248.666	139.5
248.899	153.5
249.133	156.5
249.366	174.5
249.599	174.5
249.832	160.5
250.066	162.5
250.299	157.5
250.532	162.5
250.765	171.5
250.998	179.5
251.231	166.5
251.465	178.5
251.698	181.5
251.931	172.5
252.164	170.5
252.397	172.5
252.63	170.5
252.863	180.5
253.096	162.5
253.329	187.5
253.562	183.5
253.795	181.5
254.028	180.5
254.261	183.5
254.494	190.5
254.727	194.5
254.96	200.5
255.193	208.5
255.426	204.5
255.659	180.5
255.892	183.5
256.124	169.5
256.357	175.5
256.59	178.5
256.823	185.5
257.056	169.5
257.289	180.5
257.521	180.5
257.754	183.5
257.987	182.5
258.22	186.5
258.452	167.5
258.685	173.5
258.918	197.5
259.151	195.5
259.383	174.5
259.616	206.5
259.849	181.5
260.081	202.5
260.314	206.5
260.547	203.5
260.779	207.5
261.012	200.5
261.244	200.5
261.477	193.5
261.71	187.5
261.942	211.5
262.175	220.5
262.407	204.5
262.64	198.5
262.872	185.5
263.105	199.5
263.337	198.5
263.57	199.5
263.802	196.5
264.035	199.5
264.267	182.5
264.499	191.5
264.732	192.5
264.964	198.5
265.197	197.5
265.429	197.5
265.661	200.5
265.894	196.5
266.126	197.5
266.358	196.5
266.591	207.5
266.823	216.5
267.055	220.5
267.287	217.5
267.52	209.5
267.752	194.5
267.984	212.5
268.216	216.5
268.448	204.5
268.681	204.5
268.913	217.5
269.145	223.5
269.377	225.5
269.609	238.5
269.841	244.5
270.073	238.5
270.306	247.5
270.538	263.5
270.77	246.5
271.002	248.5
271.234	235.5
271.466	253.5
271.698	241.5
271.93	244.5
272.162	241.5
272.394	269.5
272.626	270.5
272.858	259.5
273.09	243.5
273.322	249.5
273.553	238.5
273.785	248.5
274.017	226.5
274.249	213.5
274.481	228.5
274.713	234.5
274.945	231.5
275.176	228.5
275.408	226.5
275.64	231.5
275.872	244.5
276.104	254.5
276.335	237.5
276.567	242.5
276.799	247.5
277.031	259.5
277.262	268.5
277.494	257.5
277.726	267.5
277.957	240.5
278.189	242.5
278.421	246.5
278.652	247.5
278.884	235.5
279.115	256.5
279.347	225.5
279.579	266.5
279.81	300.5
280.042	280.5
280.273	277.5
280.505	266.5
280.736	276.5
280.968	263.5
281.199	247.5
281.431	260.5
281.662	240.5
281.894	247.5
282.125	239.5
282.356	274.5
282.588	266.5
282.819	286.5
283.051	264.5
283.282	267.5
283.513	270.5
283.745	253.5
283.976	246.5
284.207	265.5
284.439	248.5
284.67	253.5
284.901	278.5
285.132	266.5
285.364	281.5
285.595	283.5
285.826	263.5
286.057	268.5
286.288	270.5
286.52	268.5
286.751	296.5
286.982	280.5
287.213	262.5
287.444	245.5
287.675	279.5
287.906	271.5
288.138	287.5
288.369	287.5
288.6	280.5
288.831	286.5
289.062	275.5
289.293	273.5
289.524	271.5
289.755	293.5
289.986	283.5
290.217	290.5
290.448	276.5
290.679	271.5
290.91	282.5
291.141	271.5
291.371	262.5
291.602	272.5
291.833	272.5
292.064	279.5
292.295	279.5
292.526	248.5
292.757	279.5
292.987	279.5
293.218	253.5
293.449	290.5
293.68	298.5
293.91	283.5
294.141	269.5
294.372	258.5
294.603	281.5
294.833	282.5
295.064	273.5
295.295	287.5
295.525	297.5
295.756	296.5
295.987	282.5
296.217	294.5
296.448	322.5
296.679	297.5
296.909	290.5
297.14	287.5
297.37	303.5
297.601	299.5
297.831	296.5
298.062	281.5
298.292	299.5
298.523	278.5
298.753	284.5
298.984	288.5
299.214	290.5
299.445	296.5
299.675	298.5
299.905	295.5
300.136	292.5
300.366	297.5
300.597	298.5
300.827	318.5
301.057	299.5
301.288	304.5
301.518	312.5
301.748	316.5
301.979	326.5
302.209	309.5
302.439	319.5
302.669	322.5
302.9	310.5
303.13	310.5
303.36	325.5
303.59	311.5
303.82	317.5
304.051	334.5
304.281	308.5
304.511	322.5
304.741	315.5
304.971	327.5
305.201	308.5
305.431	303.5
305.661	301.5
305.891	303.5
306.121	299.5
306.352	317.5
306.582	316.5
306.812	310.5
307.042	328.5
307.272	311.5
307.502	299.5
307.731	306.5
307.961	321.5
308.191	314.5
308.421	301.5
308.651	316.5
308.881	331.5
309.111	301.5
309.341	311.5
309.571	342.5
309.8	328.5
310.03	326.5
310.26	341.5
310.49	334.5
310.72	325.5
310.949	349.5
311.179	354.5
311.409	330.5
311.639	335.5
311.868	353.5
312.098	343.5
312.328	337.5
312.557	338.5
312.787	350.5
313.017	359.5
313.246	351.5
313.476	346.5
313.706	343.5
313.935	339.5
314.165	358.5
314.394	363.5
314.624	349.5
314.853	357.5
315.083	360.5
315.312	351.5
315.542	351.5
315.771	327.5
316.001	352.5
316.23	340.5
316.46	343.5
316.689	360.5
316.919	357.5
317.148	372.5
317.377	335.5
317.607	348.5
317.836	349.5
318.065	343.5
318.295	346.5
318.524	349.5
318.753	355.5
318.983	346.5
319.212	346.5
319.441	344.5
319.67	339.5
319.9	346.5
320.129	352.5
320.358	364.5
320.587	352.5
320.816	333.5
321.046	348.5
321.275	341.5
321.504	325.5
321.733	357.5
321.962	358.5
322.191	366.5
322.42	365.5
322.649	387.5
322.878	390.5
323.108	376.5
323.337	386.5
323.566	395.5
323.795	421.5
324.024	466.5
324.253	548.5
324.482	738.5
324.71	1063.5
324.939	1501.5
325.168	1306.5
325.397	730.5
325.626	502.5
325.855	446.5
326.084	437.5
326.313	426.5
326.542	418.5
326.77	459.5
326.999	521.5
327.228	676.5
327.457	967.5
327.686	1179.5
327.914	803.5
328.143	538.5
328.372	476.5
328.6	448.5
328.829	446.5
329.058	471.5
329.287	442.5
329.515	424.5
329.744	424.5
329.972	405.5
330.201	400.5
330.43	431.5
330.658	428.5
330.887	451.5
331.115	459.5
331.344	436.5
331.572	407.5
331.801	425.5
332.03	423.5
332.258	403.5
332.486	406.5
332.715	419.5
332.943	415.5
333.172	422.5
333.4	431.5
333.629	439.5
333.857	446.5
334.085	437.5
334.314	440.5
334.542	430.5
334.771	408.5
334.999	446.5
335.227	430.5
335.455	426.5
335.684	417.5
335.912	425.5
336.14	418.5
336.369	403.5
336.597	412.5
336.825	411.5
337.053	427.5
337.281	416.5
337.51	401.5
337.738	406.5
337.966	398.5
338.194	394.5
338.422	402.5
338.65	414.5
338.878	394.5
339.106	372.5
339.334	391.5
339.562	377.5
339.79	378.5
340.018	389.5
340.246	373.5
340.474	377.5
340.702	379.5
340.93	376.5
341.158	374.5
341.386	377.5
341.614	398.5
341.842	380.5
342.07	400.5
342.298	386.5
342.526	365.5
342.754	368.5
342.981	379.5
343.209	390.5
343.437	380.5
343.665	395.5
343.893	421.5
344.12	405.5
344.348	414.5
344.576	404.5
344.804	412.5
345.031	395.5
345.259	383.5
345.487	392.5
345.714	382.5
345.942	380.5
346.17	358.5
346.397	392.5
346.625	387.5
346.853	368.5
347.08	374.5
347.308	382.5
347.535	362.5
347.763	361.5
347.99	380.5
348.218	393.5
348.445	377.5
348.673	355.5
348.9	355.5
349.128	370.5
349.355	358.5
349.583	358.5
349.81	353.5
350.037	356.5
350.265	362.5
350.492	358.5
350.72	368.5
350.947	357.5
351.174	378.5
351.402	352.5
351.629	370.5
351.856	372.5
352.083	361.5
352.311	375.5
352.538	372.5
352.765	384.5
352.992	362.5
353.22	366.5
353.447	361.5
353.674	353.5
353.901	342.5
354.128	357.5
354.355	344.5
354.583	338.5
354.81	355.5
355.037	365.5
355.264	346.5
355.491	360.5
355.718	357.5
355.945	356.5
356.172	337.5
356.399	356.5
356.626	358.5
356.853	356.5
357.08	355.5
357.307	351.5
357.534	359.5
357.761	340.5
357.988	343.5
358.215	353.5
358.441	375.5
358.668	366.5
358.895	338.5
359.122	356.5
359.349	370.5
359.576	365.5
359.802	372.5
360.029	374.5
360.256	389.5
360.483	377.5
360.709	356.5
360.936	358.5
361.163	358.5
361.39	346.5
361.616	355.5
361.843	343.5
362.07	359.5
362.296	359.5
362.523	368.5
362.749	356.5
362.976	347.5
363.203	359.5
363.429	343.5
363.656	341.5
363.882	352.5
364.109	355.5
364.335	339.5
364.562	354.5
364.788	342.5
365.015	339.5
365.241	374.5
365.468	354.5
365.694	357.5
365.92	340.5
366.147	340.5
366.373	352.5
366.599	343.5
366.826	332.5
367.052	354.5
367.278	351.5
367.505	345.5
367.731	359.5
367.957	363.5
368.184	349.5
368.41	346.5
368.636	360.5
368.862	379.5
369.089	331.5
369.315	320.5
369.541	341.5
369.767	366.5
369.993	361.5
370.219	352.5
370.445	344.5
370.672	356.5
370.898	372.5
371.124	361.5
371.35	365.5
371.576	358.5
371.802	348.5
372.028	374.5
372.254	350.5
372.48	368.5
372.706	351.5
372.932	351.5
373.158	364.5
373.384	363.5
373.61	363.5
373.835	366.5
374.061	360.5
374.287	346.5
374.513	390.5
374.739	376.5
374.965	380.5
375.191	389.5
375.416	386.5
375.642	388.5
375.868	367.5
376.094	364.5
376.319	376.5
376.545	366.5
376.771	356.5
376.997	336.5
377.222	348.5
377.448	362.5
377.674	358.5
377.899	361.5
378.125	361.5
378.35	360.5
378.576	343.5
378.802	342.5
379.027	358.5
379.253	339.5
379.478	352.5
379.704	364.5
379.929	351.5
380.155	359.5
380.38	366.5
380.606	366.5
380.831	368.5
381.057	354.5
381.282	357.5
381.507	368.5
381.733	366.5
381.958	351.5
382.184	361.5
382.409	364.5
382.634	380.5
382.86	366.5
383.085	370.5
383.31	386.5
383.535	396.5
383.761	376.5
383.986	391.5
384.211	415.5
384.436	386.5
384.662	420.5
384.887	400.5
385.112	408.5
385.337	415.5
385.562	435.5
385.787	419.5
386.013	449.5
386.238	430.5
386.463	439.5
386.688	448.5
386.913	442.5
387.138	434.5
387.363	408.5
387.588	421.5
387.813	413.5
388.038	404.5
388.263	450.5
388.488	422.5
388.713	417.5
388.938	387.5
389.163	405.5
389.387	395.5
389.612	415.5
389.837	391.5
390.062	402.5
390.287	392.5
390.512	394.5
390.736	397.5
390.961	415.5
391.186	401.5
391.411	425.5
391.636	433.5
391.86	440.5
392.085	423.5
392.31	439.5
392.534	423.5
392.759	428.5
392.984	482.5
393.208	516.5
393.433	640.5
393.658	680.5
393.882	486.5
394.107	420.5
394.331	424.5
394.556	432.5
394.78	419.5
395.005	393.5
395.229	418.5
395.454	439.5
395.678	446.5
395.903	440.5
396.127	460.5
396.352	450.5
396.576	455.5
396.801	515.5
397.025	599.5
397.249	511.5
397.474	447.5
397.698	418.5
397.922	442.5
398.147	436.5
398.371	446.5
398.595	460.5
398.82	445.5
399.044	489.5
399.268	510.5
399.492	575.5
399.717	639.5
399.941	612.5
400.165	606.5
400.389	574.5
400.613	539.5
400.837	518.5
401.062	498.5
401.286	460.5
401.51	459.5
401.734	450.5
401.958	469.5
402.182	472.5
402.406	496.5
402.63	477.5
402.854	476.5
403.078	504.5
403.302	514.5
403.526	513.5
403.75	502.5
403.974	522.5
404.198	487.5
404.422	523.5
404.645	530.5
404.869	505.5
405.093	498.5
405.317	518.5
405.541	535.5
405.765	527.5
405.988	516.5
406.212	511.5
406.436	515.5
406.66	540.5
406.883	555.5
407.107	557.5
407.331	600.5
407.555	623.5
407.778	635.5
408.002	579.5
408.226	557.5
408.449	540.5
408.673	535.5
408.896	542.5
409.12	550.5
409.344	556.5
409.567	518.5
409.791	522.5
410.014	499.5
410.238	488.5
410.461	498.5
410.685	500.5
410.908	489.5
411.132	522.5
411.355	529.5
411.578	524.5
411.802	525.5
412.025	464.5
412.249	487.5
412.472	503.5
412.695	490.5
412.919	476.5
413.142	440.5
413.365	464.5
413.589	463.5
413.812	468.5
414.035	468.5
414.258	443.5
414.482	456.5
414.705	474.5
414.928	439.5
415.151	452.5
415.374	499.5
415.597	460.5
415.821	450.5
416.044	457.5
416.267	451.5
416.49	445.5
416.713	459.5
416.936	448.5
417.159	453.5
417.382	446.5
417.605	457.5
417.828	462.5
418.051	480.5
418.274	474.5
418.497	474.5
418.72	476.5
418.943	472.5
419.166	482.5
419.389	514.5
419.611	498.5
419.834	486.5
420.057	480.5
420.28	473.5
420.503	450.5
420.726	469.5
420.948	459.5
421.171	516.5
421.394	501.5
421.617	463.5
421.839	476.5
422.062	468.5
422.285	482.5
422.507	519.5
422.73	607.5
422.953	630.5
423.175	514.5
423.398	493.5
423.621	503.5
423.843	493.5
424.066	516.5
424.288	513.5
424.511	516.5
424.733	546.5
424.956	591.5
425.178	571.5
425.401	572.5
425.623	600.5
425.846	521.5
426.068	470.5
426.291	476.5
426.513	479.5
426.735	470.5
426.958	501.5
427.18	552.5
427.402	627.5
427.625	680.5
427.847	604.5
428.069	514.5
428.292	481.5
428.514	438.5
428.736	445.5
428.958	469.5
429.181	445.5
429.403	457.5
429.625	454.5
429.847	467.5
430.069	494.5
430.292	511.5
430.514	442.5
430.736	427.5
430.958	428.5
431.18	433.5
431.402	413.5
431.624	403.5
431.846	431.5
432.068	434.5
432.29	443.5
432.512	440.5
432.734	431.5
432.956	438.5
433.178	438.5
433.4	452.5
433.622	445.5
433.844	422.5
434.066	426.5
434.287	408.5
434.509	441.5
434.731	423.5
434.953	447.5
435.175	469.5
435.397	463.5
435.618	480.5
435.84	489.5
436.062	530.5
436.284	592.5
436.505	511.5
436.727	464.5
436.949	456.5
437.17	430.5
437.392	450.5
437.614	446.5
437.835	484.5
438.057	523.5
438.278	559.5
438.5	563.5
438.721	620.5
438.943	594.5
439.165	498.5
439.386	461.5
439.608	448.5
439.829	468.5
440.05	498.5
440.272	540.5
440.493	466.5
440.715	463.5
440.936	453.5
441.158	475.5
441.379	447.5
441.6	467.5
441.822	478.5
442.043	507.5
442.264	569.5
442.486	571.5
442.707	504.5
442.928	483.5
443.149	488.5
443.371	526.5
443.592	534.5
443.813	603.5
444.034	642.5
444.255	570.5
444.476	504.5
444.698	503.5
444.919	523.5
445.14	644.5
445.361	578.5
445.582	521.5
445.803	536.5
446.024	613.5
446.245	618.5
446.466	556.5
446.687	505.5
446.908	485.5
447.129	448.5
447.35	451.5
447.571	434.5
447.792	413.5
448.013	434.5
448.234	462.5
448.455	467.5
448.675	543.5
448.896	586.5
449.117	524.5
449.338	510.5
449.559	574.5
449.779	639.5
450	527.5
450.221	450.5
450.442	414.5
450.662	410.5
450.883	432.5
451.104	423.5
451.324	395.5
451.545	414.5
451.766	402.5
451.986	415.5
452.207	393.5
452.428	392.5
452.648	383.5
452.869	408.5
453.089	404.5
453.31	399.5
453.53	402.5
453.751	402.5
453.971	383.5
454.192	399.5
454.412	384.5
454.633	372.5
454.853	380.5
455.073	387.5
455.294	385.5
455.514	451.5
455.734	447.5
455.955	394.5
456.175	359.5
456.395	379.5
456.616	367.5
456.836	368.5
457.056	392.5
457.276	352.5
457.497	360.5
457.717	353.5
457.937	355.5
458.157	401.5
458.377	398.5
458.598	406.5
458.818	429.5
459.038	477.5
459.258	482.5
459.478	450.5
459.698	442.5
459.918	427.5
460.138	450.5
460.358	455.5
460.578	451.5
460.798	470.5
461.018	469.5
461.238	443.5
461.458	454.5
461.678	466.5
461.898	445.5
462.118	461.5
462.338	480.5
462.558	479.5
462.777	486.5
462.997	512.5
463.217	542.5
463.437	541.5
463.657	514.5
463.876	528.5
464.096	497.5
464.316	522.5
464.536	520.5
464.755	512.5
464.975	512.5
465.195	521.5
465.414	526.5
465.634	473.5
465.854	421.5
466.073	445.5
466.293	424.5
466.512	398.5
466.732	400.5
466.951	422.5
467.171	407.5
467.391	411.5
467.61	405.5
467.829	412.5
468.049	402.5
468.268	386.5
468.488	411.5
468.707	383.5
468.927	406.5
469.146	383.5
469.365	410.5
469.585	400.5
469.804	411.5
470.023	420.5
470.243	437.5
470.462	417.5
470.681	418.5
470.901	431.5
471.12	423.5
471.339	419.5
471.558	403.5
471.777	413.5
471.997	401.5
472.216	399.5
472.435	399.5
472.654	386.5
472.873	384.5
473.092	384.5
473.311	391.5
473.53	380.5
473.749	418.5
473.968	418.5
474.187	474.5
474.406	502.5
474.625	440.5
474.844	409.5
475.063	413.5
475.282	409.5
475.501	421.5
475.72	408.5
475.939	400.5
476.158	412.5
476.377	430.5
476.596	401.5
476.814	417.5
477.033	446.5
477.252	418.5
477.471	434.5
477.69	437.5
477.908	447.5
478.127	462.5
478.346	468.5
478.564	470.5
478.783	458.5
479.002	484.5
479.22	482.5
479.439	507.5
479.658	498.5
479.876	503.5
480.095	481.5
480.313	500.5
480.532	507.5
480.751	540.5
480.969	478.5
481.188	483.5
481.406	499.5
481.624	477.5
481.843	472.5
482.061	451.5
482.28	459.5
482.498	463.5
482.717	465.5
482.935	441.5
483.153	464.5
483.372	452.5
483.59	453.5
483.808	442.5
484.027	446.5
484.245	462.5
484.463	491.5
484.681	503.5
484.9	472.5
485.118	467.5
485.336	483.5
485.554	500.5
485.772	499.5
485.99	502.5
486.209	477.5
486.427	487.5
486.645	506.5
486.863	518.5
487.081	521.5
487.299	505.5
487.517	502.5
487.735	483.5
487.953	485.5
488.171	501.5
488.389	512.5
488.607	492.5
488.825	499.5
489.043	475.5
489.261	484.5
489.479	485.5
489.696	511.5
489.914	513.5
490.132	521.5
490.35	526.5
490.568	503.5
490.786	512.5
491.003	520.5
491.221	493.5
491.439	534.5
491.657	510.5
491.874	535.5
492.092	527.5
492.31	532.5
492.527	516.5
492.745	518.5
492.963	531.5
493.18	533.5
493.398	532.5
493.615	551.5
493.833	555.5
494.05	537.5
494.268	531.5
494.485	536.5
494.703	528.5
494.92	527.5
495.138	538.5
495.355	547.5
495.573	533.5
495.79	557.5
496.008	575.5
496.225	556.5
496.442	558.5
496.66	539.5
496.877	556.5
497.094	559.5
497.312	585.5
497.529	589.5
497.746	588.5
497.963	600.5
498.181	637.5
498.398	662.5
498.615	708.5
498.832	714.5
499.049	725.5
499.267	768.5
499.484	814.5
499.701	838.5
499.918	902.5
500.135	991.5
500.352	1046.5
500.569	1101.5
500.786	1068.5
501.003	1015.5
501.22	958.5
501.437	916.5
501.654	852.5
501.871	815.5
502.088	756.5
502.305	732.5
502.522	702.5
502.739	667.5
502.956	655.5
503.172	627.5
503.389	639.5
503.606	617.5
503.823	634.5
504.04	587.5
504.256	588.5
504.473	607.5
504.69	628.5
504.907	606.5
505.123	567.5
505.34	570.5
505.557	558.5
505.773	527.5
505.99	519.5
506.207	533.5
506.423	524.5
506.64	498.5
506.856	527.5
507.073	510.5
507.289	524.5
507.506	510.5
507.722	509.5
507.939	508.5
508.155	506.5
508.372	499.5
508.588	481.5
508.805	476.5
509.021	485.5
509.238	465.5
509.454	496.5
509.67	482.5
509.887	491.5
510.103	458.5
510.319	492.5
510.536	587.5
510.752	1034.5
510.968	835.5
511.184	506.5
511.401	478.5
511.617	473.5
511.833	462.5
512.049	471.5
512.265	461.5
512.481	446.5
512.698	468.5
512.914	472.5
513.13	469.5
513.346	479.5
513.562	458.5
513.778	462.5
513.994	473.5
514.21	474.5
514.426	465.5
514.642	506.5
514.858	526.5
515.074	546.5
515.29	667.5
515.506	987.5
515.721	839.5
515.937	569.5
516.153	507.5
516.369	529.5
516.585	521.5
516.801	500.5
517.016	528.5
517.232	531.5
517.448	508.5
517.664	570.5
517.879	552.5
518.095	532.5
518.311	564.5
518.527	538.5
518.742	547.5
518.958	534.5
519.173	536.5
519.389	500.5
519.605	489.5
519.82	494.5
