Data from 1984.PennyLincolnUp.Lamp.En5.5.200Scan.071819.P1_HRD10591_16-59-00-968.txt Node
Date: Thu Jul 18 16:59:00 EDT 2019
User: cochatt
Spectrometer: HR+D1059
Trigger mode: 1
Integration Time (sec): 1.000000E-1
Scans to average: 1
Electric dark correction enabled: true
Nonlinearity correction enabled: false
Boxcar width: 0
XAxis mode: Wavelengths
Number of Pixels in Spectrum: 2048
>>>>>Begin Spectral Data<<<<<
223.165	1.88
223.4	1.88
223.635	1.88
223.869	-14.12
224.104	-12.12
224.338	-7.12
224.573	-24.12
224.808	-11.12
225.042	-12.12
225.277	-16.12
225.511	-4.12
225.746	4.88
225.98	5.88
226.215	2.88
226.449	11.88
226.683	11.88
226.918	26.88
227.152	34.88
227.387	32.88
227.621	27.88
227.856	38.88
228.09	39.88
228.324	51.88
228.559	43.88
228.793	71.88
229.027	88.88
229.262	102.88
229.496	87.88
229.73	93.88
229.964	123.88
230.199	107.88
230.433	98.88
230.667	115.88
230.901	89.88
231.136	95.88
231.37	99.88
231.604	104.88
231.838	111.88
232.072	98.88
232.306	107.88
232.541	101.88
232.775	105.88
233.009	103.88
233.243	93.88
233.477	105.88
233.711	114.88
233.945	120.88
234.179	101.88
234.413	104.88
234.647	116.88
234.881	105.88
235.115	109.88
235.349	114.88
235.583	110.88
235.817	99.88
236.051	106.88
236.285	112.88
236.519	127.88
236.753	121.88
236.987	114.88
237.221	125.88
237.455	152.88
237.689	139.88
237.922	113.88
238.156	113.88
238.39	115.88
238.624	110.88
238.858	130.88
239.091	113.88
239.325	117.88
239.559	115.88
239.793	97.88
240.027	124.88
240.26	115.88
240.494	123.88
240.728	119.88
240.961	122.88
241.195	120.88
241.429	121.88
241.662	127.88
241.896	112.88
242.13	111.88
242.363	111.88
242.597	111.88
242.83	136.88
243.064	125.88
243.298	113.88
243.531	121.88
243.765	127.88
243.998	132.88
244.232	131.88
244.465	145.88
244.699	134.88
244.932	136.88
245.166	128.88
245.399	129.88
245.633	127.88
245.866	132.88
246.099	119.88
246.333	125.88
246.566	126.88
246.8	139.88
247.033	145.88
247.266	143.88
247.5	129.88
247.733	147.88
247.966	154.88
248.2	150.88
248.433	132.88
248.666	148.88
248.899	145.88
249.133	162.88
249.366	167.88
249.599	174.88
249.832	163.88
250.066	167.88
250.299	157.88
250.532	174.88
250.765	184.88
250.998	190.88
251.231	181.88
251.465	181.88
251.698	198.88
251.931	159.88
252.164	179.88
252.397	173.88
252.63	182.88
252.863	178.88
253.096	175.88
253.329	194.88
253.562	193.88
253.795	175.88
254.028	176.88
254.261	174.88
254.494	187.88
254.727	201.88
254.96	214.88
255.193	193.88
255.426	209.88
255.659	214.88
255.892	202.88
256.124	240.88
256.357	238.88
256.59	226.88
256.823	194.88
257.056	201.88
257.289	189.88
257.521	198.88
257.754	168.88
257.987	188.88
258.22	190.88
258.452	169.88
258.685	177.88
258.918	182.88
259.151	171.88
259.383	170.88
259.616	173.88
259.849	195.88
260.081	189.88
260.314	193.88
260.547	199.88
260.779	202.88
261.012	201.88
261.244	203.88
261.477	216.88
261.71	190.88
261.942	200.88
262.175	191.88
262.407	209.88
262.64	195.88
262.872	197.88
263.105	192.88
263.337	174.88
263.57	177.88
263.802	176.88
264.035	195.88
264.267	185.88
264.499	169.88
264.732	183.88
264.964	197.88
265.197	194.88
265.429	203.88
265.661	191.88
265.894	194.88
266.126	175.88
266.358	195.88
266.591	192.88
266.823	183.88
267.055	195.88
267.287	190.88
267.52	202.88
267.752	200.88
267.984	195.88
268.216	192.88
268.448	201.88
268.681	199.88
268.913	205.88
269.145	223.88
269.377	246.88
269.609	231.88
269.841	230.88
270.073	224.88
270.306	241.88
270.538	239.88
270.77	215.88
271.002	243.88
271.234	244.88
271.466	249.88
271.698	266.88
271.93	257.88
272.162	260.88
272.394	249.88
272.626	245.88
272.858	217.88
273.09	243.88
273.322	230.88
273.553	231.88
273.785	235.88
274.017	243.88
274.249	233.88
274.481	238.88
274.713	246.88
274.945	241.88
275.176	235.88
275.408	234.88
275.64	242.88
275.872	220.88
276.104	223.88
276.335	234.88
276.567	230.88
276.799	255.88
277.031	266.88
277.262	259.88
277.494	281.88
277.726	256.88
277.957	252.88
278.189	251.88
278.421	237.88
278.652	241.88
278.884	218.88
279.115	234.88
279.347	254.88
279.579	264.88
279.81	261.88
280.042	248.88
280.273	239.88
280.505	231.88
280.736	250.88
280.968	234.88
281.199	253.88
281.431	245.88
281.662	265.88
281.894	251.88
282.125	266.88
282.356	269.88
282.588	272.88
282.819	275.88
283.051	265.88
283.282	259.88
283.513	254.88
283.745	279.88
283.976	247.88
284.207	250.88
284.439	263.88
284.67	258.88
284.901	262.88
285.132	245.88
285.364	255.88
285.595	270.88
285.826	257.88
286.057	258.88
286.288	258.88
286.52	272.88
286.751	276.88
286.982	255.88
287.213	259.88
287.444	285.88
287.675	273.88
287.906	280.88
288.138	286.88
288.369	277.88
288.6	276.88
288.831	265.88
289.062	270.88
289.293	272.88
289.524	280.88
289.755	256.88
289.986	294.88
290.217	265.88
290.448	272.88
290.679	280.88
290.91	271.88
291.141	269.88
291.371	270.88
291.602	267.88
291.833	255.88
292.064	265.88
292.295	285.88
292.526	274.88
292.757	273.88
292.987	273.88
293.218	269.88
293.449	277.88
293.68	278.88
293.91	257.88
294.141	269.88
294.372	276.88
294.603	300.88
294.833	278.88
295.064	273.88
295.295	275.88
295.525	271.88
295.756	288.88
295.987	279.88
296.217	280.88
296.448	300.88
296.679	296.88
296.909	288.88
297.14	287.88
297.37	276.88
297.601	289.88
297.831	283.88
298.062	284.88
298.292	285.88
298.523	295.88
298.753	295.88
298.984	280.88
299.214	296.88
299.445	297.88
299.675	298.88
299.905	295.88
300.136	301.88
300.366	295.88
300.597	308.88
300.827	305.88
301.057	311.88
301.288	295.88
301.518	295.88
301.748	302.88
301.979	305.88
302.209	307.88
302.439	316.88
302.669	305.88
302.9	303.88
303.13	310.88
303.36	298.88
303.59	319.88
303.82	316.88
304.051	316.88
304.281	316.88
304.511	297.88
304.741	309.88
304.971	320.88
305.201	309.88
305.431	304.88
305.661	292.88
305.891	291.88
306.121	291.88
306.352	299.88
306.582	327.88
306.812	288.88
307.042	294.88
307.272	314.88
307.502	301.88
307.731	294.88
307.961	302.88
308.191	320.88
308.421	321.88
308.651	298.88
308.881	321.88
309.111	294.88
309.341	310.88
309.571	308.88
309.8	316.88
310.03	327.88
310.26	313.88
310.49	335.88
310.72	317.88
310.949	347.88
311.179	344.88
311.409	321.88
311.639	330.88
311.868	324.88
312.098	342.88
312.328	349.88
312.557	318.88
312.787	349.88
313.017	343.88
313.246	342.88
313.476	328.88
313.706	338.88
313.935	352.88
314.165	356.88
314.394	331.88
314.624	317.88
314.853	344.88
315.083	341.88
315.312	346.88
315.542	341.88
315.771	325.88
316.001	337.88
316.23	339.88
316.46	321.88
316.689	331.88
316.919	349.88
317.148	335.88
317.377	342.88
317.607	364.88
317.836	328.88
318.065	333.88
318.295	313.88
318.524	336.88
318.753	334.88
318.983	337.88
319.212	325.88
319.441	357.88
319.67	347.88
319.9	368.88
320.129	319.88
320.358	325.88
320.587	331.88
320.816	340.88
321.046	349.88
321.275	337.88
321.504	361.88
321.733	351.88
321.962	353.88
322.191	359.88
322.42	379.88
322.649	377.88
322.878	385.88
323.108	388.88
323.337	413.88
323.566	417.88
323.795	435.88
324.024	461.88
324.253	523.88
324.482	699.88
324.71	993.88
324.939	1373.88
325.168	1180.88
325.397	666.88
325.626	513.88
325.855	457.88
326.084	447.88
326.313	406.88
326.542	426.88
326.77	436.88
326.999	487.88
327.228	655.88
327.457	917.88
327.686	1051.88
327.914	739.88
328.143	554.88
328.372	490.88
328.6	465.88
328.829	449.88
329.058	466.88
329.287	462.88
329.515	458.88
329.744	454.88
329.972	468.88
330.201	517.88
330.43	503.88
330.658	509.88
330.887	493.88
331.115	480.88
331.344	450.88
331.572	436.88
331.801	429.88
332.03	421.88
332.258	422.88
332.486	423.88
332.715	438.88
332.943	435.88
333.172	434.88
333.4	461.88
333.629	488.88
333.857	492.88
334.085	518.88
334.314	557.88
334.542	602.88
334.771	621.88
334.999	530.88
335.227	466.88
335.455	453.88
335.684	437.88
335.912	437.88
336.14	440.88
336.369	430.88
336.597	419.88
336.825	441.88
337.053	395.88
337.281	405.88
337.51	399.88
337.738	411.88
337.966	393.88
338.194	401.88
338.422	396.88
338.65	410.88
338.878	384.88
339.106	385.88
339.334	391.88
339.562	386.88
339.79	374.88
340.018	392.88
340.246	357.88
340.474	383.88
340.702	373.88
340.93	381.88
341.158	384.88
341.386	387.88
341.614	377.88
341.842	382.88
342.07	363.88
342.298	360.88
342.526	375.88
342.754	365.88
342.981	357.88
343.209	379.88
343.437	381.88
343.665	385.88
343.893	418.88
344.12	411.88
344.348	407.88
344.576	400.88
344.804	386.88
345.031	404.88
345.259	405.88
345.487	381.88
345.714	369.88
345.942	378.88
346.17	379.88
346.397	348.88
346.625	333.88
346.853	353.88
347.08	354.88
347.308	361.88
347.535	369.88
347.763	358.88
347.99	373.88
348.218	374.88
348.445	386.88
348.673	385.88
348.9	362.88
349.128	361.88
349.355	343.88
349.583	355.88
349.81	349.88
350.037	364.88
350.265	337.88
350.492	345.88
350.72	345.88
350.947	354.88
351.174	343.88
351.402	363.88
351.629	343.88
351.856	342.88
352.083	368.88
352.311	362.88
352.538	376.88
352.765	349.88
352.992	375.88
353.22	353.88
353.447	349.88
353.674	350.88
353.901	353.88
354.128	352.88
354.355	333.88
354.583	340.88
354.81	339.88
355.037	329.88
355.264	351.88
355.491	355.88
355.718	325.88
355.945	334.88
356.172	334.88
356.399	336.88
356.626	346.88
356.853	329.88
357.08	338.88
357.307	338.88
357.534	319.88
357.761	348.88
357.988	329.88
358.215	325.88
358.441	347.88
358.668	350.88
358.895	345.88
359.122	362.88
359.349	363.88
359.576	369.88
359.802	376.88
360.029	356.88
360.256	371.88
360.483	364.88
360.709	346.88
360.936	351.88
361.163	357.88
361.39	337.88
361.616	365.88
361.843	343.88
362.07	357.88
362.296	355.88
362.523	353.88
362.749	355.88
362.976	343.88
363.203	345.88
363.429	322.88
363.656	335.88
363.882	344.88
364.109	363.88
364.335	334.88
364.562	336.88
364.788	341.88
365.015	343.88
365.241	348.88
365.468	337.88
365.694	341.88
365.92	334.88
366.147	344.88
366.373	346.88
366.599	331.88
366.826	353.88
367.052	348.88
367.278	327.88
367.505	355.88
367.731	326.88
367.957	330.88
368.184	344.88
368.41	340.88
368.636	350.88
368.862	335.88
369.089	349.88
369.315	354.88
369.541	347.88
369.767	342.88
369.993	353.88
370.219	339.88
370.445	358.88
370.672	337.88
370.898	332.88
371.124	335.88
371.35	329.88
371.576	340.88
371.802	352.88
372.028	359.88
372.254	345.88
372.48	359.88
372.706	335.88
372.932	361.88
373.158	374.88
373.384	363.88
373.61	349.88
373.835	339.88
374.061	347.88
374.287	355.88
374.513	351.88
374.739	358.88
374.965	365.88
375.191	389.88
375.416	361.88
375.642	349.88
375.868	368.88
376.094	354.88
376.319	363.88
376.545	353.88
376.771	354.88
376.997	351.88
377.222	355.88
377.448	352.88
377.674	354.88
377.899	335.88
378.125	339.88
378.35	354.88
378.576	343.88
378.802	340.88
379.027	329.88
379.253	339.88
379.478	347.88
379.704	336.88
379.929	359.88
380.155	342.88
380.38	351.88
380.606	352.88
380.831	349.88
381.057	348.88
381.282	352.88
381.507	338.88
381.733	354.88
381.958	334.88
382.184	343.88
382.409	370.88
382.634	369.88
382.86	372.88
383.085	382.88
383.31	387.88
383.535	375.88
383.761	359.88
383.986	377.88
384.211	381.88
384.436	373.88
384.662	386.88
384.887	398.88
385.112	395.88
385.337	397.88
385.562	408.88
385.787	385.88
386.013	412.88
386.238	393.88
386.463	387.88
386.688	408.88
386.913	407.88
387.138	383.88
387.363	393.88
387.588	388.88
387.813	394.88
388.038	366.88
388.263	375.88
388.488	388.88
388.713	385.88
388.938	394.88
389.163	386.88
389.387	382.88
389.612	392.88
389.837	383.88
390.062	387.88
390.287	389.88
390.512	395.88
390.736	389.88
390.961	394.88
391.186	414.88
391.411	410.88
391.636	392.88
391.86	409.88
392.085	430.88
392.31	415.88
392.534	415.88
392.759	420.88
392.984	429.88
393.208	415.88
393.433	413.88
393.658	400.88
393.882	384.88
394.107	392.88
394.331	398.88
394.556	409.88
394.78	399.88
395.005	407.88
395.229	409.88
395.454	424.88
395.678	417.88
395.903	440.88
396.127	420.88
396.352	437.88
396.576	400.88
396.801	416.88
397.025	430.88
397.249	415.88
397.474	407.88
397.698	437.88
397.922	445.88
398.147	440.88
398.371	452.88
398.595	468.88
398.82	463.88
399.044	495.88
399.268	520.88
399.492	554.88
399.717	577.88
399.941	624.88
400.165	580.88
400.389	594.88
400.613	547.88
400.837	510.88
401.062	481.88
401.286	474.88
401.51	461.88
401.734	472.88
401.958	465.88
402.182	458.88
402.406	468.88
402.63	485.88
402.854	470.88
403.078	481.88
403.302	488.88
403.526	495.88
403.75	509.88
403.974	512.88
404.198	501.88
404.422	505.88
404.645	509.88
404.869	504.88
405.093	561.88
405.317	576.88
405.541	599.88
405.765	536.88
405.988	507.88
406.212	530.88
406.436	523.88
406.66	545.88
406.883	538.88
407.107	565.88
407.331	569.88
407.555	611.88
407.778	628.88
408.002	565.88
408.226	565.88
408.449	514.88
408.673	531.88
408.896	547.88
409.12	549.88
409.344	542.88
409.567	490.88
409.791	519.88
410.014	492.88
410.238	475.88
410.461	488.88
410.685	501.88
410.908	514.88
411.132	474.88
411.355	513.88
411.578	519.88
411.802	482.88
412.025	502.88
412.249	493.88
412.472	529.88
412.695	564.88
412.919	550.88
413.142	485.88
413.365	496.88
413.589	484.88
413.812	457.88
414.035	454.88
414.258	466.88
414.482	460.88
414.705	455.88
414.928	448.88
415.151	449.88
415.374	448.88
415.597	462.88
415.821	458.88
416.044	467.88
416.267	459.88
416.49	458.88
416.713	449.88
416.936	459.88
417.159	458.88
417.382	462.88
417.605	443.88
417.828	453.88
418.051	458.88
418.274	462.88
418.497	449.88
418.72	478.88
418.943	438.88
419.166	486.88
419.389	511.88
419.611	497.88
419.834	485.88
420.057	485.88
420.28	506.88
420.503	507.88
420.726	493.88
420.948	475.88
421.171	488.88
421.394	533.88
421.617	491.88
421.839	466.88
422.062	465.88
422.285	460.88
422.507	506.88
422.73	552.88
422.953	535.88
423.175	489.88
423.398	480.88
423.621	478.88
423.843	509.88
424.066	504.88
424.288	479.88
424.511	487.88
424.733	537.88
424.956	584.88
425.178	545.88
425.401	529.88
425.623	537.88
425.846	497.88
426.068	497.88
426.291	480.88
426.513	454.88
426.735	443.88
426.958	499.88
427.18	538.88
427.402	626.88
427.625	672.88
427.847	596.88
428.069	539.88
428.292	497.88
428.514	439.88
428.736	480.88
428.958	439.88
429.181	419.88
429.403	424.88
429.625	432.88
429.847	467.88
430.069	494.88
430.292	465.88
430.514	429.88
430.736	434.88
430.958	427.88
431.18	414.88
431.402	411.88
431.624	411.88
431.846	426.88
432.068	433.88
432.29	405.88
432.512	423.88
432.734	418.88
432.956	423.88
433.178	412.88
433.4	410.88
433.622	450.88
433.844	420.88
434.066	419.88
434.287	442.88
434.509	438.88
434.731	446.88
434.953	440.88
435.175	450.88
435.397	459.88
435.618	475.88
435.84	496.88
436.062	507.88
436.284	558.88
436.505	480.88
436.727	475.88
436.949	446.88
437.17	441.88
437.392	426.88
437.614	441.88
437.835	448.88
438.057	513.88
438.278	558.88
438.5	537.88
438.721	614.88
438.943	577.88
439.165	471.88
439.386	457.88
439.608	439.88
439.829	442.88
440.05	478.88
440.272	482.88
440.493	475.88
440.715	433.88
440.936	434.88
441.158	438.88
441.379	440.88
441.6	455.88
441.822	467.88
442.043	495.88
442.264	528.88
442.486	547.88
442.707	499.88
442.928	482.88
443.149	473.88
443.371	487.88
443.592	529.88
443.813	576.88
444.034	637.88
444.255	532.88
444.476	507.88
444.698	532.88
444.919	534.88
445.14	604.88
445.361	551.88
445.582	523.88
445.803	524.88
446.024	578.88
446.245	546.88
446.466	533.88
446.687	467.88
446.908	455.88
447.129	447.88
447.35	431.88
447.571	399.88
447.792	422.88
448.013	418.88
448.234	420.88
448.455	447.88
448.675	522.88
448.896	553.88
449.117	509.88
449.338	476.88
449.559	543.88
449.779	594.88
450	501.88
450.221	433.88
450.442	406.88
450.662	405.88
450.883	416.88
451.104	430.88
451.324	408.88
451.545	372.88
451.766	379.88
451.986	403.88
452.207	373.88
452.428	395.88
452.648	379.88
452.869	381.88
453.089	382.88
453.31	390.88
453.53	376.88
453.751	387.88
453.971	376.88
454.192	381.88
454.412	387.88
454.633	378.88
454.853	386.88
455.073	373.88
455.294	392.88
455.514	434.88
455.734	406.88
455.955	373.88
456.175	372.88
456.395	383.88
456.616	385.88
456.836	369.88
457.056	366.88
457.276	376.88
457.497	360.88
457.717	350.88
457.937	364.88
458.157	369.88
458.377	391.88
458.598	401.88
458.818	430.88
459.038	457.88
459.258	456.88
459.478	425.88
459.698	421.88
459.918	431.88
460.138	447.88
460.358	449.88
460.578	457.88
460.798	456.88
461.018	451.88
461.238	447.88
461.458	448.88
461.678	465.88
461.898	449.88
462.118	454.88
462.338	460.88
462.558	472.88
462.777	498.88
462.997	515.88
463.217	537.88
463.437	559.88
463.657	520.88
463.876	481.88
464.096	488.88
464.316	497.88
464.536	517.88
464.755	489.88
464.975	473.88
465.195	491.88
465.414	491.88
465.634	466.88
465.854	421.88
466.073	416.88
466.293	409.88
466.512	386.88
466.732	403.88
466.951	400.88
467.171	388.88
467.391	407.88
467.61	408.88
467.829	396.88
468.049	389.88
468.268	420.88
468.488	428.88
468.707	389.88
468.927	406.88
469.146	385.88
469.365	390.88
469.585	403.88
469.804	399.88
470.023	421.88
470.243	410.88
470.462	417.88
470.681	420.88
470.901	419.88
471.12	395.88
471.339	394.88
471.558	411.88
471.777	393.88
471.997	405.88
472.216	419.88
472.435	483.88
472.654	419.88
472.873	417.88
473.092	413.88
473.311	407.88
473.53	379.88
473.749	401.88
473.968	440.88
474.187	468.88
474.406	465.88
474.625	418.88
474.844	407.88
475.063	388.88
475.282	424.88
475.501	403.88
475.72	380.88
475.939	402.88
476.158	405.88
476.377	397.88
476.596	412.88
476.814	426.88
477.033	421.88
477.252	426.88
477.471	439.88
477.69	422.88
477.908	417.88
478.127	438.88
478.346	444.88
478.564	446.88
478.783	463.88
479.002	447.88
479.22	477.88
479.439	473.88
479.658	481.88
479.876	463.88
480.095	481.88
480.313	547.88
480.532	488.88
480.751	506.88
480.969	518.88
481.188	615.88
481.406	617.88
481.624	539.88
481.843	503.88
482.061	467.88
482.28	466.88
482.498	461.88
482.717	472.88
482.935	470.88
483.153	459.88
483.372	454.88
483.59	453.88
483.808	459.88
484.027	448.88
484.245	452.88
484.463	458.88
484.681	469.88
484.9	473.88
485.118	460.88
485.336	463.88
485.554	473.88
485.772	449.88
485.99	464.88
486.209	469.88
486.427	474.88
486.645	462.88
486.863	484.88
487.081	450.88
487.299	490.88
487.517	480.88
487.735	480.88
487.953	485.88
488.171	483.88
488.389	484.88
488.607	487.88
488.825	507.88
489.043	507.88
489.261	479.88
489.479	478.88
489.696	483.88
489.914	509.88
490.132	486.88
490.35	479.88
490.568	525.88
490.786	497.88
491.003	496.88
491.221	524.88
491.439	523.88
491.657	530.88
491.874	542.88
492.092	532.88
492.31	564.88
492.527	546.88
492.745	573.88
492.963	560.88
493.18	561.88
493.398	541.88
493.615	528.88
493.833	565.88
494.05	545.88
494.268	564.88
494.485	551.88
494.703	571.88
494.92	569.88
495.138	551.88
495.355	557.88
495.573	555.88
495.79	552.88
496.008	552.88
496.225	544.88
496.442	552.88
496.66	558.88
496.877	545.88
497.094	559.88
497.312	551.88
497.529	590.88
497.746	598.88
497.963	608.88
498.181	633.88
498.398	655.88
498.615	660.88
498.832	678.88
499.049	713.88
499.267	752.88
499.484	785.88
499.701	834.88
499.918	902.88
500.135	956.88
500.352	1065.88
500.569	1061.88
500.786	1112.88
501.003	1043.88
501.22	945.88
501.437	906.88
501.654	834.88
501.871	787.88
502.088	736.88
