Data from 1984.PennyLincolnUp.Lamp.En5.5.200Scan.071819.P1_HRD10591_16-58-45-968.txt Node
Date: Thu Jul 18 16:58:45 EDT 2019
User: cochatt
Spectrometer: HR+D1059
Trigger mode: 1
Integration Time (sec): 1.000000E-1
Scans to average: 1
Electric dark correction enabled: true
Nonlinearity correction enabled: false
Boxcar width: 0
XAxis mode: Wavelengths
Number of Pixels in Spectrum: 2048
>>>>>Begin Spectral Data<<<<<
223.165	-18.62
223.4	-18.62
223.635	-18.62
223.869	-23.62
224.104	-10.62
224.338	-13.62
224.573	-11.62
224.808	-15.62
225.042	-8.62
225.277	2.38
225.511	-6.62
225.746	2.38
225.98	-3.62
226.215	11.38
226.449	24.38
226.683	25.38
226.918	28.38
227.152	18.38
227.387	29.38
227.621	26.38
227.856	41.38
228.09	42.38
228.324	62.38
228.559	52.38
228.793	62.38
229.027	90.38
229.262	85.38
229.496	91.38
229.73	111.38
229.964	118.38
230.199	97.38
230.433	108.38
230.667	88.38
230.901	99.38
231.136	96.38
231.37	101.38
231.604	105.38
231.838	92.38
232.072	112.38
232.306	98.38
232.541	106.38
232.775	113.38
233.009	115.38
233.243	104.38
233.477	112.38
233.711	102.38
233.945	116.38
234.179	112.38
234.413	106.38
234.647	116.38
234.881	109.38
235.115	93.38
235.349	118.38
235.583	117.38
235.817	102.38
236.051	113.38
236.285	99.38
236.519	114.38
236.753	130.38
236.987	123.38
237.221	138.38
237.455	164.38
237.689	140.38
237.922	110.38
238.156	105.38
238.39	122.38
238.624	132.38
238.858	120.38
239.091	114.38
239.325	103.38
239.559	101.38
239.793	117.38
240.027	118.38
240.26	119.38
240.494	132.38
240.728	117.38
240.961	128.38
241.195	121.38
241.429	123.38
241.662	113.38
241.896	121.38
242.13	127.38
242.363	106.38
242.597	128.38
242.83	140.38
243.064	133.38
243.298	135.38
243.531	134.38
243.765	130.38
243.998	132.38
244.232	129.38
244.465	132.38
244.699	147.38
244.932	129.38
245.166	127.38
245.399	136.38
245.633	141.38
245.866	131.38
246.099	129.38
246.333	136.38
246.566	144.38
246.8	147.38
247.033	139.38
247.266	141.38
247.5	148.38
247.733	130.38
247.966	154.38
248.2	163.38
248.433	141.38
248.666	135.38
248.899	162.38
249.133	186.38
249.366	166.38
249.599	162.38
249.832	161.38
250.066	163.38
250.299	168.38
250.532	185.38
250.765	190.38
250.998	185.38
251.231	172.38
251.465	170.38
251.698	162.38
251.931	182.38
252.164	178.38
252.397	173.38
252.63	155.38
252.863	170.38
253.096	174.38
253.329	181.38
253.562	181.38
253.795	192.38
254.028	180.38
254.261	182.38
254.494	190.38
254.727	187.38
254.96	218.38
255.193	216.38
255.426	209.38
255.659	186.38
255.892	224.38
256.124	231.38
256.357	232.38
256.59	201.38
256.823	207.38
257.056	199.38
257.289	210.38
257.521	201.38
257.754	182.38
257.987	180.38
258.22	189.38
258.452	157.38
258.685	189.38
258.918	187.38
259.151	182.38
259.383	190.38
259.616	193.38
259.849	201.38
260.081	200.38
260.314	208.38
260.547	194.38
260.779	206.38
261.012	189.38
261.244	202.38
261.477	195.38
261.71	179.38
261.942	196.38
262.175	182.38
262.407	193.38
262.64	190.38
262.872	205.38
263.105	192.38
263.337	192.38
263.57	182.38
263.802	213.38
264.035	201.38
264.267	208.38
264.499	206.38
264.732	192.38
264.964	189.38
265.197	203.38
265.429	195.38
265.661	193.38
265.894	206.38
266.126	209.38
266.358	190.38
266.591	194.38
266.823	212.38
267.055	209.38
267.287	201.38
267.52	198.38
267.752	202.38
267.984	213.38
268.216	195.38
268.448	216.38
268.681	211.38
268.913	240.38
269.145	242.38
269.377	252.38
269.609	243.38
269.841	222.38
270.073	230.38
270.306	252.38
270.538	265.38
270.77	245.38
271.002	242.38
271.234	229.38
271.466	233.38
271.698	246.38
271.93	258.38
272.162	261.38
272.394	255.38
272.626	258.38
272.858	248.38
273.09	240.38
273.322	229.38
273.553	245.38
273.785	233.38
274.017	230.38
274.249	249.38
274.481	231.38
274.713	243.38
274.945	227.38
275.176	235.38
275.408	240.38
275.64	231.38
275.872	237.38
276.104	260.38
276.335	235.38
276.567	228.38
276.799	233.38
277.031	262.38
277.262	269.38
277.494	263.38
277.726	279.38
277.957	244.38
278.189	258.38
278.421	229.38
278.652	254.38
278.884	238.38
279.115	243.38
279.347	233.38
279.579	256.38
279.81	260.38
280.042	254.38
280.273	257.38
280.505	262.38
280.736	256.38
280.968	271.38
281.199	260.38
281.431	267.38
281.662	237.38
281.894	261.38
282.125	268.38
282.356	286.38
282.588	271.38
282.819	281.38
283.051	249.38
283.282	268.38
283.513	268.38
283.745	261.38
283.976	265.38
284.207	250.38
284.439	261.38
284.67	260.38
284.901	272.38
285.132	281.38
285.364	266.38
285.595	248.38
285.826	264.38
286.057	261.38
286.288	270.38
286.52	257.38
286.751	252.38
286.982	250.38
287.213	279.38
287.444	263.38
287.675	275.38
287.906	270.38
288.138	292.38
288.369	275.38
288.6	266.38
288.831	284.38
289.062	282.38
289.293	288.38
289.524	291.38
289.755	262.38
289.986	289.38
290.217	279.38
290.448	278.38
290.679	278.38
290.91	274.38
291.141	274.38
291.371	273.38
291.602	280.38
291.833	278.38
292.064	267.38
292.295	276.38
292.526	267.38
292.757	262.38
292.987	273.38
293.218	286.38
293.449	294.38
293.68	277.38
293.91	292.38
294.141	276.38
294.372	296.38
294.603	285.38
294.833	274.38
295.064	269.38
295.295	270.38
295.525	273.38
295.756	283.38
295.987	294.38
296.217	306.38
296.448	296.38
296.679	285.38
296.909	312.38
297.14	294.38
297.37	307.38
297.601	282.38
297.831	295.38
298.062	278.38
298.292	291.38
298.523	289.38
298.753	292.38
298.984	286.38
299.214	300.38
299.445	309.38
299.675	284.38
299.905	294.38
300.136	288.38
300.366	318.38
300.597	298.38
300.827	297.38
301.057	311.38
301.288	324.38
301.518	315.38
301.748	301.38
301.979	308.38
302.209	315.38
302.439	331.38
302.669	331.38
302.9	323.38
303.13	309.38
303.36	309.38
303.59	313.38
303.82	314.38
304.051	304.38
304.281	314.38
304.511	296.38
304.741	320.38
304.971	310.38
305.201	306.38
305.431	289.38
305.661	312.38
305.891	306.38
306.121	316.38
306.352	314.38
306.582	309.38
306.812	308.38
307.042	308.38
307.272	315.38
307.502	298.38
307.731	331.38
307.961	326.38
308.191	309.38
308.421	311.38
308.651	305.38
308.881	318.38
309.111	316.38
309.341	313.38
309.571	315.38
309.8	307.38
310.03	337.38
310.26	331.38
310.49	333.38
310.72	351.38
310.949	335.38
311.179	336.38
311.409	318.38
311.639	345.38
311.868	345.38
312.098	340.38
312.328	343.38
312.557	348.38
312.787	340.38
313.017	349.38
313.246	347.38
313.476	340.38
313.706	349.38
313.935	333.38
314.165	361.38
314.394	353.38
314.624	354.38
314.853	352.38
315.083	352.38
315.312	337.38
315.542	331.38
315.771	340.38
316.001	342.38
316.23	321.38
316.46	335.38
316.689	337.38
316.919	322.38
317.148	349.38
317.377	333.38
317.607	338.38
317.836	340.38
318.065	356.38
318.295	348.38
318.524	341.38
318.753	338.38
318.983	353.38
319.212	347.38
319.441	348.38
319.67	353.38
319.9	342.38
320.129	353.38
320.358	355.38
320.587	328.38
320.816	342.38
321.046	354.38
321.275	349.38
321.504	348.38
321.733	368.38
321.962	358.38
322.191	366.38
322.42	359.38
322.649	366.38
322.878	388.38
323.108	394.38
323.337	387.38
323.566	397.38
323.795	424.38
324.024	448.38
324.253	517.38
324.482	670.38
324.71	978.38
324.939	1356.38
325.168	1144.38
325.397	661.38
325.626	492.38
325.855	436.38
326.084	426.38
326.313	430.38
326.542	396.38
326.77	444.38
326.999	507.38
327.228	639.38
327.457	865.38
327.686	1034.38
327.914	718.38
328.143	560.38
328.372	494.38
328.6	486.38
328.829	449.38
329.058	449.38
329.287	457.38
329.515	444.38
329.744	451.38
329.972	452.38
330.201	477.38
330.43	509.38
330.658	492.38
330.887	486.38
331.115	483.38
331.344	453.38
331.572	435.38
331.801	438.38
332.03	433.38
332.258	432.38
332.486	443.38
332.715	427.38
332.943	428.38
333.172	425.38
333.4	437.38
333.629	471.38
333.857	484.38
334.085	491.38
334.314	552.38
334.542	574.38
334.771	572.38
334.999	525.38
335.227	485.38
335.455	446.38
335.684	427.38
335.912	452.38
336.14	413.38
336.369	417.38
336.597	405.38
336.825	408.38
337.053	414.38
337.281	409.38
337.51	394.38
337.738	435.38
337.966	397.38
338.194	394.38
338.422	406.38
338.65	418.38
338.878	398.38
339.106	386.38
339.334	386.38
339.562	383.38
339.79	371.38
340.018	372.38
340.246	386.38
340.474	381.38
340.702	390.38
340.93	371.38
341.158	392.38
341.386	382.38
341.614	385.38
341.842	395.38
342.07	368.38
342.298	378.38
342.526	393.38
342.754	374.38
342.981	381.38
343.209	389.38
343.437	402.38
343.665	406.38
343.893	438.38
344.12	422.38
344.348	416.38
344.576	389.38
344.804	387.38
345.031	397.38
345.259	379.38
345.487	384.38
345.714	390.38
345.942	393.38
346.17	377.38
346.397	375.38
346.625	357.38
346.853	370.38
347.08	358.38
347.308	364.38
347.535	384.38
347.763	363.38
347.99	357.38
348.218	387.38
348.445	388.38
348.673	392.38
348.9	370.38
349.128	371.38
349.355	355.38
349.583	354.38
349.81	364.38
350.037	346.38
350.265	350.38
350.492	361.38
350.72	376.38
350.947	366.38
351.174	372.38
351.402	360.38
351.629	359.38
351.856	366.38
352.083	363.38
352.311	362.38
352.538	346.38
352.765	359.38
352.992	375.38
353.22	365.38
353.447	344.38
353.674	318.38
353.901	354.38
354.128	349.38
354.355	344.38
354.583	341.38
354.81	338.38
355.037	359.38
355.264	346.38
355.491	346.38
355.718	342.38
355.945	356.38
356.172	347.38
356.399	339.38
356.626	363.38
356.853	338.38
357.08	355.38
357.307	355.38
357.534	338.38
357.761	321.38
357.988	349.38
358.215	340.38
358.441	324.38
358.668	349.38
358.895	344.38
359.122	356.38
359.349	349.38
359.576	357.38
359.802	364.38
360.029	374.38
360.256	375.38
360.483	370.38
360.709	334.38
360.936	356.38
361.163	352.38
361.39	360.38
361.616	365.38
361.843	345.38
362.07	337.38
362.296	350.38
362.523	343.38
362.749	357.38
362.976	349.38
363.203	344.38
363.429	352.38
363.656	341.38
363.882	362.38
364.109	339.38
364.335	352.38
364.562	326.38
364.788	334.38
365.015	337.38
365.241	312.38
365.468	349.38
365.694	349.38
365.92	378.38
366.147	337.38
366.373	334.38
366.599	330.38
366.826	349.38
367.052	342.38
367.278	340.38
367.505	345.38
367.731	348.38
367.957	332.38
368.184	330.38
368.41	338.38
368.636	339.38
368.862	368.38
369.089	349.38
369.315	345.38
369.541	345.38
369.767	353.38
369.993	350.38
370.219	350.38
370.445	340.38
370.672	360.38
370.898	356.38
371.124	350.38
371.35	363.38
371.576	343.38
371.802	370.38
372.028	338.38
372.254	364.38
372.48	360.38
372.706	369.38
372.932	361.38
373.158	359.38
373.384	361.38
373.61	346.38
373.835	366.38
374.061	363.38
374.287	345.38
374.513	350.38
374.739	362.38
374.965	355.38
375.191	370.38
375.416	375.38
375.642	369.38
375.868	365.38
376.094	374.38
376.319	343.38
376.545	356.38
376.771	356.38
376.997	348.38
377.222	329.38
377.448	352.38
377.674	365.38
377.899	324.38
378.125	328.38
378.35	322.38
378.576	353.38
378.802	359.38
379.027	340.38
379.253	332.38
379.478	345.38
379.704	348.38
379.929	348.38
380.155	350.38
380.38	357.38
380.606	337.38
380.831	330.38
381.057	350.38
381.282	331.38
381.507	334.38
381.733	369.38
381.958	349.38
382.184	352.38
382.409	362.38
382.634	362.38
382.86	338.38
383.085	352.38
383.31	369.38
383.535	371.38
383.761	350.38
383.986	352.38
384.211	372.38
384.436	401.38
384.662	399.38
384.887	385.38
385.112	384.38
385.337	388.38
385.562	371.38
385.787	395.38
386.013	411.38
386.238	402.38
386.463	394.38
386.688	388.38
386.913	394.38
387.138	390.38
387.363	403.38
387.588	397.38
387.813	398.38
388.038	388.38
388.263	394.38
388.488	385.38
388.713	398.38
388.938	394.38
389.163	381.38
389.387	383.38
389.612	389.38
389.837	395.38
390.062	399.38
390.287	378.38
390.512	381.38
390.736	404.38
390.961	417.38
391.186	402.38
391.411	408.38
391.636	406.38
391.86	432.38
392.085	413.38
392.31	420.38
392.534	417.38
392.759	405.38
392.984	415.38
393.208	407.38
393.433	394.38
393.658	405.38
393.882	391.38
394.107	371.38
394.331	411.38
394.556	405.38
394.78	411.38
395.005	417.38
395.229	416.38
395.454	442.38
395.678	422.38
395.903	434.38
396.127	434.38
396.352	430.38
396.576	422.38
396.801	415.38
397.025	416.38
397.249	427.38
397.474	417.38
397.698	418.38
397.922	449.38
398.147	450.38
398.371	463.38
398.595	447.38
398.82	487.38
399.044	486.38
399.268	497.38
399.492	578.38
399.717	610.38
399.941	613.38
400.165	625.38
400.389	575.38
400.613	514.38
400.837	492.38
401.062	488.38
401.286	452.38
401.51	467.38
401.734	460.38
401.958	470.38
402.182	468.38
402.406	477.38
402.63	484.38
402.854	512.38
403.078	496.38
403.302	482.38
403.526	492.38
403.75	509.38
403.974	514.38
404.198	486.38
404.422	509.38
404.645	509.38
404.869	548.38
405.093	544.38
405.317	566.38
405.541	574.38
405.765	553.38
405.988	503.38
406.212	526.38
406.436	535.38
406.66	556.38
406.883	517.38
407.107	574.38
407.331	548.38
407.555	626.38
407.778	634.38
408.002	593.38
408.226	578.38
408.449	528.38
408.673	517.38
408.896	523.38
409.12	547.38
409.344	553.38
409.567	497.38
409.791	524.38
410.014	531.38
410.238	479.38
410.461	461.38
410.685	491.38
410.908	512.38
411.132	516.38
411.355	524.38
411.578	523.38
411.802	480.38
412.025	514.38
412.249	523.38
412.472	519.38
412.695	524.38
412.919	536.38
413.142	492.38
413.365	494.38
413.589	520.38
413.812	486.38
414.035	450.38
414.258	481.38
414.482	448.38
414.705	468.38
414.928	464.38
415.151	445.38
415.374	460.38
415.597	456.38
415.821	456.38
416.044	449.38
416.267	439.38
416.49	448.38
416.713	463.38
416.936	456.38
417.159	443.38
417.382	450.38
417.605	469.38
417.828	444.38
418.051	461.38
418.274	458.38
418.497	444.38
418.72	476.38
418.943	450.38
419.166	467.38
419.389	512.38
419.611	485.38
419.834	507.38
420.057	486.38
420.28	506.38
420.503	510.38
420.726	464.38
420.948	474.38
421.171	489.38
421.394	496.38
421.617	467.38
421.839	450.38
422.062	475.38
422.285	481.38
422.507	514.38
422.73	535.38
422.953	550.38
423.175	482.38
423.398	472.38
423.621	480.38
423.843	500.38
424.066	489.38
424.288	485.38
424.511	512.38
424.733	533.38
424.956	558.38
425.178	544.38
425.401	556.38
425.623	571.38
425.846	510.38
426.068	493.38
426.291	474.38
426.513	484.38
426.735	453.38
426.958	508.38
427.18	539.38
427.402	609.38
427.625	658.38
427.847	606.38
428.069	540.38
428.292	505.38
428.514	482.38
428.736	448.38
428.958	449.38
429.181	456.38
429.403	430.38
429.625	407.38
429.847	430.38
430.069	474.38
430.292	476.38
430.514	444.38
430.736	426.38
430.958	444.38
431.18	406.38
431.402	417.38
431.624	414.38
431.846	411.38
432.068	414.38
432.29	428.38
432.512	422.38
432.734	426.38
432.956	437.38
433.178	430.38
433.4	420.38
433.622	417.38
433.844	420.38
434.066	406.38
434.287	404.38
434.509	428.38
434.731	472.38
434.953	464.38
435.175	462.38
435.397	480.38
435.618	464.38
435.84	469.38
436.062	517.38
436.284	546.38
436.505	473.38
436.727	451.38
436.949	443.38
437.17	427.38
437.392	433.38
437.614	432.38
437.835	446.38
438.057	498.38
438.278	556.38
438.5	545.38
438.721	606.38
438.943	583.38
439.165	489.38
439.386	459.38
439.608	464.38
439.829	470.38
440.05	466.38
440.272	493.38
440.493	462.38
440.715	458.38
440.936	466.38
441.158	437.38
441.379	432.38
441.6	463.38
441.822	470.38
442.043	490.38
442.264	531.38
442.486	553.38
442.707	509.38
442.928	469.38
443.149	491.38
443.371	493.38
443.592	525.38
443.813	553.38
444.034	588.38
444.255	510.38
444.476	499.38
444.698	501.38
444.919	520.38
445.14	603.38
445.361	524.38
445.582	498.38
445.803	521.38
446.024	591.38
446.245	566.38
446.466	525.38
446.687	469.38
446.908	464.38
447.129	450.38
447.35	432.38
447.571	421.38
447.792	416.38
448.013	413.38
448.234	421.38
448.455	429.38
448.675	538.38
448.896	595.38
449.117	505.38
449.338	473.38
449.559	531.38
449.779	612.38
450	501.38
450.221	442.38
450.442	439.38
450.662	408.38
450.883	403.38
451.104	409.38
451.324	394.38
451.545	410.38
451.766	389.38
451.986	380.38
452.207	384.38
452.428	391.38
452.648	402.38
452.869	399.38
453.089	359.38
453.31	388.38
453.53	378.38
453.751	377.38
453.971	387.38
454.192	366.38
454.412	382.38
454.633	380.38
454.853	384.38
455.073	385.38
455.294	373.38
455.514	425.38
455.734	401.38
455.955	371.38
456.175	355.38
456.395	374.38
456.616	363.38
456.836	352.38
457.056	372.38
457.276	356.38
457.497	373.38
457.717	348.38
457.937	362.38
458.157	384.38
458.377	376.38
458.598	378.38
458.818	428.38
459.038	454.38
459.258	483.38
459.478	437.38
459.698	428.38
459.918	422.38
460.138	432.38
460.358	457.38
460.578	469.38
460.798	445.38
461.018	461.38
461.238	435.38
461.458	461.38
461.678	472.38
461.898	440.38
462.118	463.38
462.338	488.38
462.558	489.38
462.777	502.38
462.997	526.38
463.217	568.38
463.437	566.38
463.657	506.38
463.876	497.38
464.096	512.38
464.316	502.38
464.536	523.38
464.755	512.38
464.975	482.38
465.195	482.38
465.414	484.38
465.634	451.38
465.854	444.38
466.073	436.38
466.293	419.38
466.512	388.38
466.732	405.38
466.951	404.38
467.171	394.38
467.391	407.38
467.61	404.38
467.829	420.38
468.049	401.38
468.268	392.38
468.488	404.38
468.707	392.38
468.927	374.38
469.146	398.38
469.365	388.38
469.585	400.38
469.804	389.38
470.023	402.38
470.243	421.38
470.462	404.38
470.681	432.38
470.901	430.38
471.12	417.38
471.339	422.38
471.558	415.38
471.777	399.38
471.997	393.38
472.216	408.38
472.435	448.38
472.654	441.38
472.873	416.38
473.092	407.38
473.311	404.38
473.53	393.38
473.749	396.38
473.968	414.38
474.187	462.38
474.406	478.38
474.625	410.38
474.844	408.38
475.063	399.38
475.282	385.38
475.501	401.38
475.72	421.38
475.939	391.38
476.158	414.38
476.377	417.38
476.596	387.38
476.814	419.38
477.033	424.38
477.252	394.38
477.471	413.38
477.69	420.38
477.908	441.38
478.127	460.38
478.346	448.38
478.564	459.38
478.783	456.38
479.002	457.38
479.22	449.38
479.439	470.38
479.658	469.38
479.876	486.38
480.095	488.38
480.313	514.38
480.532	516.38
480.751	520.38
480.969	521.38
481.188	593.38
481.406	614.38
481.624	541.38
481.843	509.38
482.061	483.38
482.28	472.38
482.498	458.38
482.717	441.38
482.935	441.38
483.153	432.38
483.372	455.38
483.59	450.38
483.808	473.38
484.027	467.38
484.245	451.38
484.463	472.38
484.681	438.38
484.9	461.38
485.118	478.38
485.336	462.38
485.554	468.38
485.772	468.38
485.99	454.38
486.209	474.38
486.427	476.38
486.645	469.38
486.863	486.38
487.081	482.38
487.299	481.38
487.517	479.38
487.735	477.38
487.953	494.38
488.171	468.38
488.389	461.38
488.607	486.38
488.825	488.38
489.043	471.38
489.261	485.38
489.479	471.38
489.696	497.38
489.914	467.38
490.132	472.38
490.35	497.38
490.568	500.38
490.786	508.38
491.003	504.38
491.221	524.38
491.439	532.38
491.657	534.38
491.874	556.38
492.092	556.38
492.31	531.38
492.527	541.38
492.745	559.38
492.963	553.38
493.18	546.38
493.398	544.38
493.615	568.38
493.833	548.38
494.05	557.38
494.268	551.38
494.485	555.38
494.703	531.38
494.92	541.38
495.138	554.38
495.355	565.38
495.573	555.38
495.79	537.38
496.008	548.38
496.225	554.38
496.442	552.38
496.66	564.38
496.877	540.38
497.094	571.38
497.312	584.38
497.529	601.38
497.746	602.38
497.963	588.38
498.181	627.38
498.398	628.38
498.615	672.38
498.832	684.38
499.049	710.38
499.267	717.38
499.484	795.38
499.701	808.38
499.918	863.38
500.135	940.38
500.352	1030.38
500.569	1067.38
500.786	1104.38
501.003	1044.38
501.22	975.38
501.437	892.38
501.654	851.38
501.871	783.38
502.088	746.38
