Data from 1984.PennyLincolnUp.Lamp.En5.5.200Scan.071819.P1_HRD10591_16-57-51-967.txt Node
Date: Thu Jul 18 16:57:51 EDT 2019
User: cochatt
Spectrometer: HR+D1059
Trigger mode: 1
Integration Time (sec): 1.000000E-1
Scans to average: 1
Electric dark correction enabled: true
Nonlinearity correction enabled: false
Boxcar width: 0
XAxis mode: Wavelengths
Number of Pixels in Spectrum: 2048
>>>>>Begin Spectral Data<<<<<
223.165	-12.06
223.4	-12.06
223.635	-12.06
223.869	-18.06
224.104	-2.06
224.338	-11.06
224.573	-20.06
224.808	-15.06
225.042	-20.06
225.277	-15.06
225.511	14.94
225.746	8.94
225.98	6.94
226.215	1.94
226.449	8.94
226.683	24.94
226.918	18.94
227.152	27.94
227.387	28.94
227.621	35.94
227.856	42.94
228.09	36.94
228.324	48.94
228.559	49.94
228.793	57.94
229.027	72.94
229.262	83.94
229.496	102.94
229.73	112.94
229.964	116.94
230.199	111.94
230.433	111.94
230.667	85.94
230.901	93.94
231.136	89.94
231.37	82.94
231.604	104.94
231.838	106.94
232.072	98.94
232.306	92.94
232.541	87.94
232.775	97.94
233.009	96.94
233.243	103.94
233.477	100.94
233.711	103.94
233.945	98.94
234.179	107.94
234.413	99.94
234.647	104.94
234.881	88.94
235.115	88.94
235.349	104.94
235.583	99.94
235.817	107.94
236.051	101.94
236.285	119.94
236.519	106.94
236.753	98.94
236.987	103.94
237.221	138.94
237.455	154.94
237.689	133.94
237.922	112.94
238.156	117.94
238.39	103.94
238.624	122.94
238.858	106.94
239.091	109.94
239.325	114.94
239.559	93.94
239.793	122.94
240.027	114.94
240.26	103.94
240.494	124.94
240.728	118.94
240.961	118.94
241.195	113.94
241.429	97.94
241.662	125.94
241.896	124.94
242.13	119.94
242.363	149.94
242.597	119.94
242.83	124.94
243.064	117.94
243.298	112.94
243.531	115.94
243.765	119.94
243.998	134.94
244.232	123.94
244.465	129.94
244.699	133.94
244.932	130.94
245.166	125.94
245.399	132.94
245.633	131.94
245.866	126.94
246.099	133.94
246.333	128.94
246.566	130.94
246.8	150.94
247.033	127.94
247.266	138.94
247.5	122.94
247.733	143.94
247.966	149.94
248.2	144.94
248.433	150.94
248.666	161.94
248.899	154.94
249.133	150.94
249.366	147.94
249.599	180.94
249.832	163.94
250.066	161.94
250.299	147.94
250.532	162.94
250.765	154.94
250.998	179.94
251.231	172.94
251.465	149.94
251.698	165.94
251.931	163.94
252.164	159.94
252.397	157.94
252.63	165.94
252.863	165.94
253.096	177.94
253.329	181.94
253.562	188.94
253.795	189.94
254.028	180.94
254.261	175.94
254.494	186.94
254.727	207.94
254.96	188.94
255.193	204.94
255.426	186.94
255.659	196.94
255.892	194.94
256.124	187.94
256.357	184.94
256.59	170.94
256.823	184.94
257.056	176.94
257.289	176.94
257.521	175.94
257.754	183.94
257.987	175.94
258.22	183.94
258.452	149.94
258.685	179.94
258.918	163.94
259.151	179.94
259.383	189.94
259.616	179.94
259.849	195.94
260.081	199.94
260.314	187.94
260.547	217.94
260.779	195.94
261.012	190.94
261.244	205.94
261.477	182.94
261.71	172.94
261.942	191.94
262.175	207.94
262.407	181.94
262.64	164.94
262.872	183.94
263.105	205.94
263.337	192.94
263.57	198.94
263.802	183.94
264.035	191.94
264.267	182.94
264.499	184.94
264.732	180.94
264.964	188.94
265.197	184.94
265.429	195.94
265.661	186.94
265.894	192.94
266.126	186.94
266.358	194.94
266.591	189.94
266.823	212.94
267.055	212.94
267.287	205.94
267.52	204.94
267.752	203.94
267.984	191.94
268.216	200.94
268.448	199.94
268.681	202.94
268.913	210.94
269.145	227.94
269.377	222.94
269.609	247.94
269.841	228.94
270.073	221.94
270.306	229.94
270.538	234.94
270.77	252.94
271.002	231.94
271.234	231.94
271.466	243.94
271.698	230.94
271.93	250.94
272.162	232.94
272.394	255.94
272.626	238.94
272.858	236.94
273.09	239.94
273.322	214.94
273.553	216.94
273.785	230.94
274.017	207.94
274.249	247.94
274.481	232.94
274.713	237.94
274.945	228.94
275.176	214.94
275.408	223.94
275.64	262.94
275.872	240.94
276.104	245.94
276.335	215.94
276.567	225.94
276.799	224.94
277.031	232.94
277.262	269.94
277.494	265.94
277.726	250.94
277.957	260.94
278.189	240.94
278.421	241.94
278.652	254.94
278.884	249.94
279.115	247.94
279.347	231.94
279.579	232.94
279.81	237.94
280.042	254.94
280.273	249.94
280.505	250.94
280.736	235.94
280.968	239.94
281.199	239.94
281.431	236.94
281.662	247.94
281.894	249.94
282.125	234.94
282.356	262.94
282.588	265.94
282.819	260.94
283.051	253.94
283.282	248.94
283.513	248.94
283.745	248.94
283.976	236.94
284.207	259.94
284.439	256.94
284.67	252.94
284.901	268.94
285.132	244.94
285.364	262.94
285.595	267.94
285.826	250.94
286.057	241.94
286.288	235.94
286.52	261.94
286.751	266.94
286.982	254.94
287.213	258.94
287.444	253.94
287.675	257.94
287.906	280.94
288.138	257.94
288.369	282.94
288.6	286.94
288.831	263.94
289.062	288.94
289.293	256.94
289.524	263.94
289.755	279.94
289.986	268.94
290.217	264.94
290.448	269.94
290.679	253.94
290.91	264.94
291.141	262.94
291.371	266.94
291.602	291.94
291.833	276.94
292.064	265.94
292.295	262.94
292.526	272.94
292.757	272.94
292.987	275.94
293.218	282.94
293.449	278.94
293.68	280.94
293.91	265.94
294.141	282.94
294.372	267.94
294.603	269.94
294.833	270.94
295.064	279.94
295.295	274.94
295.525	279.94
295.756	275.94
295.987	269.94
296.217	287.94
296.448	291.94
296.679	272.94
296.909	280.94
297.14	274.94
297.37	299.94
297.601	278.94
297.831	277.94
298.062	263.94
298.292	290.94
298.523	284.94
298.753	301.94
298.984	282.94
299.214	288.94
299.445	272.94
299.675	269.94
299.905	293.94
300.136	290.94
300.366	286.94
300.597	309.94
300.827	286.94
301.057	309.94
301.288	322.94
301.518	331.94
301.748	308.94
301.979	284.94
302.209	287.94
302.439	317.94
302.669	288.94
302.9	303.94
303.13	307.94
303.36	310.94
303.59	311.94
303.82	314.94
304.051	327.94
304.281	330.94
304.511	296.94
304.741	311.94
304.971	301.94
305.201	326.94
305.431	310.94
305.661	314.94
305.891	296.94
306.121	290.94
306.352	308.94
306.582	302.94
306.812	308.94
307.042	307.94
307.272	296.94
307.502	284.94
307.731	316.94
307.961	307.94
308.191	306.94
308.421	312.94
308.651	319.94
308.881	310.94
309.111	306.94
309.341	293.94
309.571	309.94
309.8	310.94
310.03	317.94
310.26	321.94
310.49	325.94
310.72	322.94
310.949	342.94
311.179	332.94
311.409	324.94
311.639	319.94
311.868	348.94
312.098	326.94
312.328	342.94
312.557	324.94
312.787	347.94
313.017	343.94
313.246	340.94
313.476	326.94
313.706	324.94
313.935	338.94
314.165	345.94
314.394	351.94
314.624	347.94
314.853	351.94
315.083	323.94
315.312	325.94
315.542	322.94
315.771	334.94
316.001	315.94
316.23	333.94
316.46	335.94
316.689	324.94
316.919	334.94
317.148	320.94
317.377	343.94
317.607	336.94
317.836	316.94
318.065	335.94
318.295	336.94
318.524	318.94
318.753	325.94
318.983	338.94
319.212	317.94
319.441	339.94
319.67	340.94
319.9	315.94
320.129	315.94
320.358	338.94
320.587	335.94
320.816	347.94
321.046	329.94
321.275	345.94
321.504	351.94
321.733	338.94
321.962	352.94
322.191	335.94
322.42	347.94
322.649	371.94
322.878	367.94
323.108	360.94
323.337	368.94
323.566	396.94
323.795	406.94
324.024	417.94
324.253	506.94
324.482	642.94
324.71	883.94
324.939	1219.94
325.168	1095.94
325.397	645.94
325.626	460.94
325.855	408.94
326.084	416.94
326.313	397.94
326.542	403.94
326.77	424.94
326.999	479.94
327.228	585.94
327.457	840.94
327.686	967.94
327.914	699.94
328.143	491.94
328.372	466.94
328.6	428.94
328.829	426.94
329.058	428.94
329.287	410.94
329.515	420.94
329.744	403.94
329.972	430.94
330.201	394.94
330.43	408.94
330.658	419.94
330.887	456.94
331.115	430.94
331.344	398.94
331.572	414.94
331.801	396.94
332.03	405.94
332.258	404.94
332.486	410.94
332.715	428.94
332.943	417.94
333.172	430.94
333.4	440.94
333.629	446.94
333.857	469.94
334.085	461.94
334.314	473.94
334.542	446.94
334.771	448.94
334.999	436.94
335.227	412.94
335.455	425.94
335.684	420.94
335.912	430.94
336.14	400.94
336.369	413.94
336.597	424.94
336.825	401.94
337.053	406.94
337.281	406.94
337.51	391.94
337.738	398.94
337.966	375.94
338.194	399.94
338.422	383.94
338.65	379.94
338.878	384.94
339.106	406.94
339.334	382.94
339.562	382.94
339.79	379.94
340.018	377.94
340.246	371.94
340.474	383.94
340.702	370.94
340.93	371.94
341.158	366.94
341.386	369.94
341.614	367.94
341.842	351.94
342.07	365.94
342.298	332.94
342.526	358.94
342.754	353.94
342.981	380.94
343.209	377.94
343.437	372.94
343.665	402.94
343.893	403.94
344.12	416.94
344.348	418.94
344.576	391.94
344.804	392.94
345.031	380.94
345.259	397.94
345.487	384.94
345.714	357.94
345.942	348.94
346.17	356.94
346.397	366.94
346.625	368.94
346.853	365.94
347.08	349.94
347.308	351.94
347.535	354.94
347.763	376.94
347.99	366.94
348.218	362.94
348.445	352.94
348.673	356.94
348.9	373.94
349.128	351.94
349.355	348.94
349.583	340.94
349.81	332.94
350.037	346.94
350.265	324.94
350.492	351.94
350.72	346.94
350.947	353.94
351.174	354.94
351.402	348.94
351.629	328.94
351.856	344.94
352.083	359.94
352.311	349.94
352.538	350.94
352.765	363.94
352.992	338.94
353.22	325.94
353.447	353.94
353.674	342.94
353.901	319.94
354.128	340.94
354.355	342.94
354.583	324.94
354.81	340.94
355.037	347.94
355.264	358.94
355.491	320.94
355.718	349.94
355.945	353.94
356.172	326.94
356.399	350.94
356.626	328.94
356.853	366.94
357.08	332.94
357.307	343.94
357.534	347.94
357.761	324.94
357.988	350.94
358.215	338.94
358.441	308.94
358.668	325.94
358.895	346.94
359.122	335.94
359.349	337.94
359.576	354.94
359.802	336.94
360.029	367.94
360.256	372.94
360.483	379.94
360.709	358.94
360.936	363.94
361.163	330.94
361.39	362.94
361.616	353.94
361.843	332.94
362.07	357.94
362.296	336.94
362.523	341.94
362.749	344.94
362.976	344.94
363.203	341.94
363.429	338.94
363.656	324.94
363.882	339.94
364.109	352.94
364.335	358.94
364.562	360.94
364.788	337.94
365.015	349.94
365.241	343.94
365.468	327.94
365.694	347.94
365.92	338.94
366.147	328.94
366.373	324.94
366.599	340.94
366.826	317.94
367.052	330.94
367.278	342.94
367.505	322.94
367.731	339.94
367.957	334.94
368.184	333.94
368.41	354.94
368.636	340.94
368.862	341.94
369.089	329.94
369.315	319.94
369.541	327.94
369.767	355.94
369.993	342.94
370.219	337.94
370.445	326.94
370.672	325.94
370.898	338.94
371.124	346.94
371.35	355.94
371.576	368.94
371.802	344.94
372.028	339.94
372.254	348.94
372.48	347.94
372.706	356.94
372.932	362.94
373.158	359.94
373.384	339.94
373.61	339.94
373.835	343.94
374.061	333.94
374.287	359.94
374.513	344.94
374.739	351.94
374.965	355.94
375.191	374.94
375.416	374.94
375.642	378.94
375.868	358.94
376.094	355.94
376.319	344.94
376.545	337.94
376.771	348.94
376.997	374.94
377.222	334.94
377.448	344.94
377.674	333.94
377.899	341.94
378.125	338.94
378.35	326.94
378.576	330.94
378.802	336.94
379.027	333.94
379.253	347.94
379.478	342.94
379.704	365.94
379.929	338.94
380.155	329.94
380.38	338.94
380.606	331.94
380.831	330.94
381.057	339.94
381.282	340.94
381.507	342.94
381.733	352.94
381.958	331.94
382.184	375.94
382.409	374.94
382.634	364.94
382.86	345.94
383.085	353.94
383.31	363.94
383.535	357.94
383.761	368.94
383.986	372.94
384.211	365.94
384.436	383.94
384.662	381.94
384.887	373.94
385.112	372.94
385.337	401.94
385.562	380.94
385.787	390.94
386.013	384.94
386.238	385.94
386.463	392.94
386.688	388.94
386.913	364.94
387.138	378.94
387.363	402.94
387.588	367.94
387.813	359.94
388.038	390.94
388.263	377.94
388.488	376.94
388.713	381.94
388.938	390.94
389.163	373.94
389.387	372.94
389.612	357.94
389.837	392.94
390.062	384.94
390.287	413.94
390.512	398.94
390.736	399.94
390.961	383.94
391.186	390.94
391.411	388.94
391.636	405.94
391.86	402.94
392.085	421.94
392.31	395.94
392.534	401.94
392.759	399.94
392.984	386.94
393.208	381.94
393.433	396.94
393.658	402.94
393.882	414.94
394.107	390.94
394.331	387.94
394.556	405.94
394.78	395.94
395.005	399.94
395.229	425.94
395.454	430.94
395.678	414.94
395.903	427.94
396.127	421.94
396.352	405.94
396.576	390.94
396.801	392.94
397.025	420.94
397.249	427.94
397.474	428.94
397.698	429.94
397.922	415.94
398.147	425.94
398.371	443.94
398.595	435.94
398.82	437.94
399.044	484.94
399.268	512.94
399.492	555.94
399.717	605.94
399.941	626.94
400.165	613.94
400.389	558.94
400.613	528.94
400.837	464.94
401.062	494.94
401.286	475.94
401.51	470.94
401.734	475.94
401.958	437.94
402.182	460.94
402.406	469.94
402.63	469.94
402.854	475.94
403.078	487.94
403.302	512.94
403.526	503.94
403.75	518.94
403.974	511.94
404.198	512.94
404.422	520.94
404.645	508.94
404.869	515.94
405.093	510.94
405.317	546.94
405.541	546.94
405.765	499.94
405.988	491.94
406.212	514.94
406.436	520.94
406.66	521.94
406.883	536.94
407.107	536.94
407.331	567.94
407.555	596.94
407.778	637.94
408.002	573.94
408.226	544.94
408.449	550.94
408.673	522.94
408.896	518.94
409.12	546.94
409.344	560.94
409.567	500.94
409.791	507.94
410.014	505.94
410.238	494.94
410.461	461.94
410.685	475.94
410.908	503.94
411.132	510.94
411.355	518.94
411.578	516.94
411.802	465.94
412.025	457.94
412.249	493.94
412.472	478.94
412.695	503.94
412.919	485.94
413.142	467.94
413.365	451.94
413.589	453.94
413.812	449.94
414.035	444.94
414.258	482.94
414.482	434.94
414.705	442.94
414.928	444.94
415.151	463.94
415.374	428.94
415.597	432.94
415.821	455.94
416.044	444.94
416.267	442.94
416.49	435.94
416.713	451.94
416.936	440.94
417.159	440.94
417.382	443.94
417.605	450.94
417.828	458.94
418.051	453.94
418.274	447.94
418.497	460.94
418.72	471.94
418.943	464.94
419.166	467.94
419.389	501.94
419.611	470.94
419.834	471.94
420.057	467.94
420.28	461.94
420.503	483.94
420.726	455.94
420.948	444.94
421.171	477.94
421.394	492.94
421.617	443.94
421.839	442.94
422.062	448.94
422.285	450.94
422.507	503.94
422.73	526.94
422.953	508.94
423.175	486.94
423.398	464.94
423.621	484.94
423.843	491.94
424.066	520.94
424.288	486.94
424.511	497.94
424.733	519.94
424.956	568.94
425.178	546.94
425.401	542.94
425.623	539.94
425.846	478.94
426.068	464.94
426.291	463.94
426.513	452.94
426.735	461.94
426.958	492.94
427.18	500.94
427.402	573.94
427.625	616.94
427.847	562.94
428.069	526.94
428.292	484.94
428.514	430.94
428.736	448.94
428.958	450.94
429.181	440.94
429.403	421.94
429.625	441.94
429.847	444.94
430.069	471.94
430.292	495.94
430.514	423.94
430.736	439.94
430.958	411.94
431.18	401.94
431.402	411.94
431.624	426.94
431.846	404.94
432.068	426.94
432.29	402.94
432.512	402.94
432.734	414.94
432.956	405.94
433.178	417.94
433.4	426.94
433.622	421.94
433.844	412.94
434.066	424.94
434.287	411.94
434.509	435.94
434.731	454.94
434.953	474.94
435.175	463.94
435.397	468.94
435.618	474.94
435.84	477.94
436.062	535.94
436.284	552.94
436.505	503.94
436.727	453.94
436.949	427.94
437.17	422.94
437.392	419.94
437.614	432.94
437.835	444.94
438.057	451.94
438.278	529.94
438.5	538.94
438.721	582.94
438.943	573.94
439.165	481.94
439.386	438.94
439.608	439.94
439.829	443.94
440.05	448.94
440.272	480.94
440.493	469.94
440.715	449.94
440.936	455.94
441.158	444.94
441.379	439.94
441.6	463.94
441.822	476.94
442.043	468.94
442.264	525.94
442.486	510.94
442.707	489.94
442.928	463.94
443.149	468.94
443.371	493.94
443.592	502.94
443.813	581.94
444.034	594.94
444.255	538.94
444.476	512.94
444.698	528.94
444.919	533.94
445.14	642.94
445.361	568.94
445.582	511.94
445.803	504.94
446.024	542.94
446.245	556.94
446.466	534.94
446.687	463.94
446.908	441.94
447.129	418.94
447.35	420.94
447.571	406.94
447.792	397.94
448.013	418.94
448.234	407.94
448.455	428.94
448.675	493.94
448.896	561.94
449.117	509.94
449.338	466.94
449.559	530.94
449.779	595.94
450	479.94
450.221	439.94
450.442	412.94
450.662	410.94
450.883	408.94
451.104	393.94
451.324	391.94
451.545	413.94
451.766	395.94
451.986	359.94
452.207	370.94
452.428	382.94
452.648	388.94
452.869	376.94
453.089	376.94
453.31	374.94
453.53	380.94
453.751	378.94
453.971	377.94
454.192	375.94
454.412	371.94
454.633	364.94
454.853	367.94
455.073	382.94
455.294	369.94
455.514	402.94
455.734	403.94
455.955	362.94
456.175	359.94
456.395	370.94
456.616	364.94
456.836	358.94
457.056	362.94
457.276	365.94
457.497	359.94
457.717	358.94
457.937	370.94
458.157	369.94
458.377	359.94
458.598	378.94
458.818	408.94
459.038	444.94
459.258	471.94
459.478	430.94
459.698	415.94
459.918	421.94
460.138	432.94
460.358	443.94
460.578	460.94
460.798	469.94
461.018	461.94
461.238	457.94
461.458	450.94
461.678	454.94
461.898	464.94
462.118	433.94
462.338	456.94
462.558	481.94
462.777	480.94
462.997	530.94
463.217	538.94
463.437	555.94
463.657	509.94
463.876	498.94
464.096	496.94
464.316	504.94
464.536	502.94
464.755	494.94
464.975	481.94
465.195	470.94
465.414	478.94
465.634	464.94
465.854	448.94
466.073	393.94
466.293	416.94
466.512	434.94
466.732	389.94
466.951	393.94
467.171	400.94
467.391	388.94
467.61	395.94
467.829	401.94
468.049	394.94
468.268	386.94
468.488	389.94
468.707	400.94
468.927	388.94
469.146	378.94
469.365	398.94
469.585	371.94
469.804	399.94
470.023	409.94
470.243	390.94
470.462	388.94
470.681	401.94
470.901	410.94
471.12	373.94
471.339	388.94
471.558	392.94
471.777	396.94
471.997	383.94
472.216	378.94
472.435	398.94
472.654	377.94
472.873	396.94
473.092	379.94
473.311	378.94
473.53	384.94
473.749	400.94
473.968	419.94
474.187	446.94
474.406	464.94
474.625	414.94
474.844	393.94
475.063	397.94
475.282	373.94
475.501	393.94
475.72	399.94
475.939	397.94
476.158	379.94
476.377	387.94
476.596	408.94
476.814	394.94
477.033	410.94
477.252	408.94
477.471	403.94
477.69	413.94
477.908	428.94
478.127	442.94
478.346	428.94
478.564	432.94
478.783	432.94
479.002	436.94
479.22	434.94
479.439	440.94
479.658	469.94
479.876	482.94
480.095	479.94
480.313	494.94
480.532	480.94
480.751	483.94
480.969	467.94
481.188	497.94
481.406	499.94
481.624	478.94
481.843	441.94
482.061	452.94
482.28	450.94
482.498	442.94
482.717	451.94
482.935	438.94
483.153	435.94
483.372	462.94
483.59	440.94
483.808	438.94
484.027	441.94
484.245	442.94
484.463	419.94
484.681	444.94
484.9	456.94
485.118	440.94
485.336	461.94
485.554	448.94
485.772	445.94
485.99	456.94
486.209	467.94
486.427	455.94
486.645	461.94
486.863	458.94
487.081	478.94
487.299	470.94
487.517	481.94
487.735	467.94
487.953	486.94
488.171	475.94
488.389	474.94
488.607	450.94
488.825	447.94
489.043	469.94
489.261	469.94
489.479	478.94
489.696	480.94
489.914	460.94
490.132	457.94
490.35	468.94
490.568	481.94
490.786	470.94
491.003	490.94
491.221	502.94
491.439	494.94
491.657	498.94
491.874	523.94
492.092	495.94
492.31	496.94
492.527	523.94
492.745	536.94
492.963	521.94
493.18	524.94
493.398	528.94
493.615	520.94
493.833	527.94
494.05	529.94
494.268	534.94
494.485	533.94
494.703	538.94
494.92	529.94
495.138	528.94
495.355	527.94
495.573	535.94
495.79	527.94
496.008	537.94
496.225	528.94
496.442	531.94
496.66	557.94
496.877	558.94
497.094	549.94
497.312	553.94
497.529	578.94
497.746	597.94
497.963	571.94
498.181	623.94
498.398	627.94
498.615	644.94
498.832	647.94
499.049	690.94
499.267	719.94
499.484	786.94
499.701	820.94
499.918	901.94
500.135	930.94
500.352	1031.94
500.569	1054.94
500.786	1053.94
501.003	995.94
501.22	932.94
501.437	880.94
501.654	827.94
501.871	789.94
502.088	734.94
502.305	727.94
