Data from 1984.PennyLincolnUp.Lamp.En5.5.200Scan.071819.P1_HRD10591_16-58-03-968.txt Node
Date: Thu Jul 18 16:58:03 EDT 2019
User: cochatt
Spectrometer: HR+D1059
Trigger mode: 1
Integration Time (sec): 1.000000E-1
Scans to average: 1
Electric dark correction enabled: true
Nonlinearity correction enabled: false
Boxcar width: 0
XAxis mode: Wavelengths
Number of Pixels in Spectrum: 2048
>>>>>Begin Spectral Data<<<<<
223.165	-18.81
223.4	-18.81
223.635	-18.81
223.869	-10.81
224.104	-16.81
224.338	-19.81
224.573	-17.81
224.808	-14.81
225.042	-7.81
225.277	-2.81
225.511	-1.81
225.746	1.19
225.98	12.19
226.215	5.19
226.449	22.19
226.683	11.19
226.918	32.19
227.152	27.19
227.387	41.19
227.621	21.19
227.856	36.19
228.09	50.19
228.324	52.19
228.559	52.19
228.793	75.19
229.027	97.19
229.262	89.19
229.496	99.19
229.73	115.19
229.964	117.19
230.199	112.19
230.433	105.19
230.667	106.19
230.901	105.19
231.136	103.19
231.37	102.19
231.604	122.19
231.838	119.19
232.072	140.19
232.306	122.19
232.541	105.19
232.775	114.19
233.009	115.19
233.243	106.19
233.477	104.19
233.711	125.19
233.945	105.19
234.179	101.19
234.413	110.19
234.647	115.19
234.881	107.19
235.115	115.19
235.349	105.19
235.583	101.19
235.817	116.19
236.051	133.19
236.285	126.19
236.519	115.19
236.753	101.19
236.987	125.19
237.221	143.19
237.455	174.19
237.689	140.19
237.922	116.19
238.156	113.19
238.39	119.19
238.624	117.19
238.858	120.19
239.091	104.19
239.325	123.19
239.559	116.19
239.793	128.19
240.027	109.19
240.26	125.19
240.494	143.19
240.728	125.19
240.961	145.19
241.195	132.19
241.429	130.19
241.662	126.19
241.896	111.19
242.13	125.19
242.363	129.19
242.597	130.19
242.83	149.19
243.064	141.19
243.298	134.19
243.531	125.19
243.765	127.19
243.998	139.19
244.232	136.19
244.465	143.19
244.699	131.19
244.932	134.19
245.166	125.19
245.399	132.19
245.633	139.19
245.866	144.19
246.099	135.19
246.333	145.19
246.566	142.19
246.8	147.19
247.033	161.19
247.266	146.19
247.5	144.19
247.733	156.19
247.966	151.19
248.2	157.19
248.433	151.19
248.666	164.19
248.899	170.19
249.133	169.19
249.366	177.19
249.599	166.19
249.832	175.19
250.066	173.19
250.299	163.19
250.532	176.19
250.765	174.19
250.998	195.19
251.231	198.19
251.465	189.19
251.698	178.19
251.931	174.19
252.164	181.19
252.397	176.19
252.63	167.19
252.863	193.19
253.096	191.19
253.329	191.19
253.562	169.19
253.795	191.19
254.028	181.19
254.261	199.19
254.494	196.19
254.727	213.19
254.96	225.19
255.193	219.19
255.426	206.19
255.659	192.19
255.892	213.19
256.124	199.19
256.357	222.19
256.59	197.19
256.823	195.19
257.056	176.19
257.289	204.19
257.521	187.19
257.754	190.19
257.987	198.19
258.22	198.19
258.452	188.19
258.685	193.19
258.918	179.19
259.151	193.19
259.383	188.19
259.616	192.19
259.849	187.19
260.081	204.19
260.314	196.19
260.547	209.19
260.779	196.19
261.012	210.19
261.244	200.19
261.477	195.19
261.71	209.19
261.942	197.19
262.175	203.19
262.407	200.19
262.64	197.19
262.872	211.19
263.105	185.19
263.337	213.19
263.57	194.19
263.802	181.19
264.035	215.19
264.267	214.19
264.499	197.19
264.732	201.19
264.964	201.19
265.197	199.19
265.429	211.19
265.661	207.19
265.894	193.19
266.126	200.19
266.358	197.19
266.591	197.19
266.823	215.19
267.055	207.19
267.287	207.19
267.52	205.19
267.752	209.19
267.984	218.19
268.216	217.19
268.448	202.19
268.681	205.19
268.913	211.19
269.145	212.19
269.377	234.19
269.609	211.19
269.841	231.19
270.073	225.19
270.306	255.19
270.538	269.19
270.77	267.19
271.002	235.19
271.234	230.19
271.466	252.19
271.698	250.19
271.93	273.19
272.162	249.19
272.394	264.19
272.626	260.19
272.858	255.19
273.09	244.19
273.322	254.19
273.553	237.19
273.785	241.19
274.017	224.19
274.249	247.19
274.481	231.19
274.713	235.19
274.945	233.19
275.176	229.19
275.408	244.19
275.64	250.19
275.872	238.19
276.104	251.19
276.335	259.19
276.567	248.19
276.799	258.19
277.031	269.19
277.262	273.19
277.494	269.19
277.726	276.19
277.957	260.19
278.189	228.19
278.421	243.19
278.652	251.19
278.884	256.19
279.115	279.19
279.347	269.19
279.579	264.19
279.81	236.19
280.042	238.19
280.273	246.19
280.505	250.19
280.736	261.19
280.968	247.19
281.199	265.19
281.431	268.19
281.662	262.19
281.894	263.19
282.125	265.19
282.356	267.19
282.588	275.19
282.819	285.19
283.051	240.19
283.282	259.19
283.513	286.19
283.745	267.19
283.976	287.19
284.207	263.19
284.439	257.19
284.67	259.19
284.901	268.19
285.132	268.19
285.364	261.19
285.595	256.19
285.826	270.19
286.057	267.19
286.288	273.19
286.52	283.19
286.751	279.19
286.982	278.19
287.213	258.19
287.444	271.19
287.675	279.19
287.906	267.19
288.138	287.19
288.369	316.19
288.6	281.19
288.831	291.19
289.062	285.19
289.293	293.19
289.524	289.19
289.755	282.19
289.986	287.19
290.217	288.19
290.448	288.19
290.679	297.19
290.91	284.19
291.141	281.19
291.371	281.19
291.602	289.19
291.833	269.19
292.064	271.19
292.295	292.19
292.526	298.19
292.757	291.19
292.987	301.19
293.218	290.19
293.449	291.19
293.68	272.19
293.91	285.19
294.141	304.19
294.372	269.19
294.603	271.19
294.833	282.19
295.064	285.19
295.295	288.19
295.525	286.19
295.756	298.19
295.987	304.19
296.217	307.19
296.448	305.19
296.679	309.19
296.909	310.19
297.14	298.19
297.37	304.19
297.601	300.19
297.831	296.19
298.062	282.19
298.292	296.19
298.523	297.19
298.753	295.19
298.984	307.19
299.214	326.19
299.445	325.19
299.675	286.19
299.905	307.19
300.136	320.19
300.366	300.19
300.597	300.19
300.827	304.19
301.057	310.19
301.288	322.19
301.518	334.19
301.748	304.19
301.979	321.19
302.209	324.19
302.439	328.19
302.669	312.19
302.9	322.19
303.13	319.19
303.36	307.19
303.59	333.19
303.82	337.19
304.051	341.19
304.281	323.19
304.511	304.19
304.741	341.19
304.971	335.19
305.201	305.19
305.431	321.19
305.661	318.19
305.891	333.19
306.121	294.19
306.352	320.19
306.582	309.19
306.812	317.19
307.042	332.19
307.272	337.19
307.502	321.19
307.731	319.19
307.961	320.19
308.191	320.19
308.421	309.19
308.651	321.19
308.881	327.19
309.111	316.19
309.341	329.19
309.571	319.19
309.8	310.19
310.03	334.19
310.26	338.19
310.49	343.19
310.72	350.19
310.949	366.19
311.179	352.19
311.409	351.19
311.639	344.19
311.868	344.19
312.098	354.19
312.328	329.19
312.557	355.19
312.787	347.19
313.017	357.19
313.246	374.19
313.476	368.19
313.706	359.19
313.935	350.19
314.165	367.19
314.394	373.19
314.624	361.19
314.853	358.19
315.083	333.19
315.312	332.19
315.542	364.19
315.771	360.19
316.001	348.19
316.23	354.19
316.46	353.19
316.689	343.19
316.919	349.19
317.148	356.19
317.377	376.19
317.607	342.19
317.836	344.19
318.065	356.19
318.295	346.19
318.524	346.19
318.753	341.19
318.983	349.19
319.212	320.19
319.441	357.19
319.67	367.19
319.9	347.19
320.129	356.19
320.358	358.19
320.587	354.19
320.816	373.19
321.046	357.19
321.275	360.19
321.504	362.19
321.733	348.19
321.962	363.19
322.191	368.19
322.42	377.19
322.649	395.19
322.878	393.19
323.108	400.19
323.337	399.19
323.566	396.19
323.795	428.19
324.024	457.19
324.253	507.19
324.482	686.19
324.71	987.19
324.939	1381.19
325.168	1168.19
325.397	687.19
325.626	502.19
325.855	454.19
326.084	427.19
326.313	434.19
326.542	429.19
326.77	455.19
326.999	510.19
327.228	639.19
327.457	907.19
327.686	1083.19
327.914	750.19
328.143	541.19
328.372	499.19
328.6	456.19
328.829	461.19
329.058	462.19
329.287	451.19
329.515	450.19
329.744	455.19
329.972	446.19
330.201	457.19
330.43	479.19
330.658	474.19
330.887	478.19
331.115	478.19
331.344	442.19
331.572	457.19
331.801	447.19
332.03	428.19
332.258	419.19
332.486	429.19
332.715	441.19
332.943	444.19
333.172	448.19
333.4	460.19
333.629	471.19
333.857	474.19
334.085	500.19
334.314	481.19
334.542	501.19
334.771	519.19
334.999	461.19
335.227	455.19
335.455	447.19
335.684	433.19
335.912	422.19
336.14	423.19
336.369	422.19
336.597	420.19
336.825	418.19
337.053	410.19
337.281	419.19
337.51	410.19
337.738	424.19
337.966	422.19
338.194	409.19
338.422	404.19
338.65	389.19
338.878	406.19
339.106	391.19
339.334	393.19
339.562	386.19
339.79	405.19
340.018	382.19
340.246	395.19
340.474	398.19
340.702	397.19
340.93	381.19
341.158	382.19
341.386	372.19
341.614	381.19
341.842	387.19
342.07	380.19
342.298	390.19
342.526	367.19
342.754	375.19
342.981	377.19
343.209	368.19
343.437	379.19
343.665	399.19
343.893	408.19
344.12	405.19
344.348	408.19
344.576	410.19
344.804	390.19
345.031	385.19
345.259	406.19
345.487	399.19
345.714	380.19
345.942	376.19
346.17	389.19
346.397	372.19
346.625	356.19
346.853	368.19
347.08	376.19
347.308	381.19
347.535	381.19
347.763	381.19
347.99	395.19
348.218	380.19
348.445	378.19
348.673	349.19
348.9	371.19
349.128	376.19
349.355	366.19
349.583	364.19
349.81	337.19
350.037	362.19
350.265	363.19
350.492	347.19
350.72	350.19
350.947	340.19
351.174	357.19
351.402	364.19
351.629	353.19
351.856	358.19
352.083	369.19
352.311	349.19
352.538	365.19
352.765	375.19
352.992	371.19
353.22	361.19
353.447	354.19
353.674	339.19
353.901	350.19
354.128	356.19
354.355	333.19
354.583	340.19
354.81	347.19
355.037	352.19
355.264	356.19
355.491	357.19
355.718	352.19
355.945	357.19
356.172	345.19
356.399	347.19
356.626	351.19
356.853	358.19
357.08	342.19
357.307	335.19
357.534	346.19
357.761	342.19
357.988	353.19
358.215	360.19
358.441	336.19
358.668	335.19
358.895	357.19
359.122	356.19
359.349	355.19
359.576	358.19
359.802	368.19
360.029	379.19
360.256	379.19
360.483	375.19
360.709	357.19
360.936	367.19
361.163	361.19
361.39	352.19
361.616	362.19
361.843	351.19
362.07	371.19
362.296	359.19
362.523	359.19
362.749	348.19
362.976	351.19
363.203	374.19
363.429	337.19
363.656	348.19
363.882	345.19
364.109	341.19
364.335	347.19
364.562	347.19
364.788	334.19
365.015	359.19
365.241	355.19
365.468	359.19
365.694	357.19
365.92	367.19
366.147	358.19
366.373	352.19
366.599	342.19
366.826	376.19
367.052	375.19
367.278	348.19
367.505	345.19
367.731	337.19
367.957	359.19
368.184	349.19
368.41	339.19
368.636	351.19
368.862	361.19
369.089	351.19
369.315	365.19
369.541	354.19
369.767	350.19
369.993	350.19
370.219	348.19
370.445	347.19
370.672	355.19
370.898	353.19
371.124	352.19
371.35	373.19
371.576	366.19
371.802	344.19
372.028	384.19
372.254	358.19
372.48	352.19
372.706	367.19
372.932	366.19
373.158	372.19
373.384	359.19
373.61	376.19
373.835	366.19
374.061	364.19
374.287	352.19
374.513	377.19
374.739	360.19
374.965	368.19
375.191	363.19
375.416	409.19
375.642	372.19
375.868	363.19
376.094	363.19
376.319	376.19
376.545	350.19
376.771	373.19
376.997	347.19
377.222	366.19
377.448	373.19
377.674	344.19
377.899	354.19
378.125	345.19
378.35	363.19
378.576	345.19
378.802	356.19
379.027	352.19
379.253	351.19
379.478	350.19
379.704	356.19
379.929	350.19
380.155	361.19
380.38	344.19
380.606	362.19
380.831	336.19
381.057	345.19
381.282	351.19
381.507	350.19
381.733	341.19
381.958	358.19
382.184	353.19
382.409	363.19
382.634	368.19
382.86	369.19
383.085	369.19
383.31	372.19
383.535	379.19
383.761	374.19
383.986	376.19
384.211	399.19
384.436	397.19
384.662	399.19
384.887	396.19
385.112	400.19
385.337	397.19
385.562	420.19
385.787	405.19
386.013	416.19
386.238	419.19
386.463	415.19
386.688	421.19
386.913	416.19
387.138	400.19
387.363	430.19
387.588	404.19
387.813	414.19
388.038	377.19
388.263	401.19
388.488	376.19
388.713	395.19
388.938	403.19
389.163	393.19
389.387	411.19
389.612	401.19
389.837	409.19
390.062	404.19
390.287	403.19
390.512	386.19
390.736	411.19
390.961	405.19
391.186	419.19
391.411	402.19
391.636	387.19
391.86	428.19
392.085	437.19
392.31	445.19
392.534	420.19
392.759	418.19
392.984	415.19
393.208	396.19
393.433	394.19
393.658	426.19
393.882	429.19
394.107	401.19
394.331	415.19
394.556	393.19
394.78	408.19
395.005	397.19
395.229	421.19
395.454	442.19
395.678	443.19
395.903	441.19
396.127	466.19
396.352	425.19
396.576	428.19
396.801	416.19
397.025	430.19
397.249	430.19
397.474	442.19
397.698	449.19
397.922	435.19
398.147	434.19
398.371	449.19
398.595	450.19
398.82	473.19
399.044	487.19
399.268	527.19
399.492	574.19
399.717	602.19
399.941	600.19
400.165	641.19
400.389	574.19
400.613	546.19
400.837	507.19
401.062	486.19
401.286	487.19
401.51	483.19
401.734	474.19
401.958	484.19
402.182	483.19
402.406	488.19
402.63	525.19
402.854	476.19
403.078	501.19
403.302	504.19
403.526	504.19
403.75	522.19
403.974	520.19
404.198	520.19
404.422	504.19
404.645	521.19
404.869	518.19
405.093	529.19
405.317	555.19
405.541	568.19
405.765	541.19
405.988	520.19
406.212	522.19
406.436	527.19
406.66	522.19
406.883	530.19
407.107	527.19
407.331	560.19
407.555	633.19
407.778	643.19
408.002	581.19
408.226	569.19
408.449	564.19
408.673	547.19
408.896	543.19
409.12	564.19
409.344	566.19
409.567	516.19
409.791	519.19
410.014	494.19
410.238	500.19
410.461	486.19
410.685	506.19
410.908	501.19
411.132	531.19
411.355	541.19
411.578	519.19
411.802	496.19
412.025	480.19
412.249	507.19
412.472	515.19
412.695	513.19
412.919	515.19
413.142	476.19
413.365	479.19
413.589	483.19
413.812	471.19
414.035	469.19
414.258	493.19
414.482	442.19
414.705	472.19
414.928	475.19
415.151	457.19
415.374	472.19
415.597	478.19
415.821	476.19
416.044	452.19
416.267	460.19
416.49	444.19
416.713	444.19
416.936	449.19
417.159	440.19
417.382	454.19
417.605	455.19
417.828	449.19
418.051	477.19
418.274	461.19
418.497	472.19
418.72	463.19
418.943	453.19
419.166	480.19
419.389	495.19
419.611	489.19
419.834	497.19
420.057	502.19
420.28	501.19
420.503	457.19
420.726	494.19
420.948	496.19
421.171	489.19
421.394	500.19
421.617	475.19
421.839	479.19
422.062	480.19
422.285	469.19
422.507	532.19
422.73	560.19
422.953	542.19
423.175	487.19
423.398	495.19
423.621	482.19
423.843	512.19
424.066	525.19
424.288	480.19
424.511	526.19
424.733	536.19
424.956	557.19
425.178	542.19
425.401	558.19
425.623	561.19
425.846	509.19
426.068	488.19
426.291	492.19
426.513	476.19
426.735	492.19
426.958	522.19
427.18	566.19
427.402	608.19
427.625	649.19
427.847	562.19
428.069	534.19
428.292	491.19
428.514	472.19
428.736	467.19
428.958	444.19
429.181	440.19
429.403	443.19
429.625	445.19
429.847	455.19
430.069	485.19
430.292	512.19
430.514	446.19
430.736	428.19
430.958	423.19
431.18	441.19
431.402	441.19
431.624	413.19
431.846	429.19
432.068	424.19
432.29	422.19
432.512	403.19
432.734	408.19
432.956	414.19
433.178	447.19
433.4	451.19
433.622	438.19
433.844	453.19
434.066	434.19
434.287	421.19
434.509	462.19
434.731	449.19
434.953	452.19
435.175	464.19
435.397	494.19
435.618	465.19
435.84	510.19
436.062	545.19
436.284	580.19
436.505	486.19
436.727	471.19
436.949	470.19
437.17	429.19
437.392	439.19
437.614	442.19
437.835	468.19
438.057	493.19
438.278	549.19
438.5	552.19
438.721	588.19
438.943	593.19
439.165	495.19
439.386	456.19
439.608	467.19
439.829	459.19
440.05	489.19
440.272	522.19
440.493	480.19
440.715	451.19
440.936	452.19
441.158	461.19
441.379	470.19
441.6	475.19
441.822	491.19
442.043	492.19
442.264	533.19
442.486	557.19
442.707	517.19
442.928	508.19
443.149	471.19
443.371	473.19
443.592	503.19
443.813	576.19
444.034	619.19
444.255	548.19
444.476	543.19
444.698	528.19
444.919	523.19
445.14	597.19
445.361	549.19
445.582	528.19
445.803	537.19
446.024	588.19
446.245	574.19
446.466	520.19
446.687	474.19
446.908	471.19
447.129	447.19
447.35	441.19
447.571	436.19
447.792	420.19
448.013	436.19
448.234	428.19
448.455	447.19
448.675	501.19
448.896	583.19
449.117	523.19
449.338	498.19
449.559	543.19
449.779	592.19
450	515.19
450.221	447.19
450.442	409.19
450.662	399.19
450.883	409.19
451.104	441.19
451.324	423.19
451.545	391.19
451.766	382.19
451.986	392.19
452.207	400.19
452.428	413.19
452.648	407.19
452.869	405.19
453.089	393.19
453.31	407.19
453.53	385.19
453.751	391.19
453.971	415.19
454.192	411.19
454.412	389.19
454.633	371.19
454.853	383.19
455.073	390.19
455.294	385.19
455.514	428.19
455.734	456.19
455.955	383.19
456.175	373.19
456.395	375.19
456.616	357.19
456.836	367.19
457.056	359.19
457.276	374.19
457.497	374.19
457.717	376.19
457.937	377.19
458.157	384.19
458.377	363.19
458.598	400.19
458.818	439.19
459.038	475.19
459.258	481.19
459.478	452.19
459.698	420.19
459.918	452.19
460.138	432.19
460.358	451.19
460.578	462.19
460.798	471.19
461.018	454.19
461.238	455.19
461.458	465.19
461.678	461.19
461.898	463.19
462.118	476.19
462.338	504.19
462.558	493.19
462.777	512.19
462.997	539.19
463.217	557.19
463.437	554.19
463.657	533.19
463.876	516.19
464.096	529.19
464.316	497.19
464.536	493.19
464.755	503.19
464.975	485.19
465.195	513.19
465.414	520.19
465.634	465.19
465.854	422.19
466.073	430.19
466.293	420.19
466.512	423.19
466.732	422.19
466.951	405.19
467.171	434.19
467.391	400.19
467.61	412.19
467.829	411.19
468.049	402.19
468.268	397.19
468.488	399.19
468.707	396.19
468.927	401.19
469.146	402.19
469.365	388.19
469.585	390.19
469.804	417.19
470.023	412.19
470.243	404.19
470.462	427.19
470.681	430.19
470.901	420.19
471.12	428.19
471.339	421.19
471.558	402.19
471.777	402.19
471.997	397.19
472.216	399.19
472.435	431.19
472.654	415.19
472.873	393.19
473.092	411.19
473.311	404.19
473.53	386.19
473.749	411.19
473.968	415.19
474.187	466.19
474.406	464.19
474.625	426.19
474.844	409.19
475.063	404.19
475.282	398.19
475.501	381.19
475.72	409.19
475.939	409.19
476.158	414.19
476.377	413.19
476.596	396.19
476.814	409.19
477.033	414.19
477.252	424.19
477.471	437.19
477.69	433.19
477.908	451.19
478.127	456.19
478.346	461.19
478.564	480.19
478.783	483.19
479.002	461.19
479.22	477.19
479.439	456.19
479.658	492.19
479.876	482.19
480.095	471.19
480.313	515.19
480.532	517.19
480.751	507.19
480.969	502.19
481.188	541.19
481.406	543.19
481.624	532.19
481.843	505.19
482.061	465.19
482.28	471.19
482.498	478.19
482.717	464.19
482.935	461.19
483.153	452.19
483.372	459.19
483.59	467.19
483.808	466.19
484.027	459.19
484.245	466.19
484.463	458.19
484.681	447.19
484.9	471.19
485.118	490.19
485.336	491.19
485.554	489.19
485.772	478.19
485.99	470.19
486.209	485.19
486.427	487.19
486.645	495.19
486.863	501.19
487.081	483.19
487.299	479.19
487.517	482.19
487.735	494.19
487.953	494.19
488.171	503.19
488.389	479.19
488.607	485.19
488.825	491.19
489.043	472.19
489.261	492.19
489.479	491.19
489.696	499.19
489.914	496.19
490.132	490.19
490.35	524.19
490.568	494.19
490.786	527.19
491.003	521.19
491.221	530.19
491.439	547.19
491.657	534.19
491.874	523.19
492.092	505.19
492.31	545.19
492.527	553.19
492.745	542.19
492.963	534.19
493.18	536.19
493.398	550.19
493.615	528.19
493.833	553.19
494.05	544.19
494.268	561.19
494.485	565.19
494.703	556.19
494.92	570.19
495.138	557.19
495.355	540.19
495.573	546.19
495.79	537.19
496.008	566.19
496.225	551.19
496.442	569.19
496.66	578.19
496.877	569.19
497.094	584.19
497.312	574.19
497.529	597.19
497.746	601.19
497.963	607.19
498.181	631.19
498.398	656.19
498.615	655.19
498.832	656.19
499.049	709.19
499.267	759.19
499.484	793.19
499.701	852.19
499.918	897.19
500.135	963.19
500.352	1059.19
500.569	1072.19
500.786	1096.19
501.003	1066.19
501.22	977.19
501.437	897.19
501.654	850.19
501.871	801.19
