Data from 1984.PennyLincolnUp.Lamp.En5.5.200Scan.071819.P1_HRD10591_16-58-17-968.txt Node
Date: Thu Jul 18 16:58:17 EDT 2019
User: cochatt
Spectrometer: HR+D1059
Trigger mode: 1
Integration Time (sec): 1.000000E-1
Scans to average: 1
Electric dark correction enabled: true
Nonlinearity correction enabled: false
Boxcar width: 0
XAxis mode: Wavelengths
Number of Pixels in Spectrum: 2048
>>>>>Begin Spectral Data<<<<<
223.165	-22.38
223.4	-22.38
223.635	-22.38
223.869	-27.38
224.104	-12.38
224.338	-18.38
224.573	-13.38
224.808	-5.38
225.042	-1.38
225.277	-10.38
225.511	-5.38
225.746	6.62
225.98	6.62
226.215	6.62
226.449	15.62
226.683	7.62
226.918	35.62
227.152	37.62
227.387	25.62
227.621	35.62
227.856	43.62
228.09	53.62
228.324	40.62
228.559	60.62
228.793	55.62
229.027	83.62
229.262	113.62
229.496	100.62
229.73	119.62
229.964	131.62
230.199	115.62
230.433	107.62
230.667	109.62
230.901	112.62
231.136	98.62
231.37	101.62
231.604	114.62
231.838	101.62
232.072	107.62
232.306	106.62
232.541	112.62
232.775	98.62
233.009	112.62
233.243	115.62
233.477	108.62
233.711	101.62
233.945	116.62
234.179	111.62
234.413	107.62
234.647	118.62
234.881	96.62
235.115	113.62
235.349	120.62
235.583	112.62
235.817	108.62
236.051	103.62
236.285	123.62
236.519	115.62
236.753	121.62
236.987	113.62
237.221	137.62
237.455	148.62
237.689	142.62
237.922	120.62
238.156	121.62
238.39	109.62
238.624	107.62
238.858	103.62
239.091	120.62
239.325	111.62
239.559	119.62
239.793	117.62
240.027	117.62
240.26	131.62
240.494	144.62
240.728	140.62
240.961	119.62
241.195	131.62
241.429	131.62
241.662	124.62
241.896	125.62
242.13	127.62
242.363	123.62
242.597	116.62
242.83	133.62
243.064	128.62
243.298	121.62
243.531	135.62
243.765	135.62
243.998	137.62
244.232	137.62
244.465	145.62
244.699	136.62
244.932	145.62
245.166	156.62
245.399	129.62
245.633	138.62
245.866	143.62
246.099	137.62
246.333	157.62
246.566	137.62
246.8	144.62
247.033	135.62
247.266	142.62
247.5	145.62
247.733	148.62
247.966	149.62
248.2	157.62
248.433	150.62
248.666	146.62
248.899	154.62
249.133	164.62
249.366	155.62
249.599	170.62
249.832	161.62
250.066	157.62
250.299	169.62
250.532	175.62
250.765	188.62
250.998	188.62
251.231	203.62
251.465	181.62
251.698	167.62
251.931	183.62
252.164	183.62
252.397	180.62
252.63	164.62
252.863	158.62
253.096	173.62
253.329	181.62
253.562	187.62
253.795	194.62
254.028	185.62
254.261	186.62
254.494	184.62
254.727	196.62
254.96	213.62
255.193	217.62
255.426	193.62
255.659	208.62
255.892	231.62
256.124	212.62
256.357	233.62
256.59	207.62
256.823	202.62
257.056	185.62
257.289	190.62
257.521	181.62
257.754	197.62
257.987	188.62
258.22	188.62
258.452	180.62
258.685	187.62
258.918	197.62
259.151	188.62
259.383	204.62
259.616	216.62
259.849	200.62
260.081	195.62
260.314	222.62
260.547	213.62
260.779	223.62
261.012	213.62
261.244	201.62
261.477	185.62
261.71	192.62
261.942	195.62
262.175	205.62
262.407	202.62
262.64	196.62
262.872	196.62
263.105	196.62
263.337	194.62
263.57	205.62
263.802	182.62
264.035	197.62
264.267	195.62
264.499	195.62
264.732	208.62
264.964	199.62
265.197	204.62
265.429	190.62
265.661	210.62
265.894	189.62
266.126	196.62
266.358	210.62
266.591	210.62
266.823	205.62
267.055	199.62
267.287	210.62
267.52	194.62
267.752	203.62
267.984	220.62
268.216	226.62
268.448	211.62
268.681	232.62
268.913	230.62
269.145	228.62
269.377	241.62
269.609	228.62
269.841	227.62
270.073	240.62
270.306	253.62
270.538	252.62
270.77	271.62
271.002	247.62
271.234	250.62
271.466	255.62
271.698	250.62
271.93	259.62
272.162	268.62
272.394	265.62
272.626	267.62
272.858	259.62
273.09	238.62
273.322	246.62
273.553	233.62
273.785	253.62
274.017	260.62
274.249	251.62
274.481	241.62
274.713	235.62
274.945	259.62
275.176	235.62
275.408	243.62
275.64	245.62
275.872	237.62
276.104	263.62
276.335	257.62
276.567	260.62
276.799	265.62
277.031	256.62
277.262	288.62
277.494	288.62
277.726	275.62
277.957	260.62
278.189	270.62
278.421	247.62
278.652	261.62
278.884	255.62
279.115	264.62
279.347	252.62
279.579	246.62
279.81	249.62
280.042	239.62
280.273	267.62
280.505	252.62
280.736	256.62
280.968	259.62
281.199	235.62
281.431	251.62
281.662	255.62
281.894	265.62
282.125	258.62
282.356	275.62
282.588	275.62
282.819	275.62
283.051	267.62
283.282	257.62
283.513	279.62
283.745	262.62
283.976	281.62
284.207	287.62
284.439	283.62
284.67	269.62
284.901	283.62
285.132	278.62
285.364	257.62
285.595	267.62
285.826	277.62
286.057	271.62
286.288	246.62
286.52	262.62
286.751	289.62
286.982	275.62
287.213	264.62
287.444	265.62
287.675	264.62
287.906	283.62
288.138	279.62
288.369	291.62
288.6	289.62
288.831	292.62
289.062	296.62
289.293	280.62
289.524	269.62
289.755	276.62
289.986	281.62
290.217	273.62
290.448	284.62
290.679	287.62
290.91	303.62
291.141	271.62
291.371	295.62
291.602	270.62
291.833	297.62
292.064	265.62
292.295	267.62
292.526	283.62
292.757	294.62
292.987	272.62
293.218	282.62
293.449	276.62
293.68	288.62
293.91	282.62
294.141	283.62
294.372	276.62
294.603	299.62
294.833	299.62
295.064	294.62
295.295	277.62
295.525	297.62
295.756	290.62
295.987	277.62
296.217	327.62
296.448	302.62
296.679	314.62
296.909	290.62
297.14	297.62
297.37	308.62
297.601	282.62
297.831	285.62
298.062	322.62
298.292	305.62
298.523	309.62
298.753	287.62
298.984	292.62
299.214	310.62
299.445	293.62
299.675	304.62
299.905	315.62
300.136	311.62
300.366	291.62
300.597	309.62
300.827	330.62
301.057	312.62
301.288	295.62
301.518	308.62
301.748	319.62
301.979	332.62
302.209	300.62
302.439	317.62
302.669	328.62
302.9	329.62
303.13	345.62
303.36	320.62
303.59	325.62
303.82	326.62
304.051	315.62
304.281	312.62
304.511	321.62
304.741	322.62
304.971	317.62
305.201	306.62
305.431	313.62
305.661	331.62
305.891	321.62
306.121	327.62
306.352	320.62
306.582	308.62
306.812	316.62
307.042	309.62
307.272	323.62
307.502	332.62
307.731	303.62
307.961	329.62
308.191	331.62
308.421	325.62
308.651	327.62
308.881	325.62
309.111	323.62
309.341	318.62
309.571	327.62
309.8	342.62
310.03	345.62
310.26	355.62
310.49	331.62
310.72	338.62
310.949	366.62
311.179	348.62
311.409	347.62
311.639	324.62
311.868	339.62
312.098	349.62
312.328	346.62
312.557	364.62
312.787	359.62
313.017	365.62
313.246	368.62
313.476	345.62
313.706	361.62
313.935	367.62
314.165	359.62
314.394	378.62
314.624	376.62
314.853	378.62
315.083	352.62
315.312	354.62
315.542	357.62
315.771	354.62
316.001	353.62
316.23	351.62
316.46	355.62
316.689	349.62
316.919	370.62
317.148	371.62
317.377	364.62
317.607	372.62
317.836	356.62
318.065	343.62
318.295	353.62
318.524	333.62
318.753	357.62
318.983	356.62
319.212	350.62
319.441	332.62
319.67	351.62
319.9	345.62
320.129	355.62
320.358	353.62
320.587	357.62
320.816	359.62
321.046	375.62
321.275	347.62
321.504	363.62
321.733	356.62
321.962	358.62
322.191	371.62
322.42	371.62
322.649	379.62
322.878	389.62
323.108	393.62
323.337	402.62
323.566	433.62
323.795	431.62
324.024	466.62
324.253	522.62
324.482	711.62
324.71	1054.62
324.939	1421.62
325.168	1218.62
325.397	697.62
325.626	535.62
325.855	457.62
326.084	433.62
326.313	445.62
326.542	442.62
326.77	452.62
326.999	530.62
327.228	671.62
327.457	956.62
327.686	1123.62
327.914	759.62
328.143	559.62
328.372	523.62
328.6	495.62
328.829	474.62
329.058	466.62
329.287	469.62
329.515	464.62
329.744	468.62
329.972	470.62
330.201	511.62
330.43	524.62
330.658	537.62
330.887	517.62
331.115	469.62
331.344	451.62
331.572	434.62
331.801	429.62
332.03	441.62
332.258	425.62
332.486	435.62
332.715	440.62
332.943	428.62
333.172	453.62
333.4	470.62
333.629	479.62
333.857	505.62
334.085	517.62
334.314	552.62
334.542	589.62
334.771	582.62
334.999	507.62
335.227	502.62
335.455	480.62
335.684	467.62
335.912	456.62
336.14	447.62
336.369	422.62
336.597	442.62
336.825	423.62
337.053	421.62
337.281	416.62
337.51	408.62
337.738	416.62
337.966	415.62
338.194	397.62
338.422	418.62
338.65	409.62
338.878	409.62
339.106	402.62
339.334	431.62
339.562	381.62
339.79	395.62
340.018	393.62
340.246	420.62
340.474	406.62
340.702	394.62
340.93	385.62
341.158	402.62
341.386	413.62
341.614	396.62
341.842	379.62
342.07	384.62
342.298	389.62
342.526	381.62
342.754	371.62
342.981	393.62
343.209	389.62
343.437	389.62
343.665	382.62
343.893	440.62
344.12	439.62
344.348	407.62
344.576	425.62
344.804	427.62
345.031	397.62
345.259	398.62
345.487	355.62
345.714	391.62
345.942	382.62
346.17	405.62
346.397	371.62
346.625	377.62
346.853	367.62
347.08	377.62
347.308	396.62
347.535	393.62
347.763	397.62
347.99	398.62
348.218	372.62
348.445	390.62
348.673	376.62
348.9	371.62
349.128	384.62
349.355	376.62
349.583	379.62
349.81	371.62
350.037	374.62
350.265	376.62
350.492	372.62
350.72	346.62
350.947	357.62
351.174	363.62
351.402	373.62
351.629	397.62
351.856	375.62
352.083	401.62
352.311	388.62
352.538	372.62
352.765	374.62
352.992	379.62
353.22	352.62
353.447	371.62
353.674	362.62
353.901	357.62
354.128	345.62
354.355	363.62
354.583	367.62
354.81	343.62
355.037	369.62
355.264	342.62
355.491	367.62
355.718	344.62
355.945	335.62
356.172	342.62
356.399	345.62
356.626	339.62
356.853	360.62
357.08	356.62
357.307	360.62
357.534	352.62
357.761	360.62
357.988	342.62
358.215	340.62
358.441	355.62
358.668	347.62
358.895	348.62
359.122	359.62
359.349	360.62
359.576	368.62
359.802	375.62
360.029	392.62
360.256	389.62
360.483	390.62
360.709	377.62
360.936	356.62
361.163	356.62
361.39	351.62
361.616	351.62
361.843	351.62
362.07	377.62
362.296	373.62
362.523	333.62
362.749	367.62
362.976	365.62
363.203	364.62
363.429	344.62
363.656	355.62
363.882	343.62
364.109	356.62
364.335	363.62
364.562	349.62
364.788	347.62
365.015	364.62
365.241	363.62
365.468	370.62
365.694	363.62
365.92	360.62
366.147	367.62
366.373	341.62
366.599	367.62
366.826	330.62
367.052	347.62
367.278	353.62
367.505	344.62
367.731	335.62
367.957	351.62
368.184	359.62
368.41	372.62
368.636	350.62
368.862	366.62
369.089	365.62
369.315	349.62
369.541	385.62
369.767	384.62
369.993	351.62
370.219	335.62
370.445	348.62
370.672	364.62
370.898	357.62
371.124	352.62
371.35	374.62
371.576	364.62
371.802	349.62
372.028	361.62
372.254	343.62
372.48	366.62
372.706	378.62
372.932	369.62
373.158	371.62
373.384	373.62
373.61	357.62
373.835	375.62
374.061	368.62
374.287	364.62
374.513	359.62
374.739	385.62
374.965	392.62
375.191	403.62
375.416	399.62
375.642	396.62
375.868	356.62
376.094	377.62
376.319	377.62
376.545	374.62
376.771	374.62
376.997	365.62
377.222	359.62
377.448	362.62
377.674	355.62
377.899	345.62
378.125	371.62
378.35	346.62
378.576	342.62
378.802	355.62
379.027	348.62
379.253	355.62
379.478	342.62
379.704	354.62
379.929	363.62
380.155	352.62
380.38	339.62
380.606	353.62
380.831	359.62
381.057	362.62
381.282	372.62
381.507	357.62
381.733	368.62
381.958	363.62
382.184	367.62
382.409	373.62
382.634	362.62
382.86	364.62
383.085	381.62
383.31	369.62
383.535	404.62
383.761	402.62
383.986	394.62
384.211	390.62
384.436	377.62
384.662	380.62
384.887	395.62
385.112	400.62
385.337	411.62
385.562	404.62
385.787	407.62
386.013	403.62
386.238	403.62
386.463	419.62
386.688	403.62
386.913	386.62
387.138	403.62
387.363	395.62
387.588	416.62
387.813	421.62
388.038	400.62
388.263	403.62
388.488	419.62
388.713	409.62
388.938	401.62
389.163	405.62
389.387	410.62
389.612	401.62
389.837	395.62
390.062	398.62
390.287	412.62
390.512	399.62
390.736	407.62
390.961	399.62
391.186	417.62
391.411	426.62
391.636	419.62
391.86	425.62
392.085	436.62
392.31	419.62
392.534	440.62
392.759	421.62
392.984	429.62
393.208	424.62
393.433	413.62
393.658	439.62
393.882	417.62
394.107	407.62
394.331	407.62
394.556	427.62
394.78	436.62
395.005	434.62
395.229	408.62
395.454	431.62
395.678	412.62
395.903	425.62
396.127	452.62
396.352	415.62
396.576	429.62
396.801	414.62
397.025	428.62
397.249	435.62
397.474	431.62
397.698	457.62
397.922	458.62
398.147	455.62
398.371	441.62
398.595	471.62
398.82	472.62
399.044	499.62
399.268	499.62
399.492	573.62
399.717	633.62
399.941	652.62
400.165	614.62
400.389	595.62
400.613	540.62
400.837	519.62
401.062	485.62
401.286	478.62
401.51	472.62
401.734	483.62
401.958	479.62
402.182	508.62
402.406	497.62
402.63	485.62
402.854	501.62
403.078	490.62
403.302	513.62
403.526	517.62
403.75	518.62
403.974	509.62
404.198	513.62
404.422	536.62
404.645	533.62
404.869	538.62
405.093	552.62
405.317	573.62
405.541	587.62
405.765	552.62
405.988	528.62
406.212	538.62
406.436	544.62
406.66	557.62
406.883	565.62
407.107	560.62
407.331	598.62
407.555	649.62
407.778	633.62
408.002	601.62
408.226	556.62
408.449	573.62
408.673	549.62
408.896	555.62
409.12	581.62
409.344	576.62
409.567	539.62
409.791	503.62
410.014	508.62
410.238	502.62
410.461	512.62
410.685	516.62
410.908	516.62
411.132	526.62
411.355	525.62
411.578	519.62
411.802	490.62
412.025	509.62
412.249	505.62
412.472	533.62
412.695	552.62
412.919	524.62
413.142	500.62
413.365	483.62
413.589	483.62
413.812	480.62
414.035	462.62
414.258	468.62
414.482	482.62
414.705	468.62
414.928	464.62
415.151	474.62
415.374	461.62
415.597	453.62
415.821	469.62
416.044	454.62
416.267	476.62
416.49	465.62
416.713	474.62
416.936	459.62
417.159	459.62
417.382	453.62
417.605	480.62
417.828	474.62
418.051	510.62
418.274	494.62
418.497	469.62
418.72	472.62
418.943	476.62
419.166	507.62
419.389	531.62
419.611	534.62
419.834	514.62
420.057	512.62
420.28	502.62
420.503	495.62
420.726	501.62
420.948	509.62
421.171	507.62
421.394	529.62
421.617	503.62
421.839	479.62
422.062	476.62
422.285	501.62
422.507	544.62
422.73	565.62
422.953	552.62
423.175	496.62
423.398	488.62
423.621	501.62
423.843	519.62
424.066	523.62
424.288	518.62
424.511	524.62
424.733	547.62
424.956	598.62
425.178	584.62
425.401	567.62
425.623	567.62
425.846	507.62
426.068	491.62
426.291	495.62
426.513	488.62
426.735	484.62
426.958	524.62
427.18	565.62
427.402	624.62
427.625	681.62
427.847	610.62
428.069	562.62
428.292	507.62
428.514	471.62
428.736	473.62
428.958	463.62
429.181	438.62
429.403	456.62
429.625	439.62
429.847	452.62
430.069	476.62
430.292	488.62
430.514	441.62
430.736	443.62
430.958	439.62
431.18	428.62
431.402	433.62
431.624	419.62
431.846	456.62
432.068	440.62
432.29	467.62
432.512	451.62
432.734	438.62
432.956	441.62
433.178	424.62
433.4	458.62
433.622	419.62
433.844	425.62
434.066	432.62
434.287	440.62
434.509	443.62
434.731	435.62
434.953	479.62
435.175	482.62
435.397	496.62
435.618	483.62
435.84	512.62
436.062	559.62
436.284	559.62
436.505	519.62
436.727	482.62
436.949	451.62
437.17	441.62
437.392	431.62
437.614	440.62
437.835	473.62
438.057	501.62
438.278	559.62
438.5	583.62
438.721	605.62
438.943	588.62
439.165	480.62
439.386	464.62
439.608	465.62
439.829	482.62
440.05	499.62
440.272	523.62
440.493	480.62
440.715	459.62
440.936	474.62
441.158	458.62
441.379	448.62
441.6	475.62
441.822	501.62
442.043	524.62
442.264	549.62
442.486	572.62
442.707	531.62
442.928	509.62
443.149	502.62
443.371	492.62
443.592	499.62
443.813	589.62
444.034	631.62
444.255	543.62
444.476	517.62
444.698	538.62
444.919	537.62
445.14	612.62
445.361	563.62
445.582	539.62
445.803	537.62
446.024	589.62
446.245	601.62
446.466	565.62
446.687	495.62
446.908	484.62
447.129	454.62
447.35	447.62
447.571	459.62
447.792	424.62
448.013	419.62
448.234	424.62
448.455	453.62
448.675	534.62
448.896	599.62
449.117	535.62
449.338	500.62
449.559	571.62
449.779	626.62
450	498.62
450.221	437.62
450.442	454.62
450.662	411.62
450.883	418.62
451.104	418.62
451.324	436.62
451.545	409.62
451.766	385.62
451.986	385.62
452.207	405.62
452.428	387.62
452.648	385.62
452.869	396.62
453.089	408.62
453.31	412.62
453.53	392.62
453.751	379.62
453.971	408.62
454.192	387.62
454.412	393.62
454.633	385.62
454.853	377.62
455.073	396.62
455.294	403.62
455.514	449.62
455.734	442.62
455.955	400.62
456.175	378.62
456.395	364.62
456.616	380.62
456.836	380.62
457.056	349.62
457.276	373.62
457.497	373.62
457.717	358.62
457.937	394.62
458.157	382.62
458.377	392.62
458.598	407.62
458.818	444.62
459.038	491.62
459.258	493.62
459.478	449.62
459.698	456.62
459.918	441.62
460.138	447.62
460.358	469.62
460.578	475.62
460.798	475.62
461.018	459.62
461.238	460.62
461.458	469.62
461.678	467.62
461.898	468.62
462.118	483.62
462.338	494.62
462.558	507.62
462.777	511.62
462.997	549.62
463.217	553.62
463.437	585.62
463.657	529.62
463.876	537.62
464.096	517.62
464.316	529.62
464.536	524.62
464.755	519.62
464.975	489.62
465.195	519.62
465.414	518.62
465.634	446.62
465.854	458.62
466.073	451.62
466.293	468.62
466.512	443.62
466.732	420.62
466.951	435.62
467.171	425.62
467.391	414.62
467.61	409.62
467.829	425.62
468.049	431.62
468.268	437.62
468.488	403.62
468.707	415.62
468.927	428.62
469.146	407.62
469.365	402.62
469.585	404.62
469.804	401.62
470.023	433.62
470.243	416.62
470.462	419.62
470.681	437.62
470.901	429.62
471.12	407.62
471.339	432.62
471.558	412.62
471.777	410.62
471.997	411.62
472.216	428.62
472.435	465.62
472.654	461.62
472.873	439.62
473.092	412.62
473.311	421.62
473.53	404.62
473.749	409.62
473.968	414.62
474.187	479.62
474.406	477.62
474.625	440.62
474.844	407.62
475.063	408.62
475.282	395.62
475.501	407.62
475.72	421.62
475.939	419.62
476.158	398.62
476.377	423.62
476.596	405.62
476.814	433.62
477.033	433.62
477.252	433.62
477.471	436.62
477.69	438.62
477.908	461.62
478.127	468.62
478.346	447.62
478.564	463.62
478.783	467.62
479.002	469.62
479.22	483.62
479.439	496.62
479.658	481.62
479.876	491.62
480.095	496.62
480.313	532.62
480.532	543.62
480.751	517.62
480.969	545.62
481.188	572.62
481.406	576.62
481.624	540.62
481.843	526.62
482.061	480.62
482.28	479.62
482.498	461.62
482.717	473.62
482.935	463.62
483.153	461.62
483.372	473.62
483.59	468.62
483.808	478.62
484.027	455.62
484.245	469.62
484.463	472.62
484.681	485.62
484.9	493.62
485.118	472.62
485.336	464.62
485.554	512.62
485.772	509.62
485.99	480.62
486.209	453.62
486.427	491.62
486.645	491.62
486.863	489.62
487.081	486.62
487.299	490.62
487.517	488.62
487.735	504.62
487.953	504.62
488.171	486.62
488.389	478.62
488.607	499.62
488.825	506.62
489.043	476.62
489.261	511.62
489.479	527.62
489.696	513.62
489.914	515.62
490.132	495.62
490.35	502.62
490.568	508.62
490.786	532.62
491.003	526.62
491.221	518.62
491.439	539.62
491.657	552.62
491.874	522.62
492.092	536.62
492.31	565.62
492.527	573.62
492.745	549.62
492.963	561.62
493.18	570.62
493.398	561.62
493.615	573.62
493.833	586.62
494.05	587.62
494.268	579.62
494.485	570.62
494.703	557.62
494.92	571.62
495.138	567.62
495.355	555.62
495.573	584.62
495.79	559.62
496.008	556.62
496.225	561.62
496.442	585.62
496.66	564.62
496.877	573.62
497.094	580.62
497.312	609.62
497.529	600.62
497.746	620.62
497.963	618.62
498.181	645.62
498.398	652.62
498.615	681.62
498.832	709.62
499.049	707.62
499.267	754.62
499.484	823.62
499.701	861.62
499.918	930.62
500.135	1013.62
500.352	1111.62
500.569	1130.62
500.786	1101.62
501.003	1075.62
501.22	995.62
501.437	939.62
501.654	860.62
501.871	825.62
