Data from 1984.PennyLincolnUp.Lamp.En5.5.200Scan.071819.P1_HRD10591_16-58-08-968.txt Node
Date: Thu Jul 18 16:58:08 EDT 2019
User: cochatt
Spectrometer: HR+D1059
Trigger mode: 1
Integration Time (sec): 1.000000E-1
Scans to average: 1
Electric dark correction enabled: true
Nonlinearity correction enabled: false
Boxcar width: 0
XAxis mode: Wavelengths
Number of Pixels in Spectrum: 2048
>>>>>Begin Spectral Data<<<<<
223.165	-16.75
223.4	-16.75
223.635	-16.75
223.869	-5.75
224.104	-9.75
224.338	-6.75
224.573	-2.75
224.808	-10.75
225.042	-17.75
225.277	2.25
225.511	-5.75
225.746	1.25
225.98	-2.75
226.215	-5.75
226.449	15.25
226.683	9.25
226.918	14.25
227.152	42.25
227.387	43.25
227.621	37.25
227.856	57.25
228.09	58.25
228.324	54.25
228.559	55.25
228.793	61.25
229.027	81.25
229.262	101.25
229.496	107.25
229.73	111.25
229.964	136.25
230.199	107.25
230.433	106.25
230.667	108.25
230.901	95.25
231.136	107.25
231.37	110.25
231.604	105.25
231.838	128.25
232.072	105.25
232.306	105.25
232.541	111.25
232.775	118.25
233.009	110.25
233.243	126.25
233.477	115.25
233.711	101.25
233.945	106.25
234.179	105.25
234.413	100.25
234.647	119.25
234.881	122.25
235.115	116.25
235.349	116.25
235.583	113.25
235.817	115.25
236.051	122.25
236.285	115.25
236.519	108.25
236.753	120.25
236.987	132.25
237.221	137.25
237.455	183.25
237.689	149.25
237.922	120.25
238.156	121.25
238.39	125.25
238.624	118.25
238.858	124.25
239.091	124.25
239.325	137.25
239.559	110.25
239.793	113.25
240.027	129.25
240.26	129.25
240.494	127.25
240.728	128.25
240.961	140.25
241.195	138.25
241.429	127.25
241.662	120.25
241.896	132.25
242.13	120.25
242.363	138.25
242.597	127.25
242.83	136.25
243.064	131.25
243.298	126.25
243.531	136.25
243.765	133.25
243.998	128.25
244.232	124.25
244.465	132.25
244.699	148.25
244.932	139.25
245.166	132.25
245.399	141.25
245.633	155.25
245.866	130.25
246.099	139.25
246.333	139.25
246.566	126.25
246.8	139.25
247.033	131.25
247.266	141.25
247.5	153.25
247.733	155.25
247.966	164.25
248.2	157.25
248.433	162.25
248.666	165.25
248.899	158.25
249.133	160.25
249.366	170.25
249.599	160.25
249.832	158.25
250.066	175.25
250.299	164.25
250.532	180.25
250.765	184.25
250.998	196.25
251.231	179.25
251.465	194.25
251.698	168.25
251.931	174.25
252.164	179.25
252.397	195.25
252.63	173.25
252.863	184.25
253.096	179.25
253.329	189.25
253.562	189.25
253.795	183.25
254.028	181.25
254.261	181.25
254.494	180.25
254.727	201.25
254.96	204.25
255.193	208.25
255.426	199.25
255.659	194.25
255.892	218.25
256.124	215.25
256.357	225.25
256.59	206.25
256.823	192.25
257.056	201.25
257.289	198.25
257.521	188.25
257.754	199.25
257.987	189.25
258.22	180.25
258.452	192.25
258.685	190.25
258.918	176.25
259.151	186.25
259.383	189.25
259.616	189.25
259.849	190.25
260.081	202.25
260.314	206.25
260.547	199.25
260.779	209.25
261.012	197.25
261.244	213.25
261.477	198.25
261.71	174.25
261.942	196.25
262.175	213.25
262.407	208.25
262.64	195.25
262.872	199.25
263.105	192.25
263.337	205.25
263.57	202.25
263.802	185.25
264.035	186.25
264.267	200.25
264.499	209.25
264.732	196.25
264.964	210.25
265.197	204.25
265.429	214.25
265.661	191.25
265.894	203.25
266.126	207.25
266.358	220.25
266.591	202.25
266.823	213.25
267.055	217.25
267.287	216.25
267.52	224.25
267.752	200.25
267.984	195.25
268.216	216.25
268.448	229.25
268.681	227.25
268.913	227.25
269.145	225.25
269.377	239.25
269.609	230.25
269.841	244.25
270.073	255.25
270.306	253.25
270.538	267.25
270.77	265.25
271.002	265.25
271.234	254.25
271.466	251.25
271.698	261.25
271.93	258.25
272.162	267.25
272.394	253.25
272.626	262.25
272.858	255.25
273.09	253.25
273.322	252.25
273.553	253.25
273.785	249.25
274.017	239.25
274.249	237.25
274.481	227.25
274.713	219.25
274.945	243.25
275.176	246.25
275.408	248.25
275.64	233.25
275.872	251.25
276.104	248.25
276.335	247.25
276.567	255.25
276.799	260.25
277.031	247.25
277.262	256.25
277.494	277.25
277.726	287.25
277.957	254.25
278.189	241.25
278.421	249.25
278.652	262.25
278.884	269.25
279.115	246.25
279.347	257.25
279.579	258.25
279.81	275.25
280.042	262.25
280.273	250.25
280.505	261.25
280.736	261.25
280.968	245.25
281.199	250.25
281.431	248.25
281.662	274.25
281.894	268.25
282.125	275.25
282.356	269.25
282.588	279.25
282.819	269.25
283.051	286.25
283.282	273.25
283.513	261.25
283.745	275.25
283.976	265.25
284.207	273.25
284.439	267.25
284.67	288.25
284.901	281.25
285.132	261.25
285.364	252.25
285.595	262.25
285.826	256.25
286.057	276.25
286.288	256.25
286.52	271.25
286.751	268.25
286.982	283.25
287.213	291.25
287.444	262.25
287.675	270.25
287.906	283.25
288.138	280.25
288.369	293.25
288.6	294.25
288.831	293.25
289.062	292.25
289.293	278.25
289.524	288.25
289.755	278.25
289.986	294.25
290.217	284.25
290.448	272.25
290.679	291.25
290.91	295.25
291.141	281.25
291.371	291.25
291.602	283.25
291.833	284.25
292.064	278.25
292.295	282.25
292.526	268.25
292.757	285.25
292.987	286.25
293.218	268.25
293.449	297.25
293.68	285.25
293.91	280.25
294.141	267.25
294.372	277.25
294.603	284.25
294.833	292.25
295.064	295.25
295.295	291.25
295.525	298.25
295.756	289.25
295.987	294.25
296.217	303.25
296.448	313.25
296.679	289.25
296.909	294.25
297.14	300.25
297.37	299.25
297.601	295.25
297.831	307.25
298.062	318.25
298.292	291.25
298.523	321.25
298.753	293.25
298.984	292.25
299.214	311.25
299.445	319.25
299.675	325.25
299.905	307.25
300.136	315.25
300.366	309.25
300.597	314.25
300.827	310.25
301.057	321.25
301.288	328.25
301.518	313.25
301.748	315.25
301.979	305.25
302.209	327.25
302.439	321.25
302.669	302.25
302.9	317.25
303.13	316.25
303.36	320.25
303.59	326.25
303.82	343.25
304.051	331.25
304.281	330.25
304.511	325.25
304.741	325.25
304.971	308.25
305.201	320.25
305.431	310.25
305.661	296.25
305.891	307.25
306.121	307.25
306.352	323.25
306.582	323.25
306.812	314.25
307.042	330.25
307.272	328.25
307.502	341.25
307.731	317.25
307.961	324.25
308.191	315.25
308.421	311.25
308.651	327.25
308.881	319.25
309.111	313.25
309.341	331.25
309.571	337.25
309.8	327.25
310.03	340.25
310.26	334.25
310.49	346.25
310.72	373.25
310.949	344.25
311.179	357.25
311.409	339.25
311.639	345.25
311.868	333.25
312.098	334.25
312.328	330.25
312.557	353.25
312.787	348.25
313.017	359.25
313.246	349.25
313.476	358.25
313.706	358.25
313.935	353.25
314.165	349.25
314.394	350.25
314.624	368.25
314.853	371.25
315.083	359.25
315.312	347.25
315.542	338.25
315.771	357.25
316.001	358.25
316.23	333.25
316.46	350.25
316.689	360.25
316.919	358.25
317.148	352.25
317.377	358.25
317.607	343.25
317.836	350.25
318.065	342.25
318.295	345.25
318.524	343.25
318.753	345.25
318.983	368.25
319.212	366.25
319.441	355.25
319.67	361.25
319.9	333.25
320.129	344.25
320.358	351.25
320.587	344.25
320.816	332.25
321.046	360.25
321.275	352.25
321.504	360.25
321.733	363.25
321.962	362.25
322.191	362.25
322.42	362.25
322.649	374.25
322.878	387.25
323.108	396.25
323.337	407.25
323.566	425.25
323.795	419.25
324.024	425.25
324.253	527.25
324.482	669.25
324.71	975.25
324.939	1334.25
325.168	1169.25
325.397	661.25
325.626	504.25
325.855	459.25
326.084	436.25
326.313	438.25
326.542	432.25
326.77	448.25
326.999	493.25
327.228	634.25
327.457	892.25
327.686	1051.25
327.914	752.25
328.143	556.25
328.372	493.25
328.6	445.25
328.829	432.25
329.058	460.25
329.287	465.25
329.515	449.25
329.744	421.25
329.972	433.25
330.201	451.25
330.43	476.25
330.658	483.25
330.887	490.25
331.115	497.25
331.344	444.25
331.572	426.25
331.801	443.25
332.03	421.25
332.258	436.25
332.486	421.25
332.715	431.25
332.943	446.25
333.172	459.25
333.4	465.25
333.629	465.25
333.857	489.25
334.085	471.25
334.314	499.25
334.542	542.25
334.771	515.25
334.999	481.25
335.227	452.25
335.455	445.25
335.684	456.25
335.912	439.25
336.14	437.25
336.369	426.25
336.597	451.25
336.825	430.25
337.053	451.25
337.281	434.25
337.51	410.25
337.738	396.25
337.966	396.25
338.194	410.25
338.422	393.25
338.65	396.25
338.878	394.25
339.106	408.25
339.334	396.25
339.562	407.25
339.79	394.25
340.018	387.25
340.246	381.25
340.474	391.25
340.702	381.25
340.93	379.25
341.158	400.25
341.386	387.25
341.614	378.25
341.842	382.25
342.07	395.25
342.298	371.25
342.526	383.25
342.754	385.25
342.981	377.25
343.209	379.25
343.437	367.25
343.665	379.25
343.893	421.25
344.12	429.25
344.348	427.25
344.576	412.25
344.804	408.25
345.031	388.25
345.259	393.25
345.487	393.25
345.714	371.25
345.942	371.25
346.17	384.25
346.397	384.25
346.625	378.25
346.853	376.25
347.08	365.25
347.308	366.25
347.535	360.25
347.763	368.25
347.99	373.25
348.218	373.25
348.445	376.25
348.673	378.25
348.9	368.25
349.128	367.25
349.355	363.25
349.583	346.25
349.81	372.25
350.037	360.25
350.265	351.25
350.492	371.25
350.72	352.25
350.947	348.25
351.174	355.25
351.402	377.25
351.629	359.25
351.856	373.25
352.083	360.25
352.311	362.25
352.538	366.25
352.765	375.25
352.992	367.25
353.22	356.25
353.447	356.25
353.674	368.25
353.901	351.25
354.128	348.25
354.355	362.25
354.583	362.25
354.81	368.25
355.037	340.25
355.264	354.25
355.491	367.25
355.718	353.25
355.945	342.25
356.172	361.25
356.399	359.25
356.626	355.25
356.853	348.25
357.08	357.25
357.307	348.25
357.534	353.25
357.761	342.25
357.988	351.25
358.215	337.25
358.441	353.25
358.668	361.25
358.895	348.25
359.122	348.25
359.349	357.25
359.576	351.25
359.802	371.25
360.029	359.25
360.256	371.25
360.483	383.25
360.709	343.25
360.936	349.25
361.163	359.25
361.39	372.25
361.616	349.25
361.843	356.25
362.07	355.25
362.296	367.25
362.523	365.25
362.749	346.25
362.976	357.25
363.203	355.25
363.429	341.25
363.656	348.25
363.882	358.25
364.109	355.25
364.335	350.25
364.562	345.25
364.788	359.25
365.015	349.25
365.241	345.25
365.468	351.25
365.694	357.25
365.92	360.25
366.147	337.25
366.373	356.25
366.599	327.25
366.826	341.25
367.052	362.25
367.278	366.25
367.505	358.25
367.731	344.25
367.957	345.25
368.184	356.25
368.41	341.25
368.636	356.25
368.862	354.25
369.089	352.25
369.315	351.25
369.541	367.25
369.767	341.25
369.993	348.25
370.219	341.25
370.445	351.25
370.672	352.25
370.898	366.25
371.124	360.25
371.35	356.25
371.576	341.25
371.802	348.25
372.028	356.25
372.254	378.25
372.48	363.25
372.706	363.25
372.932	383.25
373.158	391.25
373.384	380.25
373.61	364.25
373.835	369.25
374.061	350.25
374.287	356.25
374.513	385.25
374.739	372.25
374.965	385.25
375.191	389.25
375.416	387.25
375.642	361.25
375.868	359.25
376.094	369.25
376.319	360.25
376.545	349.25
376.771	338.25
376.997	356.25
377.222	361.25
377.448	356.25
377.674	351.25
377.899	354.25
378.125	371.25
378.35	371.25
378.576	351.25
378.802	364.25
379.027	360.25
379.253	355.25
379.478	371.25
379.704	363.25
379.929	360.25
380.155	352.25
380.38	349.25
380.606	353.25
380.831	340.25
381.057	357.25
381.282	359.25
381.507	352.25
381.733	365.25
381.958	362.25
382.184	349.25
382.409	368.25
382.634	398.25
382.86	375.25
383.085	380.25
383.31	358.25
383.535	388.25
383.761	383.25
383.986	390.25
384.211	388.25
384.436	400.25
384.662	398.25
384.887	408.25
385.112	408.25
385.337	392.25
385.562	399.25
385.787	385.25
386.013	405.25
386.238	414.25
386.463	411.25
386.688	413.25
386.913	396.25
387.138	415.25
387.363	405.25
387.588	403.25
387.813	401.25
388.038	409.25
388.263	405.25
388.488	397.25
388.713	406.25
388.938	412.25
389.163	413.25
389.387	404.25
389.612	415.25
389.837	401.25
390.062	382.25
390.287	400.25
390.512	390.25
390.736	386.25
390.961	411.25
391.186	408.25
391.411	416.25
391.636	435.25
391.86	427.25
392.085	428.25
392.31	438.25
392.534	416.25
392.759	416.25
392.984	432.25
393.208	410.25
393.433	405.25
393.658	391.25
393.882	421.25
394.107	430.25
394.331	421.25
394.556	435.25
394.78	417.25
395.005	405.25
395.229	425.25
395.454	411.25
395.678	439.25
395.903	444.25
396.127	455.25
396.352	436.25
396.576	439.25
396.801	407.25
397.025	416.25
397.249	418.25
397.474	445.25
397.698	425.25
397.922	455.25
398.147	461.25
398.371	449.25
398.595	459.25
398.82	473.25
399.044	507.25
399.268	517.25
399.492	560.25
399.717	631.25
399.941	655.25
400.165	632.25
400.389	591.25
400.613	537.25
400.837	501.25
401.062	498.25
401.286	492.25
401.51	462.25
401.734	486.25
401.958	482.25
402.182	487.25
402.406	490.25
402.63	504.25
402.854	493.25
403.078	517.25
403.302	499.25
403.526	529.25
403.75	534.25
403.974	522.25
404.198	532.25
404.422	507.25
404.645	522.25
404.869	529.25
405.093	558.25
405.317	556.25
405.541	595.25
405.765	520.25
405.988	543.25
406.212	539.25
406.436	535.25
406.66	548.25
406.883	540.25
407.107	574.25
407.331	589.25
407.555	636.25
407.778	613.25
408.002	605.25
408.226	552.25
408.449	563.25
408.673	524.25
408.896	545.25
409.12	545.25
409.344	556.25
409.567	502.25
409.791	511.25
410.014	505.25
410.238	517.25
410.461	506.25
410.685	503.25
410.908	505.25
411.132	490.25
411.355	557.25
411.578	501.25
411.802	492.25
412.025	509.25
412.249	503.25
412.472	517.25
412.695	539.25
412.919	545.25
413.142	503.25
413.365	469.25
413.589	503.25
413.812	477.25
414.035	456.25
414.258	463.25
414.482	488.25
414.705	483.25
414.928	476.25
415.151	483.25
415.374	465.25
415.597	456.25
415.821	465.25
416.044	446.25
416.267	422.25
416.49	461.25
416.713	455.25
416.936	464.25
417.159	450.25
417.382	470.25
417.605	469.25
417.828	469.25
418.051	479.25
418.274	485.25
418.497	467.25
418.72	466.25
418.943	494.25
419.166	524.25
419.389	521.25
419.611	527.25
419.834	503.25
420.057	482.25
420.28	496.25
420.503	479.25
420.726	486.25
420.948	485.25
421.171	497.25
421.394	528.25
421.617	480.25
421.839	460.25
422.062	486.25
422.285	480.25
422.507	509.25
422.73	563.25
422.953	536.25
423.175	506.25
423.398	497.25
423.621	480.25
423.843	494.25
424.066	491.25
424.288	501.25
424.511	492.25
424.733	528.25
424.956	586.25
425.178	565.25
425.401	545.25
425.623	563.25
425.846	493.25
426.068	487.25
426.291	463.25
426.513	460.25
426.735	482.25
426.958	504.25
427.18	541.25
427.402	595.25
427.625	662.25
427.847	597.25
428.069	533.25
428.292	527.25
428.514	470.25
428.736	463.25
428.958	448.25
429.181	450.25
429.403	432.25
429.625	440.25
429.847	477.25
430.069	506.25
430.292	502.25
430.514	433.25
430.736	456.25
430.958	411.25
431.18	437.25
431.402	423.25
431.624	426.25
431.846	427.25
432.068	452.25
432.29	421.25
432.512	407.25
432.734	456.25
432.956	431.25
433.178	436.25
433.4	422.25
433.622	431.25
433.844	443.25
434.066	429.25
434.287	459.25
434.509	438.25
434.731	465.25
434.953	463.25
435.175	475.25
435.397	494.25
435.618	469.25
435.84	496.25
436.062	545.25
436.284	573.25
436.505	495.25
436.727	451.25
436.949	427.25
437.17	424.25
437.392	422.25
437.614	425.25
437.835	451.25
438.057	500.25
438.278	537.25
438.5	554.25
438.721	594.25
438.943	565.25
439.165	484.25
439.386	441.25
439.608	445.25
439.829	459.25
440.05	488.25
440.272	517.25
440.493	490.25
440.715	473.25
440.936	449.25
441.158	468.25
441.379	476.25
441.6	475.25
441.822	472.25
442.043	517.25
442.264	526.25
442.486	547.25
442.707	503.25
442.928	472.25
443.149	519.25
443.371	507.25
443.592	518.25
443.813	587.25
444.034	618.25
444.255	559.25
444.476	511.25
444.698	500.25
444.919	526.25
445.14	600.25
445.361	555.25
445.582	518.25
445.803	533.25
446.024	552.25
446.245	585.25
446.466	538.25
446.687	465.25
446.908	457.25
447.129	436.25
447.35	428.25
447.571	426.25
447.792	428.25
448.013	436.25
448.234	442.25
448.455	468.25
448.675	535.25
448.896	565.25
449.117	505.25
449.338	494.25
449.559	539.25
449.779	616.25
450	516.25
450.221	454.25
450.442	437.25
450.662	402.25
450.883	421.25
451.104	442.25
451.324	420.25
451.545	405.25
451.766	411.25
451.986	396.25
452.207	410.25
452.428	383.25
452.648	397.25
452.869	385.25
453.089	405.25
453.31	410.25
453.53	391.25
453.751	380.25
453.971	399.25
454.192	410.25
454.412	402.25
454.633	404.25
454.853	393.25
455.073	405.25
455.294	401.25
455.514	427.25
455.734	443.25
455.955	387.25
456.175	363.25
456.395	377.25
456.616	376.25
456.836	378.25
457.056	365.25
457.276	372.25
457.497	369.25
457.717	370.25
457.937	373.25
458.157	368.25
458.377	396.25
458.598	387.25
458.818	417.25
459.038	465.25
459.258	497.25
459.478	447.25
459.698	453.25
459.918	433.25
460.138	441.25
460.358	441.25
460.578	435.25
460.798	441.25
461.018	465.25
461.238	464.25
461.458	459.25
461.678	446.25
461.898	470.25
462.118	477.25
462.338	479.25
462.558	485.25
462.777	511.25
462.997	563.25
463.217	556.25
463.437	568.25
463.657	556.25
463.876	510.25
464.096	507.25
464.316	507.25
464.536	501.25
464.755	505.25
464.975	508.25
465.195	486.25
465.414	533.25
465.634	472.25
465.854	440.25
466.073	439.25
466.293	420.25
466.512	413.25
466.732	410.25
466.951	393.25
467.171	401.25
467.391	407.25
467.61	416.25
467.829	425.25
468.049	407.25
468.268	410.25
468.488	404.25
468.707	391.25
468.927	397.25
469.146	413.25
469.365	389.25
469.585	399.25
469.804	394.25
470.023	409.25
470.243	404.25
470.462	421.25
470.681	407.25
470.901	435.25
471.12	430.25
471.339	393.25
471.558	420.25
471.777	409.25
471.997	401.25
472.216	402.25
472.435	435.25
472.654	405.25
472.873	423.25
473.092	426.25
473.311	410.25
473.53	387.25
473.749	417.25
473.968	417.25
474.187	466.25
474.406	472.25
474.625	405.25
474.844	416.25
475.063	381.25
475.282	392.25
475.501	401.25
475.72	416.25
475.939	432.25
476.158	420.25
476.377	404.25
476.596	392.25
476.814	399.25
477.033	420.25
477.252	412.25
477.471	427.25
477.69	428.25
477.908	438.25
478.127	457.25
478.346	450.25
478.564	458.25
478.783	448.25
479.002	452.25
479.22	499.25
479.439	485.25
479.658	480.25
479.876	480.25
480.095	477.25
480.313	493.25
480.532	517.25
480.751	524.25
480.969	509.25
481.188	528.25
481.406	549.25
481.624	508.25
481.843	510.25
482.061	480.25
482.28	479.25
482.498	460.25
482.717	463.25
482.935	469.25
483.153	461.25
483.372	457.25
483.59	457.25
483.808	448.25
484.027	449.25
484.245	457.25
484.463	459.25
484.681	476.25
484.9	473.25
485.118	468.25
485.336	455.25
485.554	487.25
485.772	487.25
485.99	482.25
486.209	471.25
486.427	474.25
486.645	481.25
486.863	503.25
487.081	473.25
487.299	500.25
487.517	504.25
487.735	500.25
487.953	487.25
488.171	480.25
488.389	502.25
488.607	479.25
488.825	485.25
489.043	473.25
489.261	493.25
489.479	495.25
489.696	492.25
489.914	483.25
490.132	500.25
490.35	500.25
490.568	472.25
490.786	500.25
491.003	515.25
491.221	517.25
491.439	534.25
491.657	550.25
491.874	518.25
492.092	550.25
492.31	544.25
492.527	544.25
492.745	556.25
492.963	551.25
493.18	560.25
493.398	540.25
493.615	557.25
493.833	554.25
494.05	546.25
494.268	546.25
494.485	581.25
494.703	547.25
494.92	550.25
495.138	535.25
495.355	555.25
495.573	545.25
495.79	554.25
496.008	556.25
496.225	563.25
496.442	579.25
496.66	575.25
496.877	573.25
497.094	596.25
497.312	558.25
497.529	608.25
497.746	567.25
497.963	611.25
498.181	622.25
498.398	638.25
498.615	661.25
498.832	675.25
499.049	728.25
499.267	759.25
499.484	781.25
499.701	837.25
499.918	873.25
500.135	965.25
500.352	1089.25
500.569	1087.25
500.786	1111.25
501.003	1066.25
501.22	982.25
501.437	925.25
501.654	850.25
501.871	824.25
502.088	793.25
