Data from 1984.PennyLincolnUp.Lamp.En5.5.200Scan.071819.P1_HRD10591_16-58-55-968.txt Node
Date: Thu Jul 18 16:58:55 EDT 2019
User: cochatt
Spectrometer: HR+D1059
Trigger mode: 1
Integration Time (sec): 1.000000E-1
Scans to average: 1
Electric dark correction enabled: true
Nonlinearity correction enabled: false
Boxcar width: 0
XAxis mode: Wavelengths
Number of Pixels in Spectrum: 2048
>>>>>Begin Spectral Data<<<<<
223.165	-10.81
223.4	-10.81
223.635	-10.81
223.869	-28.81
224.104	-12.81
224.338	-8.81
224.573	-10.81
224.808	-12.81
225.042	-19.81
225.277	-2.81
225.511	-6.81
225.746	-3.81
225.98	19.19
226.215	12.19
226.449	14.19
226.683	14.19
226.918	22.19
227.152	36.19
227.387	29.19
227.621	37.19
227.856	35.19
228.09	38.19
228.324	53.19
228.559	61.19
228.793	55.19
229.027	87.19
229.262	99.19
229.496	98.19
229.73	116.19
229.964	122.19
230.199	110.19
230.433	102.19
230.667	109.19
230.901	99.19
231.136	102.19
231.37	102.19
231.604	109.19
231.838	106.19
232.072	115.19
232.306	99.19
232.541	108.19
232.775	110.19
233.009	101.19
233.243	116.19
233.477	112.19
233.711	109.19
233.945	98.19
234.179	112.19
234.413	109.19
234.647	116.19
234.881	112.19
235.115	99.19
235.349	117.19
235.583	108.19
235.817	119.19
236.051	112.19
236.285	122.19
236.519	100.19
236.753	93.19
236.987	107.19
237.221	139.19
237.455	157.19
237.689	135.19
237.922	128.19
238.156	118.19
238.39	130.19
238.624	104.19
238.858	119.19
239.091	107.19
239.325	103.19
239.559	121.19
239.793	136.19
240.027	123.19
240.26	124.19
240.494	117.19
240.728	132.19
240.961	143.19
241.195	126.19
241.429	130.19
241.662	120.19
241.896	126.19
242.13	121.19
242.363	117.19
242.597	124.19
242.83	128.19
243.064	118.19
243.298	124.19
243.531	141.19
243.765	131.19
243.998	137.19
244.232	123.19
244.465	139.19
244.699	141.19
244.932	135.19
245.166	130.19
245.399	137.19
245.633	134.19
245.866	133.19
246.099	146.19
246.333	138.19
246.566	131.19
246.8	134.19
247.033	140.19
247.266	127.19
247.5	150.19
247.733	160.19
247.966	140.19
248.2	154.19
248.433	154.19
248.666	139.19
248.899	157.19
249.133	155.19
249.366	187.19
249.599	183.19
249.832	170.19
250.066	174.19
250.299	159.19
250.532	184.19
250.765	191.19
250.998	196.19
251.231	184.19
251.465	170.19
251.698	177.19
251.931	154.19
252.164	169.19
252.397	160.19
252.63	161.19
252.863	178.19
253.096	176.19
253.329	195.19
253.562	196.19
253.795	182.19
254.028	187.19
254.261	178.19
254.494	184.19
254.727	189.19
254.96	226.19
255.193	204.19
255.426	206.19
255.659	204.19
255.892	218.19
256.124	237.19
256.357	247.19
256.59	214.19
256.823	190.19
257.056	205.19
257.289	198.19
257.521	180.19
257.754	180.19
257.987	180.19
258.22	192.19
258.452	179.19
258.685	211.19
258.918	188.19
259.151	193.19
259.383	184.19
259.616	197.19
259.849	194.19
260.081	208.19
260.314	217.19
260.547	213.19
260.779	203.19
261.012	203.19
261.244	185.19
261.477	214.19
261.71	182.19
261.942	199.19
262.175	204.19
262.407	201.19
262.64	207.19
262.872	211.19
263.105	188.19
263.337	192.19
263.57	189.19
263.802	199.19
264.035	188.19
264.267	194.19
264.499	183.19
264.732	196.19
264.964	192.19
265.197	196.19
265.429	203.19
265.661	207.19
265.894	192.19
266.126	210.19
266.358	197.19
266.591	203.19
266.823	200.19
267.055	212.19
267.287	198.19
267.52	227.19
267.752	194.19
267.984	186.19
268.216	217.19
268.448	202.19
268.681	218.19
268.913	214.19
269.145	209.19
269.377	227.19
269.609	233.19
269.841	230.19
270.073	231.19
270.306	245.19
270.538	280.19
270.77	266.19
271.002	247.19
271.234	245.19
271.466	242.19
271.698	265.19
271.93	251.19
272.162	263.19
272.394	254.19
272.626	251.19
272.858	252.19
273.09	232.19
273.322	232.19
273.553	240.19
273.785	221.19
274.017	220.19
274.249	245.19
274.481	241.19
274.713	226.19
274.945	251.19
275.176	254.19
275.408	249.19
275.64	224.19
275.872	222.19
276.104	235.19
276.335	227.19
276.567	236.19
276.799	257.19
277.031	273.19
277.262	264.19
277.494	259.19
277.726	258.19
277.957	242.19
278.189	252.19
278.421	254.19
278.652	253.19
278.884	245.19
279.115	261.19
279.347	255.19
279.579	232.19
279.81	253.19
280.042	258.19
280.273	272.19
280.505	232.19
280.736	259.19
280.968	262.19
281.199	242.19
281.431	236.19
281.662	256.19
281.894	255.19
282.125	257.19
282.356	265.19
282.588	284.19
282.819	295.19
283.051	252.19
283.282	260.19
283.513	268.19
283.745	260.19
283.976	266.19
284.207	273.19
284.439	252.19
284.67	262.19
284.901	276.19
285.132	274.19
285.364	278.19
285.595	267.19
285.826	262.19
286.057	281.19
286.288	262.19
286.52	267.19
286.751	269.19
286.982	290.19
287.213	256.19
287.444	273.19
287.675	285.19
287.906	289.19
288.138	298.19
288.369	270.19
288.6	274.19
288.831	293.19
289.062	298.19
289.293	273.19
289.524	279.19
289.755	291.19
289.986	276.19
290.217	286.19
290.448	286.19
290.679	278.19
290.91	284.19
291.141	266.19
291.371	280.19
291.602	286.19
291.833	290.19
292.064	288.19
292.295	270.19
292.526	257.19
292.757	290.19
292.987	287.19
293.218	284.19
293.449	280.19
293.68	291.19
293.91	268.19
294.141	274.19
294.372	274.19
294.603	273.19
294.833	302.19
295.064	282.19
295.295	291.19
295.525	285.19
295.756	295.19
295.987	300.19
296.217	296.19
296.448	309.19
296.679	287.19
296.909	298.19
297.14	295.19
297.37	303.19
297.601	269.19
297.831	282.19
298.062	302.19
298.292	278.19
298.523	294.19
298.753	295.19
298.984	297.19
299.214	316.19
299.445	309.19
299.675	293.19
299.905	316.19
300.136	290.19
300.366	291.19
300.597	300.19
300.827	316.19
301.057	321.19
301.288	314.19
301.518	309.19
301.748	306.19
301.979	316.19
302.209	303.19
302.439	330.19
302.669	317.19
302.9	304.19
303.13	305.19
303.36	313.19
303.59	341.19
303.82	320.19
304.051	322.19
304.281	322.19
304.511	312.19
304.741	311.19
304.971	304.19
305.201	317.19
305.431	323.19
305.661	305.19
305.891	307.19
306.121	300.19
306.352	312.19
306.582	300.19
306.812	307.19
307.042	316.19
307.272	326.19
307.502	314.19
307.731	312.19
307.961	316.19
308.191	310.19
308.421	289.19
308.651	293.19
308.881	324.19
309.111	313.19
309.341	321.19
309.571	320.19
309.8	325.19
310.03	329.19
310.26	338.19
310.49	340.19
310.72	356.19
310.949	343.19
311.179	347.19
311.409	352.19
311.639	328.19
311.868	342.19
312.098	328.19
312.328	345.19
312.557	378.19
312.787	347.19
313.017	363.19
313.246	365.19
313.476	329.19
313.706	351.19
313.935	364.19
314.165	342.19
314.394	368.19
314.624	341.19
314.853	348.19
315.083	350.19
315.312	344.19
315.542	348.19
315.771	342.19
316.001	354.19
316.23	342.19
316.46	342.19
316.689	326.19
316.919	348.19
317.148	360.19
317.377	339.19
317.607	350.19
317.836	351.19
318.065	362.19
318.295	346.19
318.524	357.19
318.753	337.19
318.983	320.19
319.212	337.19
319.441	352.19
319.67	341.19
319.9	337.19
320.129	330.19
320.358	340.19
320.587	346.19
320.816	363.19
321.046	360.19
321.275	373.19
321.504	328.19
321.733	362.19
321.962	356.19
322.191	380.19
322.42	361.19
322.649	378.19
322.878	370.19
323.108	384.19
323.337	395.19
323.566	407.19
323.795	424.19
324.024	434.19
324.253	511.19
324.482	701.19
324.71	1000.19
324.939	1399.19
325.168	1160.19
325.397	664.19
325.626	511.19
325.855	450.19
326.084	438.19
326.313	447.19
326.542	418.19
326.77	450.19
326.999	527.19
327.228	659.19
327.457	896.19
327.686	1083.19
327.914	743.19
328.143	556.19
328.372	520.19
328.6	488.19
328.829	480.19
329.058	484.19
329.287	467.19
329.515	474.19
329.744	445.19
329.972	465.19
330.201	514.19
330.43	541.19
330.658	553.19
330.887	505.19
331.115	486.19
331.344	438.19
331.572	430.19
331.801	435.19
332.03	440.19
332.258	432.19
332.486	412.19
332.715	414.19
332.943	453.19
333.172	435.19
333.4	462.19
333.629	489.19
333.857	498.19
334.085	518.19
334.314	545.19
334.542	588.19
334.771	601.19
334.999	540.19
335.227	488.19
335.455	473.19
335.684	457.19
335.912	417.19
336.14	418.19
336.369	427.19
336.597	416.19
336.825	409.19
337.053	413.19
337.281	411.19
337.51	402.19
337.738	404.19
337.966	408.19
338.194	412.19
338.422	379.19
338.65	410.19
338.878	384.19
339.106	399.19
339.334	401.19
339.562	370.19
339.79	391.19
340.018	373.19
340.246	397.19
340.474	407.19
340.702	372.19
340.93	397.19
341.158	378.19
341.386	364.19
341.614	378.19
341.842	378.19
342.07	381.19
342.298	379.19
342.526	373.19
342.754	354.19
342.981	349.19
343.209	368.19
343.437	394.19
343.665	409.19
343.893	413.19
344.12	424.19
344.348	413.19
344.576	398.19
344.804	409.19
345.031	379.19
345.259	398.19
345.487	395.19
345.714	365.19
345.942	376.19
346.17	382.19
346.397	352.19
346.625	360.19
346.853	361.19
347.08	363.19
347.308	370.19
347.535	360.19
347.763	378.19
347.99	381.19
348.218	375.19
348.445	373.19
348.673	378.19
348.9	354.19
349.128	371.19
349.355	344.19
349.583	376.19
349.81	365.19
350.037	373.19
350.265	356.19
350.492	357.19
350.72	348.19
350.947	364.19
351.174	364.19
351.402	369.19
351.629	372.19
351.856	372.19
352.083	374.19
352.311	350.19
352.538	363.19
352.765	369.19
352.992	364.19
353.22	370.19
353.447	352.19
353.674	356.19
353.901	349.19
354.128	341.19
354.355	323.19
354.583	359.19
354.81	348.19
355.037	337.19
355.264	343.19
355.491	338.19
355.718	356.19
355.945	345.19
356.172	346.19
356.399	346.19
356.626	349.19
356.853	356.19
357.08	333.19
357.307	355.19
357.534	330.19
357.761	332.19
357.988	340.19
358.215	359.19
358.441	363.19
358.668	329.19
358.895	348.19
359.122	354.19
359.349	350.19
359.576	348.19
359.802	381.19
360.029	378.19
360.256	393.19
360.483	358.19
360.709	360.19
360.936	363.19
361.163	355.19
361.39	370.19
361.616	361.19
361.843	347.19
362.07	349.19
362.296	365.19
362.523	342.19
362.749	357.19
362.976	350.19
363.203	361.19
363.429	354.19
363.656	341.19
363.882	353.19
364.109	353.19
364.335	373.19
364.562	337.19
364.788	331.19
365.015	343.19
365.241	363.19
365.468	352.19
365.694	344.19
365.92	357.19
366.147	341.19
366.373	338.19
366.599	341.19
366.826	368.19
367.052	339.19
367.278	329.19
367.505	340.19
367.731	356.19
367.957	339.19
368.184	352.19
368.41	358.19
368.636	347.19
368.862	367.19
369.089	344.19
369.315	346.19
369.541	356.19
369.767	342.19
369.993	335.19
370.219	333.19
370.445	346.19
370.672	343.19
370.898	340.19
371.124	334.19
371.35	360.19
371.576	335.19
371.802	356.19
372.028	369.19
372.254	357.19
372.48	368.19
372.706	373.19
372.932	358.19
373.158	358.19
373.384	355.19
373.61	355.19
373.835	353.19
374.061	346.19
374.287	357.19
374.513	375.19
374.739	376.19
374.965	359.19
375.191	372.19
375.416	388.19
375.642	374.19
375.868	363.19
376.094	345.19
376.319	342.19
376.545	352.19
376.771	338.19
376.997	364.19
377.222	346.19
377.448	344.19
377.674	340.19
377.899	367.19
378.125	337.19
378.35	349.19
378.576	341.19
378.802	352.19
379.027	346.19
379.253	344.19
379.478	345.19
379.704	325.19
379.929	357.19
380.155	339.19
380.38	340.19
380.606	349.19
380.831	367.19
381.057	358.19
381.282	361.19
381.507	351.19
381.733	344.19
381.958	349.19
382.184	357.19
382.409	355.19
382.634	352.19
382.86	340.19
383.085	364.19
383.31	385.19
383.535	350.19
383.761	365.19
383.986	385.19
384.211	372.19
384.436	397.19
384.662	401.19
384.887	385.19
385.112	369.19
385.337	378.19
385.562	408.19
385.787	389.19
386.013	403.19
386.238	413.19
386.463	397.19
386.688	376.19
386.913	379.19
387.138	388.19
387.363	382.19
387.588	381.19
387.813	389.19
388.038	384.19
388.263	413.19
388.488	389.19
388.713	379.19
388.938	394.19
389.163	406.19
389.387	386.19
389.612	425.19
389.837	394.19
390.062	373.19
390.287	384.19
390.512	383.19
390.736	397.19
390.961	381.19
391.186	396.19
391.411	402.19
391.636	401.19
391.86	420.19
392.085	434.19
392.31	435.19
392.534	409.19
392.759	420.19
392.984	402.19
393.208	402.19
393.433	406.19
393.658	394.19
393.882	408.19
394.107	399.19
394.331	391.19
394.556	407.19
394.78	418.19
395.005	444.19
395.229	416.19
395.454	414.19
395.678	427.19
395.903	448.19
396.127	448.19
396.352	420.19
396.576	411.19
396.801	416.19
397.025	417.19
397.249	398.19
397.474	427.19
397.698	432.19
397.922	420.19
398.147	437.19
398.371	443.19
398.595	440.19
398.82	456.19
399.044	490.19
399.268	502.19
399.492	562.19
399.717	591.19
399.941	633.19
400.165	608.19
400.389	580.19
400.613	550.19
400.837	490.19
401.062	491.19
401.286	498.19
401.51	462.19
401.734	478.19
401.958	491.19
402.182	453.19
402.406	482.19
402.63	489.19
402.854	491.19
403.078	497.19
403.302	491.19
403.526	490.19
403.75	497.19
403.974	514.19
404.198	514.19
404.422	501.19
404.645	518.19
404.869	496.19
405.093	532.19
405.317	579.19
405.541	587.19
405.765	549.19
405.988	520.19
406.212	498.19
406.436	530.19
406.66	536.19
406.883	542.19
407.107	560.19
407.331	580.19
407.555	635.19
407.778	608.19
408.002	594.19
408.226	539.19
408.449	548.19
408.673	534.19
408.896	546.19
409.12	542.19
409.344	535.19
409.567	495.19
409.791	517.19
410.014	497.19
410.238	496.19
410.461	504.19
410.685	487.19
410.908	488.19
411.132	517.19
411.355	526.19
411.578	516.19
411.802	480.19
412.025	498.19
412.249	510.19
412.472	545.19
412.695	544.19
412.919	547.19
413.142	524.19
413.365	507.19
413.589	481.19
413.812	490.19
414.035	471.19
414.258	442.19
414.482	467.19
414.705	457.19
414.928	458.19
415.151	468.19
415.374	478.19
415.597	459.19
415.821	469.19
416.044	463.19
416.267	446.19
416.49	425.19
416.713	452.19
416.936	446.19
417.159	459.19
417.382	433.19
417.605	457.19
417.828	453.19
418.051	462.19
418.274	459.19
418.497	474.19
418.72	450.19
418.943	455.19
419.166	486.19
419.389	511.19
419.611	519.19
419.834	462.19
420.057	473.19
420.28	489.19
420.503	483.19
420.726	485.19
420.948	468.19
421.171	514.19
421.394	516.19
421.617	476.19
421.839	466.19
422.062	480.19
422.285	481.19
422.507	509.19
422.73	534.19
422.953	541.19
423.175	512.19
423.398	515.19
423.621	496.19
423.843	497.19
424.066	515.19
424.288	484.19
424.511	486.19
424.733	523.19
424.956	600.19
425.178	556.19
425.401	538.19
425.623	562.19
425.846	501.19
426.068	464.19
426.291	452.19
426.513	456.19
426.735	468.19
426.958	485.19
427.18	551.19
427.402	617.19
427.625	690.19
427.847	601.19
428.069	551.19
428.292	507.19
428.514	475.19
428.736	445.19
428.958	443.19
429.181	455.19
429.403	448.19
429.625	437.19
429.847	449.19
430.069	485.19
430.292	491.19
430.514	459.19
430.736	449.19
430.958	440.19
431.18	430.19
431.402	417.19
431.624	428.19
431.846	412.19
432.068	429.19
432.29	442.19
432.512	422.19
432.734	436.19
432.956	419.19
433.178	448.19
433.4	417.19
433.622	429.19
433.844	427.19
434.066	433.19
434.287	438.19
434.509	430.19
434.731	450.19
434.953	458.19
435.175	458.19
435.397	510.19
435.618	480.19
435.84	498.19
436.062	544.19
436.284	580.19
436.505	507.19
436.727	461.19
436.949	455.19
437.17	433.19
437.392	427.19
437.614	441.19
437.835	462.19
438.057	505.19
438.278	560.19
438.5	554.19
438.721	574.19
438.943	559.19
439.165	473.19
439.386	445.19
439.608	455.19
439.829	466.19
440.05	490.19
440.272	492.19
440.493	486.19
440.715	465.19
440.936	453.19
441.158	448.19
441.379	443.19
441.6	465.19
441.822	447.19
442.043	483.19
442.264	551.19
442.486	539.19
442.707	512.19
442.928	489.19
443.149	482.19
443.371	495.19
443.592	530.19
443.813	566.19
444.034	611.19
444.255	564.19
444.476	512.19
444.698	516.19
444.919	505.19
445.14	622.19
445.361	542.19
445.582	489.19
445.803	518.19
446.024	568.19
446.245	576.19
446.466	526.19
446.687	484.19
446.908	444.19
447.129	436.19
447.35	428.19
447.571	442.19
447.792	437.19
448.013	458.19
448.234	436.19
448.455	457.19
448.675	522.19
448.896	579.19
449.117	512.19
449.338	490.19
449.559	543.19
449.779	610.19
450	495.19
450.221	440.19
450.442	412.19
450.662	394.19
450.883	424.19
451.104	412.19
451.324	396.19
451.545	431.19
451.766	412.19
451.986	386.19
452.207	386.19
452.428	386.19
452.648	376.19
452.869	410.19
453.089	388.19
453.31	388.19
453.53	385.19
453.751	396.19
453.971	402.19
454.192	399.19
454.412	377.19
454.633	376.19
454.853	370.19
455.073	361.19
455.294	390.19
455.514	432.19
455.734	413.19
455.955	368.19
456.175	375.19
456.395	361.19
456.616	369.19
456.836	365.19
457.056	357.19
457.276	356.19
457.497	363.19
457.717	373.19
457.937	380.19
458.157	380.19
458.377	389.19
458.598	412.19
458.818	425.19
459.038	480.19
459.258	485.19
459.478	447.19
459.698	417.19
459.918	412.19
460.138	436.19
460.358	445.19
460.578	457.19
460.798	473.19
461.018	463.19
461.238	442.19
461.458	427.19
461.678	428.19
461.898	457.19
462.118	451.19
462.338	453.19
462.558	470.19
462.777	489.19
462.997	512.19
463.217	550.19
463.437	541.19
463.657	517.19
463.876	491.19
464.096	506.19
464.316	502.19
464.536	525.19
464.755	508.19
464.975	494.19
465.195	486.19
465.414	499.19
465.634	482.19
465.854	438.19
466.073	416.19
466.293	425.19
466.512	426.19
466.732	384.19
466.951	408.19
467.171	402.19
467.391	413.19
467.61	396.19
467.829	399.19
468.049	414.19
468.268	413.19
468.488	397.19
468.707	396.19
468.927	411.19
469.146	395.19
469.365	412.19
469.585	406.19
469.804	417.19
470.023	406.19
470.243	429.19
470.462	419.19
470.681	416.19
470.901	416.19
471.12	394.19
471.339	412.19
471.558	404.19
471.777	411.19
471.997	413.19
472.216	432.19
472.435	453.19
472.654	451.19
472.873	425.19
473.092	415.19
473.311	386.19
473.53	403.19
473.749	410.19
473.968	429.19
474.187	470.19
474.406	459.19
474.625	420.19
474.844	396.19
475.063	413.19
475.282	410.19
475.501	387.19
475.72	396.19
475.939	378.19
476.158	395.19
476.377	392.19
476.596	399.19
476.814	401.19
477.033	448.19
477.252	421.19
477.471	428.19
477.69	453.19
477.908	466.19
478.127	454.19
478.346	443.19
478.564	447.19
478.783	464.19
479.002	472.19
479.22	462.19
479.439	462.19
479.658	498.19
479.876	478.19
480.095	473.19
480.313	512.19
480.532	514.19
480.751	489.19
480.969	514.19
481.188	585.19
481.406	617.19
481.624	565.19
481.843	506.19
482.061	493.19
482.28	475.19
482.498	465.19
482.717	470.19
482.935	467.19
483.153	438.19
483.372	461.19
483.59	455.19
483.808	454.19
484.027	447.19
484.245	468.19
484.463	457.19
484.681	466.19
484.9	457.19
485.118	478.19
485.336	476.19
485.554	465.19
485.772	477.19
485.99	458.19
486.209	474.19
486.427	484.19
486.645	472.19
486.863	476.19
487.081	502.19
487.299	485.19
487.517	482.19
487.735	456.19
487.953	495.19
488.171	470.19
488.389	497.19
488.607	506.19
488.825	485.19
489.043	464.19
489.261	485.19
489.479	491.19
489.696	497.19
489.914	485.19
490.132	508.19
490.35	512.19
490.568	508.19
490.786	509.19
491.003	512.19
491.221	514.19
491.439	534.19
491.657	537.19
491.874	533.19
492.092	547.19
492.31	563.19
492.527	557.19
492.745	556.19
492.963	572.19
493.18	567.19
493.398	577.19
493.615	556.19
493.833	554.19
494.05	584.19
494.268	558.19
494.485	571.19
494.703	570.19
494.92	570.19
495.138	564.19
495.355	566.19
495.573	553.19
495.79	540.19
496.008	566.19
496.225	573.19
496.442	552.19
496.66	547.19
496.877	568.19
497.094	584.19
497.312	613.19
497.529	578.19
497.746	586.19
497.963	599.19
498.181	624.19
498.398	624.19
498.615	668.19
498.832	654.19
499.049	701.19
499.267	759.19
499.484	777.19
499.701	849.19
499.918	866.19
500.135	933.19
500.352	1036.19
500.569	1047.19
500.786	1087.19
501.003	1025.19
501.22	997.19
501.437	898.19
501.654	860.19
501.871	845.19
