Data from 1984.PennyLincolnUp.Lamp.En5.5.200Scan.071819.P1_HRD10591_16-57-43-968.txt Node
Date: Thu Jul 18 16:57:43 EDT 2019
User: cochatt
Spectrometer: HR+D1059
Trigger mode: 1
Integration Time (sec): 1.000000E-1
Scans to average: 1
Electric dark correction enabled: true
Nonlinearity correction enabled: false
Boxcar width: 0
XAxis mode: Wavelengths
Number of Pixels in Spectrum: 2048
>>>>>Begin Spectral Data<<<<<
223.165	-6.12
223.4	-6.12
223.635	-6.12
223.869	-28.12
224.104	-26.12
224.338	-13.12
224.573	-12.12
224.808	-18.12
225.042	-0.12
225.277	-11.12
225.511	-1.12
225.746	2.88
225.98	8.88
226.215	10.88
226.449	13.88
226.683	32.88
226.918	12.88
227.152	33.88
227.387	42.88
227.621	36.88
227.856	46.88
228.09	34.88
228.324	54.88
228.559	43.88
228.793	73.88
229.027	82.88
229.262	105.88
229.496	89.88
229.73	89.88
229.964	119.88
230.199	100.88
230.433	106.88
230.667	104.88
230.901	104.88
231.136	97.88
231.37	91.88
231.604	102.88
231.838	100.88
232.072	108.88
232.306	108.88
232.541	113.88
232.775	104.88
233.009	103.88
233.243	117.88
233.477	116.88
233.711	121.88
233.945	117.88
234.179	119.88
234.413	119.88
234.647	104.88
234.881	110.88
235.115	116.88
235.349	119.88
235.583	107.88
235.817	116.88
236.051	96.88
236.285	106.88
236.519	111.88
236.753	106.88
236.987	124.88
237.221	136.88
237.455	162.88
237.689	134.88
237.922	117.88
238.156	125.88
238.39	108.88
238.624	117.88
238.858	104.88
239.091	116.88
239.325	115.88
239.559	124.88
239.793	120.88
240.027	110.88
240.26	130.88
240.494	132.88
240.728	131.88
240.961	135.88
241.195	120.88
241.429	125.88
241.662	123.88
241.896	113.88
242.13	115.88
242.363	126.88
242.597	136.88
242.83	121.88
243.064	122.88
243.298	138.88
243.531	132.88
243.765	138.88
243.998	135.88
244.232	140.88
244.465	134.88
244.699	128.88
244.932	134.88
245.166	148.88
245.399	134.88
245.633	139.88
245.866	139.88
246.099	149.88
246.333	137.88
246.566	144.88
246.8	145.88
247.033	156.88
247.266	132.88
247.5	144.88
247.733	134.88
247.966	133.88
248.2	152.88
248.433	137.88
248.666	148.88
248.899	156.88
249.133	176.88
249.366	163.88
249.599	163.88
249.832	139.88
250.066	140.88
250.299	169.88
250.532	169.88
250.765	170.88
250.998	187.88
251.231	172.88
251.465	177.88
251.698	174.88
251.931	182.88
252.164	165.88
252.397	166.88
252.63	176.88
252.863	181.88
253.096	178.88
253.329	197.88
253.562	181.88
253.795	186.88
254.028	179.88
254.261	188.88
254.494	195.88
254.727	200.88
254.96	219.88
255.193	208.88
255.426	199.88
255.659	205.88
255.892	194.88
256.124	182.88
256.357	186.88
256.59	184.88
256.823	189.88
257.056	174.88
257.289	187.88
257.521	187.88
257.754	173.88
257.987	168.88
258.22	179.88
258.452	194.88
258.685	181.88
258.918	187.88
259.151	167.88
259.383	185.88
259.616	198.88
259.849	189.88
260.081	188.88
260.314	187.88
260.547	212.88
260.779	215.88
261.012	203.88
261.244	194.88
261.477	201.88
261.71	204.88
261.942	203.88
262.175	196.88
262.407	206.88
262.64	191.88
262.872	179.88
263.105	193.88
263.337	188.88
263.57	170.88
263.802	200.88
264.035	194.88
264.267	189.88
264.499	196.88
264.732	174.88
264.964	190.88
265.197	199.88
265.429	209.88
265.661	193.88
265.894	208.88
266.126	204.88
266.358	197.88
266.591	200.88
266.823	195.88
267.055	204.88
267.287	225.88
267.52	195.88
267.752	215.88
267.984	224.88
268.216	214.88
268.448	213.88
268.681	211.88
268.913	231.88
269.145	215.88
269.377	238.88
269.609	226.88
269.841	237.88
270.073	220.88
270.306	256.88
270.538	246.88
270.77	274.88
271.002	257.88
271.234	216.88
271.466	256.88
271.698	257.88
271.93	275.88
272.162	279.88
272.394	277.88
272.626	245.88
272.858	268.88
273.09	238.88
273.322	235.88
273.553	258.88
273.785	223.88
274.017	248.88
274.249	222.88
274.481	224.88
274.713	237.88
274.945	248.88
275.176	254.88
275.408	252.88
275.64	237.88
275.872	231.88
276.104	235.88
276.335	246.88
276.567	242.88
276.799	251.88
277.031	251.88
277.262	299.88
277.494	272.88
277.726	270.88
277.957	237.88
278.189	257.88
278.421	238.88
278.652	243.88
278.884	240.88
279.115	249.88
279.347	236.88
279.579	260.88
279.81	256.88
280.042	254.88
280.273	255.88
280.505	246.88
280.736	256.88
280.968	249.88
281.199	261.88
281.431	266.88
281.662	258.88
281.894	256.88
282.125	244.88
282.356	261.88
282.588	257.88
282.819	259.88
283.051	270.88
283.282	249.88
283.513	257.88
283.745	267.88
283.976	256.88
284.207	269.88
284.439	273.88
284.67	274.88
284.901	270.88
285.132	278.88
285.364	258.88
285.595	267.88
285.826	263.88
286.057	267.88
286.288	246.88
286.52	278.88
286.751	290.88
286.982	289.88
287.213	284.88
287.444	266.88
287.675	260.88
287.906	284.88
288.138	276.88
288.369	277.88
288.6	266.88
288.831	270.88
289.062	288.88
289.293	279.88
289.524	278.88
289.755	283.88
289.986	282.88
290.217	258.88
290.448	278.88
290.679	284.88
290.91	275.88
291.141	292.88
291.371	290.88
291.602	276.88
291.833	264.88
292.064	289.88
292.295	269.88
292.526	266.88
292.757	264.88
292.987	278.88
293.218	256.88
293.449	282.88
293.68	290.88
293.91	283.88
294.141	285.88
294.372	287.88
294.603	276.88
294.833	265.88
295.064	290.88
295.295	290.88
295.525	278.88
295.756	292.88
295.987	307.88
296.217	306.88
296.448	308.88
296.679	288.88
296.909	280.88
297.14	301.88
297.37	294.88
297.601	294.88
297.831	270.88
298.062	297.88
298.292	297.88
298.523	299.88
298.753	288.88
298.984	282.88
299.214	296.88
299.445	289.88
299.675	289.88
299.905	287.88
300.136	309.88
300.366	312.88
300.597	311.88
300.827	315.88
301.057	319.88
301.288	301.88
301.518	312.88
301.748	310.88
301.979	312.88
302.209	329.88
302.439	305.88
302.669	320.88
302.9	313.88
303.13	322.88
303.36	302.88
303.59	320.88
303.82	333.88
304.051	306.88
304.281	318.88
304.511	310.88
304.741	297.88
304.971	313.88
305.201	309.88
305.431	304.88
305.661	316.88
305.891	310.88
306.121	316.88
306.352	328.88
306.582	308.88
306.812	310.88
307.042	311.88
307.272	334.88
307.502	317.88
307.731	307.88
307.961	334.88
308.191	322.88
308.421	304.88
308.651	330.88
308.881	301.88
309.111	324.88
309.341	324.88
309.571	327.88
309.8	329.88
310.03	332.88
310.26	336.88
310.49	329.88
310.72	338.88
310.949	324.88
311.179	352.88
311.409	325.88
311.639	337.88
311.868	332.88
312.098	347.88
312.328	341.88
312.557	361.88
312.787	349.88
313.017	358.88
313.246	359.88
313.476	344.88
313.706	339.88
313.935	346.88
314.165	363.88
314.394	341.88
314.624	340.88
314.853	343.88
315.083	328.88
315.312	344.88
315.542	344.88
315.771	342.88
316.001	344.88
316.23	354.88
316.46	345.88
316.689	356.88
316.919	339.88
317.148	362.88
317.377	357.88
317.607	378.88
317.836	343.88
318.065	328.88
318.295	334.88
318.524	343.88
318.753	349.88
318.983	350.88
319.212	328.88
319.441	344.88
319.67	350.88
319.9	344.88
320.129	341.88
320.358	344.88
320.587	351.88
320.816	352.88
321.046	359.88
321.275	345.88
321.504	354.88
321.733	357.88
321.962	341.88
322.191	346.88
322.42	380.88
322.649	375.88
322.878	376.88
323.108	366.88
323.337	378.88
323.566	401.88
323.795	416.88
324.024	440.88
324.253	487.88
324.482	636.88
324.71	887.88
324.939	1224.88
325.168	1093.88
325.397	616.88
325.626	471.88
325.855	431.88
326.084	424.88
326.313	414.88
326.542	393.88
326.77	426.88
326.999	499.88
327.228	597.88
327.457	847.88
327.686	957.88
327.914	668.88
328.143	500.88
328.372	458.88
328.6	436.88
328.829	406.88
329.058	448.88
329.287	419.88
329.515	414.88
329.744	405.88
329.972	411.88
330.201	410.88
330.43	413.88
330.658	436.88
330.887	446.88
331.115	452.88
331.344	417.88
331.572	395.88
331.801	406.88
332.03	438.88
332.258	405.88
332.486	413.88
332.715	404.88
332.943	426.88
333.172	421.88
333.4	439.88
333.629	447.88
333.857	463.88
334.085	466.88
334.314	467.88
334.542	440.88
334.771	457.88
334.999	449.88
335.227	443.88
335.455	437.88
335.684	417.88
335.912	420.88
336.14	419.88
336.369	422.88
336.597	407.88
336.825	421.88
337.053	407.88
337.281	411.88
337.51	395.88
337.738	399.88
337.966	401.88
338.194	393.88
338.422	383.88
338.65	401.88
338.878	406.88
339.106	402.88
339.334	393.88
339.562	394.88
339.79	363.88
340.018	381.88
340.246	394.88
340.474	395.88
340.702	399.88
340.93	393.88
341.158	384.88
341.386	382.88
341.614	358.88
341.842	383.88
342.07	376.88
342.298	354.88
342.526	356.88
342.754	370.88
342.981	380.88
343.209	364.88
343.437	397.88
343.665	400.88
343.893	417.88
344.12	443.88
344.348	416.88
344.576	398.88
344.804	407.88
345.031	384.88
345.259	396.88
345.487	384.88
345.714	376.88
345.942	366.88
346.17	380.88
346.397	370.88
346.625	372.88
346.853	364.88
347.08	359.88
347.308	344.88
347.535	370.88
347.763	364.88
347.99	361.88
348.218	377.88
348.445	354.88
348.673	371.88
348.9	373.88
349.128	346.88
349.355	358.88
349.583	345.88
349.81	353.88
350.037	345.88
350.265	359.88
350.492	341.88
350.72	370.88
350.947	341.88
351.174	357.88
351.402	357.88
351.629	353.88
351.856	341.88
352.083	353.88
352.311	357.88
352.538	366.88
352.765	369.88
352.992	368.88
353.22	353.88
353.447	342.88
353.674	339.88
353.901	338.88
354.128	344.88
354.355	350.88
354.583	358.88
354.81	349.88
355.037	360.88
355.264	339.88
355.491	356.88
355.718	324.88
355.945	346.88
356.172	345.88
356.399	365.88
356.626	355.88
356.853	339.88
357.08	347.88
357.307	355.88
357.534	334.88
357.761	342.88
357.988	342.88
358.215	340.88
358.441	344.88
358.668	347.88
358.895	355.88
359.122	345.88
359.349	341.88
359.576	364.88
359.802	352.88
360.029	367.88
360.256	378.88
360.483	372.88
360.709	345.88
360.936	347.88
361.163	344.88
361.39	345.88
361.616	362.88
361.843	358.88
362.07	351.88
362.296	354.88
362.523	349.88
362.749	368.88
362.976	344.88
363.203	341.88
363.429	353.88
363.656	334.88
363.882	336.88
364.109	339.88
364.335	343.88
364.562	326.88
364.788	314.88
365.015	358.88
365.241	349.88
365.468	340.88
365.694	339.88
365.92	349.88
366.147	330.88
366.373	343.88
366.599	352.88
366.826	337.88
367.052	342.88
367.278	331.88
367.505	347.88
367.731	348.88
367.957	340.88
368.184	361.88
368.41	369.88
368.636	355.88
368.862	344.88
369.089	328.88
369.315	355.88
369.541	363.88
369.767	339.88
369.993	337.88
370.219	355.88
370.445	353.88
370.672	370.88
370.898	349.88
371.124	372.88
371.35	346.88
371.576	333.88
371.802	358.88
372.028	369.88
372.254	357.88
372.48	343.88
372.706	357.88
372.932	361.88
373.158	373.88
373.384	362.88
373.61	355.88
373.835	355.88
374.061	360.88
374.287	365.88
374.513	359.88
374.739	364.88
374.965	370.88
375.191	365.88
375.416	362.88
375.642	374.88
375.868	374.88
376.094	354.88
376.319	351.88
376.545	363.88
376.771	356.88
376.997	330.88
377.222	347.88
377.448	343.88
377.674	345.88
377.899	373.88
378.125	361.88
378.35	318.88
378.576	340.88
378.802	342.88
379.027	346.88
379.253	351.88
379.478	356.88
379.704	358.88
379.929	345.88
380.155	349.88
380.38	356.88
380.606	351.88
380.831	350.88
381.057	353.88
381.282	359.88
381.507	342.88
381.733	352.88
381.958	347.88
382.184	361.88
382.409	350.88
382.634	374.88
382.86	360.88
383.085	372.88
383.31	372.88
383.535	382.88
383.761	376.88
383.986	397.88
384.211	381.88
384.436	406.88
384.662	392.88
384.887	400.88
385.112	389.88
385.337	393.88
385.562	376.88
385.787	380.88
386.013	402.88
386.238	410.88
386.463	401.88
386.688	389.88
386.913	395.88
387.138	405.88
387.363	399.88
387.588	411.88
387.813	387.88
388.038	401.88
388.263	394.88
388.488	409.88
388.713	396.88
388.938	405.88
389.163	385.88
389.387	396.88
389.612	382.88
389.837	370.88
390.062	380.88
390.287	371.88
390.512	391.88
390.736	388.88
390.961	411.88
391.186	411.88
391.411	410.88
391.636	422.88
391.86	428.88
392.085	435.88
392.31	409.88
392.534	402.88
392.759	422.88
392.984	403.88
393.208	408.88
393.433	399.88
393.658	413.88
393.882	407.88
394.107	418.88
394.331	397.88
394.556	409.88
394.78	425.88
395.005	416.88
395.229	404.88
395.454	398.88
395.678	422.88
395.903	431.88
396.127	441.88
396.352	425.88
396.576	421.88
396.801	405.88
397.025	429.88
397.249	434.88
397.474	449.88
397.698	414.88
397.922	447.88
398.147	444.88
398.371	439.88
398.595	453.88
398.82	466.88
399.044	472.88
399.268	532.88
399.492	562.88
399.717	626.88
399.941	636.88
400.165	606.88
400.389	600.88
400.613	557.88
400.837	499.88
401.062	469.88
401.286	495.88
401.51	460.88
401.734	478.88
401.958	466.88
402.182	473.88
402.406	502.88
402.63	514.88
402.854	496.88
403.078	519.88
403.302	499.88
403.526	516.88
403.75	513.88
403.974	535.88
404.198	508.88
404.422	520.88
404.645	510.88
404.869	505.88
405.093	515.88
405.317	519.88
405.541	546.88
405.765	519.88
405.988	487.88
406.212	518.88
406.436	498.88
406.66	533.88
406.883	550.88
407.107	546.88
407.331	569.88
407.555	610.88
407.778	631.88
408.002	589.88
408.226	564.88
408.449	539.88
408.673	551.88
408.896	550.88
409.12	568.88
409.344	535.88
409.567	502.88
409.791	512.88
410.014	462.88
410.238	494.88
410.461	486.88
410.685	484.88
410.908	500.88
411.132	499.88
411.355	540.88
411.578	512.88
411.802	482.88
412.025	469.88
412.249	493.88
412.472	508.88
412.695	496.88
412.919	478.88
413.142	482.88
413.365	473.88
413.589	473.88
413.812	460.88
414.035	443.88
414.258	457.88
414.482	465.88
414.705	462.88
414.928	476.88
415.151	465.88
415.374	454.88
415.597	445.88
415.821	443.88
416.044	468.88
416.267	455.88
416.49	462.88
416.713	457.88
416.936	462.88
417.159	453.88
417.382	439.88
417.605	445.88
417.828	462.88
418.051	457.88
418.274	468.88
418.497	475.88
418.72	452.88
418.943	481.88
419.166	485.88
419.389	501.88
419.611	497.88
419.834	475.88
420.057	479.88
420.28	466.88
420.503	473.88
420.726	473.88
420.948	473.88
421.171	489.88
421.394	542.88
421.617	483.88
421.839	491.88
422.062	466.88
422.285	498.88
422.507	507.88
422.73	544.88
422.953	542.88
423.175	489.88
423.398	491.88
423.621	506.88
423.843	491.88
424.066	485.88
424.288	501.88
424.511	500.88
424.733	524.88
424.956	578.88
425.178	556.88
425.401	554.88
425.623	586.88
425.846	519.88
426.068	498.88
426.291	489.88
426.513	456.88
426.735	497.88
426.958	498.88
427.18	573.88
427.402	633.88
427.625	668.88
427.847	564.88
428.069	516.88
428.292	486.88
428.514	458.88
428.736	433.88
428.958	439.88
429.181	418.88
429.403	430.88
429.625	439.88
429.847	456.88
430.069	485.88
430.292	472.88
430.514	444.88
430.736	433.88
430.958	416.88
431.18	428.88
431.402	419.88
431.624	397.88
431.846	418.88
432.068	420.88
432.29	426.88
432.512	415.88
432.734	427.88
432.956	425.88
433.178	470.88
433.4	426.88
433.622	441.88
433.844	435.88
434.066	420.88
434.287	418.88
434.509	437.88
434.731	447.88
434.953	483.88
435.175	475.88
435.397	466.88
435.618	459.88
435.84	471.88
436.062	530.88
436.284	549.88
436.505	486.88
436.727	446.88
436.949	445.88
437.17	446.88
437.392	427.88
437.614	446.88
437.835	457.88
438.057	472.88
438.278	563.88
438.5	534.88
438.721	599.88
438.943	593.88
439.165	500.88
439.386	468.88
439.608	471.88
439.829	452.88
440.05	476.88
440.272	465.88
440.493	458.88
440.715	457.88
440.936	461.88
441.158	436.88
441.379	456.88
441.6	471.88
441.822	482.88
442.043	504.88
442.264	516.88
442.486	540.88
442.707	504.88
442.928	456.88
443.149	476.88
443.371	522.88
443.592	523.88
443.813	569.88
444.034	604.88
444.255	540.88
444.476	509.88
444.698	530.88
444.919	516.88
445.14	638.88
445.361	566.88
445.582	498.88
445.803	537.88
446.024	548.88
446.245	577.88
446.466	524.88
446.687	489.88
446.908	448.88
447.129	423.88
447.35	442.88
447.571	417.88
447.792	417.88
448.013	409.88
448.234	413.88
448.455	441.88
448.675	525.88
448.896	577.88
449.117	512.88
449.338	481.88
449.559	546.88
449.779	594.88
450	484.88
450.221	429.88
450.442	399.88
450.662	407.88
450.883	416.88
451.104	416.88
451.324	397.88
451.545	388.88
451.766	397.88
451.986	381.88
452.207	374.88
452.428	375.88
452.648	382.88
452.869	395.88
453.089	378.88
453.31	391.88
453.53	406.88
453.751	384.88
453.971	362.88
454.192	384.88
454.412	396.88
454.633	378.88
454.853	386.88
455.073	370.88
455.294	396.88
455.514	440.88
455.734	439.88
455.955	386.88
456.175	380.88
456.395	371.88
456.616	376.88
456.836	368.88
457.056	377.88
457.276	357.88
457.497	365.88
457.717	371.88
457.937	372.88
458.157	377.88
458.377	378.88
458.598	403.88
458.818	422.88
459.038	449.88
459.258	472.88
459.478	452.88
459.698	445.88
459.918	415.88
460.138	462.88
460.358	470.88
460.578	454.88
460.798	457.88
461.018	461.88
461.238	475.88
461.458	481.88
461.678	461.88
461.898	440.88
462.118	459.88
462.338	481.88
462.558	494.88
462.777	500.88
462.997	514.88
463.217	549.88
463.437	554.88
463.657	517.88
463.876	516.88
464.096	516.88
464.316	496.88
464.536	502.88
464.755	494.88
464.975	479.88
465.195	494.88
465.414	494.88
465.634	446.88
465.854	435.88
466.073	442.88
466.293	409.88
466.512	430.88
466.732	402.88
466.951	406.88
467.171	395.88
467.391	405.88
467.61	377.88
467.829	420.88
468.049	404.88
468.268	395.88
468.488	383.88
468.707	380.88
468.927	388.88
469.146	386.88
469.365	386.88
469.585	371.88
469.804	406.88
470.023	400.88
470.243	417.88
470.462	395.88
470.681	418.88
470.901	430.88
471.12	405.88
471.339	388.88
471.558	422.88
471.777	420.88
471.997	398.88
472.216	373.88
472.435	400.88
472.654	398.88
472.873	394.88
473.092	382.88
473.311	387.88
473.53	380.88
473.749	387.88
473.968	414.88
474.187	485.88
474.406	473.88
474.625	425.88
474.844	403.88
475.063	398.88
475.282	381.88
475.501	402.88
475.72	394.88
475.939	407.88
476.158	405.88
476.377	407.88
476.596	401.88
476.814	406.88
477.033	395.88
477.252	416.88
477.471	432.88
477.69	426.88
477.908	446.88
478.127	443.88
478.346	469.88
478.564	464.88
478.783	464.88
479.002	466.88
479.22	466.88
479.439	478.88
479.658	460.88
479.876	469.88
480.095	497.88
480.313	524.88
480.532	522.88
480.751	488.88
480.969	488.88
481.188	493.88
481.406	501.88
481.624	469.88
481.843	461.88
482.061	441.88
482.28	422.88
482.498	448.88
482.717	451.88
482.935	455.88
483.153	425.88
483.372	437.88
483.59	439.88
483.808	455.88
484.027	438.88
484.245	444.88
484.463	465.88
484.681	448.88
484.9	470.88
485.118	463.88
485.336	458.88
485.554	445.88
485.772	470.88
485.99	461.88
486.209	485.88
486.427	462.88
486.645	491.88
486.863	489.88
487.081	477.88
487.299	483.88
487.517	484.88
487.735	469.88
487.953	457.88
488.171	483.88
488.389	503.88
488.607	479.88
488.825	467.88
489.043	479.88
489.261	482.88
489.479	495.88
489.696	492.88
489.914	486.88
490.132	493.88
490.35	470.88
490.568	483.88
490.786	498.88
491.003	497.88
491.221	512.88
491.439	489.88
491.657	513.88
491.874	530.88
492.092	521.88
492.31	530.88
492.527	532.88
492.745	522.88
492.963	520.88
493.18	499.88
493.398	524.88
493.615	544.88
493.833	540.88
494.05	550.88
494.268	553.88
494.485	533.88
494.703	545.88
494.92	537.88
495.138	552.88
495.355	552.88
495.573	548.88
495.79	539.88
496.008	546.88
496.225	539.88
496.442	528.88
496.66	551.88
496.877	556.88
497.094	565.88
497.312	558.88
497.529	574.88
497.746	605.88
497.963	625.88
498.181	632.88
498.398	628.88
498.615	649.88
498.832	661.88
499.049	688.88
499.267	746.88
499.484	793.88
499.701	848.88
499.918	892.88
500.135	985.88
500.352	1048.88
500.569	1091.88
500.786	1072.88
501.003	1064.88
501.22	972.88
501.437	899.88
501.654	846.88
501.871	792.88
502.088	740.88
