Data from 1984.PennyLincolnUp.Lamp.En5.5.200Scan.071819.P1_HRD10591_17-00-12-969.txt Node
Date: Thu Jul 18 17:00:12 EDT 2019
User: cochatt
Spectrometer: HR+D1059
Trigger mode: 1
Integration Time (sec): 1.000000E-1
Scans to average: 1
Electric dark correction enabled: true
Nonlinearity correction enabled: false
Boxcar width: 0
XAxis mode: Wavelengths
Number of Pixels in Spectrum: 2048
>>>>>Begin Spectral Data<<<<<
223.165	-17.75
223.4	-17.75
223.635	-17.75
223.869	-11.75
224.104	-24.75
224.338	-18.75
224.573	-11.75
224.808	-10.75
225.042	-15.75
225.277	8.25
225.511	-6.75
225.746	-4.75
225.98	10.25
226.215	15.25
226.449	22.25
226.683	20.25
226.918	21.25
227.152	25.25
227.387	21.25
227.621	47.25
227.856	44.25
228.09	36.25
228.324	39.25
228.559	65.25
228.793	68.25
229.027	91.25
229.262	86.25
229.496	98.25
229.73	104.25
229.964	123.25
230.199	118.25
230.433	102.25
230.667	95.25
230.901	108.25
231.136	90.25
231.37	101.25
231.604	93.25
231.838	113.25
232.072	116.25
232.306	104.25
232.541	104.25
232.775	94.25
233.009	112.25
233.243	108.25
233.477	92.25
233.711	122.25
233.945	97.25
234.179	112.25
234.413	123.25
234.647	108.25
234.881	103.25
235.115	100.25
235.349	116.25
235.583	110.25
235.817	120.25
236.051	105.25
236.285	108.25
236.519	112.25
236.753	105.25
236.987	131.25
237.221	133.25
237.455	167.25
237.689	144.25
237.922	128.25
238.156	113.25
238.39	109.25
238.624	132.25
238.858	128.25
239.091	133.25
239.325	116.25
239.559	125.25
239.793	137.25
240.027	124.25
240.26	120.25
240.494	137.25
240.728	146.25
240.961	137.25
241.195	138.25
241.429	138.25
241.662	121.25
241.896	125.25
242.13	132.25
242.363	124.25
242.597	143.25
242.83	122.25
243.064	131.25
243.298	136.25
243.531	128.25
243.765	123.25
243.998	135.25
244.232	125.25
244.465	130.25
244.699	128.25
244.932	131.25
245.166	135.25
245.399	120.25
245.633	124.25
245.866	150.25
246.099	136.25
246.333	141.25
246.566	134.25
246.8	138.25
247.033	135.25
247.266	152.25
247.5	156.25
247.733	172.25
247.966	153.25
248.2	155.25
248.433	166.25
248.666	158.25
248.899	185.25
249.133	163.25
249.366	164.25
249.599	159.25
249.832	169.25
250.066	163.25
250.299	180.25
250.532	191.25
250.765	214.25
250.998	206.25
251.231	190.25
251.465	193.25
251.698	168.25
251.931	172.25
252.164	171.25
252.397	177.25
252.63	166.25
252.863	162.25
253.096	182.25
253.329	196.25
253.562	209.25
253.795	168.25
254.028	179.25
254.261	180.25
254.494	189.25
254.727	206.25
254.96	218.25
255.193	233.25
255.426	217.25
255.659	220.25
255.892	229.25
256.124	287.25
256.357	289.25
256.59	249.25
256.823	221.25
257.056	213.25
257.289	205.25
257.521	197.25
257.754	201.25
257.987	188.25
258.22	198.25
258.452	195.25
258.685	198.25
258.918	188.25
259.151	193.25
259.383	198.25
259.616	222.25
259.849	204.25
260.081	212.25
260.314	205.25
260.547	214.25
260.779	216.25
261.012	220.25
261.244	214.25
261.477	197.25
261.71	192.25
261.942	200.25
262.175	196.25
262.407	198.25
262.64	213.25
262.872	196.25
263.105	189.25
263.337	181.25
263.57	200.25
263.802	183.25
264.035	192.25
264.267	193.25
264.499	202.25
264.732	218.25
264.964	201.25
265.197	218.25
265.429	205.25
265.661	212.25
265.894	214.25
266.126	203.25
266.358	200.25
266.591	198.25
266.823	196.25
267.055	206.25
267.287	205.25
267.52	207.25
267.752	202.25
267.984	204.25
268.216	208.25
268.448	211.25
268.681	227.25
268.913	234.25
269.145	237.25
269.377	246.25
269.609	226.25
269.841	206.25
270.073	237.25
270.306	238.25
270.538	265.25
270.77	260.25
271.002	259.25
271.234	253.25
271.466	258.25
271.698	275.25
271.93	282.25
272.162	272.25
272.394	270.25
272.626	257.25
272.858	244.25
273.09	244.25
273.322	247.25
273.553	248.25
273.785	248.25
274.017	249.25
274.249	248.25
274.481	232.25
274.713	233.25
274.945	233.25
275.176	230.25
275.408	224.25
275.64	244.25
275.872	232.25
276.104	242.25
276.335	244.25
276.567	240.25
276.799	276.25
277.031	274.25
277.262	268.25
277.494	281.25
277.726	289.25
277.957	264.25
278.189	262.25
278.421	270.25
278.652	272.25
278.884	259.25
279.115	254.25
279.347	267.25
279.579	243.25
279.81	252.25
280.042	269.25
280.273	254.25
280.505	260.25
280.736	257.25
280.968	271.25
281.199	245.25
281.431	271.25
281.662	270.25
281.894	266.25
282.125	265.25
282.356	279.25
282.588	288.25
282.819	274.25
283.051	289.25
283.282	280.25
283.513	271.25
283.745	267.25
283.976	280.25
284.207	261.25
284.439	272.25
284.67	256.25
284.901	268.25
285.132	255.25
285.364	260.25
285.595	283.25
285.826	274.25
286.057	271.25
286.288	260.25
286.52	258.25
286.751	276.25
286.982	268.25
287.213	271.25
287.444	285.25
287.675	277.25
287.906	280.25
288.138	297.25
288.369	302.25
288.6	273.25
288.831	283.25
289.062	292.25
289.293	282.25
289.524	290.25
289.755	282.25
289.986	290.25
290.217	281.25
290.448	274.25
290.679	278.25
290.91	279.25
291.141	287.25
291.371	272.25
291.602	313.25
291.833	284.25
292.064	282.25
292.295	277.25
292.526	297.25
292.757	278.25
292.987	275.25
293.218	293.25
293.449	263.25
293.68	283.25
293.91	279.25
294.141	289.25
294.372	284.25
294.603	280.25
294.833	276.25
295.064	283.25
295.295	290.25
295.525	278.25
295.756	285.25
295.987	272.25
296.217	306.25
296.448	300.25
296.679	286.25
296.909	288.25
297.14	286.25
297.37	283.25
297.601	290.25
297.831	293.25
298.062	308.25
298.292	298.25
298.523	298.25
298.753	309.25
298.984	301.25
299.214	305.25
299.445	296.25
299.675	308.25
299.905	296.25
300.136	298.25
300.366	308.25
300.597	304.25
300.827	314.25
301.057	304.25
301.288	315.25
301.518	311.25
301.748	304.25
301.979	324.25
302.209	320.25
302.439	350.25
302.669	337.25
302.9	316.25
303.13	295.25
303.36	340.25
303.59	302.25
303.82	331.25
304.051	318.25
304.281	322.25
304.511	306.25
304.741	325.25
304.971	344.25
305.201	315.25
305.431	318.25
305.661	324.25
305.891	327.25
306.121	321.25
306.352	309.25
306.582	321.25
306.812	311.25
307.042	314.25
307.272	329.25
307.502	314.25
307.731	308.25
307.961	328.25
308.191	302.25
308.421	323.25
308.651	320.25
308.881	318.25
309.111	319.25
309.341	311.25
309.571	332.25
309.8	329.25
310.03	338.25
310.26	352.25
310.49	340.25
310.72	340.25
310.949	355.25
311.179	360.25
311.409	344.25
311.639	365.25
311.868	326.25
312.098	334.25
312.328	371.25
312.557	366.25
312.787	365.25
313.017	353.25
313.246	346.25
313.476	341.25
313.706	344.25
313.935	365.25
314.165	349.25
314.394	361.25
314.624	357.25
314.853	354.25
315.083	334.25
315.312	348.25
315.542	356.25
315.771	341.25
316.001	357.25
316.23	353.25
316.46	339.25
316.689	343.25
316.919	357.25
317.148	361.25
317.377	359.25
317.607	350.25
317.836	352.25
318.065	355.25
318.295	347.25
318.524	340.25
318.753	341.25
318.983	340.25
319.212	356.25
319.441	360.25
319.67	368.25
319.9	348.25
320.129	362.25
320.358	346.25
320.587	355.25
320.816	360.25
321.046	355.25
321.275	374.25
321.504	373.25
321.733	371.25
321.962	346.25
322.191	386.25
322.42	366.25
322.649	390.25
322.878	394.25
323.108	388.25
323.337	422.25
323.566	411.25
323.795	423.25
324.024	474.25
324.253	538.25
324.482	715.25
324.71	1017.25
324.939	1406.25
325.168	1245.25
325.397	670.25
325.626	518.25
325.855	456.25
326.084	434.25
326.313	431.25
326.542	438.25
326.77	487.25
326.999	541.25
327.228	685.25
327.457	964.25
327.686	1117.25
327.914	804.25
328.143	619.25
328.372	538.25
328.6	528.25
328.829	481.25
329.058	505.25
329.287	518.25
329.515	507.25
329.744	502.25
329.972	514.25
330.201	594.25
330.43	655.25
330.658	626.25
330.887	541.25
331.115	534.25
331.344	477.25
331.572	463.25
331.801	451.25
332.03	434.25
332.258	442.25
332.486	443.25
332.715	460.25
332.943	463.25
333.172	477.25
333.4	477.25
333.629	509.25
333.857	542.25
334.085	588.25
334.314	681.25
334.542	768.25
334.771	778.25
334.999	626.25
335.227	540.25
335.455	476.25
335.684	467.25
335.912	459.25
336.14	446.25
336.369	447.25
336.597	460.25
336.825	445.25
337.053	436.25
337.281	415.25
337.51	427.25
337.738	430.25
337.966	422.25
338.194	420.25
338.422	412.25
338.65	404.25
338.878	396.25
339.106	403.25
339.334	422.25
339.562	398.25
339.79	386.25
340.018	395.25
340.246	394.25
340.474	398.25
340.702	397.25
340.93	392.25
341.158	405.25
341.386	397.25
341.614	386.25
341.842	376.25
342.07	387.25
342.298	366.25
342.526	382.25
342.754	377.25
342.981	362.25
343.209	394.25
343.437	401.25
343.665	412.25
343.893	427.25
344.12	426.25
344.348	437.25
344.576	406.25
344.804	399.25
345.031	378.25
345.259	397.25
345.487	389.25
345.714	404.25
345.942	380.25
346.17	376.25
346.397	382.25
346.625	370.25
346.853	382.25
347.08	366.25
347.308	367.25
347.535	374.25
347.763	390.25
347.99	372.25
348.218	356.25
348.445	372.25
348.673	375.25
348.9	373.25
349.128	366.25
349.355	371.25
349.583	348.25
349.81	372.25
350.037	364.25
350.265	351.25
350.492	349.25
350.72	380.25
350.947	372.25
351.174	369.25
351.402	345.25
351.629	349.25
351.856	389.25
352.083	394.25
352.311	370.25
352.538	373.25
352.765	356.25
352.992	378.25
353.22	358.25
353.447	361.25
353.674	362.25
353.901	341.25
354.128	342.25
354.355	358.25
354.583	363.25
354.81	344.25
355.037	336.25
355.264	359.25
355.491	352.25
355.718	356.25
355.945	357.25
356.172	344.25
356.399	341.25
356.626	366.25
356.853	365.25
357.08	347.25
357.307	357.25
357.534	352.25
357.761	358.25
357.988	346.25
358.215	348.25
358.441	344.25
358.668	356.25
358.895	364.25
359.122	365.25
359.349	347.25
359.576	351.25
359.802	388.25
360.029	402.25
360.256	386.25
360.483	370.25
360.709	369.25
360.936	369.25
361.163	367.25
361.39	361.25
361.616	369.25
361.843	352.25
362.07	360.25
362.296	359.25
362.523	375.25
362.749	373.25
362.976	365.25
363.203	352.25
363.429	342.25
363.656	332.25
363.882	353.25
364.109	349.25
364.335	337.25
364.562	364.25
364.788	341.25
365.015	345.25
365.241	353.25
365.468	347.25
365.694	355.25
365.92	343.25
366.147	343.25
366.373	340.25
366.599	356.25
366.826	353.25
367.052	341.25
367.278	338.25
367.505	375.25
367.731	368.25
367.957	343.25
368.184	344.25
368.41	365.25
368.636	375.25
368.862	337.25
369.089	390.25
369.315	359.25
369.541	353.25
369.767	338.25
369.993	348.25
370.219	329.25
370.445	375.25
370.672	357.25
370.898	359.25
371.124	370.25
371.35	358.25
371.576	360.25
371.802	350.25
372.028	349.25
372.254	360.25
372.48	364.25
372.706	345.25
372.932	380.25
373.158	368.25
373.384	357.25
373.61	343.25
373.835	377.25
374.061	364.25
374.287	342.25
374.513	346.25
374.739	374.25
374.965	377.25
375.191	364.25
375.416	368.25
375.642	359.25
375.868	377.25
376.094	365.25
376.319	357.25
376.545	379.25
376.771	357.25
376.997	356.25
377.222	349.25
377.448	337.25
377.674	356.25
377.899	340.25
378.125	362.25
378.35	361.25
378.576	343.25
378.802	341.25
379.027	338.25
379.253	356.25
379.478	350.25
379.704	355.25
379.929	348.25
380.155	344.25
380.38	348.25
380.606	351.25
380.831	365.25
381.057	368.25
381.282	328.25
381.507	351.25
381.733	373.25
381.958	347.25
382.184	340.25
382.409	358.25
382.634	379.25
382.86	373.25
383.085	365.25
383.31	374.25
383.535	391.25
383.761	374.25
383.986	388.25
384.211	388.25
384.436	377.25
384.662	408.25
384.887	405.25
385.112	396.25
385.337	409.25
385.562	404.25
385.787	401.25
386.013	417.25
386.238	409.25
386.463	394.25
386.688	397.25
386.913	404.25
387.138	403.25
387.363	407.25
387.588	392.25
387.813	391.25
388.038	384.25
388.263	393.25
388.488	389.25
388.713	403.25
388.938	413.25
389.163	400.25
389.387	390.25
389.612	402.25
389.837	390.25
390.062	380.25
390.287	395.25
390.512	389.25
390.736	418.25
390.961	394.25
391.186	395.25
391.411	416.25
391.636	404.25
391.86	433.25
392.085	437.25
392.31	433.25
392.534	412.25
392.759	421.25
392.984	409.25
393.208	404.25
393.433	415.25
393.658	420.25
393.882	414.25
394.107	404.25
394.331	425.25
394.556	421.25
394.78	421.25
395.005	423.25
395.229	417.25
395.454	439.25
395.678	449.25
395.903	441.25
396.127	452.25
396.352	449.25
396.576	435.25
396.801	408.25
397.025	429.25
397.249	423.25
397.474	433.25
397.698	457.25
397.922	456.25
398.147	456.25
398.371	441.25
398.595	447.25
398.82	455.25
399.044	484.25
399.268	513.25
399.492	567.25
399.717	617.25
399.941	632.25
400.165	607.25
400.389	597.25
400.613	524.25
400.837	514.25
401.062	492.25
401.286	466.25
401.51	502.25
401.734	475.25
401.958	455.25
402.182	484.25
402.406	489.25
402.63	475.25
402.854	479.25
403.078	484.25
403.302	497.25
403.526	521.25
403.75	496.25
403.974	522.25
404.198	518.25
404.422	529.25
404.645	544.25
404.869	536.25
405.093	575.25
405.317	614.25
405.541	659.25
405.765	586.25
405.988	526.25
406.212	530.25
406.436	550.25
406.66	552.25
406.883	538.25
407.107	587.25
407.331	603.25
407.555	630.25
407.778	627.25
408.002	589.25
408.226	564.25
408.449	542.25
408.673	536.25
408.896	529.25
409.12	580.25
409.344	552.25
409.567	522.25
409.791	522.25
410.014	501.25
410.238	498.25
410.461	500.25
410.685	498.25
410.908	504.25
411.132	539.25
411.355	517.25
411.578	504.25
411.802	514.25
412.025	528.25
412.249	529.25
412.472	550.25
412.695	605.25
412.919	583.25
413.142	534.25
413.365	500.25
413.589	494.25
413.812	493.25
414.035	479.25
414.258	480.25
414.482	476.25
414.705	468.25
414.928	475.25
415.151	482.25
415.374	470.25
415.597	488.25
415.821	460.25
416.044	464.25
416.267	466.25
416.49	463.25
416.713	458.25
416.936	460.25
417.159	444.25
417.382	454.25
417.605	461.25
417.828	480.25
418.051	475.25
418.274	491.25
418.497	469.25
418.72	468.25
418.943	489.25
419.166	501.25
419.389	512.25
419.611	528.25
419.834	519.25
420.057	528.25
420.28	558.25
420.503	516.25
420.726	529.25
420.948	514.25
421.171	518.25
421.394	531.25
421.617	481.25
421.839	485.25
422.062	475.25
422.285	477.25
422.507	498.25
422.73	544.25
422.953	546.25
423.175	480.25
423.398	491.25
423.621	493.25
423.843	492.25
424.066	468.25
424.288	477.25
424.511	519.25
424.733	533.25
424.956	568.25
425.178	561.25
425.401	549.25
425.623	572.25
425.846	512.25
426.068	484.25
426.291	470.25
426.513	461.25
426.735	480.25
426.958	518.25
427.18	538.25
427.402	646.25
427.625	678.25
427.847	589.25
428.069	585.25
428.292	537.25
428.514	467.25
428.736	471.25
428.958	466.25
429.181	459.25
429.403	456.25
429.625	444.25
429.847	453.25
430.069	496.25
430.292	492.25
430.514	456.25
430.736	430.25
430.958	430.25
431.18	435.25
431.402	424.25
431.624	432.25
431.846	429.25
432.068	416.25
432.29	432.25
432.512	438.25
432.734	460.25
432.956	445.25
433.178	445.25
433.4	465.25
433.622	437.25
433.844	433.25
434.066	438.25
434.287	467.25
434.509	461.25
434.731	432.25
434.953	476.25
435.175	460.25
435.397	484.25
435.618	481.25
435.84	464.25
436.062	530.25
436.284	568.25
436.505	500.25
436.727	468.25
436.949	469.25
437.17	442.25
437.392	443.25
437.614	434.25
437.835	447.25
438.057	509.25
438.278	548.25
438.5	579.25
438.721	600.25
438.943	580.25
439.165	516.25
439.386	474.25
439.608	448.25
439.829	454.25
440.05	473.25
440.272	503.25
440.493	498.25
440.715	457.25
440.936	448.25
441.158	448.25
441.379	448.25
441.6	477.25
441.822	478.25
442.043	469.25
442.264	544.25
442.486	569.25
442.707	491.25
442.928	474.25
443.149	456.25
443.371	517.25
443.592	536.25
443.813	560.25
444.034	609.25
444.255	545.25
444.476	487.25
444.698	523.25
444.919	547.25
445.14	662.25
445.361	550.25
445.582	521.25
445.803	528.25
446.024	564.25
446.245	587.25
446.466	526.25
446.687	480.25
446.908	476.25
447.129	434.25
447.35	405.25
447.571	419.25
447.792	426.25
448.013	424.25
448.234	437.25
448.455	458.25
448.675	521.25
448.896	590.25
449.117	507.25
449.338	460.25
449.559	565.25
449.779	611.25
450	496.25
450.221	442.25
450.442	422.25
450.662	418.25
450.883	423.25
451.104	425.25
451.324	433.25
451.545	414.25
451.766	418.25
451.986	394.25
452.207	386.25
452.428	392.25
452.648	378.25
452.869	397.25
453.089	390.25
453.31	388.25
453.53	391.25
453.751	388.25
453.971	385.25
454.192	387.25
454.412	408.25
454.633	381.25
454.853	383.25
455.073	379.25
455.294	379.25
455.514	452.25
455.734	422.25
455.955	385.25
456.175	373.25
456.395	347.25
456.616	363.25
456.836	387.25
457.056	364.25
457.276	358.25
457.497	374.25
457.717	378.25
457.937	381.25
458.157	402.25
458.377	383.25
458.598	393.25
458.818	425.25
459.038	461.25
459.258	482.25
459.478	466.25
459.698	445.25
459.918	431.25
460.138	427.25
460.358	439.25
460.578	450.25
460.798	454.25
461.018	454.25
461.238	457.25
461.458	446.25
461.678	451.25
461.898	461.25
462.118	460.25
462.338	482.25
462.558	483.25
462.777	509.25
462.997	512.25
463.217	548.25
463.437	555.25
463.657	516.25
463.876	497.25
464.096	521.25
464.316	500.25
464.536	516.25
464.755	484.25
464.975	494.25
465.195	502.25
465.414	509.25
465.634	473.25
465.854	443.25
466.073	431.25
466.293	447.25
466.512	414.25
466.732	424.25
466.951	416.25
467.171	400.25
467.391	422.25
467.61	426.25
467.829	409.25
468.049	419.25
468.268	459.25
468.488	405.25
468.707	403.25
468.927	389.25
469.146	417.25
469.365	391.25
469.585	395.25
469.804	419.25
470.023	436.25
470.243	406.25
470.462	427.25
470.681	443.25
470.901	429.25
471.12	401.25
471.339	418.25
471.558	421.25
471.777	416.25
471.997	432.25
472.216	446.25
472.435	566.25
472.654	501.25
472.873	454.25
473.092	421.25
473.311	420.25
473.53	418.25
473.749	430.25
473.968	440.25
474.187	497.25
474.406	480.25
474.625	444.25
474.844	420.25
475.063	423.25
475.282	408.25
475.501	416.25
475.72	419.25
475.939	405.25
476.158	419.25
476.377	417.25
476.596	417.25
476.814	423.25
477.033	420.25
477.252	439.25
477.471	450.25
477.69	435.25
477.908	458.25
478.127	435.25
478.346	460.25
478.564	468.25
478.783	461.25
479.002	473.25
479.22	455.25
479.439	482.25
479.658	500.25
479.876	494.25
480.095	477.25
480.313	546.25
480.532	519.25
480.751	528.25
480.969	560.25
481.188	716.25
481.406	818.25
481.624	637.25
481.843	562.25
482.061	538.25
482.28	513.25
482.498	469.25
482.717	516.25
482.935	489.25
483.153	484.25
483.372	461.25
483.59	459.25
483.808	460.25
484.027	463.25
484.245	469.25
484.463	456.25
484.681	472.25
484.9	485.25
485.118	508.25
485.336	463.25
485.554	489.25
485.772	492.25
485.99	474.25
486.209	483.25
486.427	478.25
486.645	516.25
486.863	496.25
487.081	525.25
487.299	510.25
487.517	512.25
487.735	481.25
487.953	482.25
488.171	489.25
488.389	481.25
488.607	500.25
488.825	505.25
489.043	522.25
489.261	502.25
489.479	516.25
489.696	510.25
489.914	529.25
490.132	540.25
490.35	531.25
490.568	534.25
490.786	543.25
491.003	534.25
491.221	552.25
491.439	587.25
491.657	568.25
491.874	586.25
492.092	585.25
492.31	583.25
492.527	590.25
492.745	612.25
492.963	611.25
493.18	599.25
493.398	592.25
493.615	585.25
493.833	605.25
494.05	592.25
494.268	612.25
494.485	573.25
494.703	576.25
494.92	581.25
495.138	574.25
495.355	580.25
495.573	563.25
495.79	578.25
496.008	572.25
496.225	596.25
496.442	583.25
496.66	603.25
496.877	588.25
497.094	596.25
497.312	596.25
497.529	581.25
497.746	596.25
497.963	613.25
498.181	633.25
498.398	677.25
498.615	694.25
498.832	712.25
499.049	725.25
499.267	777.25
499.484	806.25
499.701	862.25
499.918	901.25
500.135	972.25
500.352	1075.25
500.569	1105.25
500.786	1077.25
501.003	1058.25
501.22	978.25
501.437	924.25
501.654	876.25
501.871	823.25
502.088	790.25
