Data from 1984.PennyLincolnUp.Lamp.En5.5.200Scan.071819.P1_HRD10591_17-00-11-969.txt Node
Date: Thu Jul 18 17:00:11 EDT 2019
User: cochatt
Spectrometer: HR+D1059
Trigger mode: 1
Integration Time (sec): 1.000000E-1
Scans to average: 1
Electric dark correction enabled: true
Nonlinearity correction enabled: false
Boxcar width: 0
XAxis mode: Wavelengths
Number of Pixels in Spectrum: 2048
>>>>>Begin Spectral Data<<<<<
223.165	-20.62
223.4	-20.62
223.635	-20.62
223.869	-24.62
224.104	-15.62
224.338	-13.62
224.573	-13.62
224.808	-8.62
225.042	-9.62
225.277	-0.62
225.511	-7.62
225.746	10.38
225.98	-1.62
226.215	9.38
226.449	19.38
226.683	19.38
226.918	20.38
227.152	37.38
227.387	34.38
227.621	38.38
227.856	54.38
228.09	37.38
228.324	36.38
228.559	49.38
228.793	57.38
229.027	94.38
229.262	91.38
229.496	87.38
229.73	99.38
229.964	122.38
230.199	102.38
230.433	102.38
230.667	116.38
230.901	110.38
231.136	96.38
231.37	101.38
231.604	97.38
231.838	108.38
232.072	102.38
232.306	106.38
232.541	108.38
232.775	110.38
233.009	100.38
233.243	114.38
233.477	102.38
233.711	106.38
233.945	102.38
234.179	114.38
234.413	99.38
234.647	103.38
234.881	108.38
235.115	126.38
235.349	110.38
235.583	126.38
235.817	122.38
236.051	117.38
236.285	113.38
236.519	102.38
236.753	113.38
236.987	130.38
237.221	148.38
237.455	155.38
237.689	150.38
237.922	129.38
238.156	137.38
238.39	128.38
238.624	120.38
238.858	106.38
239.091	120.38
239.325	124.38
239.559	119.38
239.793	125.38
240.027	132.38
240.26	122.38
240.494	134.38
240.728	137.38
240.961	123.38
241.195	140.38
241.429	124.38
241.662	106.38
241.896	136.38
242.13	122.38
242.363	130.38
242.597	126.38
242.83	129.38
243.064	132.38
243.298	131.38
243.531	143.38
243.765	132.38
243.998	137.38
244.232	128.38
244.465	136.38
244.699	125.38
244.932	136.38
245.166	150.38
245.399	139.38
245.633	135.38
245.866	151.38
246.099	138.38
246.333	132.38
246.566	132.38
246.8	149.38
247.033	140.38
247.266	141.38
247.5	150.38
247.733	142.38
247.966	159.38
248.2	149.38
248.433	158.38
248.666	147.38
248.899	154.38
249.133	161.38
249.366	177.38
249.599	178.38
249.832	168.38
250.066	189.38
250.299	194.38
250.532	206.38
250.765	211.38
250.998	209.38
251.231	200.38
251.465	202.38
251.698	182.38
251.931	180.38
252.164	191.38
252.397	178.38
252.63	171.38
252.863	178.38
253.096	192.38
253.329	208.38
253.562	183.38
253.795	205.38
254.028	183.38
254.261	190.38
254.494	200.38
254.727	199.38
254.96	226.38
255.193	229.38
255.426	225.38
255.659	219.38
255.892	242.38
256.124	278.38
256.357	304.38
256.59	266.38
256.823	225.38
257.056	206.38
257.289	206.38
257.521	192.38
257.754	194.38
257.987	184.38
258.22	192.38
258.452	188.38
258.685	180.38
258.918	198.38
259.151	187.38
259.383	212.38
259.616	223.38
259.849	198.38
260.081	209.38
260.314	216.38
260.547	221.38
260.779	222.38
261.012	214.38
261.244	205.38
261.477	198.38
261.71	203.38
261.942	224.38
262.175	214.38
262.407	214.38
262.64	211.38
262.872	204.38
263.105	197.38
263.337	198.38
263.57	197.38
263.802	222.38
264.035	207.38
264.267	198.38
264.499	217.38
264.732	207.38
264.964	211.38
265.197	209.38
265.429	206.38
265.661	195.38
265.894	215.38
266.126	226.38
266.358	212.38
266.591	223.38
266.823	218.38
267.055	206.38
267.287	206.38
267.52	227.38
267.752	212.38
267.984	213.38
268.216	222.38
268.448	214.38
268.681	233.38
268.913	235.38
269.145	238.38
269.377	234.38
269.609	223.38
269.841	227.38
270.073	225.38
270.306	248.38
270.538	264.38
270.77	268.38
271.002	263.38
271.234	248.38
271.466	259.38
271.698	258.38
271.93	274.38
272.162	259.38
272.394	258.38
272.626	271.38
272.858	258.38
273.09	270.38
273.322	250.38
273.553	247.38
273.785	272.38
274.017	241.38
274.249	228.38
274.481	238.38
274.713	235.38
274.945	227.38
275.176	244.38
275.408	250.38
275.64	238.38
275.872	228.38
276.104	262.38
276.335	238.38
276.567	259.38
276.799	272.38
277.031	274.38
277.262	304.38
277.494	287.38
277.726	287.38
277.957	279.38
278.189	267.38
278.421	258.38
278.652	257.38
278.884	242.38
279.115	254.38
279.347	265.38
279.579	260.38
279.81	255.38
280.042	260.38
280.273	262.38
280.505	274.38
280.736	259.38
280.968	267.38
281.199	266.38
281.431	257.38
281.662	242.38
281.894	255.38
282.125	276.38
282.356	276.38
282.588	284.38
282.819	285.38
283.051	267.38
283.282	280.38
283.513	290.38
283.745	264.38
283.976	275.38
284.207	282.38
284.439	259.38
284.67	271.38
284.901	287.38
285.132	282.38
285.364	280.38
285.595	285.38
285.826	281.38
286.057	283.38
286.288	268.38
286.52	272.38
286.751	266.38
286.982	286.38
287.213	285.38
287.444	287.38
287.675	299.38
287.906	283.38
288.138	272.38
288.369	290.38
288.6	282.38
288.831	286.38
289.062	292.38
289.293	311.38
289.524	279.38
289.755	289.38
289.986	289.38
290.217	287.38
290.448	296.38
290.679	293.38
290.91	317.38
291.141	294.38
291.371	289.38
291.602	289.38
291.833	279.38
292.064	287.38
292.295	266.38
292.526	289.38
292.757	282.38
292.987	300.38
293.218	293.38
293.449	277.38
293.68	286.38
293.91	282.38
294.141	274.38
294.372	290.38
294.603	288.38
294.833	297.38
295.064	292.38
295.295	297.38
295.525	295.38
295.756	287.38
295.987	280.38
296.217	309.38
296.448	323.38
296.679	322.38
296.909	309.38
297.14	296.38
297.37	295.38
297.601	302.38
297.831	296.38
298.062	302.38
298.292	307.38
298.523	319.38
298.753	295.38
298.984	320.38
299.214	295.38
299.445	305.38
299.675	292.38
299.905	317.38
300.136	302.38
300.366	312.38
300.597	304.38
300.827	304.38
301.057	315.38
301.288	320.38
301.518	306.38
301.748	335.38
301.979	306.38
302.209	317.38
302.439	331.38
302.669	321.38
302.9	317.38
303.13	319.38
303.36	318.38
303.59	326.38
303.82	355.38
304.051	330.38
304.281	339.38
304.511	306.38
304.741	319.38
304.971	321.38
305.201	329.38
305.431	321.38
305.661	316.38
305.891	326.38
306.121	331.38
306.352	344.38
306.582	317.38
306.812	324.38
307.042	323.38
307.272	322.38
307.502	315.38
307.731	329.38
307.961	339.38
308.191	315.38
308.421	328.38
308.651	310.38
308.881	329.38
309.111	343.38
309.341	339.38
309.571	335.38
309.8	342.38
310.03	331.38
310.26	354.38
310.49	352.38
310.72	337.38
310.949	364.38
311.179	371.38
311.409	344.38
311.639	352.38
311.868	340.38
312.098	320.38
312.328	344.38
312.557	364.38
312.787	371.38
313.017	373.38
313.246	367.38
313.476	350.38
313.706	334.38
313.935	356.38
314.165	371.38
314.394	368.38
314.624	353.38
314.853	374.38
315.083	358.38
315.312	359.38
315.542	362.38
315.771	350.38
316.001	332.38
316.23	348.38
316.46	369.38
316.689	353.38
316.919	359.38
317.148	362.38
317.377	373.38
317.607	364.38
317.836	343.38
318.065	347.38
318.295	363.38
318.524	353.38
318.753	341.38
318.983	367.38
319.212	342.38
319.441	340.38
319.67	376.38
319.9	367.38
320.129	346.38
320.358	354.38
320.587	367.38
320.816	366.38
321.046	371.38
321.275	377.38
321.504	357.38
321.733	375.38
321.962	385.38
322.191	378.38
322.42	396.38
322.649	406.38
322.878	412.38
323.108	414.38
323.337	437.38
323.566	419.38
323.795	454.38
324.024	471.38
324.253	583.38
324.482	746.38
324.71	1068.38
324.939	1511.38
325.168	1317.38
325.397	726.38
325.626	535.38
325.855	468.38
326.084	446.38
326.313	457.38
326.542	460.38
326.77	476.38
326.999	559.38
327.228	726.38
327.457	1018.38
327.686	1211.38
327.914	850.38
328.143	634.38
328.372	608.38
328.6	554.38
328.829	518.38
329.058	520.38
329.287	537.38
329.515	534.38
329.744	524.38
329.972	578.38
330.201	634.38
330.43	726.38
330.658	660.38
330.887	540.38
331.115	552.38
331.344	509.38
331.572	500.38
331.801	467.38
332.03	479.38
332.258	472.38
332.486	477.38
332.715	467.38
332.943	488.38
333.172	509.38
333.4	495.38
333.629	534.38
333.857	569.38
334.085	602.38
334.314	715.38
334.542	818.38
334.771	863.38
334.999	660.38
335.227	562.38
335.455	509.38
335.684	486.38
335.912	461.38
336.14	427.38
336.369	451.38
336.597	456.38
336.825	427.38
337.053	450.38
337.281	423.38
337.51	441.38
337.738	423.38
337.966	398.38
338.194	412.38
338.422	426.38
338.65	397.38
338.878	408.38
339.106	407.38
339.334	404.38
339.562	398.38
339.79	410.38
340.018	394.38
340.246	403.38
340.474	396.38
340.702	401.38
340.93	373.38
341.158	398.38
341.386	411.38
341.614	388.38
341.842	395.38
342.07	390.38
342.298	395.38
342.526	401.38
342.754	379.38
342.981	388.38
343.209	388.38
343.437	383.38
343.665	400.38
343.893	441.38
344.12	458.38
344.348	442.38
344.576	415.38
344.804	417.38
345.031	395.38
345.259	411.38
345.487	404.38
345.714	374.38
345.942	402.38
346.17	392.38
346.397	395.38
346.625	393.38
346.853	389.38
347.08	362.38
347.308	392.38
347.535	369.38
347.763	402.38
347.99	383.38
348.218	397.38
348.445	386.38
348.673	375.38
348.9	398.38
349.128	370.38
349.355	361.38
349.583	366.38
349.81	370.38
350.037	359.38
350.265	377.38
350.492	366.38
350.72	375.38
350.947	388.38
351.174	391.38
351.402	353.38
351.629	368.38
351.856	355.38
352.083	383.38
352.311	385.38
352.538	367.38
352.765	363.38
352.992	386.38
353.22	372.38
353.447	370.38
353.674	374.38
353.901	364.38
354.128	358.38
354.355	348.38
354.583	341.38
354.81	367.38
355.037	353.38
355.264	347.38
355.491	350.38
355.718	364.38
355.945	357.38
356.172	346.38
356.399	345.38
356.626	359.38
356.853	353.38
357.08	354.38
357.307	366.38
357.534	357.38
357.761	347.38
357.988	364.38
358.215	363.38
358.441	361.38
358.668	348.38
358.895	362.38
359.122	350.38
359.349	364.38
359.576	357.38
359.802	374.38
360.029	399.38
360.256	390.38
360.483	385.38
360.709	382.38
360.936	369.38
361.163	360.38
361.39	368.38
361.616	368.38
361.843	376.38
362.07	346.38
362.296	347.38
362.523	362.38
362.749	359.38
362.976	345.38
363.203	368.38
363.429	370.38
363.656	365.38
363.882	341.38
364.109	358.38
364.335	362.38
364.562	358.38
364.788	341.38
365.015	358.38
365.241	352.38
365.468	374.38
365.694	372.38
365.92	366.38
366.147	357.38
366.373	349.38
366.599	359.38
366.826	343.38
367.052	347.38
367.278	355.38
367.505	350.38
367.731	367.38
367.957	342.38
368.184	358.38
368.41	356.38
368.636	369.38
368.862	378.38
369.089	361.38
369.315	371.38
369.541	362.38
369.767	361.38
369.993	357.38
370.219	375.38
370.445	347.38
370.672	378.38
370.898	348.38
371.124	367.38
371.35	378.38
371.576	372.38
371.802	369.38
372.028	372.38
372.254	356.38
372.48	371.38
372.706	368.38
372.932	378.38
373.158	381.38
373.384	376.38
373.61	359.38
373.835	346.38
374.061	361.38
374.287	372.38
374.513	390.38
374.739	379.38
374.965	382.38
375.191	390.38
375.416	387.38
375.642	366.38
375.868	372.38
376.094	367.38
376.319	359.38
376.545	366.38
376.771	357.38
376.997	360.38
377.222	362.38
377.448	366.38
377.674	354.38
377.899	334.38
378.125	352.38
378.35	367.38
378.576	361.38
378.802	347.38
379.027	360.38
379.253	347.38
379.478	340.38
379.704	371.38
379.929	332.38
380.155	363.38
380.38	376.38
380.606	366.38
380.831	358.38
381.057	377.38
381.282	360.38
381.507	352.38
381.733	361.38
381.958	356.38
382.184	363.38
382.409	379.38
382.634	382.38
382.86	354.38
383.085	374.38
383.31	393.38
383.535	392.38
383.761	374.38
383.986	414.38
384.211	400.38
384.436	395.38
384.662	398.38
384.887	410.38
385.112	391.38
385.337	416.38
385.562	409.38
385.787	396.38
386.013	412.38
386.238	408.38
386.463	405.38
386.688	428.38
386.913	408.38
387.138	384.38
387.363	444.38
387.588	417.38
387.813	416.38
388.038	403.38
388.263	422.38
388.488	406.38
388.713	418.38
388.938	396.38
389.163	401.38
389.387	412.38
389.612	388.38
389.837	411.38
390.062	395.38
390.287	389.38
390.512	389.38
390.736	388.38
390.961	393.38
391.186	397.38
391.411	392.38
391.636	437.38
391.86	448.38
392.085	449.38
392.31	440.38
392.534	424.38
392.759	435.38
392.984	425.38
393.208	418.38
393.433	395.38
393.658	402.38
393.882	418.38
394.107	431.38
394.331	414.38
394.556	410.38
394.78	403.38
395.005	428.38
395.229	447.38
395.454	440.38
395.678	446.38
395.903	440.38
396.127	457.38
396.352	442.38
396.576	445.38
396.801	423.38
397.025	414.38
397.249	442.38
397.474	442.38
397.698	447.38
397.922	457.38
398.147	456.38
398.371	487.38
398.595	475.38
398.82	479.38
399.044	515.38
399.268	540.38
399.492	563.38
399.717	625.38
399.941	632.38
400.165	597.38
400.389	611.38
400.613	533.38
400.837	523.38
401.062	499.38
401.286	496.38
401.51	499.38
401.734	473.38
401.958	495.38
402.182	497.38
402.406	496.38
402.63	500.38
402.854	504.38
403.078	503.38
403.302	539.38
403.526	525.38
403.75	531.38
403.974	520.38
404.198	542.38
404.422	518.38
404.645	536.38
404.869	548.38
405.093	571.38
405.317	627.38
405.541	649.38
405.765	588.38
405.988	570.38
406.212	552.38
406.436	559.38
406.66	560.38
406.883	569.38
407.107	576.38
407.331	591.38
407.555	643.38
407.778	646.38
408.002	597.38
408.226	573.38
408.449	549.38
408.673	552.38
408.896	563.38
409.12	578.38
409.344	563.38
409.567	502.38
409.791	513.38
410.014	490.38
410.238	512.38
410.461	505.38
410.685	483.38
410.908	514.38
411.132	526.38
411.355	536.38
411.578	538.38
411.802	521.38
412.025	515.38
412.249	535.38
412.472	563.38
412.695	596.38
412.919	601.38
413.142	538.38
413.365	516.38
413.589	512.38
413.812	493.38
414.035	474.38
414.258	486.38
414.482	502.38
414.705	491.38
414.928	479.38
415.151	491.38
415.374	471.38
415.597	475.38
415.821	475.38
416.044	454.38
416.267	479.38
416.49	492.38
416.713	496.38
416.936	469.38
417.159	464.38
417.382	466.38
417.605	492.38
417.828	498.38
418.051	486.38
418.274	482.38
418.497	482.38
418.72	489.38
418.943	471.38
419.166	497.38
419.389	535.38
419.611	539.38
419.834	510.38
420.057	528.38
420.28	545.38
420.503	559.38
420.726	516.38
420.948	524.38
421.171	527.38
421.394	533.38
421.617	492.38
421.839	468.38
422.062	492.38
422.285	492.38
422.507	523.38
422.73	555.38
422.953	554.38
423.175	502.38
423.398	494.38
423.621	498.38
423.843	522.38
424.066	550.38
424.288	522.38
424.511	506.38
424.733	546.38
424.956	585.38
425.178	560.38
425.401	578.38
425.623	583.38
425.846	532.38
426.068	514.38
426.291	486.38
426.513	490.38
426.735	482.38
426.958	530.38
427.18	570.38
427.402	653.38
427.625	695.38
427.847	624.38
428.069	601.38
428.292	533.38
428.514	480.38
428.736	470.38
428.958	459.38
429.181	449.38
429.403	457.38
429.625	460.38
429.847	481.38
430.069	518.38
430.292	491.38
430.514	451.38
430.736	450.38
430.958	454.38
431.18	418.38
431.402	419.38
431.624	422.38
431.846	424.38
432.068	434.38
432.29	448.38
432.512	446.38
432.734	435.38
432.956	448.38
433.178	455.38
433.4	444.38
433.622	455.38
433.844	436.38
434.066	447.38
434.287	446.38
434.509	466.38
434.731	466.38
434.953	495.38
435.175	491.38
435.397	492.38
435.618	481.38
435.84	505.38
436.062	551.38
436.284	599.38
436.505	526.38
436.727	482.38
436.949	460.38
437.17	452.38
437.392	457.38
437.614	470.38
437.835	478.38
438.057	530.38
438.278	587.38
438.5	568.38
438.721	638.38
438.943	594.38
439.165	485.38
439.386	459.38
439.608	475.38
439.829	468.38
440.05	497.38
440.272	497.38
440.493	493.38
440.715	467.38
440.936	456.38
441.158	445.38
441.379	460.38
441.6	455.38
441.822	497.38
442.043	506.38
442.264	553.38
442.486	577.38
442.707	528.38
442.928	485.38
443.149	487.38
443.371	508.38
443.592	542.38
443.813	568.38
444.034	631.38
444.255	532.38
444.476	526.38
444.698	535.38
444.919	541.38
445.14	664.38
445.361	583.38
445.582	554.38
445.803	530.38
446.024	607.38
446.245	609.38
446.466	564.38
446.687	501.38
446.908	492.38
447.129	454.38
447.35	432.38
447.571	440.38
447.792	423.38
448.013	414.38
448.234	450.38
448.455	477.38
448.675	522.38
448.896	608.38
449.117	514.38
449.338	494.38
449.559	575.38
449.779	637.38
450	520.38
450.221	447.38
450.442	422.38
450.662	432.38
450.883	433.38
451.104	425.38
451.324	433.38
451.545	436.38
451.766	404.38
451.986	403.38
452.207	388.38
452.428	400.38
452.648	395.38
452.869	396.38
453.089	417.38
453.31	418.38
453.53	416.38
453.751	402.38
453.971	422.38
454.192	411.38
454.412	389.38
454.633	398.38
454.853	376.38
455.073	394.38
455.294	406.38
455.514	444.38
455.734	416.38
455.955	382.38
456.175	379.38
456.395	384.38
456.616	397.38
456.836	386.38
457.056	379.38
457.276	384.38
457.497	402.38
457.717	375.38
457.937	363.38
458.157	382.38
458.377	406.38
458.598	418.38
458.818	445.38
459.038	484.38
459.258	510.38
459.478	472.38
459.698	447.38
459.918	451.38
460.138	451.38
460.358	452.38
460.578	456.38
460.798	462.38
461.018	491.38
461.238	475.38
461.458	474.38
461.678	463.38
461.898	454.38
462.118	463.38
462.338	476.38
462.558	498.38
462.777	536.38
462.997	540.38
463.217	561.38
463.437	581.38
463.657	530.38
463.876	522.38
464.096	535.38
464.316	502.38
464.536	535.38
464.755	512.38
464.975	502.38
465.195	497.38
465.414	535.38
465.634	487.38
465.854	447.38
466.073	442.38
466.293	431.38
466.512	418.38
466.732	436.38
466.951	420.38
467.171	417.38
467.391	430.38
467.61	435.38
467.829	425.38
468.049	452.38
468.268	450.38
468.488	447.38
468.707	422.38
468.927	411.38
469.146	412.38
469.365	404.38
469.585	414.38
469.804	427.38
470.023	422.38
470.243	437.38
470.462	418.38
470.681	438.38
470.901	446.38
471.12	406.38
471.339	434.38
471.558	418.38
471.777	425.38
471.997	423.38
472.216	481.38
472.435	586.38
472.654	532.38
472.873	477.38
473.092	453.38
473.311	422.38
473.53	438.38
473.749	419.38
473.968	451.38
474.187	479.38
474.406	516.38
474.625	432.38
474.844	422.38
475.063	422.38
475.282	416.38
475.501	433.38
475.72	406.38
475.939	405.38
476.158	423.38
476.377	430.38
476.596	420.38
476.814	431.38
477.033	426.38
477.252	436.38
477.471	456.38
477.69	438.38
477.908	456.38
478.127	457.38
478.346	450.38
478.564	475.38
478.783	483.38
479.002	465.38
479.22	490.38
479.439	483.38
479.658	482.38
479.876	511.38
480.095	530.38
480.313	553.38
480.532	546.38
480.751	552.38
480.969	574.38
481.188	764.38
481.406	892.38
481.624	650.38
481.843	586.38
482.061	542.38
482.28	531.38
482.498	493.38
482.717	512.38
482.935	482.38
483.153	478.38
483.372	483.38
483.59	514.38
483.808	502.38
484.027	501.38
484.245	503.38
484.463	473.38
484.681	496.38
484.9	488.38
485.118	482.38
485.336	486.38
485.554	510.38
485.772	482.38
485.99	514.38
486.209	492.38
486.427	497.38
486.645	502.38
486.863	529.38
487.081	510.38
487.299	522.38
487.517	525.38
487.735	496.38
487.953	514.38
488.171	511.38
488.389	506.38
488.607	514.38
488.825	518.38
489.043	490.38
489.261	521.38
489.479	527.38
489.696	525.38
489.914	517.38
490.132	526.38
490.35	534.38
490.568	540.38
490.786	570.38
491.003	540.38
491.221	578.38
491.439	588.38
491.657	588.38
491.874	584.38
492.092	582.38
492.31	594.38
492.527	595.38
492.745	608.38
492.963	609.38
493.18	619.38
493.398	600.38
493.615	612.38
493.833	596.38
494.05	612.38
494.268	621.38
494.485	585.38
494.703	620.38
494.92	589.38
495.138	594.38
495.355	604.38
495.573	608.38
495.79	608.38
496.008	585.38
496.225	588.38
496.442	594.38
496.66	603.38
496.877	581.38
497.094	606.38
497.312	600.38
497.529	627.38
497.746	610.38
497.963	615.38
498.181	648.38
498.398	662.38
498.615	680.38
498.832	703.38
499.049	731.38
499.267	762.38
499.484	818.38
499.701	859.38
499.918	939.38
500.135	1020.38
500.352	1094.38
500.569	1095.38
500.786	1126.38
501.003	1097.38
501.22	1011.38
501.437	951.38
501.654	870.38
501.871	849.38
