Data from 1984.PennyLincolnUp.Lamp.En5.5.200Scan.071819.P1_HRD10591_16-58-10-968.txt Node
Date: Thu Jul 18 16:58:10 EDT 2019
User: cochatt
Spectrometer: HR+D1059
Trigger mode: 1
Integration Time (sec): 1.000000E-1
Scans to average: 1
Electric dark correction enabled: true
Nonlinearity correction enabled: false
Boxcar width: 0
XAxis mode: Wavelengths
Number of Pixels in Spectrum: 2048
>>>>>Begin Spectral Data<<<<<
223.165	-13.62
223.4	-13.62
223.635	-13.62
223.869	-15.62
224.104	-20.62
224.338	-9.62
224.573	-17.62
224.808	-20.62
225.042	4.38
225.277	-23.62
225.511	4.38
225.746	3.38
225.98	13.38
226.215	-6.62
226.449	16.38
226.683	28.38
226.918	22.38
227.152	35.38
227.387	29.38
227.621	47.38
227.856	39.38
228.09	55.38
228.324	70.38
228.559	62.38
228.793	70.38
229.027	88.38
229.262	94.38
229.496	108.38
229.73	100.38
229.964	114.38
230.199	119.38
230.433	90.38
230.667	99.38
230.901	97.38
231.136	106.38
231.37	94.38
231.604	110.38
231.838	120.38
232.072	96.38
232.306	116.38
232.541	120.38
232.775	116.38
233.009	116.38
233.243	103.38
233.477	120.38
233.711	117.38
233.945	117.38
234.179	101.38
234.413	110.38
234.647	114.38
234.881	103.38
235.115	106.38
235.349	110.38
235.583	125.38
235.817	134.38
236.051	120.38
236.285	112.38
236.519	126.38
236.753	120.38
236.987	137.38
237.221	157.38
237.455	182.38
237.689	143.38
237.922	134.38
238.156	127.38
238.39	114.38
238.624	109.38
238.858	117.38
239.091	118.38
239.325	120.38
239.559	121.38
239.793	133.38
240.027	135.38
240.26	135.38
240.494	137.38
240.728	154.38
240.961	140.38
241.195	135.38
241.429	128.38
241.662	124.38
241.896	123.38
242.13	134.38
242.363	130.38
242.597	128.38
242.83	150.38
243.064	123.38
243.298	137.38
243.531	150.38
243.765	143.38
243.998	142.38
244.232	130.38
244.465	138.38
244.699	136.38
244.932	135.38
245.166	149.38
245.399	130.38
245.633	143.38
245.866	143.38
246.099	147.38
246.333	144.38
246.566	142.38
246.8	130.38
247.033	138.38
247.266	146.38
247.5	147.38
247.733	146.38
247.966	164.38
248.2	128.38
248.433	154.38
248.666	157.38
248.899	173.38
249.133	160.38
249.366	182.38
249.599	172.38
249.832	161.38
250.066	164.38
250.299	169.38
250.532	200.38
250.765	186.38
250.998	185.38
251.231	203.38
251.465	184.38
251.698	175.38
251.931	170.38
252.164	173.38
252.397	164.38
252.63	173.38
252.863	185.38
253.096	175.38
253.329	199.38
253.562	203.38
253.795	191.38
254.028	193.38
254.261	178.38
254.494	206.38
254.727	201.38
254.96	223.38
255.193	207.38
255.426	200.38
255.659	199.38
255.892	210.38
256.124	225.38
256.357	226.38
256.59	235.38
256.823	197.38
257.056	174.38
257.289	202.38
257.521	182.38
257.754	181.38
257.987	176.38
258.22	184.38
258.452	186.38
258.685	189.38
258.918	182.38
259.151	185.38
259.383	194.38
259.616	190.38
259.849	208.38
260.081	204.38
260.314	223.38
260.547	221.38
260.779	213.38
261.012	209.38
261.244	202.38
261.477	192.38
261.71	192.38
261.942	202.38
262.175	214.38
262.407	199.38
262.64	207.38
262.872	202.38
263.105	204.38
263.337	200.38
263.57	195.38
263.802	204.38
264.035	196.38
264.267	188.38
264.499	194.38
264.732	196.38
264.964	196.38
265.197	188.38
265.429	197.38
265.661	205.38
265.894	203.38
266.126	198.38
266.358	205.38
266.591	212.38
266.823	198.38
267.055	212.38
267.287	210.38
267.52	207.38
267.752	208.38
267.984	212.38
268.216	214.38
268.448	220.38
268.681	208.38
268.913	215.38
269.145	234.38
269.377	240.38
269.609	240.38
269.841	253.38
270.073	250.38
270.306	247.38
270.538	262.38
270.77	252.38
271.002	241.38
271.234	259.38
271.466	246.38
271.698	270.38
271.93	264.38
272.162	262.38
272.394	270.38
272.626	253.38
272.858	257.38
273.09	248.38
273.322	239.38
273.553	242.38
273.785	249.38
274.017	226.38
274.249	237.38
274.481	228.38
274.713	225.38
274.945	239.38
275.176	245.38
275.408	246.38
275.64	240.38
275.872	225.38
276.104	241.38
276.335	247.38
276.567	249.38
276.799	260.38
277.031	267.38
277.262	260.38
277.494	278.38
277.726	268.38
277.957	263.38
278.189	268.38
278.421	257.38
278.652	248.38
278.884	264.38
279.115	238.38
279.347	247.38
279.579	258.38
279.81	239.38
280.042	256.38
280.273	254.38
280.505	246.38
280.736	252.38
280.968	241.38
281.199	266.38
281.431	257.38
281.662	261.38
281.894	253.38
282.125	246.38
282.356	260.38
282.588	277.38
282.819	269.38
283.051	254.38
283.282	266.38
283.513	263.38
283.745	257.38
283.976	284.38
284.207	272.38
284.439	278.38
284.67	262.38
284.901	268.38
285.132	254.38
285.364	269.38
285.595	236.38
285.826	265.38
286.057	296.38
286.288	261.38
286.52	274.38
286.751	276.38
286.982	264.38
287.213	273.38
287.444	264.38
287.675	282.38
287.906	305.38
288.138	270.38
288.369	297.38
288.6	274.38
288.831	274.38
289.062	287.38
289.293	299.38
289.524	292.38
289.755	273.38
289.986	280.38
290.217	273.38
290.448	296.38
290.679	277.38
290.91	276.38
291.141	287.38
291.371	280.38
291.602	288.38
291.833	288.38
292.064	274.38
292.295	283.38
292.526	289.38
292.757	290.38
292.987	300.38
293.218	276.38
293.449	298.38
293.68	287.38
293.91	267.38
294.141	281.38
294.372	280.38
294.603	288.38
294.833	277.38
295.064	292.38
295.295	292.38
295.525	290.38
295.756	299.38
295.987	306.38
296.217	317.38
296.448	333.38
296.679	311.38
296.909	293.38
297.14	299.38
297.37	290.38
297.601	290.38
297.831	314.38
298.062	295.38
298.292	321.38
298.523	298.38
298.753	307.38
298.984	300.38
299.214	298.38
299.445	313.38
299.675	304.38
299.905	316.38
300.136	297.38
300.366	316.38
300.597	298.38
300.827	315.38
301.057	300.38
301.288	319.38
301.518	324.38
301.748	311.38
301.979	318.38
302.209	297.38
302.439	335.38
302.669	309.38
302.9	322.38
303.13	324.38
303.36	312.38
303.59	329.38
303.82	350.38
304.051	331.38
304.281	319.38
304.511	320.38
304.741	325.38
304.971	319.38
305.201	322.38
305.431	303.38
305.661	313.38
305.891	328.38
306.121	319.38
306.352	327.38
306.582	339.38
306.812	327.38
307.042	316.38
307.272	314.38
307.502	314.38
307.731	333.38
307.961	308.38
308.191	322.38
308.421	317.38
308.651	321.38
308.881	337.38
309.111	322.38
309.341	316.38
309.571	323.38
309.8	346.38
310.03	336.38
310.26	325.38
310.49	340.38
310.72	346.38
310.949	332.38
311.179	352.38
311.409	331.38
311.639	339.38
311.868	346.38
312.098	337.38
312.328	358.38
312.557	388.38
312.787	355.38
313.017	342.38
313.246	362.38
313.476	350.38
313.706	369.38
313.935	342.38
314.165	354.38
314.394	369.38
314.624	326.38
314.853	355.38
315.083	348.38
315.312	350.38
315.542	335.38
315.771	332.38
316.001	332.38
316.23	344.38
316.46	339.38
316.689	354.38
316.919	343.38
317.148	350.38
317.377	330.38
317.607	356.38
317.836	363.38
318.065	341.38
318.295	350.38
318.524	364.38
318.753	350.38
318.983	349.38
319.212	335.38
319.441	337.38
319.67	353.38
319.9	354.38
320.129	368.38
320.358	362.38
320.587	327.38
320.816	369.38
321.046	351.38
321.275	357.38
321.504	357.38
321.733	357.38
321.962	353.38
322.191	384.38
322.42	369.38
322.649	400.38
322.878	390.38
323.108	392.38
323.337	395.38
323.566	424.38
323.795	406.38
324.024	431.38
324.253	528.38
324.482	686.38
324.71	1008.38
324.939	1370.38
325.168	1169.38
325.397	667.38
325.626	518.38
325.855	460.38
326.084	450.38
326.313	409.38
326.542	422.38
326.77	450.38
326.999	530.38
327.228	650.38
327.457	917.38
327.686	1050.38
327.914	747.38
328.143	564.38
328.372	510.38
328.6	480.38
328.829	472.38
329.058	473.38
329.287	449.38
329.515	452.38
329.744	450.38
329.972	450.38
330.201	466.38
330.43	487.38
330.658	488.38
330.887	473.38
331.115	480.38
331.344	442.38
331.572	432.38
331.801	442.38
332.03	451.38
332.258	443.38
332.486	429.38
332.715	429.38
332.943	452.38
333.172	465.38
333.4	472.38
333.629	463.38
333.857	473.38
334.085	484.38
334.314	502.38
334.542	527.38
334.771	540.38
334.999	472.38
335.227	470.38
335.455	456.38
335.684	453.38
335.912	444.38
336.14	450.38
336.369	419.38
336.597	428.38
336.825	443.38
337.053	447.38
337.281	405.38
337.51	429.38
337.738	414.38
337.966	393.38
338.194	416.38
338.422	391.38
338.65	404.38
338.878	405.38
339.106	394.38
339.334	410.38
339.562	383.38
339.79	389.38
340.018	394.38
340.246	395.38
340.474	388.38
340.702	395.38
340.93	378.38
341.158	397.38
341.386	402.38
341.614	387.38
341.842	368.38
342.07	376.38
342.298	388.38
342.526	373.38
342.754	385.38
342.981	380.38
343.209	396.38
343.437	382.38
343.665	421.38
343.893	431.38
344.12	431.38
344.348	428.38
344.576	400.38
344.804	399.38
345.031	412.38
345.259	393.38
345.487	396.38
345.714	374.38
345.942	360.38
346.17	390.38
346.397	382.38
346.625	353.38
346.853	374.38
347.08	376.38
347.308	372.38
347.535	381.38
347.763	386.38
347.99	380.38
348.218	394.38
348.445	377.38
348.673	361.38
348.9	365.38
349.128	376.38
349.355	372.38
349.583	388.38
349.81	367.38
350.037	372.38
350.265	366.38
350.492	377.38
350.72	370.38
350.947	380.38
351.174	360.38
351.402	373.38
351.629	374.38
351.856	358.38
352.083	367.38
352.311	367.38
352.538	361.38
352.765	365.38
352.992	365.38
353.22	373.38
353.447	357.38
353.674	366.38
353.901	361.38
354.128	358.38
354.355	359.38
354.583	344.38
354.81	356.38
355.037	355.38
355.264	359.38
355.491	340.38
355.718	342.38
355.945	347.38
356.172	360.38
356.399	348.38
356.626	369.38
356.853	369.38
357.08	346.38
357.307	351.38
357.534	348.38
357.761	350.38
357.988	378.38
358.215	372.38
358.441	365.38
358.668	353.38
358.895	353.38
359.122	317.38
359.349	358.38
359.576	366.38
359.802	387.38
360.029	373.38
360.256	393.38
360.483	384.38
360.709	382.38
360.936	386.38
361.163	349.38
361.39	354.38
361.616	375.38
361.843	366.38
362.07	360.38
362.296	355.38
362.523	349.38
362.749	355.38
362.976	337.38
363.203	357.38
363.429	348.38
363.656	342.38
363.882	357.38
364.109	366.38
364.335	343.38
364.562	349.38
364.788	348.38
365.015	364.38
365.241	356.38
365.468	344.38
365.694	367.38
365.92	374.38
366.147	377.38
366.373	337.38
366.599	362.38
366.826	338.38
367.052	341.38
367.278	330.38
367.505	349.38
367.731	354.38
367.957	339.38
368.184	356.38
368.41	347.38
368.636	369.38
368.862	349.38
369.089	373.38
369.315	336.38
369.541	344.38
369.767	337.38
369.993	356.38
370.219	357.38
370.445	351.38
370.672	360.38
370.898	342.38
371.124	372.38
371.35	361.38
371.576	356.38
371.802	351.38
372.028	363.38
372.254	353.38
372.48	374.38
372.706	360.38
372.932	373.38
373.158	375.38
373.384	346.38
373.61	356.38
373.835	369.38
374.061	383.38
374.287	372.38
374.513	363.38
374.739	369.38
374.965	369.38
375.191	390.38
375.416	390.38
375.642	380.38
375.868	361.38
376.094	351.38
376.319	354.38
376.545	349.38
376.771	361.38
376.997	375.38
377.222	366.38
377.448	349.38
377.674	349.38
377.899	350.38
378.125	343.38
378.35	344.38
378.576	347.38
378.802	365.38
379.027	352.38
379.253	355.38
379.478	349.38
379.704	354.38
379.929	335.38
380.155	363.38
380.38	346.38
380.606	373.38
380.831	360.38
381.057	353.38
381.282	360.38
381.507	341.38
381.733	367.38
381.958	367.38
382.184	357.38
382.409	372.38
382.634	355.38
382.86	372.38
383.085	367.38
383.31	358.38
383.535	369.38
383.761	374.38
383.986	376.38
384.211	382.38
384.436	397.38
384.662	390.38
384.887	395.38
385.112	398.38
385.337	396.38
385.562	413.38
385.787	404.38
386.013	409.38
386.238	396.38
386.463	396.38
386.688	410.38
386.913	384.38
387.138	405.38
387.363	408.38
387.588	390.38
387.813	392.38
388.038	407.38
388.263	404.38
388.488	408.38
388.713	385.38
388.938	408.38
389.163	394.38
389.387	392.38
389.612	400.38
389.837	384.38
390.062	387.38
390.287	403.38
390.512	389.38
390.736	405.38
390.961	402.38
391.186	399.38
391.411	439.38
391.636	434.38
391.86	429.38
392.085	441.38
392.31	444.38
392.534	407.38
392.759	425.38
392.984	420.38
393.208	414.38
393.433	405.38
393.658	413.38
393.882	412.38
394.107	414.38
394.331	416.38
394.556	403.38
394.78	423.38
395.005	418.38
395.229	416.38
395.454	421.38
395.678	438.38
395.903	420.38
396.127	436.38
396.352	434.38
396.576	402.38
396.801	413.38
397.025	410.38
397.249	431.38
397.474	433.38
397.698	433.38
397.922	440.38
398.147	452.38
398.371	440.38
398.595	457.38
398.82	459.38
399.044	489.38
399.268	500.38
399.492	584.38
399.717	617.38
399.941	633.38
400.165	621.38
400.389	567.38
400.613	520.38
400.837	497.38
401.062	496.38
401.286	490.38
401.51	497.38
401.734	484.38
401.958	492.38
402.182	469.38
402.406	503.38
402.63	492.38
402.854	494.38
403.078	505.38
403.302	490.38
403.526	523.38
403.75	530.38
403.974	535.38
404.198	513.38
404.422	520.38
404.645	518.38
404.869	539.38
405.093	552.38
405.317	561.38
405.541	598.38
405.765	521.38
405.988	517.38
406.212	521.38
406.436	528.38
406.66	542.38
406.883	533.38
407.107	584.38
407.331	590.38
407.555	630.38
407.778	614.38
408.002	585.38
408.226	554.38
408.449	551.38
408.673	543.38
408.896	531.38
409.12	562.38
409.344	559.38
409.567	515.38
409.791	520.38
410.014	514.38
410.238	510.38
410.461	512.38
410.685	502.38
410.908	517.38
411.132	529.38
411.355	542.38
411.578	524.38
411.802	497.38
412.025	504.38
412.249	508.38
412.472	505.38
412.695	554.38
412.919	508.38
413.142	480.38
413.365	484.38
413.589	474.38
413.812	458.38
414.035	461.38
414.258	466.38
414.482	466.38
414.705	457.38
414.928	436.38
415.151	483.38
415.374	467.38
415.597	453.38
415.821	456.38
416.044	467.38
416.267	453.38
416.49	444.38
416.713	462.38
416.936	458.38
417.159	462.38
417.382	452.38
417.605	455.38
417.828	469.38
418.051	477.38
418.274	487.38
418.497	447.38
418.72	442.38
418.943	456.38
419.166	491.38
419.389	516.38
419.611	495.38
419.834	489.38
420.057	502.38
420.28	513.38
420.503	506.38
420.726	491.38
420.948	492.38
421.171	505.38
421.394	530.38
421.617	477.38
421.839	469.38
422.062	478.38
422.285	484.38
422.507	523.38
422.73	560.38
422.953	558.38
423.175	506.38
423.398	515.38
423.621	488.38
423.843	522.38
424.066	510.38
424.288	505.38
424.511	507.38
424.733	515.38
424.956	585.38
425.178	538.38
425.401	554.38
425.623	566.38
425.846	506.38
426.068	485.38
426.291	499.38
426.513	488.38
426.735	485.38
426.958	526.38
427.18	548.38
427.402	600.38
427.625	677.38
427.847	581.38
428.069	549.38
428.292	504.38
428.514	471.38
428.736	441.38
428.958	460.38
429.181	437.38
429.403	418.38
429.625	449.38
429.847	479.38
430.069	490.38
430.292	493.38
430.514	454.38
430.736	453.38
430.958	457.38
431.18	424.38
431.402	414.38
431.624	410.38
431.846	447.38
432.068	444.38
432.29	420.38
432.512	412.38
432.734	418.38
432.956	432.38
433.178	441.38
433.4	436.38
433.622	431.38
433.844	407.38
434.066	427.38
434.287	448.38
434.509	438.38
434.731	463.38
434.953	470.38
435.175	458.38
435.397	490.38
435.618	455.38
435.84	497.38
436.062	541.38
436.284	572.38
436.505	493.38
436.727	469.38
436.949	441.38
437.17	434.38
437.392	424.38
437.614	421.38
437.835	463.38
438.057	524.38
438.278	557.38
438.5	556.38
438.721	614.38
438.943	574.38
439.165	486.38
439.386	465.38
439.608	480.38
439.829	474.38
440.05	468.38
440.272	493.38
440.493	490.38
440.715	473.38
440.936	446.38
441.158	466.38
441.379	424.38
441.6	453.38
441.822	489.38
442.043	531.38
442.264	562.38
442.486	567.38
442.707	524.38
442.928	493.38
443.149	488.38
443.371	518.38
443.592	549.38
443.813	559.38
444.034	593.38
444.255	547.38
444.476	536.38
444.698	534.38
444.919	519.38
445.14	594.38
445.361	543.38
445.582	542.38
445.803	538.38
446.024	585.38
446.245	598.38
446.466	544.38
446.687	508.38
446.908	469.38
447.129	432.38
447.35	443.38
447.571	438.38
447.792	412.38
448.013	424.38
448.234	438.38
448.455	442.38
448.675	522.38
448.896	586.38
449.117	489.38
449.338	473.38
449.559	547.38
449.779	620.38
450	509.38
450.221	460.38
450.442	426.38
450.662	406.38
450.883	418.38
451.104	426.38
451.324	407.38
451.545	415.38
451.766	398.38
451.986	395.38
452.207	392.38
452.428	416.38
452.648	384.38
452.869	386.38
453.089	395.38
453.31	393.38
453.53	402.38
453.751	402.38
453.971	407.38
454.192	410.38
454.412	387.38
454.633	359.38
454.853	388.38
455.073	381.38
455.294	387.38
455.514	411.38
455.734	427.38
455.955	385.38
456.175	373.38
456.395	382.38
456.616	382.38
456.836	379.38
457.056	359.38
457.276	357.38
457.497	389.38
457.717	360.38
457.937	397.38
458.157	359.38
458.377	386.38
458.598	400.38
458.818	440.38
459.038	456.38
459.258	481.38
459.478	445.38
459.698	399.38
459.918	428.38
460.138	445.38
460.358	465.38
460.578	454.38
460.798	465.38
461.018	465.38
461.238	457.38
461.458	476.38
461.678	455.38
461.898	459.38
462.118	467.38
462.338	483.38
462.558	484.38
462.777	494.38
462.997	522.38
463.217	553.38
463.437	549.38
463.657	530.38
463.876	540.38
464.096	539.38
464.316	503.38
464.536	502.38
464.755	500.38
464.975	497.38
465.195	500.38
465.414	513.38
465.634	472.38
465.854	456.38
466.073	464.38
466.293	453.38
466.512	403.38
466.732	391.38
466.951	406.38
467.171	430.38
467.391	409.38
467.61	440.38
467.829	409.38
468.049	415.38
468.268	391.38
468.488	402.38
468.707	402.38
468.927	393.38
469.146	361.38
469.365	397.38
469.585	400.38
469.804	403.38
470.023	425.38
470.243	420.38
470.462	408.38
470.681	431.38
470.901	428.38
471.12	422.38
471.339	414.38
471.558	427.38
471.777	406.38
471.997	396.38
472.216	408.38
472.435	436.38
472.654	433.38
472.873	414.38
473.092	407.38
473.311	412.38
473.53	405.38
473.749	442.38
473.968	421.38
474.187	450.38
474.406	481.38
474.625	418.38
474.844	392.38
475.063	399.38
475.282	412.38
475.501	394.38
475.72	420.38
475.939	410.38
476.158	407.38
476.377	420.38
476.596	408.38
476.814	382.38
477.033	416.38
477.252	416.38
477.471	414.38
477.69	448.38
477.908	432.38
478.127	447.38
478.346	451.38
478.564	456.38
478.783	458.38
479.002	442.38
479.22	471.38
479.439	489.38
479.658	502.38
479.876	480.38
480.095	487.38
480.313	492.38
480.532	529.38
480.751	510.38
480.969	519.38
481.188	544.38
481.406	554.38
481.624	499.38
481.843	484.38
482.061	472.38
482.28	476.38
482.498	452.38
482.717	478.38
482.935	448.38
483.153	445.38
483.372	467.38
483.59	463.38
483.808	458.38
484.027	450.38
484.245	477.38
484.463	482.38
484.681	481.38
484.9	450.38
485.118	477.38
485.336	473.38
485.554	468.38
485.772	476.38
485.99	469.38
486.209	478.38
486.427	497.38
486.645	487.38
486.863	491.38
487.081	491.38
487.299	477.38
487.517	477.38
487.735	487.38
487.953	484.38
488.171	494.38
488.389	488.38
488.607	462.38
488.825	500.38
489.043	485.38
489.261	505.38
489.479	492.38
489.696	495.38
489.914	500.38
490.132	500.38
490.35	493.38
490.568	485.38
490.786	505.38
491.003	518.38
491.221	535.38
491.439	544.38
491.657	514.38
491.874	540.38
492.092	535.38
492.31	547.38
492.527	555.38
492.745	544.38
492.963	558.38
493.18	549.38
493.398	575.38
493.615	538.38
493.833	552.38
494.05	557.38
494.268	556.38
494.485	561.38
494.703	555.38
494.92	554.38
495.138	566.38
495.355	585.38
495.573	549.38
495.79	558.38
496.008	565.38
496.225	556.38
496.442	570.38
496.66	552.38
496.877	562.38
497.094	596.38
497.312	568.38
497.529	582.38
497.746	593.38
497.963	613.38
498.181	625.38
498.398	656.38
498.615	664.38
498.832	685.38
499.049	721.38
499.267	747.38
499.484	798.38
499.701	854.38
499.918	912.38
500.135	953.38
500.352	1049.38
500.569	1096.38
500.786	1101.38
501.003	1042.38
501.22	992.38
501.437	900.38
501.654	826.38
501.871	814.38
502.088	751.38
