Data from 1984.PennyLincolnUp.Lamp.En5.5.200Scan.071819.P1_HRD10591_16-57-17-967.txt Node
Date: Thu Jul 18 16:57:17 EDT 2019
User: cochatt
Spectrometer: HR+D1059
Trigger mode: 1
Integration Time (sec): 1.000000E-1
Scans to average: 1
Electric dark correction enabled: true
Nonlinearity correction enabled: false
Boxcar width: 0
XAxis mode: Wavelengths
Number of Pixels in Spectrum: 2048
>>>>>Begin Spectral Data<<<<<
223.165	-25.88
223.4	-25.88
223.635	-25.88
223.869	-27.88
224.104	-7.88
224.338	-22.88
224.573	-16.88
224.808	-4.88
225.042	-20.88
225.277	13.12
225.511	5.12
225.746	-1.88
225.98	10.12
226.215	12.12
226.449	21.12
226.683	16.12
226.918	18.12
227.152	33.12
227.387	39.12
227.621	45.12
227.856	40.12
228.09	50.12
228.324	60.12
228.559	54.12
228.793	55.12
229.027	66.12
229.262	69.12
229.496	70.12
229.73	97.12
229.964	112.12
230.199	117.12
230.433	115.12
230.667	102.12
230.901	102.12
231.136	101.12
231.37	98.12
231.604	115.12
231.838	117.12
232.072	107.12
232.306	104.12
232.541	106.12
232.775	106.12
233.009	105.12
233.243	117.12
233.477	108.12
233.711	122.12
233.945	97.12
234.179	102.12
234.413	98.12
234.647	102.12
234.881	117.12
235.115	103.12
235.349	121.12
235.583	122.12
235.817	115.12
236.051	111.12
236.285	114.12
236.519	116.12
236.753	128.12
236.987	114.12
237.221	127.12
237.455	138.12
237.689	138.12
237.922	108.12
238.156	116.12
238.39	132.12
238.624	118.12
238.858	114.12
239.091	106.12
239.325	99.12
239.559	111.12
239.793	118.12
240.027	121.12
240.26	122.12
240.494	131.12
240.728	134.12
240.961	120.12
241.195	108.12
241.429	113.12
241.662	116.12
241.896	133.12
242.13	138.12
242.363	132.12
242.597	124.12
242.83	125.12
243.064	126.12
243.298	127.12
243.531	122.12
243.765	126.12
243.998	121.12
244.232	123.12
244.465	126.12
244.699	116.12
244.932	135.12
245.166	121.12
245.399	123.12
245.633	128.12
245.866	123.12
246.099	127.12
246.333	135.12
246.566	140.12
246.8	144.12
247.033	136.12
247.266	147.12
247.5	146.12
247.733	147.12
247.966	145.12
248.2	156.12
248.433	154.12
248.666	148.12
248.899	150.12
249.133	140.12
249.366	146.12
249.599	149.12
249.832	151.12
250.066	153.12
250.299	152.12
250.532	154.12
250.765	171.12
250.998	162.12
251.231	156.12
251.465	145.12
251.698	162.12
251.931	172.12
252.164	165.12
252.397	154.12
252.63	168.12
252.863	154.12
253.096	172.12
253.329	180.12
253.562	169.12
253.795	173.12
254.028	174.12
254.261	167.12
254.494	169.12
254.727	164.12
254.96	197.12
255.193	183.12
255.426	179.12
255.659	178.12
255.892	179.12
256.124	170.12
256.357	170.12
256.59	167.12
256.823	167.12
257.056	170.12
257.289	171.12
257.521	190.12
257.754	174.12
257.987	166.12
258.22	167.12
258.452	183.12
258.685	172.12
258.918	195.12
259.151	183.12
259.383	169.12
259.616	192.12
259.849	171.12
260.081	183.12
260.314	192.12
260.547	186.12
260.779	193.12
261.012	195.12
261.244	171.12
261.477	199.12
261.71	182.12
261.942	181.12
262.175	180.12
262.407	182.12
262.64	191.12
262.872	186.12
263.105	182.12
263.337	192.12
263.57	164.12
263.802	180.12
264.035	191.12
264.267	199.12
264.499	186.12
264.732	185.12
264.964	190.12
265.197	178.12
265.429	185.12
265.661	189.12
265.894	180.12
266.126	192.12
266.358	197.12
266.591	188.12
266.823	183.12
267.055	204.12
267.287	206.12
267.52	184.12
267.752	191.12
267.984	191.12
268.216	199.12
268.448	212.12
268.681	185.12
268.913	205.12
269.145	211.12
269.377	219.12
269.609	223.12
269.841	211.12
270.073	226.12
270.306	230.12
270.538	228.12
270.77	235.12
271.002	238.12
271.234	234.12
271.466	244.12
271.698	246.12
271.93	221.12
272.162	228.12
272.394	237.12
272.626	237.12
272.858	198.12
273.09	244.12
273.322	203.12
273.553	212.12
273.785	226.12
274.017	232.12
274.249	228.12
274.481	229.12
274.713	209.12
274.945	220.12
275.176	219.12
275.408	214.12
275.64	232.12
275.872	226.12
276.104	214.12
276.335	230.12
276.567	222.12
276.799	243.12
277.031	232.12
277.262	227.12
277.494	242.12
277.726	246.12
277.957	230.12
278.189	239.12
278.421	211.12
278.652	222.12
278.884	222.12
279.115	226.12
279.347	239.12
279.579	243.12
279.81	228.12
280.042	226.12
280.273	221.12
280.505	246.12
280.736	223.12
280.968	231.12
281.199	249.12
281.431	233.12
281.662	233.12
281.894	239.12
282.125	234.12
282.356	254.12
282.588	252.12
282.819	262.12
283.051	234.12
283.282	250.12
283.513	239.12
283.745	242.12
283.976	248.12
284.207	246.12
284.439	262.12
284.67	256.12
284.901	263.12
285.132	237.12
285.364	237.12
285.595	249.12
285.826	249.12
286.057	249.12
286.288	230.12
286.52	247.12
286.751	267.12
286.982	243.12
287.213	262.12
287.444	280.12
287.675	259.12
287.906	258.12
288.138	260.12
288.369	244.12
288.6	258.12
288.831	284.12
289.062	265.12
289.293	242.12
289.524	278.12
289.755	272.12
289.986	261.12
290.217	264.12
290.448	271.12
290.679	254.12
290.91	262.12
291.141	259.12
291.371	269.12
291.602	271.12
291.833	255.12
292.064	258.12
292.295	268.12
292.526	263.12
292.757	263.12
292.987	272.12
293.218	270.12
293.449	260.12
293.68	280.12
293.91	265.12
294.141	278.12
294.372	266.12
294.603	268.12
294.833	263.12
295.064	251.12
295.295	284.12
295.525	266.12
295.756	270.12
295.987	268.12
296.217	290.12
296.448	286.12
296.679	274.12
296.909	271.12
297.14	291.12
297.37	276.12
297.601	296.12
297.831	271.12
298.062	272.12
298.292	269.12
298.523	286.12
298.753	284.12
298.984	281.12
299.214	267.12
299.445	290.12
299.675	283.12
299.905	276.12
300.136	310.12
300.366	304.12
300.597	299.12
300.827	288.12
301.057	290.12
301.288	286.12
301.518	310.12
301.748	297.12
301.979	284.12
302.209	305.12
302.439	288.12
302.669	294.12
302.9	298.12
303.13	297.12
303.36	285.12
303.59	305.12
303.82	275.12
304.051	306.12
304.281	307.12
304.511	312.12
304.741	299.12
304.971	296.12
305.201	287.12
305.431	288.12
305.661	293.12
305.891	291.12
306.121	283.12
306.352	275.12
306.582	292.12
306.812	296.12
307.042	274.12
307.272	295.12
307.502	303.12
307.731	303.12
307.961	301.12
308.191	303.12
308.421	296.12
308.651	310.12
308.881	315.12
309.111	307.12
309.341	308.12
309.571	317.12
309.8	310.12
310.03	298.12
310.26	282.12
310.49	280.12
310.72	315.12
310.949	315.12
311.179	320.12
311.409	315.12
311.639	304.12
311.868	294.12
312.098	313.12
312.328	320.12
312.557	335.12
312.787	320.12
313.017	314.12
313.246	291.12
313.476	318.12
313.706	328.12
313.935	328.12
314.165	329.12
314.394	312.12
314.624	326.12
314.853	321.12
315.083	340.12
315.312	329.12
315.542	308.12
315.771	333.12
316.001	327.12
316.23	333.12
316.46	317.12
316.689	314.12
316.919	326.12
317.148	328.12
317.377	317.12
317.607	324.12
317.836	315.12
318.065	317.12
318.295	316.12
318.524	328.12
318.753	309.12
318.983	323.12
319.212	313.12
319.441	324.12
319.67	332.12
319.9	307.12
320.129	316.12
320.358	302.12
320.587	314.12
320.816	322.12
321.046	316.12
321.275	325.12
321.504	328.12
321.733	334.12
321.962	334.12
322.191	340.12
322.42	318.12
322.649	345.12
322.878	336.12
323.108	353.12
323.337	333.12
323.566	338.12
323.795	354.12
324.024	368.12
324.253	404.12
324.482	500.12
324.71	679.12
324.939	840.12
325.168	768.12
325.397	465.12
325.626	380.12
325.855	374.12
326.084	368.12
326.313	367.12
326.542	359.12
326.77	372.12
326.999	405.12
327.228	464.12
327.457	627.12
327.686	718.12
327.914	538.12
328.143	420.12
328.372	383.12
328.6	372.12
328.829	390.12
329.058	393.12
329.287	384.12
329.515	361.12
329.744	367.12
329.972	368.12
330.201	344.12
330.43	374.12
330.658	370.12
330.887	382.12
331.115	388.12
331.344	390.12
331.572	383.12
331.801	377.12
332.03	354.12
332.258	379.12
332.486	402.12
332.715	387.12
332.943	392.12
333.172	393.12
333.4	409.12
333.629	404.12
333.857	424.12
334.085	424.12
334.314	414.12
334.542	418.12
334.771	415.12
334.999	403.12
335.227	412.12
335.455	394.12
335.684	378.12
335.912	408.12
336.14	383.12
336.369	383.12
336.597	384.12
336.825	385.12
337.053	374.12
337.281	375.12
337.51	383.12
337.738	365.12
337.966	361.12
338.194	362.12
338.422	386.12
338.65	366.12
338.878	373.12
339.106	358.12
339.334	380.12
339.562	346.12
339.79	361.12
340.018	354.12
340.246	359.12
340.474	344.12
340.702	366.12
340.93	360.12
341.158	353.12
341.386	367.12
341.614	362.12
341.842	345.12
342.07	346.12
342.298	357.12
342.526	354.12
342.754	348.12
342.981	359.12
343.209	354.12
343.437	370.12
343.665	391.12
343.893	387.12
344.12	395.12
344.348	387.12
344.576	394.12
344.804	375.12
345.031	375.12
345.259	360.12
345.487	352.12
345.714	374.12
345.942	345.12
346.17	349.12
346.397	339.12
346.625	329.12
346.853	350.12
347.08	340.12
347.308	339.12
347.535	330.12
347.763	336.12
347.99	318.12
348.218	350.12
348.445	340.12
348.673	354.12
348.9	326.12
349.128	350.12
349.355	331.12
349.583	335.12
349.81	343.12
350.037	351.12
350.265	351.12
350.492	330.12
350.72	324.12
350.947	322.12
351.174	339.12
351.402	340.12
351.629	345.12
351.856	332.12
352.083	328.12
352.311	339.12
352.538	335.12
352.765	322.12
352.992	340.12
353.22	331.12
353.447	327.12
353.674	339.12
353.901	326.12
354.128	320.12
354.355	316.12
354.583	331.12
354.81	314.12
355.037	317.12
355.264	339.12
355.491	340.12
355.718	312.12
355.945	332.12
356.172	333.12
356.399	316.12
356.626	329.12
356.853	329.12
357.08	329.12
357.307	331.12
357.534	321.12
357.761	322.12
357.988	328.12
358.215	327.12
358.441	335.12
358.668	328.12
358.895	313.12
359.122	334.12
359.349	323.12
359.576	340.12
359.802	322.12
360.029	324.12
360.256	333.12
360.483	353.12
360.709	326.12
360.936	327.12
361.163	328.12
361.39	334.12
361.616	342.12
361.843	325.12
362.07	335.12
362.296	331.12
362.523	346.12
362.749	326.12
362.976	335.12
363.203	329.12
363.429	339.12
363.656	317.12
363.882	330.12
364.109	304.12
364.335	313.12
364.562	345.12
364.788	309.12
365.015	332.12
365.241	324.12
365.468	324.12
365.694	310.12
365.92	333.12
366.147	327.12
366.373	330.12
366.599	332.12
366.826	314.12
367.052	330.12
367.278	311.12
367.505	326.12
367.731	336.12
367.957	304.12
368.184	318.12
368.41	323.12
368.636	327.12
368.862	333.12
369.089	320.12
369.315	316.12
369.541	325.12
369.767	334.12
369.993	318.12
370.219	327.12
370.445	310.12
370.672	325.12
370.898	322.12
371.124	353.12
371.35	343.12
371.576	342.12
371.802	353.12
372.028	343.12
372.254	332.12
372.48	330.12
372.706	333.12
372.932	358.12
373.158	345.12
373.384	337.12
373.61	332.12
373.835	346.12
374.061	338.12
374.287	335.12
374.513	347.12
374.739	346.12
374.965	345.12
375.191	370.12
375.416	356.12
375.642	337.12
375.868	353.12
376.094	340.12
376.319	338.12
376.545	354.12
376.771	343.12
376.997	332.12
377.222	336.12
377.448	340.12
377.674	330.12
377.899	336.12
378.125	346.12
378.35	335.12
378.576	340.12
378.802	329.12
379.027	330.12
379.253	339.12
379.478	326.12
379.704	319.12
379.929	338.12
380.155	330.12
380.38	346.12
380.606	341.12
380.831	345.12
381.057	326.12
381.282	356.12
381.507	359.12
381.733	334.12
381.958	338.12
382.184	321.12
382.409	340.12
382.634	348.12
382.86	349.12
383.085	354.12
383.31	346.12
383.535	366.12
383.761	358.12
383.986	353.12
384.211	364.12
384.436	363.12
384.662	365.12
384.887	376.12
385.112	361.12
385.337	390.12
385.562	380.12
385.787	361.12
386.013	394.12
386.238	394.12
386.463	371.12
386.688	384.12
386.913	396.12
387.138	391.12
387.363	394.12
387.588	374.12
387.813	378.12
388.038	402.12
388.263	395.12
388.488	384.12
388.713	393.12
388.938	379.12
389.163	378.12
389.387	386.12
389.612	354.12
389.837	383.12
390.062	370.12
390.287	382.12
390.512	391.12
390.736	373.12
390.961	384.12
391.186	383.12
391.411	377.12
391.636	413.12
391.86	396.12
392.085	421.12
392.31	426.12
392.534	408.12
392.759	381.12
392.984	389.12
393.208	403.12
393.433	408.12
393.658	396.12
393.882	391.12
394.107	403.12
394.331	390.12
394.556	397.12
394.78	400.12
395.005	410.12
395.229	372.12
395.454	405.12
395.678	420.12
395.903	417.12
396.127	446.12
396.352	409.12
396.576	395.12
396.801	395.12
397.025	384.12
397.249	411.12
397.474	400.12
397.698	411.12
397.922	432.12
398.147	424.12
398.371	425.12
398.595	419.12
398.82	426.12
399.044	455.12
399.268	510.12
399.492	552.12
399.717	589.12
399.941	600.12
400.165	562.12
400.389	528.12
400.613	483.12
400.837	474.12
401.062	478.12
401.286	471.12
401.51	436.12
401.734	449.12
401.958	449.12
402.182	439.12
402.406	460.12
402.63	442.12
402.854	452.12
403.078	453.12
403.302	483.12
403.526	469.12
403.75	474.12
403.974	489.12
404.198	469.12
404.422	483.12
404.645	480.12
404.869	488.12
405.093	477.12
405.317	493.12
405.541	476.12
405.765	473.12
405.988	478.12
406.212	495.12
406.436	508.12
406.66	512.12
406.883	491.12
407.107	527.12
407.331	567.12
407.555	573.12
407.778	600.12
408.002	541.12
408.226	519.12
408.449	524.12
408.673	494.12
408.896	494.12
409.12	532.12
409.344	506.12
409.567	493.12
409.791	462.12
410.014	475.12
410.238	462.12
410.461	485.12
410.685	447.12
410.908	483.12
411.132	467.12
411.355	485.12
411.578	483.12
411.802	475.12
412.025	460.12
412.249	451.12
412.472	459.12
412.695	462.12
412.919	447.12
413.142	421.12
413.365	436.12
413.589	437.12
413.812	447.12
414.035	438.12
414.258	438.12
414.482	447.12
414.705	458.12
414.928	460.12
415.151	424.12
415.374	441.12
415.597	438.12
415.821	420.12
416.044	418.12
416.267	420.12
416.49	425.12
416.713	444.12
416.936	429.12
417.159	426.12
417.382	418.12
417.605	426.12
417.828	431.12
418.051	441.12
418.274	447.12
418.497	444.12
418.72	438.12
418.943	446.12
419.166	478.12
419.389	488.12
419.611	465.12
419.834	476.12
420.057	469.12
420.28	454.12
420.503	431.12
420.726	427.12
420.948	430.12
421.171	444.12
421.394	447.12
421.617	448.12
421.839	439.12
422.062	436.12
422.285	443.12
422.507	474.12
422.73	501.12
422.953	489.12
423.175	463.12
423.398	453.12
423.621	455.12
423.843	448.12
424.066	462.12
424.288	472.12
424.511	470.12
424.733	500.12
424.956	528.12
425.178	492.12
425.401	501.12
425.623	494.12
425.846	458.12
426.068	428.12
426.291	444.12
426.513	449.12
426.735	447.12
426.958	462.12
427.18	483.12
427.402	540.12
427.625	582.12
427.847	486.12
428.069	455.12
428.292	461.12
428.514	441.12
428.736	422.12
428.958	430.12
429.181	407.12
429.403	391.12
429.625	415.12
429.847	394.12
430.069	450.12
430.292	442.12
430.514	407.12
430.736	408.12
430.958	391.12
431.18	411.12
431.402	406.12
431.624	410.12
431.846	416.12
432.068	398.12
432.29	406.12
432.512	404.12
432.734	400.12
432.956	401.12
433.178	410.12
433.4	396.12
433.622	395.12
433.844	381.12
434.066	401.12
434.287	396.12
434.509	420.12
434.731	420.12
434.953	424.12
435.175	444.12
435.397	454.12
435.618	461.12
435.84	453.12
436.062	491.12
436.284	491.12
436.505	452.12
436.727	453.12
436.949	415.12
437.17	392.12
437.392	418.12
437.614	390.12
437.835	405.12
438.057	445.12
438.278	468.12
438.5	495.12
438.721	502.12
438.943	526.12
439.165	424.12
439.386	408.12
439.608	408.12
439.829	421.12
440.05	406.12
440.272	442.12
440.493	431.12
440.715	435.12
440.936	408.12
441.158	408.12
441.379	426.12
441.6	437.12
441.822	446.12
442.043	483.12
442.264	498.12
442.486	499.12
442.707	463.12
442.928	446.12
443.149	459.12
443.371	464.12
443.592	467.12
443.813	486.12
444.034	548.12
444.255	503.12
444.476	503.12
444.698	467.12
444.919	468.12
445.14	589.12
445.361	514.12
445.582	455.12
445.803	479.12
446.024	499.12
446.245	531.12
446.466	489.12
446.687	454.12
446.908	422.12
447.129	416.12
447.35	397.12
447.571	405.12
447.792	392.12
448.013	386.12
448.234	398.12
448.455	393.12
448.675	444.12
448.896	525.12
449.117	461.12
449.338	448.12
449.559	493.12
449.779	521.12
450	461.12
450.221	392.12
450.442	383.12
450.662	360.12
450.883	384.12
451.104	392.12
451.324	386.12
451.545	360.12
451.766	373.12
451.986	344.12
452.207	367.12
452.428	381.12
452.648	375.12
452.869	364.12
453.089	364.12
453.31	367.12
453.53	359.12
453.751	362.12
453.971	327.12
454.192	359.12
454.412	349.12
454.633	348.12
454.853	364.12
455.073	358.12
455.294	377.12
455.514	383.12
455.734	368.12
455.955	351.12
456.175	350.12
456.395	344.12
456.616	349.12
456.836	348.12
457.056	345.12
457.276	353.12
457.497	343.12
457.717	351.12
457.937	342.12
458.157	373.12
458.377	360.12
458.598	361.12
458.818	386.12
459.038	412.12
459.258	452.12
459.478	426.12
459.698	386.12
459.918	389.12
460.138	407.12
460.358	411.12
460.578	443.12
460.798	430.12
461.018	436.12
461.238	436.12
461.458	441.12
461.678	448.12
461.898	421.12
462.118	442.12
462.338	454.12
462.558	453.12
462.777	444.12
462.997	488.12
463.217	511.12
463.437	531.12
463.657	498.12
463.876	470.12
464.096	500.12
464.316	475.12
464.536	469.12
464.755	479.12
464.975	472.12
465.195	478.12
465.414	445.12
465.634	427.12
465.854	417.12
466.073	408.12
466.293	374.12
466.512	386.12
466.732	360.12
466.951	375.12
467.171	387.12
467.391	382.12
467.61	401.12
467.829	372.12
468.049	396.12
468.268	374.12
468.488	370.12
468.707	354.12
468.927	364.12
469.146	350.12
469.365	380.12
469.585	359.12
469.804	371.12
470.023	379.12
470.243	373.12
470.462	390.12
470.681	375.12
470.901	407.12
471.12	362.12
471.339	397.12
471.558	386.12
471.777	373.12
471.997	371.12
472.216	376.12
472.435	368.12
472.654	395.12
472.873	380.12
473.092	363.12
473.311	373.12
473.53	372.12
473.749	376.12
473.968	395.12
474.187	398.12
474.406	418.12
474.625	394.12
474.844	378.12
475.063	365.12
475.282	378.12
475.501	345.12
475.72	400.12
475.939	373.12
476.158	388.12
476.377	393.12
476.596	371.12
476.814	391.12
477.033	399.12
477.252	393.12
477.471	413.12
477.69	414.12
477.908	417.12
478.127	417.12
478.346	438.12
478.564	429.12
478.783	458.12
479.002	448.12
479.22	447.12
479.439	455.12
479.658	455.12
479.876	443.12
480.095	422.12
480.313	457.12
480.532	458.12
480.751	450.12
480.969	455.12
481.188	460.12
481.406	444.12
481.624	441.12
481.843	441.12
482.061	452.12
482.28	408.12
482.498	419.12
482.717	421.12
482.935	421.12
483.153	428.12
483.372	415.12
483.59	443.12
483.808	436.12
484.027	428.12
484.245	439.12
484.463	430.12
484.681	441.12
484.9	436.12
485.118	444.12
485.336	418.12
485.554	449.12
485.772	422.12
485.99	456.12
486.209	447.12
486.427	460.12
486.645	436.12
486.863	436.12
487.081	452.12
487.299	450.12
487.517	456.12
487.735	444.12
487.953	454.12
488.171	472.12
488.389	454.12
488.607	428.12
488.825	447.12
489.043	449.12
489.261	453.12
489.479	448.12
489.696	448.12
489.914	456.12
490.132	460.12
490.35	468.12
490.568	461.12
490.786	455.12
491.003	452.12
491.221	461.12
491.439	469.12
491.657	453.12
491.874	482.12
492.092	459.12
492.31	459.12
492.527	480.12
492.745	478.12
492.963	493.12
493.18	475.12
493.398	458.12
493.615	467.12
493.833	483.12
494.05	489.12
494.268	480.12
494.485	499.12
494.703	495.12
494.92	497.12
495.138	516.12
495.355	506.12
495.573	488.12
495.79	491.12
496.008	494.12
496.225	515.12
496.442	504.12
496.66	513.12
496.877	525.12
497.094	521.12
497.312	523.12
497.529	545.12
497.746	531.12
497.963	549.12
498.181	569.12
498.398	585.12
498.615	595.12
498.832	626.12
499.049	700.12
499.267	706.12
499.484	744.12
499.701	812.12
499.918	859.12
500.135	925.12
500.352	991.12
500.569	1031.12
500.786	1033.12
501.003	986.12
501.22	920.12
501.437	838.12
501.654	772.12
501.871	741.12
502.088	709.12
