Data from 1984.PennyLincolnUp.Lamp.En5.5.200Scan.071819.P1_HRD10591_16-57-33-967.txt Node
Date: Thu Jul 18 16:57:33 EDT 2019
User: cochatt
Spectrometer: HR+D1059
Trigger mode: 1
Integration Time (sec): 1.000000E-1
Scans to average: 1
Electric dark correction enabled: true
Nonlinearity correction enabled: false
Boxcar width: 0
XAxis mode: Wavelengths
Number of Pixels in Spectrum: 2048
>>>>>Begin Spectral Data<<<<<
223.165	-17.38
223.4	-17.38
223.635	-17.38
223.869	-16.38
224.104	-30.38
224.338	-9.38
224.573	-6.38
224.808	-13.38
225.042	-1.38
225.277	-13.38
225.511	-0.38
225.746	5.62
225.98	-4.38
226.215	18.62
226.449	23.62
226.683	10.62
226.918	25.62
227.152	28.62
227.387	45.62
227.621	50.62
227.856	53.62
228.09	37.62
228.324	55.62
228.559	53.62
228.793	72.62
229.027	83.62
229.262	99.62
229.496	81.62
229.73	92.62
229.964	108.62
230.199	101.62
230.433	95.62
230.667	97.62
230.901	102.62
231.136	104.62
231.37	104.62
231.604	108.62
231.838	99.62
232.072	92.62
232.306	104.62
232.541	99.62
232.775	112.62
233.009	111.62
233.243	99.62
233.477	116.62
233.711	113.62
233.945	103.62
234.179	106.62
234.413	115.62
234.647	97.62
234.881	122.62
235.115	103.62
235.349	108.62
235.583	106.62
235.817	115.62
236.051	107.62
236.285	106.62
236.519	110.62
236.753	120.62
236.987	120.62
237.221	130.62
237.455	145.62
237.689	137.62
237.922	123.62
238.156	122.62
238.39	114.62
238.624	119.62
238.858	109.62
239.091	115.62
239.325	113.62
239.559	93.62
239.793	119.62
240.027	132.62
240.26	126.62
240.494	131.62
240.728	131.62
240.961	117.62
241.195	120.62
241.429	131.62
241.662	121.62
241.896	113.62
242.13	116.62
242.363	118.62
242.597	116.62
242.83	121.62
243.064	129.62
243.298	124.62
243.531	125.62
243.765	121.62
243.998	121.62
244.232	131.62
244.465	130.62
244.699	128.62
244.932	124.62
245.166	133.62
245.399	135.62
245.633	125.62
245.866	135.62
246.099	131.62
246.333	152.62
246.566	138.62
246.8	122.62
247.033	137.62
247.266	137.62
247.5	150.62
247.733	151.62
247.966	148.62
248.2	136.62
248.433	153.62
248.666	146.62
248.899	153.62
249.133	150.62
249.366	153.62
249.599	145.62
249.832	142.62
250.066	169.62
250.299	151.62
250.532	160.62
250.765	165.62
250.998	181.62
251.231	178.62
251.465	171.62
251.698	169.62
251.931	156.62
252.164	162.62
252.397	161.62
252.63	166.62
252.863	164.62
253.096	174.62
253.329	179.62
253.562	184.62
253.795	163.62
254.028	184.62
254.261	185.62
254.494	181.62
254.727	182.62
254.96	203.62
255.193	188.62
255.426	205.62
255.659	184.62
255.892	190.62
256.124	173.62
256.357	191.62
256.59	173.62
256.823	181.62
257.056	173.62
257.289	179.62
257.521	169.62
257.754	163.62
257.987	158.62
258.22	188.62
258.452	197.62
258.685	186.62
258.918	177.62
259.151	185.62
259.383	183.62
259.616	177.62
259.849	188.62
260.081	169.62
260.314	212.62
260.547	207.62
260.779	193.62
261.012	203.62
261.244	170.62
261.477	199.62
261.71	181.62
261.942	187.62
262.175	191.62
262.407	173.62
262.64	192.62
262.872	179.62
263.105	191.62
263.337	190.62
263.57	197.62
263.802	201.62
264.035	191.62
264.267	184.62
264.499	186.62
264.732	199.62
264.964	196.62
265.197	198.62
265.429	197.62
265.661	200.62
265.894	206.62
266.126	206.62
266.358	179.62
266.591	196.62
266.823	204.62
267.055	188.62
267.287	207.62
267.52	191.62
267.752	204.62
267.984	192.62
268.216	192.62
268.448	202.62
268.681	199.62
268.913	211.62
269.145	226.62
269.377	220.62
269.609	225.62
269.841	214.62
270.073	205.62
270.306	241.62
270.538	254.62
270.77	248.62
271.002	232.62
271.234	221.62
271.466	237.62
271.698	260.62
271.93	256.62
272.162	260.62
272.394	244.62
272.626	246.62
272.858	228.62
273.09	231.62
273.322	225.62
273.553	231.62
273.785	229.62
274.017	217.62
274.249	242.62
274.481	217.62
274.713	231.62
274.945	249.62
275.176	197.62
275.408	263.62
275.64	238.62
275.872	222.62
276.104	220.62
276.335	239.62
276.567	227.62
276.799	246.62
277.031	276.62
277.262	259.62
277.494	257.62
277.726	262.62
277.957	249.62
278.189	241.62
278.421	254.62
278.652	247.62
278.884	238.62
279.115	238.62
279.347	232.62
279.579	248.62
279.81	232.62
280.042	263.62
280.273	242.62
280.505	237.62
280.736	248.62
280.968	252.62
281.199	251.62
281.431	258.62
281.662	244.62
281.894	243.62
282.125	233.62
282.356	253.62
282.588	269.62
282.819	255.62
283.051	262.62
283.282	249.62
283.513	251.62
283.745	258.62
283.976	250.62
284.207	259.62
284.439	221.62
284.67	257.62
284.901	262.62
285.132	261.62
285.364	266.62
285.595	242.62
285.826	244.62
286.057	243.62
286.288	263.62
286.52	269.62
286.751	266.62
286.982	255.62
287.213	272.62
287.444	253.62
287.675	268.62
287.906	269.62
288.138	277.62
288.369	271.62
288.6	279.62
288.831	269.62
289.062	276.62
289.293	260.62
289.524	265.62
289.755	281.62
289.986	255.62
290.217	242.62
290.448	270.62
290.679	259.62
290.91	272.62
291.141	284.62
291.371	266.62
291.602	284.62
291.833	275.62
292.064	277.62
292.295	267.62
292.526	285.62
292.757	277.62
292.987	279.62
293.218	275.62
293.449	260.62
293.68	263.62
293.91	263.62
294.141	283.62
294.372	259.62
294.603	268.62
294.833	272.62
295.064	307.62
295.295	300.62
295.525	276.62
295.756	283.62
295.987	282.62
296.217	283.62
296.448	306.62
296.679	286.62
296.909	272.62
297.14	283.62
297.37	289.62
297.601	287.62
297.831	285.62
298.062	297.62
298.292	267.62
298.523	291.62
298.753	277.62
298.984	304.62
299.214	293.62
299.445	289.62
299.675	293.62
299.905	290.62
300.136	277.62
300.366	293.62
300.597	276.62
300.827	292.62
301.057	294.62
301.288	297.62
301.518	294.62
301.748	276.62
301.979	298.62
302.209	308.62
302.439	309.62
302.669	316.62
302.9	313.62
303.13	307.62
303.36	306.62
303.59	296.62
303.82	307.62
304.051	301.62
304.281	295.62
304.511	319.62
304.741	305.62
304.971	305.62
305.201	313.62
305.431	286.62
305.661	309.62
305.891	316.62
306.121	301.62
306.352	305.62
306.582	329.62
306.812	308.62
307.042	316.62
307.272	312.62
307.502	299.62
307.731	317.62
307.961	312.62
308.191	291.62
308.421	293.62
308.651	316.62
308.881	314.62
309.111	312.62
309.341	286.62
309.571	294.62
309.8	305.62
310.03	313.62
310.26	319.62
310.49	311.62
310.72	311.62
310.949	326.62
311.179	318.62
311.409	343.62
311.639	321.62
311.868	316.62
312.098	319.62
312.328	325.62
312.557	342.62
312.787	335.62
313.017	339.62
313.246	327.62
313.476	335.62
313.706	325.62
313.935	345.62
314.165	329.62
314.394	355.62
314.624	333.62
314.853	334.62
315.083	314.62
315.312	317.62
315.542	331.62
315.771	331.62
316.001	316.62
316.23	327.62
316.46	339.62
316.689	317.62
316.919	324.62
317.148	322.62
317.377	325.62
317.607	337.62
317.836	337.62
318.065	325.62
318.295	322.62
318.524	357.62
318.753	322.62
318.983	326.62
319.212	337.62
319.441	321.62
319.67	348.62
319.9	340.62
320.129	321.62
320.358	319.62
320.587	330.62
320.816	329.62
321.046	347.62
321.275	340.62
321.504	344.62
321.733	326.62
321.962	330.62
322.191	338.62
322.42	346.62
322.649	350.62
322.878	337.62
323.108	371.62
323.337	361.62
323.566	379.62
323.795	382.62
324.024	396.62
324.253	447.62
324.482	549.62
324.71	811.62
324.939	1061.62
325.168	937.62
325.397	562.62
325.626	439.62
325.855	419.62
326.084	394.62
326.313	364.62
326.542	377.62
326.77	417.62
326.999	430.62
327.228	553.62
327.457	762.62
327.686	844.62
327.914	635.62
328.143	471.62
328.372	421.62
328.6	403.62
328.829	391.62
329.058	396.62
329.287	408.62
329.515	379.62
329.744	377.62
329.972	376.62
330.201	374.62
330.43	396.62
330.658	406.62
330.887	411.62
331.115	390.62
331.344	383.62
331.572	375.62
331.801	410.62
332.03	394.62
332.258	382.62
332.486	408.62
332.715	419.62
332.943	417.62
333.172	427.62
333.4	428.62
333.629	413.62
333.857	447.62
334.085	444.62
334.314	449.62
334.542	422.62
334.771	435.62
334.999	423.62
335.227	413.62
335.455	410.62
335.684	413.62
335.912	408.62
336.14	413.62
336.369	398.62
336.597	413.62
336.825	405.62
337.053	394.62
337.281	390.62
337.51	378.62
337.738	371.62
337.966	370.62
338.194	379.62
338.422	376.62
338.65	400.62
338.878	378.62
339.106	366.62
339.334	371.62
339.562	385.62
339.79	366.62
340.018	371.62
340.246	362.62
340.474	395.62
340.702	369.62
340.93	371.62
341.158	375.62
341.386	361.62
341.614	373.62
341.842	361.62
342.07	352.62
342.298	341.62
342.526	341.62
342.754	348.62
342.981	367.62
343.209	382.62
343.437	365.62
343.665	385.62
343.893	413.62
344.12	414.62
344.348	419.62
344.576	388.62
344.804	361.62
345.031	369.62
345.259	379.62
345.487	369.62
345.714	371.62
345.942	348.62
346.17	357.62
346.397	355.62
346.625	359.62
346.853	350.62
347.08	353.62
347.308	361.62
347.535	348.62
347.763	340.62
347.99	356.62
348.218	354.62
348.445	337.62
348.673	357.62
348.9	338.62
349.128	341.62
349.355	350.62
349.583	357.62
349.81	337.62
350.037	329.62
350.265	332.62
350.492	331.62
350.72	336.62
350.947	331.62
351.174	337.62
351.402	359.62
351.629	350.62
351.856	340.62
352.083	353.62
352.311	347.62
352.538	346.62
352.765	337.62
352.992	314.62
353.22	364.62
353.447	350.62
353.674	335.62
353.901	356.62
354.128	342.62
354.355	331.62
354.583	343.62
354.81	343.62
355.037	334.62
355.264	353.62
355.491	334.62
355.718	340.62
355.945	331.62
356.172	328.62
356.399	332.62
356.626	343.62
356.853	343.62
357.08	344.62
357.307	350.62
357.534	347.62
357.761	344.62
357.988	344.62
358.215	340.62
358.441	325.62
358.668	333.62
358.895	324.62
359.122	349.62
359.349	338.62
359.576	345.62
359.802	331.62
360.029	342.62
360.256	357.62
360.483	343.62
360.709	341.62
360.936	361.62
361.163	348.62
361.39	354.62
361.616	349.62
361.843	333.62
362.07	343.62
362.296	353.62
362.523	344.62
362.749	339.62
362.976	346.62
363.203	342.62
363.429	319.62
363.656	329.62
363.882	339.62
364.109	346.62
364.335	325.62
364.562	332.62
364.788	327.62
365.015	319.62
365.241	317.62
365.468	327.62
365.694	335.62
365.92	329.62
366.147	342.62
366.373	331.62
366.599	324.62
366.826	327.62
367.052	331.62
367.278	319.62
367.505	309.62
367.731	318.62
367.957	329.62
368.184	353.62
368.41	338.62
368.636	338.62
368.862	351.62
369.089	339.62
369.315	350.62
369.541	342.62
369.767	345.62
369.993	337.62
370.219	328.62
370.445	336.62
370.672	351.62
370.898	337.62
371.124	329.62
371.35	337.62
371.576	340.62
371.802	339.62
372.028	337.62
372.254	345.62
372.48	351.62
372.706	363.62
372.932	359.62
373.158	344.62
373.384	326.62
373.61	328.62
373.835	339.62
374.061	329.62
374.287	337.62
374.513	348.62
374.739	347.62
374.965	349.62
375.191	355.62
375.416	383.62
375.642	366.62
375.868	335.62
376.094	349.62
376.319	334.62
376.545	358.62
376.771	355.62
376.997	346.62
377.222	369.62
377.448	347.62
377.674	334.62
377.899	345.62
378.125	348.62
378.35	346.62
378.576	337.62
378.802	362.62
379.027	359.62
379.253	331.62
379.478	347.62
379.704	349.62
379.929	351.62
380.155	350.62
380.38	338.62
380.606	330.62
380.831	346.62
381.057	348.62
381.282	355.62
381.507	343.62
381.733	354.62
381.958	339.62
382.184	366.62
382.409	349.62
382.634	349.62
382.86	340.62
383.085	342.62
383.31	356.62
383.535	374.62
383.761	362.62
383.986	374.62
384.211	385.62
384.436	387.62
384.662	392.62
384.887	395.62
385.112	390.62
385.337	356.62
385.562	385.62
385.787	379.62
386.013	382.62
386.238	384.62
386.463	382.62
386.688	393.62
386.913	398.62
387.138	366.62
387.363	385.62
387.588	376.62
387.813	392.62
388.038	377.62
388.263	379.62
388.488	375.62
388.713	384.62
388.938	394.62
389.163	397.62
389.387	377.62
389.612	388.62
389.837	396.62
390.062	370.62
390.287	382.62
390.512	371.62
390.736	371.62
390.961	372.62
391.186	400.62
391.411	418.62
391.636	393.62
391.86	402.62
392.085	428.62
392.31	425.62
392.534	407.62
392.759	415.62
392.984	407.62
393.208	402.62
393.433	417.62
393.658	421.62
393.882	389.62
394.107	392.62
394.331	386.62
394.556	406.62
394.78	407.62
395.005	408.62
395.229	387.62
395.454	421.62
395.678	422.62
395.903	422.62
396.127	424.62
396.352	414.62
396.576	393.62
396.801	399.62
397.025	413.62
397.249	425.62
397.474	422.62
397.698	419.62
397.922	415.62
398.147	390.62
398.371	442.62
398.595	447.62
398.82	450.62
399.044	470.62
399.268	496.62
399.492	555.62
399.717	621.62
399.941	621.62
400.165	590.62
400.389	545.62
400.613	509.62
400.837	497.62
401.062	465.62
401.286	478.62
401.51	451.62
401.734	460.62
401.958	463.62
402.182	470.62
402.406	452.62
402.63	470.62
402.854	463.62
403.078	458.62
403.302	476.62
403.526	478.62
403.75	486.62
403.974	489.62
404.198	491.62
404.422	509.62
404.645	496.62
404.869	502.62
405.093	494.62
405.317	491.62
405.541	535.62
405.765	497.62
405.988	499.62
406.212	512.62
406.436	501.62
406.66	502.62
406.883	521.62
407.107	524.62
407.331	561.62
407.555	618.62
407.778	604.62
408.002	546.62
408.226	535.62
408.449	523.62
408.673	513.62
408.896	516.62
409.12	545.62
409.344	513.62
409.567	492.62
409.791	490.62
410.014	483.62
410.238	482.62
410.461	494.62
410.685	484.62
410.908	498.62
411.132	495.62
411.355	507.62
411.578	499.62
411.802	466.62
412.025	476.62
412.249	466.62
412.472	466.62
412.695	470.62
412.919	458.62
413.142	456.62
413.365	466.62
413.589	453.62
413.812	453.62
414.035	440.62
414.258	437.62
414.482	457.62
414.705	441.62
414.928	441.62
415.151	443.62
415.374	451.62
415.597	472.62
415.821	429.62
416.044	443.62
416.267	442.62
416.49	452.62
416.713	443.62
416.936	426.62
417.159	438.62
417.382	446.62
417.605	442.62
417.828	472.62
418.051	454.62
418.274	422.62
418.497	470.62
418.72	431.62
418.943	448.62
419.166	486.62
419.389	471.62
419.611	486.62
419.834	462.62
420.057	458.62
420.28	455.62
420.503	461.62
420.726	450.62
420.948	443.62
421.171	473.62
421.394	471.62
421.617	447.62
421.839	453.62
422.062	442.62
422.285	473.62
422.507	474.62
422.73	526.62
422.953	509.62
423.175	493.62
423.398	464.62
423.621	456.62
423.843	499.62
424.066	479.62
424.288	495.62
424.511	503.62
424.733	523.62
424.956	538.62
425.178	553.62
425.401	540.62
425.623	532.62
425.846	485.62
426.068	486.62
426.291	456.62
426.513	459.62
426.735	443.62
426.958	464.62
427.18	511.62
427.402	579.62
427.625	609.62
427.847	524.62
428.069	478.62
428.292	460.62
428.514	427.62
428.736	442.62
428.958	414.62
429.181	406.62
429.403	406.62
429.625	413.62
429.847	454.62
430.069	467.62
430.292	460.62
430.514	423.62
430.736	406.62
430.958	405.62
431.18	413.62
431.402	414.62
431.624	419.62
431.846	415.62
432.068	408.62
432.29	417.62
432.512	415.62
432.734	403.62
432.956	411.62
433.178	396.62
433.4	415.62
433.622	394.62
433.844	419.62
434.066	383.62
434.287	422.62
434.509	421.62
434.731	428.62
434.953	433.62
435.175	442.62
435.397	450.62
435.618	469.62
435.84	464.62
436.062	484.62
436.284	547.62
436.505	476.62
436.727	437.62
436.949	433.62
437.17	428.62
437.392	429.62
437.614	416.62
437.835	415.62
438.057	474.62
438.278	518.62
438.5	523.62
438.721	587.62
438.943	551.62
439.165	459.62
439.386	445.62
439.608	424.62
439.829	442.62
440.05	458.62
440.272	480.62
440.493	446.62
440.715	429.62
440.936	444.62
441.158	430.62
441.379	430.62
441.6	445.62
441.822	462.62
442.043	475.62
442.264	538.62
442.486	551.62
442.707	493.62
442.928	465.62
443.149	481.62
443.371	475.62
443.592	498.62
443.813	535.62
444.034	582.62
444.255	507.62
444.476	469.62
444.698	505.62
444.919	489.62
445.14	619.62
445.361	540.62
445.582	490.62
445.803	493.62
446.024	566.62
446.245	527.62
446.466	500.62
446.687	435.62
446.908	453.62
447.129	415.62
447.35	422.62
447.571	419.62
447.792	419.62
448.013	412.62
448.234	398.62
448.455	433.62
448.675	474.62
448.896	548.62
449.117	487.62
449.338	470.62
449.559	534.62
449.779	555.62
450	493.62
450.221	431.62
450.442	426.62
450.662	409.62
450.883	402.62
451.104	409.62
451.324	382.62
451.545	391.62
451.766	377.62
451.986	369.62
452.207	395.62
452.428	370.62
452.648	363.62
452.869	371.62
453.089	379.62
453.31	378.62
453.53	365.62
453.751	368.62
453.971	384.62
454.192	376.62
454.412	344.62
454.633	329.62
454.853	379.62
455.073	347.62
455.294	369.62
455.514	395.62
455.734	406.62
455.955	357.62
456.175	356.62
456.395	368.62
456.616	354.62
456.836	332.62
457.056	348.62
457.276	355.62
457.497	362.62
457.717	350.62
457.937	370.62
458.157	371.62
458.377	368.62
458.598	382.62
458.818	401.62
459.038	419.62
459.258	438.62
459.478	422.62
459.698	416.62
459.918	414.62
460.138	431.62
460.358	456.62
460.578	461.62
460.798	453.62
461.018	474.62
461.238	439.62
461.458	437.62
461.678	432.62
461.898	447.62
462.118	445.62
462.338	445.62
462.558	470.62
462.777	469.62
462.997	482.62
463.217	530.62
463.437	533.62
463.657	507.62
463.876	504.62
464.096	477.62
464.316	472.62
464.536	500.62
464.755	489.62
464.975	479.62
465.195	466.62
465.414	466.62
465.634	446.62
465.854	414.62
466.073	399.62
466.293	390.62
466.512	389.62
466.732	402.62
466.951	373.62
467.171	389.62
467.391	392.62
467.61	377.62
467.829	381.62
468.049	381.62
468.268	373.62
468.488	360.62
468.707	378.62
468.927	363.62
469.146	379.62
469.365	386.62
469.585	381.62
469.804	382.62
470.023	396.62
470.243	374.62
470.462	422.62
470.681	392.62
470.901	400.62
471.12	403.62
471.339	390.62
471.558	389.62
471.777	377.62
471.997	380.62
472.216	388.62
472.435	386.62
472.654	381.62
472.873	378.62
473.092	377.62
473.311	366.62
473.53	389.62
473.749	397.62
473.968	396.62
474.187	446.62
474.406	440.62
474.625	409.62
474.844	394.62
475.063	384.62
475.282	389.62
475.501	402.62
475.72	385.62
475.939	394.62
476.158	412.62
476.377	374.62
476.596	400.62
476.814	404.62
477.033	383.62
477.252	402.62
477.471	397.62
477.69	395.62
477.908	413.62
478.127	427.62
478.346	439.62
478.564	449.62
478.783	423.62
479.002	429.62
479.22	471.62
479.439	445.62
479.658	462.62
479.876	467.62
480.095	465.62
480.313	498.62
480.532	495.62
480.751	470.62
480.969	462.62
481.188	470.62
481.406	459.62
481.624	444.62
481.843	466.62
482.061	437.62
482.28	457.62
482.498	438.62
482.717	425.62
482.935	415.62
483.153	426.62
483.372	438.62
483.59	431.62
483.808	426.62
484.027	431.62
484.245	450.62
484.463	416.62
484.681	438.62
484.9	472.62
485.118	463.62
485.336	427.62
485.554	450.62
485.772	446.62
485.99	449.62
486.209	435.62
486.427	452.62
486.645	451.62
486.863	457.62
487.081	493.62
487.299	479.62
487.517	448.62
487.735	467.62
487.953	473.62
488.171	455.62
488.389	482.62
488.607	465.62
488.825	445.62
489.043	470.62
489.261	461.62
489.479	459.62
489.696	466.62
489.914	477.62
490.132	469.62
490.35	469.62
490.568	456.62
490.786	485.62
491.003	468.62
491.221	478.62
491.439	482.62
491.657	456.62
491.874	481.62
492.092	475.62
492.31	497.62
492.527	492.62
492.745	487.62
492.963	482.62
493.18	497.62
493.398	520.62
493.615	525.62
493.833	492.62
494.05	499.62
494.268	517.62
494.485	531.62
494.703	526.62
494.92	502.62
495.138	522.62
495.355	537.62
495.573	517.62
495.79	525.62
496.008	538.62
496.225	513.62
496.442	523.62
496.66	535.62
496.877	533.62
497.094	537.62
497.312	565.62
497.529	551.62
497.746	558.62
497.963	580.62
498.181	571.62
498.398	588.62
498.615	638.62
498.832	655.62
499.049	690.62
499.267	707.62
499.484	773.62
499.701	838.62
499.918	868.62
500.135	921.62
500.352	1045.62
500.569	1039.62
500.786	1021.62
501.003	978.62
501.22	938.62
501.437	878.62
501.654	819.62
501.871	778.62
502.088	717.62
