Data from 1984.PennyLincolnUp.Lamp.En5.5.200Scan.071819.P1_HRD10591_16-58-01-968.txt Node
Date: Thu Jul 18 16:58:01 EDT 2019
User: cochatt
Spectrometer: HR+D1059
Trigger mode: 1
Integration Time (sec): 1.000000E-1
Scans to average: 1
Electric dark correction enabled: true
Nonlinearity correction enabled: false
Boxcar width: 0
XAxis mode: Wavelengths
Number of Pixels in Spectrum: 2048
>>>>>Begin Spectral Data<<<<<
223.165	-15.38
223.4	-15.38
223.635	-15.38
223.869	-18.38
224.104	-26.38
224.338	-11.38
224.573	-13.38
224.808	-12.38
225.042	7.62
225.277	-0.38
225.511	3.62
225.746	5.62
225.98	6.62
226.215	6.62
226.449	15.62
226.683	21.62
226.918	13.62
227.152	16.62
227.387	25.62
227.621	38.62
227.856	41.62
228.09	38.62
228.324	50.62
228.559	45.62
228.793	74.62
229.027	89.62
229.262	101.62
229.496	98.62
229.73	103.62
229.964	112.62
230.199	124.62
230.433	105.62
230.667	96.62
230.901	104.62
231.136	112.62
231.37	90.62
231.604	109.62
231.838	106.62
232.072	105.62
232.306	104.62
232.541	98.62
232.775	117.62
233.009	112.62
233.243	109.62
233.477	101.62
233.711	120.62
233.945	117.62
234.179	117.62
234.413	123.62
234.647	113.62
234.881	121.62
235.115	106.62
235.349	101.62
235.583	113.62
235.817	99.62
236.051	103.62
236.285	114.62
236.519	120.62
236.753	113.62
236.987	135.62
237.221	147.62
237.455	165.62
237.689	138.62
237.922	118.62
238.156	129.62
238.39	111.62
238.624	85.62
238.858	116.62
239.091	100.62
239.325	124.62
239.559	124.62
239.793	112.62
240.027	122.62
240.26	126.62
240.494	152.62
240.728	125.62
240.961	138.62
241.195	140.62
241.429	122.62
241.662	120.62
241.896	128.62
242.13	135.62
242.363	117.62
242.597	109.62
242.83	125.62
243.064	131.62
243.298	129.62
243.531	126.62
243.765	138.62
243.998	136.62
244.232	141.62
244.465	137.62
244.699	129.62
244.932	137.62
245.166	129.62
245.399	143.62
245.633	129.62
245.866	141.62
246.099	141.62
246.333	133.62
246.566	133.62
246.8	136.62
247.033	140.62
247.266	131.62
247.5	136.62
247.733	143.62
247.966	146.62
248.2	164.62
248.433	141.62
248.666	126.62
248.899	154.62
249.133	165.62
249.366	193.62
249.599	170.62
249.832	159.62
250.066	155.62
250.299	170.62
250.532	173.62
250.765	152.62
250.998	163.62
251.231	180.62
251.465	179.62
251.698	166.62
251.931	181.62
252.164	176.62
252.397	171.62
252.63	165.62
252.863	172.62
253.096	194.62
253.329	186.62
253.562	194.62
253.795	179.62
254.028	185.62
254.261	180.62
254.494	195.62
254.727	208.62
254.96	219.62
255.193	221.62
255.426	195.62
255.659	193.62
255.892	185.62
256.124	206.62
256.357	197.62
256.59	208.62
256.823	179.62
257.056	180.62
257.289	193.62
257.521	168.62
257.754	180.62
257.987	168.62
258.22	179.62
258.452	190.62
258.685	174.62
258.918	188.62
259.151	171.62
259.383	186.62
259.616	201.62
259.849	181.62
260.081	197.62
260.314	226.62
260.547	223.62
260.779	198.62
261.012	212.62
261.244	189.62
261.477	203.62
261.71	204.62
261.942	208.62
262.175	188.62
262.407	194.62
262.64	192.62
262.872	198.62
263.105	192.62
263.337	184.62
263.57	192.62
263.802	207.62
264.035	190.62
264.267	189.62
264.499	194.62
264.732	191.62
264.964	192.62
265.197	175.62
265.429	194.62
265.661	190.62
265.894	195.62
266.126	199.62
266.358	210.62
266.591	199.62
266.823	194.62
267.055	201.62
267.287	204.62
267.52	184.62
267.752	207.62
267.984	210.62
268.216	206.62
268.448	194.62
268.681	217.62
268.913	232.62
269.145	225.62
269.377	236.62
269.609	230.62
269.841	233.62
270.073	221.62
270.306	246.62
270.538	265.62
270.77	248.62
271.002	251.62
271.234	228.62
271.466	250.62
271.698	258.62
271.93	261.62
272.162	269.62
272.394	257.62
272.626	265.62
272.858	246.62
273.09	252.62
273.322	253.62
273.553	241.62
273.785	253.62
274.017	224.62
274.249	218.62
274.481	233.62
274.713	234.62
274.945	231.62
275.176	237.62
275.408	238.62
275.64	235.62
275.872	243.62
276.104	241.62
276.335	255.62
276.567	242.62
276.799	255.62
277.031	259.62
277.262	272.62
277.494	269.62
277.726	262.62
277.957	236.62
278.189	237.62
278.421	259.62
278.652	256.62
278.884	206.62
279.115	248.62
279.347	218.62
279.579	256.62
279.81	256.62
280.042	243.62
280.273	245.62
280.505	249.62
280.736	251.62
280.968	259.62
281.199	232.62
281.431	262.62
281.662	270.62
281.894	261.62
282.125	259.62
282.356	273.62
282.588	282.62
282.819	272.62
283.051	265.62
283.282	268.62
283.513	236.62
283.745	260.62
283.976	253.62
284.207	271.62
284.439	268.62
284.67	269.62
284.901	276.62
285.132	240.62
285.364	254.62
285.595	257.62
285.826	280.62
286.057	267.62
286.288	267.62
286.52	278.62
286.751	253.62
286.982	276.62
287.213	277.62
287.444	276.62
287.675	253.62
287.906	265.62
288.138	297.62
288.369	271.62
288.6	301.62
288.831	283.62
289.062	277.62
289.293	285.62
289.524	269.62
289.755	277.62
289.986	265.62
290.217	284.62
290.448	281.62
290.679	276.62
290.91	254.62
291.141	292.62
291.371	269.62
291.602	281.62
291.833	282.62
292.064	265.62
292.295	277.62
292.526	292.62
292.757	288.62
292.987	273.62
293.218	274.62
293.449	278.62
293.68	292.62
293.91	277.62
294.141	283.62
294.372	266.62
294.603	278.62
294.833	280.62
295.064	292.62
295.295	272.62
295.525	277.62
295.756	294.62
295.987	295.62
296.217	282.62
296.448	306.62
296.679	276.62
296.909	288.62
297.14	289.62
297.37	281.62
297.601	288.62
297.831	294.62
298.062	281.62
298.292	274.62
298.523	288.62
298.753	308.62
298.984	308.62
299.214	294.62
299.445	294.62
299.675	290.62
299.905	292.62
300.136	295.62
300.366	271.62
300.597	284.62
300.827	312.62
301.057	312.62
301.288	297.62
301.518	323.62
301.748	329.62
301.979	339.62
302.209	322.62
302.439	316.62
302.669	304.62
302.9	305.62
303.13	316.62
303.36	297.62
303.59	304.62
303.82	308.62
304.051	303.62
304.281	328.62
304.511	315.62
304.741	319.62
304.971	311.62
305.201	298.62
305.431	303.62
305.661	313.62
305.891	296.62
306.121	319.62
306.352	312.62
306.582	298.62
306.812	310.62
307.042	288.62
307.272	307.62
307.502	334.62
307.731	329.62
307.961	312.62
308.191	322.62
308.421	329.62
308.651	310.62
308.881	302.62
309.111	301.62
309.341	304.62
309.571	332.62
309.8	317.62
310.03	328.62
310.26	321.62
310.49	342.62
310.72	344.62
310.949	336.62
311.179	357.62
311.409	326.62
311.639	344.62
311.868	336.62
312.098	341.62
312.328	328.62
312.557	328.62
312.787	332.62
313.017	359.62
313.246	345.62
313.476	326.62
313.706	347.62
313.935	372.62
314.165	366.62
314.394	349.62
314.624	363.62
314.853	346.62
315.083	346.62
315.312	332.62
315.542	345.62
315.771	359.62
316.001	361.62
316.23	332.62
316.46	324.62
316.689	349.62
316.919	336.62
317.148	338.62
317.377	331.62
317.607	347.62
317.836	347.62
318.065	341.62
318.295	343.62
318.524	333.62
318.753	329.62
318.983	334.62
319.212	342.62
319.441	351.62
319.67	341.62
319.9	350.62
320.129	359.62
320.358	342.62
320.587	371.62
320.816	360.62
321.046	358.62
321.275	361.62
321.504	350.62
321.733	356.62
321.962	362.62
322.191	373.62
322.42	356.62
322.649	368.62
322.878	372.62
323.108	396.62
323.337	378.62
323.566	401.62
323.795	420.62
324.024	448.62
324.253	516.62
324.482	661.62
324.71	984.62
324.939	1291.62
325.168	1123.62
325.397	658.62
325.626	483.62
325.855	448.62
326.084	417.62
326.313	406.62
326.542	430.62
326.77	448.62
326.999	486.62
327.228	647.62
327.457	904.62
327.686	1011.62
327.914	736.62
328.143	544.62
328.372	469.62
328.6	441.62
328.829	436.62
329.058	438.62
329.287	441.62
329.515	449.62
329.744	410.62
329.972	426.62
330.201	434.62
330.43	469.62
330.658	465.62
330.887	469.62
331.115	453.62
331.344	430.62
331.572	428.62
331.801	461.62
332.03	418.62
332.258	421.62
332.486	422.62
332.715	423.62
332.943	447.62
333.172	435.62
333.4	458.62
333.629	467.62
333.857	465.62
334.085	479.62
334.314	497.62
334.542	480.62
334.771	483.62
334.999	460.62
335.227	440.62
335.455	436.62
335.684	423.62
335.912	428.62
336.14	413.62
336.369	420.62
336.597	437.62
336.825	426.62
337.053	422.62
337.281	402.62
337.51	398.62
337.738	398.62
337.966	398.62
338.194	407.62
338.422	392.62
338.65	411.62
338.878	380.62
339.106	396.62
339.334	409.62
339.562	412.62
339.79	373.62
340.018	383.62
340.246	392.62
340.474	391.62
340.702	389.62
340.93	379.62
341.158	394.62
341.386	392.62
341.614	408.62
341.842	378.62
342.07	389.62
342.298	385.62
342.526	358.62
342.754	367.62
342.981	396.62
343.209	391.62
343.437	394.62
343.665	404.62
343.893	422.62
344.12	428.62
344.348	416.62
344.576	410.62
344.804	389.62
345.031	384.62
345.259	404.62
345.487	386.62
345.714	362.62
345.942	391.62
346.17	372.62
346.397	379.62
346.625	350.62
346.853	377.62
347.08	350.62
347.308	366.62
347.535	365.62
347.763	376.62
347.99	382.62
348.218	375.62
348.445	372.62
348.673	366.62
348.9	386.62
349.128	375.62
349.355	369.62
349.583	356.62
349.81	372.62
350.037	368.62
350.265	342.62
350.492	339.62
350.72	353.62
350.947	346.62
351.174	372.62
351.402	373.62
351.629	359.62
351.856	354.62
352.083	352.62
352.311	384.62
352.538	354.62
352.765	378.62
352.992	373.62
353.22	351.62
353.447	363.62
353.674	358.62
353.901	348.62
354.128	353.62
354.355	343.62
354.583	359.62
354.81	346.62
355.037	350.62
355.264	345.62
355.491	347.62
355.718	319.62
355.945	339.62
356.172	345.62
356.399	356.62
356.626	348.62
356.853	342.62
357.08	352.62
357.307	337.62
357.534	344.62
357.761	331.62
357.988	357.62
358.215	344.62
358.441	335.62
358.668	329.62
358.895	351.62
359.122	340.62
359.349	349.62
359.576	348.62
359.802	369.62
360.029	368.62
360.256	372.62
360.483	380.62
360.709	364.62
360.936	362.62
361.163	341.62
361.39	368.62
361.616	378.62
361.843	353.62
362.07	370.62
362.296	368.62
362.523	341.62
362.749	340.62
362.976	338.62
363.203	341.62
363.429	348.62
363.656	360.62
363.882	339.62
364.109	345.62
364.335	350.62
364.562	360.62
364.788	341.62
365.015	369.62
365.241	365.62
365.468	362.62
365.694	359.62
365.92	363.62
366.147	342.62
366.373	347.62
366.599	307.62
366.826	345.62
367.052	340.62
367.278	327.62
367.505	340.62
367.731	339.62
367.957	334.62
368.184	342.62
368.41	341.62
368.636	360.62
368.862	368.62
369.089	340.62
369.315	338.62
369.541	362.62
369.767	354.62
369.993	358.62
370.219	337.62
370.445	359.62
370.672	348.62
370.898	350.62
371.124	358.62
371.35	356.62
371.576	349.62
371.802	345.62
372.028	358.62
372.254	341.62
372.48	365.62
372.706	343.62
372.932	358.62
373.158	380.62
373.384	358.62
373.61	361.62
373.835	355.62
374.061	360.62
374.287	364.62
374.513	379.62
374.739	356.62
374.965	365.62
375.191	378.62
375.416	366.62
375.642	373.62
375.868	358.62
376.094	348.62
376.319	353.62
376.545	352.62
376.771	349.62
376.997	347.62
377.222	348.62
377.448	369.62
377.674	370.62
377.899	337.62
378.125	349.62
378.35	349.62
378.576	365.62
378.802	354.62
379.027	357.62
379.253	340.62
379.478	357.62
379.704	344.62
379.929	345.62
380.155	343.62
380.38	339.62
380.606	358.62
380.831	361.62
381.057	360.62
381.282	356.62
381.507	363.62
381.733	333.62
381.958	355.62
382.184	350.62
382.409	359.62
382.634	361.62
382.86	360.62
383.085	377.62
383.31	364.62
383.535	367.62
383.761	376.62
383.986	387.62
384.211	368.62
384.436	373.62
384.662	396.62
384.887	389.62
385.112	387.62
385.337	412.62
385.562	401.62
385.787	401.62
386.013	403.62
386.238	414.62
386.463	410.62
386.688	410.62
386.913	398.62
387.138	396.62
387.363	409.62
387.588	413.62
387.813	390.62
388.038	396.62
388.263	404.62
388.488	412.62
388.713	409.62
388.938	385.62
389.163	378.62
389.387	398.62
389.612	390.62
389.837	410.62
390.062	378.62
390.287	391.62
390.512	382.62
390.736	425.62
390.961	398.62
391.186	418.62
391.411	420.62
391.636	402.62
391.86	425.62
392.085	440.62
392.31	433.62
392.534	428.62
392.759	410.62
392.984	416.62
393.208	409.62
393.433	383.62
393.658	419.62
393.882	414.62
394.107	417.62
394.331	426.62
394.556	420.62
394.78	418.62
395.005	413.62
395.229	423.62
395.454	436.62
395.678	441.62
395.903	425.62
396.127	444.62
396.352	430.62
396.576	440.62
396.801	409.62
397.025	407.62
397.249	412.62
397.474	427.62
397.698	450.62
397.922	452.62
398.147	428.62
398.371	453.62
398.595	440.62
398.82	488.62
399.044	488.62
399.268	525.62
399.492	565.62
399.717	614.62
399.941	635.62
400.165	617.62
400.389	596.62
400.613	549.62
400.837	498.62
401.062	496.62
401.286	476.62
401.51	479.62
401.734	474.62
401.958	468.62
402.182	462.62
402.406	479.62
402.63	478.62
402.854	493.62
403.078	486.62
403.302	504.62
403.526	530.62
403.75	511.62
403.974	530.62
404.198	530.62
404.422	492.62
404.645	520.62
404.869	518.62
405.093	542.62
405.317	544.62
405.541	572.62
405.765	538.62
405.988	492.62
406.212	521.62
406.436	523.62
406.66	528.62
406.883	532.62
407.107	567.62
407.331	592.62
407.555	605.62
407.778	610.62
408.002	580.62
408.226	566.62
408.449	554.62
408.673	541.62
408.896	538.62
409.12	561.62
409.344	549.62
409.567	511.62
409.791	497.62
410.014	491.62
410.238	495.62
410.461	489.62
410.685	494.62
410.908	498.62
411.132	542.62
411.355	537.62
411.578	515.62
411.802	483.62
412.025	507.62
412.249	492.62
412.472	498.62
412.695	524.62
412.919	512.62
413.142	475.62
413.365	500.62
413.589	488.62
413.812	465.62
414.035	482.62
414.258	475.62
414.482	467.62
414.705	479.62
414.928	468.62
415.151	465.62
415.374	449.62
415.597	462.62
415.821	474.62
416.044	453.62
416.267	441.62
416.49	468.62
416.713	472.62
416.936	466.62
417.159	453.62
417.382	459.62
417.605	452.62
417.828	455.62
418.051	485.62
418.274	482.62
418.497	459.62
418.72	473.62
418.943	478.62
419.166	482.62
419.389	529.62
419.611	516.62
419.834	503.62
420.057	499.62
420.28	480.62
420.503	474.62
420.726	468.62
420.948	477.62
421.171	506.62
421.394	490.62
421.617	483.62
421.839	488.62
422.062	472.62
422.285	474.62
422.507	516.62
422.73	556.62
422.953	560.62
423.175	514.62
423.398	484.62
423.621	498.62
423.843	518.62
424.066	492.62
424.288	499.62
424.511	502.62
424.733	526.62
424.956	587.62
425.178	564.62
425.401	560.62
425.623	571.62
425.846	508.62
426.068	487.62
426.291	473.62
426.513	471.62
426.735	482.62
426.958	502.62
427.18	548.62
427.402	604.62
427.625	691.62
427.847	570.62
428.069	540.62
428.292	499.62
428.514	465.62
428.736	439.62
428.958	436.62
429.181	438.62
429.403	419.62
429.625	444.62
429.847	464.62
430.069	483.62
430.292	474.62
430.514	417.62
430.736	418.62
430.958	445.62
431.18	442.62
431.402	423.62
431.624	418.62
431.846	411.62
432.068	410.62
432.29	442.62
432.512	437.62
432.734	442.62
432.956	410.62
433.178	420.62
433.4	426.62
433.622	436.62
433.844	457.62
434.066	429.62
434.287	429.62
434.509	437.62
434.731	458.62
434.953	456.62
435.175	478.62
435.397	477.62
435.618	484.62
435.84	511.62
436.062	522.62
436.284	566.62
436.505	508.62
436.727	465.62
436.949	448.62
437.17	448.62
437.392	457.62
437.614	430.62
437.835	444.62
438.057	494.62
438.278	535.62
438.5	571.62
438.721	616.62
438.943	596.62
439.165	500.62
439.386	459.62
439.608	464.62
439.829	478.62
440.05	445.62
440.272	510.62
440.493	500.62
440.715	440.62
440.936	470.62
441.158	452.62
441.379	460.62
441.6	473.62
441.822	480.62
442.043	512.62
442.264	557.62
442.486	557.62
442.707	516.62
442.928	482.62
443.149	479.62
443.371	505.62
443.592	538.62
443.813	587.62
444.034	598.62
444.255	546.62
444.476	519.62
444.698	512.62
444.919	516.62
445.14	619.62
445.361	544.62
445.582	512.62
445.803	513.62
446.024	598.62
446.245	593.62
446.466	531.62
446.687	466.62
446.908	465.62
447.129	433.62
447.35	448.62
447.571	427.62
447.792	428.62
448.013	419.62
448.234	437.62
448.455	464.62
448.675	519.62
448.896	593.62
449.117	515.62
449.338	478.62
449.559	546.62
449.779	591.62
450	515.62
450.221	459.62
450.442	416.62
450.662	411.62
450.883	437.62
451.104	442.62
451.324	424.62
451.545	400.62
451.766	420.62
451.986	389.62
452.207	405.62
452.428	377.62
452.648	403.62
452.869	363.62
453.089	396.62
453.31	378.62
453.53	385.62
453.751	382.62
453.971	384.62
454.192	375.62
454.412	385.62
454.633	398.62
454.853	371.62
455.073	377.62
455.294	394.62
455.514	436.62
455.734	408.62
455.955	386.62
456.175	382.62
456.395	372.62
456.616	362.62
456.836	355.62
457.056	373.62
457.276	348.62
457.497	370.62
457.717	379.62
457.937	371.62
458.157	394.62
458.377	388.62
458.598	412.62
458.818	434.62
459.038	470.62
459.258	465.62
459.478	451.62
459.698	445.62
459.918	425.62
460.138	450.62
460.358	455.62
460.578	479.62
460.798	477.62
461.018	476.62
461.238	457.62
461.458	452.62
461.678	445.62
461.898	467.62
462.118	482.62
462.338	468.62
462.558	493.62
462.777	517.62
462.997	523.62
463.217	561.62
463.437	553.62
463.657	530.62
463.876	509.62
464.096	524.62
464.316	492.62
464.536	512.62
464.755	514.62
464.975	497.62
465.195	472.62
465.414	475.62
465.634	461.62
465.854	460.62
466.073	442.62
466.293	438.62
466.512	399.62
466.732	394.62
466.951	418.62
467.171	398.62
467.391	420.62
467.61	413.62
467.829	402.62
468.049	416.62
468.268	420.62
468.488	394.62
468.707	376.62
468.927	403.62
469.146	389.62
469.365	400.62
469.585	386.62
469.804	395.62
470.023	408.62
470.243	421.62
470.462	425.62
470.681	426.62
470.901	415.62
471.12	416.62
471.339	409.62
471.558	418.62
471.777	419.62
471.997	397.62
472.216	411.62
472.435	416.62
472.654	417.62
472.873	393.62
473.092	399.62
473.311	386.62
473.53	411.62
473.749	410.62
473.968	410.62
474.187	459.62
474.406	472.62
474.625	425.62
474.844	389.62
475.063	387.62
475.282	409.62
475.501	384.62
475.72	404.62
475.939	424.62
476.158	416.62
476.377	394.62
476.596	407.62
476.814	445.62
477.033	405.62
477.252	440.62
477.471	428.62
477.69	442.62
477.908	452.62
478.127	456.62
478.346	477.62
478.564	456.62
478.783	456.62
479.002	466.62
479.22	440.62
479.439	459.62
479.658	475.62
479.876	478.62
480.095	491.62
480.313	492.62
480.532	532.62
480.751	500.62
480.969	499.62
481.188	510.62
481.406	529.62
481.624	484.62
481.843	468.62
482.061	468.62
482.28	459.62
482.498	458.62
482.717	453.62
482.935	454.62
483.153	451.62
483.372	457.62
483.59	440.62
483.808	466.62
484.027	455.62
484.245	466.62
484.463	441.62
484.681	476.62
484.9	449.62
485.118	469.62
485.336	468.62
485.554	468.62
485.772	499.62
485.99	482.62
486.209	466.62
486.427	478.62
486.645	492.62
486.863	486.62
487.081	499.62
487.299	482.62
487.517	472.62
487.735	497.62
487.953	486.62
488.171	497.62
488.389	464.62
488.607	484.62
488.825	480.62
489.043	485.62
489.261	468.62
489.479	490.62
489.696	482.62
489.914	491.62
490.132	476.62
490.35	494.62
490.568	487.62
490.786	508.62
491.003	509.62
491.221	512.62
491.439	494.62
491.657	533.62
491.874	524.62
492.092	541.62
492.31	520.62
492.527	549.62
492.745	541.62
492.963	546.62
493.18	545.62
493.398	520.62
493.615	542.62
493.833	548.62
494.05	538.62
494.268	543.62
494.485	522.62
494.703	546.62
494.92	542.62
495.138	539.62
495.355	550.62
495.573	540.62
495.79	538.62
496.008	558.62
496.225	541.62
496.442	542.62
496.66	544.62
496.877	546.62
497.094	572.62
497.312	562.62
497.529	596.62
497.746	602.62
497.963	600.62
498.181	632.62
498.398	614.62
498.615	674.62
498.832	704.62
499.049	718.62
499.267	738.62
499.484	806.62
499.701	857.62
499.918	904.62
500.135	960.62
500.352	1061.62
500.569	1101.62
500.786	1116.62
501.003	1063.62
501.22	975.62
501.437	901.62
501.654	845.62
501.871	790.62
502.088	752.62
