Data from 1984.PennyLincolnUp.Lamp.En5.5.200Scan.071819.P1_HRD10591_16-57-37-971.txt Node
Date: Thu Jul 18 16:57:37 EDT 2019
User: cochatt
Spectrometer: HR+D1059
Trigger mode: 1
Integration Time (sec): 1.000000E-1
Scans to average: 1
Electric dark correction enabled: true
Nonlinearity correction enabled: false
Boxcar width: 0
XAxis mode: Wavelengths
Number of Pixels in Spectrum: 2048
>>>>>Begin Spectral Data<<<<<
223.165	-12.69
223.4	-12.69
223.635	-12.69
223.869	-22.69
224.104	-24.69
224.338	-4.69
224.573	-16.69
224.808	-17.69
225.042	-10.69
225.277	-1.69
225.511	9.31
225.746	8.31
225.98	14.31
226.215	0.31
226.449	16.31
226.683	19.31
226.918	22.31
227.152	21.31
227.387	49.31
227.621	47.31
227.856	41.31
228.09	48.31
228.324	33.31
228.559	59.31
228.793	69.31
229.027	78.31
229.262	100.31
229.496	98.31
229.73	110.31
229.964	108.31
230.199	107.31
230.433	98.31
230.667	90.31
230.901	101.31
231.136	107.31
231.37	103.31
231.604	109.31
231.838	111.31
232.072	111.31
232.306	95.31
232.541	117.31
232.775	110.31
233.009	110.31
233.243	117.31
233.477	114.31
233.711	108.31
233.945	109.31
234.179	111.31
234.413	126.31
234.647	110.31
234.881	96.31
235.115	123.31
235.349	114.31
235.583	120.31
235.817	103.31
236.051	109.31
236.285	109.31
236.519	117.31
236.753	122.31
236.987	106.31
237.221	134.31
237.455	148.31
237.689	145.31
237.922	118.31
238.156	116.31
238.39	119.31
238.624	122.31
238.858	115.31
239.091	110.31
239.325	117.31
239.559	114.31
239.793	109.31
240.027	113.31
240.26	140.31
240.494	144.31
240.728	131.31
240.961	124.31
241.195	139.31
241.429	110.31
241.662	124.31
241.896	134.31
242.13	115.31
242.363	121.31
242.597	140.31
242.83	118.31
243.064	140.31
243.298	139.31
243.531	127.31
243.765	133.31
243.998	124.31
244.232	130.31
244.465	130.31
244.699	140.31
244.932	138.31
245.166	128.31
245.399	140.31
245.633	134.31
245.866	131.31
246.099	126.31
246.333	144.31
246.566	147.31
246.8	138.31
247.033	127.31
247.266	136.31
247.5	150.31
247.733	150.31
247.966	159.31
248.2	147.31
248.433	147.31
248.666	152.31
248.899	154.31
249.133	160.31
249.366	171.31
249.599	165.31
249.832	160.31
250.066	167.31
250.299	162.31
250.532	165.31
250.765	177.31
250.998	175.31
251.231	174.31
251.465	166.31
251.698	182.31
251.931	169.31
252.164	169.31
252.397	162.31
252.63	165.31
252.863	176.31
253.096	184.31
253.329	183.31
253.562	186.31
253.795	202.31
254.028	191.31
254.261	175.31
254.494	183.31
254.727	197.31
254.96	198.31
255.193	206.31
255.426	202.31
255.659	189.31
255.892	188.31
256.124	184.31
256.357	195.31
256.59	182.31
256.823	173.31
257.056	162.31
257.289	180.31
257.521	181.31
257.754	169.31
257.987	169.31
258.22	186.31
258.452	181.31
258.685	190.31
258.918	185.31
259.151	178.31
259.383	203.31
259.616	206.31
259.849	174.31
260.081	203.31
260.314	205.31
260.547	222.31
260.779	203.31
261.012	194.31
261.244	192.31
261.477	190.31
261.71	203.31
261.942	178.31
262.175	194.31
262.407	194.31
262.64	188.31
262.872	180.31
263.105	195.31
263.337	189.31
263.57	196.31
263.802	191.31
264.035	187.31
264.267	207.31
264.499	187.31
264.732	185.31
264.964	191.31
265.197	198.31
265.429	183.31
265.661	186.31
265.894	203.31
266.126	188.31
266.358	189.31
266.591	196.31
266.823	198.31
267.055	199.31
267.287	184.31
267.52	203.31
267.752	205.31
267.984	211.31
268.216	216.31
268.448	203.31
268.681	218.31
268.913	210.31
269.145	220.31
269.377	233.31
269.609	224.31
269.841	213.31
270.073	223.31
270.306	251.31
270.538	262.31
270.77	273.31
271.002	253.31
271.234	241.31
271.466	234.31
271.698	249.31
271.93	244.31
272.162	265.31
272.394	265.31
272.626	265.31
272.858	258.31
273.09	242.31
273.322	247.31
273.553	221.31
273.785	233.31
274.017	233.31
274.249	235.31
274.481	238.31
274.713	249.31
274.945	248.31
275.176	246.31
275.408	257.31
275.64	235.31
275.872	225.31
276.104	244.31
276.335	232.31
276.567	239.31
276.799	246.31
277.031	253.31
277.262	268.31
277.494	263.31
277.726	258.31
277.957	253.31
278.189	248.31
278.421	241.31
278.652	234.31
278.884	247.31
279.115	239.31
279.347	240.31
279.579	239.31
279.81	248.31
280.042	250.31
280.273	256.31
280.505	254.31
280.736	234.31
280.968	243.31
281.199	254.31
281.431	250.31
281.662	260.31
281.894	260.31
282.125	247.31
282.356	270.31
282.588	263.31
282.819	262.31
283.051	264.31
283.282	256.31
283.513	267.31
283.745	252.31
283.976	265.31
284.207	253.31
284.439	268.31
284.67	273.31
284.901	266.31
285.132	254.31
285.364	268.31
285.595	268.31
285.826	263.31
286.057	270.31
286.288	267.31
286.52	282.31
286.751	271.31
286.982	255.31
287.213	256.31
287.444	274.31
287.675	269.31
287.906	283.31
288.138	287.31
288.369	301.31
288.6	272.31
288.831	254.31
289.062	287.31
289.293	268.31
289.524	274.31
289.755	262.31
289.986	266.31
290.217	282.31
290.448	278.31
290.679	270.31
290.91	270.31
291.141	269.31
291.371	279.31
291.602	282.31
291.833	272.31
292.064	285.31
292.295	273.31
292.526	270.31
292.757	262.31
292.987	281.31
293.218	277.31
293.449	283.31
293.68	297.31
293.91	278.31
294.141	285.31
294.372	294.31
294.603	282.31
294.833	279.31
295.064	292.31
295.295	273.31
295.525	278.31
295.756	282.31
295.987	276.31
296.217	292.31
296.448	296.31
296.679	286.31
296.909	281.31
297.14	286.31
297.37	281.31
297.601	294.31
297.831	290.31
298.062	291.31
298.292	286.31
298.523	301.31
298.753	298.31
298.984	290.31
299.214	280.31
299.445	285.31
299.675	280.31
299.905	287.31
300.136	287.31
300.366	305.31
300.597	302.31
300.827	281.31
301.057	303.31
301.288	316.31
301.518	311.31
301.748	308.31
301.979	318.31
302.209	309.31
302.439	336.31
302.669	310.31
302.9	313.31
303.13	308.31
303.36	306.31
303.59	314.31
303.82	307.31
304.051	308.31
304.281	312.31
304.511	296.31
304.741	297.31
304.971	317.31
305.201	299.31
305.431	310.31
305.661	321.31
305.891	292.31
306.121	301.31
306.352	322.31
306.582	318.31
306.812	310.31
307.042	332.31
307.272	324.31
307.502	304.31
307.731	307.31
307.961	316.31
308.191	322.31
308.421	314.31
308.651	314.31
308.881	316.31
309.111	313.31
309.341	316.31
309.571	317.31
309.8	325.31
310.03	330.31
310.26	324.31
310.49	310.31
310.72	313.31
310.949	330.31
311.179	348.31
311.409	320.31
311.639	322.31
311.868	338.31
312.098	341.31
312.328	338.31
312.557	351.31
312.787	339.31
313.017	340.31
313.246	344.31
313.476	327.31
313.706	354.31
313.935	340.31
314.165	358.31
314.394	342.31
314.624	367.31
314.853	342.31
315.083	338.31
315.312	339.31
315.542	363.31
315.771	328.31
316.001	334.31
316.23	326.31
316.46	332.31
316.689	335.31
316.919	342.31
317.148	330.31
317.377	339.31
317.607	343.31
317.836	327.31
318.065	323.31
318.295	329.31
318.524	340.31
318.753	329.31
318.983	318.31
319.212	345.31
319.441	338.31
319.67	343.31
319.9	337.31
320.129	338.31
320.358	343.31
320.587	340.31
320.816	349.31
321.046	367.31
321.275	328.31
321.504	338.31
321.733	322.31
321.962	337.31
322.191	346.31
322.42	343.31
322.649	379.31
322.878	373.31
323.108	372.31
323.337	384.31
323.566	392.31
323.795	410.31
324.024	428.31
324.253	472.31
324.482	627.31
324.71	851.31
324.939	1191.31
325.168	1019.31
325.397	598.31
325.626	469.31
325.855	435.31
326.084	395.31
326.313	392.31
326.542	410.31
326.77	428.31
326.999	470.31
327.228	582.31
327.457	777.31
327.686	887.31
327.914	647.31
328.143	510.31
328.372	432.31
328.6	423.31
328.829	400.31
329.058	423.31
329.287	451.31
329.515	414.31
329.744	399.31
329.972	391.31
330.201	377.31
330.43	406.31
330.658	426.31
330.887	437.31
331.115	426.31
331.344	415.31
331.572	414.31
331.801	418.31
332.03	412.31
332.258	395.31
332.486	402.31
332.715	421.31
332.943	418.31
333.172	431.31
333.4	439.31
333.629	415.31
333.857	455.31
334.085	459.31
334.314	440.31
334.542	424.31
334.771	433.31
334.999	427.31
335.227	417.31
335.455	418.31
335.684	429.31
335.912	427.31
336.14	381.31
336.369	409.31
336.597	408.31
336.825	406.31
337.053	383.31
337.281	382.31
337.51	382.31
337.738	398.31
337.966	375.31
338.194	413.31
338.422	396.31
338.65	388.31
338.878	390.31
339.106	388.31
339.334	368.31
339.562	379.31
339.79	379.31
340.018	391.31
340.246	379.31
340.474	389.31
340.702	386.31
340.93	378.31
341.158	371.31
341.386	374.31
341.614	379.31
341.842	375.31
342.07	375.31
342.298	389.31
342.526	363.31
342.754	370.31
342.981	382.31
343.209	390.31
343.437	388.31
343.665	378.31
343.893	406.31
344.12	422.31
344.348	408.31
344.576	377.31
344.804	390.31
345.031	374.31
345.259	402.31
345.487	372.31
345.714	378.31
345.942	360.31
346.17	376.31
346.397	357.31
346.625	355.31
346.853	353.31
347.08	344.31
347.308	348.31
347.535	365.31
347.763	363.31
347.99	361.31
348.218	363.31
348.445	353.31
348.673	377.31
348.9	382.31
349.128	336.31
349.355	344.31
349.583	332.31
349.81	361.31
350.037	344.31
350.265	324.31
350.492	328.31
350.72	362.31
350.947	360.31
351.174	350.31
351.402	355.31
351.629	341.31
351.856	336.31
352.083	351.31
352.311	363.31
352.538	366.31
352.765	366.31
352.992	340.31
353.22	357.31
353.447	341.31
353.674	352.31
353.901	334.31
354.128	342.31
354.355	338.31
354.583	346.31
354.81	344.31
355.037	342.31
355.264	337.31
355.491	360.31
355.718	336.31
355.945	329.31
356.172	346.31
356.399	339.31
356.626	341.31
356.853	336.31
357.08	338.31
357.307	343.31
357.534	350.31
357.761	354.31
357.988	364.31
358.215	346.31
358.441	330.31
358.668	332.31
358.895	365.31
359.122	342.31
359.349	347.31
359.576	354.31
359.802	355.31
360.029	370.31
360.256	378.31
360.483	355.31
360.709	344.31
360.936	358.31
361.163	360.31
361.39	350.31
361.616	331.31
361.843	345.31
362.07	346.31
362.296	329.31
362.523	335.31
362.749	361.31
362.976	329.31
363.203	348.31
363.429	340.31
363.656	337.31
363.882	359.31
364.109	339.31
364.335	334.31
364.562	328.31
364.788	330.31
365.015	335.31
365.241	337.31
365.468	343.31
365.694	346.31
365.92	335.31
366.147	345.31
366.373	338.31
366.599	348.31
366.826	348.31
367.052	303.31
367.278	334.31
367.505	330.31
367.731	337.31
367.957	349.31
368.184	350.31
368.41	341.31
368.636	348.31
368.862	356.31
369.089	340.31
369.315	363.31
369.541	333.31
369.767	340.31
369.993	338.31
370.219	330.31
370.445	342.31
370.672	372.31
370.898	359.31
371.124	335.31
371.35	342.31
371.576	344.31
371.802	336.31
372.028	352.31
372.254	356.31
372.48	355.31
372.706	359.31
372.932	350.31
373.158	358.31
373.384	348.31
373.61	332.31
373.835	364.31
374.061	344.31
374.287	355.31
374.513	362.31
374.739	361.31
374.965	372.31
375.191	378.31
375.416	349.31
375.642	377.31
375.868	342.31
376.094	345.31
376.319	346.31
376.545	343.31
376.771	356.31
376.997	345.31
377.222	334.31
377.448	346.31
377.674	363.31
377.899	339.31
378.125	351.31
378.35	347.31
378.576	343.31
378.802	347.31
379.027	349.31
379.253	350.31
379.478	333.31
379.704	352.31
379.929	351.31
380.155	350.31
380.38	359.31
380.606	332.31
380.831	331.31
381.057	370.31
381.282	354.31
381.507	358.31
381.733	363.31
381.958	331.31
382.184	353.31
382.409	359.31
382.634	365.31
382.86	348.31
383.085	350.31
383.31	347.31
383.535	378.31
383.761	358.31
383.986	368.31
384.211	371.31
384.436	378.31
384.662	403.31
384.887	390.31
385.112	400.31
385.337	400.31
385.562	400.31
385.787	404.31
386.013	393.31
386.238	405.31
386.463	399.31
386.688	388.31
386.913	393.31
387.138	374.31
387.363	379.31
387.588	381.31
387.813	383.31
388.038	397.31
388.263	388.31
388.488	420.31
388.713	391.31
388.938	407.31
389.163	377.31
389.387	386.31
389.612	388.31
389.837	380.31
390.062	380.31
390.287	409.31
390.512	410.31
390.736	399.31
390.961	387.31
391.186	386.31
391.411	416.31
391.636	420.31
391.86	418.31
392.085	429.31
392.31	420.31
392.534	385.31
392.759	425.31
392.984	398.31
393.208	408.31
393.433	386.31
393.658	392.31
393.882	410.31
394.107	401.31
394.331	391.31
394.556	397.31
394.78	414.31
395.005	416.31
395.229	400.31
395.454	415.31
395.678	423.31
395.903	429.31
396.127	433.31
396.352	430.31
396.576	402.31
396.801	426.31
397.025	422.31
397.249	409.31
397.474	436.31
397.698	420.31
397.922	445.31
398.147	431.31
398.371	459.31
398.595	466.31
398.82	463.31
399.044	476.31
399.268	519.31
399.492	559.31
399.717	604.31
399.941	615.31
400.165	594.31
400.389	570.31
400.613	502.31
400.837	471.31
401.062	462.31
401.286	461.31
401.51	461.31
401.734	463.31
401.958	444.31
402.182	466.31
402.406	463.31
402.63	463.31
402.854	468.31
403.078	489.31
403.302	493.31
403.526	495.31
403.75	517.31
403.974	498.31
404.198	489.31
404.422	475.31
404.645	492.31
404.869	508.31
405.093	504.31
405.317	518.31
405.541	541.31
405.765	511.31
405.988	483.31
406.212	500.31
406.436	520.31
406.66	524.31
406.883	518.31
407.107	520.31
407.331	592.31
407.555	611.31
407.778	586.31
408.002	567.31
408.226	556.31
408.449	526.31
408.673	518.31
408.896	512.31
409.12	572.31
409.344	529.31
409.567	495.31
409.791	485.31
410.014	474.31
410.238	473.31
410.461	479.31
410.685	489.31
410.908	501.31
411.132	498.31
411.355	535.31
411.578	520.31
411.802	482.31
412.025	472.31
412.249	469.31
412.472	454.31
412.695	478.31
412.919	483.31
413.142	456.31
413.365	458.31
413.589	442.31
413.812	464.31
414.035	451.31
414.258	448.31
414.482	456.31
414.705	456.31
414.928	463.31
415.151	446.31
415.374	439.31
415.597	442.31
415.821	450.31
416.044	423.31
416.267	462.31
416.49	458.31
416.713	457.31
416.936	440.31
417.159	454.31
417.382	428.31
417.605	437.31
417.828	456.31
418.051	460.31
418.274	475.31
418.497	465.31
418.72	468.31
418.943	468.31
419.166	482.31
419.389	524.31
419.611	492.31
419.834	492.31
420.057	496.31
420.28	473.31
420.503	478.31
420.726	443.31
420.948	464.31
421.171	470.31
421.394	494.31
421.617	449.31
421.839	449.31
422.062	474.31
422.285	470.31
422.507	502.31
422.73	521.31
422.953	518.31
423.175	489.31
423.398	499.31
423.621	459.31
423.843	504.31
424.066	501.31
424.288	463.31
424.511	480.31
424.733	535.31
424.956	590.31
425.178	554.31
425.401	545.31
425.623	534.31
425.846	487.31
426.068	459.31
426.291	462.31
426.513	438.31
426.735	465.31
426.958	490.31
427.18	532.31
427.402	617.31
427.625	624.31
427.847	549.31
428.069	484.31
428.292	468.31
428.514	446.31
428.736	456.31
428.958	426.31
429.181	423.31
429.403	420.31
429.625	448.31
429.847	436.31
430.069	471.31
430.292	479.31
430.514	429.31
430.736	426.31
430.958	422.31
431.18	409.31
431.402	405.31
431.624	416.31
431.846	429.31
432.068	419.31
432.29	430.31
432.512	436.31
432.734	422.31
432.956	427.31
433.178	417.31
433.4	423.31
433.622	420.31
433.844	416.31
434.066	423.31
434.287	426.31
434.509	431.31
434.731	459.31
434.953	435.31
435.175	462.31
435.397	479.31
435.618	446.31
435.84	466.31
436.062	522.31
436.284	564.31
436.505	493.31
436.727	463.31
436.949	441.31
437.17	424.31
437.392	412.31
437.614	430.31
437.835	456.31
438.057	492.31
438.278	517.31
438.5	549.31
438.721	598.31
438.943	584.31
439.165	464.31
439.386	451.31
439.608	446.31
439.829	450.31
440.05	455.31
440.272	495.31
440.493	454.31
440.715	436.31
440.936	430.31
441.158	451.31
441.379	435.31
441.6	462.31
441.822	469.31
442.043	483.31
442.264	534.31
442.486	566.31
442.707	508.31
442.928	445.31
443.149	476.31
443.371	497.31
443.592	518.31
443.813	562.31
444.034	562.31
444.255	518.31
444.476	504.31
444.698	518.31
444.919	514.31
445.14	641.31
445.361	552.31
445.582	530.31
445.803	502.31
446.024	582.31
446.245	543.31
446.466	514.31
446.687	483.31
446.908	462.31
447.129	418.31
447.35	419.31
447.571	415.31
447.792	410.31
448.013	421.31
448.234	427.31
448.455	454.31
448.675	506.31
448.896	547.31
449.117	475.31
449.338	475.31
449.559	540.31
449.779	576.31
450	498.31
450.221	427.31
450.442	423.31
450.662	420.31
450.883	407.31
451.104	417.31
451.324	393.31
451.545	411.31
451.766	396.31
451.986	380.31
452.207	383.31
452.428	388.31
452.648	386.31
452.869	382.31
453.089	379.31
453.31	387.31
453.53	378.31
453.751	366.31
453.971	372.31
454.192	378.31
454.412	366.31
454.633	382.31
454.853	383.31
455.073	352.31
455.294	404.31
455.514	420.31
455.734	395.31
455.955	360.31
456.175	359.31
456.395	360.31
456.616	356.31
456.836	365.31
457.056	377.31
457.276	350.31
457.497	360.31
457.717	352.31
457.937	359.31
458.157	374.31
458.377	366.31
458.598	394.31
458.818	402.31
459.038	428.31
459.258	455.31
459.478	423.31
459.698	424.31
459.918	423.31
460.138	440.31
460.358	430.31
460.578	440.31
460.798	446.31
461.018	455.31
461.238	450.31
461.458	449.31
461.678	431.31
461.898	458.31
462.118	441.31
462.338	457.31
462.558	455.31
462.777	466.31
462.997	530.31
463.217	544.31
463.437	552.31
463.657	512.31
463.876	493.31
464.096	476.31
464.316	495.31
464.536	504.31
464.755	487.31
464.975	499.31
465.195	479.31
465.414	502.31
465.634	451.31
465.854	443.31
466.073	420.31
466.293	419.31
466.512	416.31
466.732	413.31
466.951	390.31
467.171	392.31
467.391	398.31
467.61	384.31
467.829	387.31
468.049	387.31
468.268	391.31
468.488	386.31
468.707	375.31
468.927	380.31
469.146	392.31
469.365	386.31
469.585	404.31
469.804	392.31
470.023	407.31
470.243	397.31
470.462	418.31
470.681	395.31
470.901	438.31
471.12	423.31
471.339	400.31
471.558	399.31
471.777	404.31
471.997	392.31
472.216	381.31
472.435	387.31
472.654	374.31
472.873	387.31
473.092	368.31
473.311	368.31
473.53	376.31
473.749	402.31
473.968	428.31
474.187	469.31
474.406	470.31
474.625	406.31
474.844	395.31
475.063	377.31
475.282	367.31
475.501	404.31
475.72	382.31
475.939	403.31
476.158	385.31
476.377	396.31
476.596	402.31
476.814	403.31
477.033	395.31
477.252	406.31
477.471	407.31
477.69	416.31
477.908	432.31
478.127	446.31
478.346	431.31
478.564	442.31
478.783	437.31
479.002	468.31
479.22	444.31
479.439	445.31
479.658	457.31
479.876	463.31
480.095	486.31
480.313	489.31
480.532	504.31
480.751	510.31
480.969	484.31
481.188	466.31
481.406	445.31
481.624	464.31
481.843	443.31
482.061	451.31
482.28	442.31
482.498	428.31
482.717	436.31
482.935	462.31
483.153	437.31
483.372	440.31
483.59	443.31
483.808	428.31
484.027	438.31
484.245	459.31
484.463	460.31
484.681	450.31
484.9	470.31
485.118	464.31
485.336	468.31
485.554	447.31
485.772	464.31
485.99	476.31
486.209	465.31
486.427	475.31
486.645	454.31
486.863	480.31
487.081	463.31
487.299	479.31
487.517	460.31
487.735	485.31
487.953	464.31
488.171	480.31
488.389	466.31
488.607	476.31
488.825	464.31
489.043	466.31
489.261	469.31
489.479	470.31
489.696	475.31
489.914	479.31
490.132	491.31
490.35	512.31
490.568	480.31
490.786	497.31
491.003	478.31
491.221	504.31
491.439	504.31
491.657	486.31
491.874	515.31
492.092	493.31
492.31	532.31
492.527	487.31
492.745	524.31
492.963	534.31
493.18	520.31
493.398	519.31
493.615	512.31
493.833	526.31
494.05	524.31
494.268	532.31
494.485	533.31
494.703	545.31
494.92	522.31
495.138	537.31
495.355	526.31
495.573	516.31
495.79	504.31
496.008	536.31
496.225	536.31
496.442	526.31
496.66	534.31
496.877	539.31
497.094	581.31
497.312	543.31
497.529	543.31
497.746	578.31
497.963	582.31
498.181	610.31
498.398	618.31
498.615	644.31
498.832	671.31
499.049	694.31
499.267	712.31
499.484	774.31
499.701	818.31
499.918	860.31
500.135	957.31
500.352	1014.31
500.569	1062.31
500.786	1047.31
501.003	1003.31
501.22	964.31
501.437	866.31
501.654	820.31
501.871	767.31
502.088	736.31
