Data from 1984.PennyLincolnUp.Lamp.En5.5.200Scan.071819.P1_HRD10591_16-59-40-969.txt Node
Date: Thu Jul 18 16:59:40 EDT 2019
User: cochatt
Spectrometer: HR+D1059
Trigger mode: 1
Integration Time (sec): 1.000000E-1
Scans to average: 1
Electric dark correction enabled: true
Nonlinearity correction enabled: false
Boxcar width: 0
XAxis mode: Wavelengths
Number of Pixels in Spectrum: 2048
>>>>>Begin Spectral Data<<<<<
223.165	-10.25
223.4	-10.25
223.635	-10.25
223.869	-17.25
224.104	-28.25
224.338	-16.25
224.573	-21.25
224.808	-16.25
225.042	-8.25
225.277	-1.25
225.511	-6.25
225.746	-1.25
225.98	9.75
226.215	7.75
226.449	17.75
226.683	38.75
226.918	24.75
227.152	27.75
227.387	43.75
227.621	39.75
227.856	63.75
228.09	46.75
228.324	51.75
228.559	62.75
228.793	89.75
229.027	92.75
229.262	93.75
229.496	113.75
229.73	116.75
229.964	129.75
230.199	101.75
230.433	106.75
230.667	114.75
230.901	107.75
231.136	112.75
231.37	98.75
231.604	108.75
231.838	122.75
232.072	101.75
232.306	113.75
232.541	117.75
232.775	97.75
233.009	107.75
233.243	120.75
233.477	102.75
233.711	113.75
233.945	109.75
234.179	106.75
234.413	126.75
234.647	121.75
234.881	103.75
235.115	106.75
235.349	112.75
235.583	101.75
235.817	108.75
236.051	105.75
236.285	119.75
236.519	115.75
236.753	138.75
236.987	121.75
237.221	163.75
237.455	141.75
237.689	153.75
237.922	123.75
238.156	126.75
238.39	133.75
238.624	122.75
238.858	127.75
239.091	110.75
239.325	123.75
239.559	125.75
239.793	123.75
240.027	134.75
240.26	131.75
240.494	135.75
240.728	144.75
240.961	148.75
241.195	139.75
241.429	117.75
241.662	141.75
241.896	126.75
242.13	118.75
242.363	114.75
242.597	141.75
242.83	117.75
243.064	133.75
243.298	134.75
243.531	125.75
243.765	135.75
243.998	133.75
244.232	148.75
244.465	146.75
244.699	142.75
244.932	138.75
245.166	142.75
245.399	150.75
245.633	138.75
245.866	151.75
246.099	165.75
246.333	136.75
246.566	152.75
246.8	155.75
247.033	138.75
247.266	167.75
247.5	155.75
247.733	161.75
247.966	167.75
248.2	168.75
248.433	158.75
248.666	161.75
248.899	151.75
249.133	173.75
249.366	175.75
249.599	174.75
249.832	171.75
250.066	165.75
250.299	175.75
250.532	196.75
250.765	230.75
250.998	200.75
251.231	231.75
251.465	205.75
251.698	173.75
251.931	176.75
252.164	167.75
252.397	181.75
252.63	173.75
252.863	187.75
253.096	181.75
253.329	197.75
253.562	183.75
253.795	184.75
254.028	193.75
254.261	185.75
254.494	187.75
254.727	210.75
254.96	213.75
255.193	220.75
255.426	218.75
255.659	205.75
255.892	247.75
256.124	269.75
256.357	299.75
256.59	254.75
256.823	229.75
257.056	230.75
257.289	222.75
257.521	198.75
257.754	197.75
257.987	207.75
258.22	194.75
258.452	196.75
258.685	199.75
258.918	197.75
259.151	202.75
259.383	207.75
259.616	199.75
259.849	206.75
260.081	196.75
260.314	215.75
260.547	230.75
260.779	225.75
261.012	213.75
261.244	197.75
261.477	195.75
261.71	213.75
261.942	205.75
262.175	219.75
262.407	212.75
262.64	206.75
262.872	188.75
263.105	201.75
263.337	215.75
263.57	199.75
263.802	207.75
264.035	204.75
264.267	199.75
264.499	207.75
264.732	202.75
264.964	201.75
265.197	192.75
265.429	211.75
265.661	216.75
265.894	213.75
266.126	216.75
266.358	217.75
266.591	201.75
266.823	215.75
267.055	199.75
267.287	208.75
267.52	207.75
267.752	204.75
267.984	197.75
268.216	199.75
268.448	224.75
268.681	216.75
268.913	221.75
269.145	231.75
269.377	261.75
269.609	234.75
269.841	246.75
270.073	253.75
270.306	247.75
270.538	267.75
270.77	273.75
271.002	277.75
271.234	256.75
271.466	264.75
271.698	254.75
271.93	251.75
272.162	267.75
272.394	274.75
272.626	274.75
272.858	273.75
273.09	259.75
273.322	249.75
273.553	251.75
273.785	249.75
274.017	232.75
274.249	245.75
274.481	241.75
274.713	262.75
274.945	264.75
275.176	248.75
275.408	238.75
275.64	231.75
275.872	259.75
276.104	263.75
276.335	238.75
276.567	251.75
276.799	253.75
277.031	273.75
277.262	311.75
277.494	286.75
277.726	280.75
277.957	265.75
278.189	295.75
278.421	258.75
278.652	263.75
278.884	263.75
279.115	271.75
279.347	255.75
279.579	260.75
279.81	267.75
280.042	277.75
280.273	292.75
280.505	275.75
280.736	272.75
280.968	265.75
281.199	269.75
281.431	275.75
281.662	281.75
281.894	282.75
282.125	279.75
282.356	281.75
282.588	293.75
282.819	279.75
283.051	278.75
283.282	275.75
283.513	297.75
283.745	265.75
283.976	250.75
284.207	274.75
284.439	271.75
284.67	261.75
284.901	280.75
285.132	263.75
285.364	279.75
285.595	288.75
285.826	280.75
286.057	288.75
286.288	275.75
286.52	290.75
286.751	256.75
286.982	291.75
287.213	269.75
287.444	271.75
287.675	285.75
287.906	289.75
288.138	285.75
288.369	303.75
288.6	294.75
288.831	278.75
289.062	271.75
289.293	308.75
289.524	295.75
289.755	315.75
289.986	297.75
290.217	289.75
290.448	274.75
290.679	293.75
290.91	279.75
291.141	297.75
291.371	274.75
291.602	294.75
291.833	276.75
292.064	294.75
292.295	295.75
292.526	289.75
292.757	293.75
292.987	283.75
293.218	299.75
293.449	304.75
293.68	281.75
293.91	290.75
294.141	306.75
294.372	297.75
294.603	291.75
294.833	295.75
295.064	285.75
295.295	319.75
295.525	288.75
295.756	289.75
295.987	313.75
296.217	333.75
296.448	331.75
296.679	307.75
296.909	280.75
297.14	317.75
297.37	287.75
297.601	310.75
297.831	294.75
298.062	302.75
298.292	305.75
298.523	307.75
298.753	325.75
298.984	302.75
299.214	319.75
299.445	294.75
299.675	311.75
299.905	307.75
300.136	320.75
300.366	316.75
300.597	328.75
300.827	318.75
301.057	325.75
301.288	327.75
301.518	345.75
301.748	327.75
301.979	326.75
302.209	332.75
302.439	338.75
302.669	333.75
302.9	328.75
303.13	317.75
303.36	340.75
303.59	340.75
303.82	337.75
304.051	347.75
304.281	334.75
304.511	324.75
304.741	333.75
304.971	323.75
305.201	318.75
305.431	320.75
305.661	321.75
305.891	334.75
306.121	314.75
306.352	329.75
306.582	299.75
306.812	315.75
307.042	329.75
307.272	322.75
307.502	343.75
307.731	345.75
307.961	332.75
308.191	322.75
308.421	323.75
308.651	330.75
308.881	329.75
309.111	330.75
309.341	312.75
309.571	355.75
309.8	336.75
310.03	337.75
310.26	344.75
310.49	353.75
310.72	353.75
310.949	362.75
311.179	371.75
311.409	331.75
311.639	335.75
311.868	331.75
312.098	351.75
312.328	336.75
312.557	343.75
312.787	359.75
313.017	367.75
313.246	347.75
313.476	361.75
313.706	375.75
313.935	367.75
314.165	375.75
314.394	353.75
314.624	375.75
314.853	373.75
315.083	369.75
315.312	355.75
315.542	361.75
315.771	349.75
316.001	334.75
316.23	364.75
316.46	365.75
316.689	352.75
316.919	351.75
317.148	360.75
317.377	371.75
317.607	359.75
317.836	362.75
318.065	347.75
318.295	351.75
318.524	360.75
318.753	366.75
318.983	365.75
319.212	353.75
319.441	361.75
319.67	373.75
319.9	370.75
320.129	366.75
320.358	345.75
320.587	358.75
320.816	373.75
321.046	367.75
321.275	370.75
321.504	359.75
321.733	378.75
321.962	362.75
322.191	368.75
322.42	385.75
322.649	405.75
322.878	404.75
323.108	427.75
323.337	416.75
323.566	419.75
323.795	454.75
324.024	471.75
324.253	543.75
324.482	732.75
324.71	1076.75
324.939	1475.75
325.168	1288.75
325.397	725.75
325.626	507.75
325.855	453.75
326.084	451.75
326.313	439.75
326.542	454.75
326.77	497.75
326.999	551.75
327.228	683.75
327.457	1017.75
327.686	1166.75
327.914	834.75
328.143	617.75
328.372	587.75
328.6	539.75
328.829	495.75
329.058	499.75
329.287	501.75
329.515	509.75
329.744	494.75
329.972	535.75
330.201	603.75
330.43	629.75
330.658	625.75
330.887	569.75
331.115	531.75
331.344	496.75
331.572	483.75
331.801	442.75
332.03	480.75
332.258	475.75
332.486	457.75
332.715	464.75
332.943	487.75
333.172	486.75
333.4	495.75
333.629	517.75
333.857	555.75
334.085	584.75
334.314	664.75
334.542	752.75
334.771	759.75
334.999	631.75
335.227	541.75
335.455	491.75
335.684	456.75
335.912	470.75
336.14	487.75
336.369	466.75
336.597	454.75
336.825	432.75
337.053	444.75
337.281	431.75
337.51	448.75
337.738	451.75
337.966	434.75
338.194	429.75
338.422	417.75
338.65	428.75
338.878	430.75
339.106	392.75
339.334	409.75
339.562	400.75
339.79	407.75
340.018	425.75
340.246	415.75
340.474	406.75
340.702	389.75
340.93	389.75
341.158	400.75
341.386	400.75
341.614	402.75
341.842	398.75
342.07	394.75
342.298	403.75
342.526	406.75
342.754	377.75
342.981	401.75
343.209	412.75
343.437	406.75
343.665	397.75
343.893	436.75
344.12	451.75
344.348	435.75
344.576	429.75
344.804	412.75
345.031	413.75
345.259	401.75
345.487	381.75
345.714	403.75
345.942	405.75
346.17	399.75
346.397	385.75
346.625	374.75
346.853	365.75
347.08	381.75
347.308	385.75
347.535	389.75
347.763	389.75
347.99	403.75
348.218	387.75
348.445	399.75
348.673	384.75
348.9	387.75
349.128	370.75
349.355	350.75
349.583	378.75
349.81	360.75
350.037	371.75
350.265	356.75
350.492	368.75
350.72	384.75
350.947	391.75
351.174	368.75
351.402	385.75
351.629	384.75
351.856	408.75
352.083	371.75
352.311	395.75
352.538	394.75
352.765	387.75
352.992	387.75
353.22	395.75
353.447	368.75
353.674	351.75
353.901	355.75
354.128	339.75
354.355	355.75
354.583	386.75
354.81	361.75
355.037	359.75
355.264	350.75
355.491	362.75
355.718	373.75
355.945	363.75
356.172	361.75
356.399	383.75
356.626	369.75
356.853	383.75
357.08	352.75
357.307	355.75
357.534	375.75
357.761	365.75
357.988	364.75
358.215	353.75
358.441	351.75
358.668	351.75
358.895	358.75
359.122	367.75
359.349	376.75
359.576	369.75
359.802	373.75
360.029	393.75
360.256	404.75
360.483	385.75
360.709	382.75
360.936	383.75
361.163	366.75
361.39	383.75
361.616	395.75
361.843	376.75
362.07	367.75
362.296	355.75
362.523	383.75
362.749	371.75
362.976	376.75
363.203	359.75
363.429	362.75
363.656	373.75
363.882	362.75
364.109	357.75
364.335	365.75
364.562	362.75
364.788	361.75
365.015	352.75
365.241	347.75
365.468	355.75
365.694	363.75
365.92	350.75
366.147	355.75
366.373	388.75
366.599	360.75
366.826	382.75
367.052	374.75
367.278	360.75
367.505	341.75
367.731	356.75
367.957	362.75
368.184	358.75
368.41	375.75
368.636	377.75
368.862	365.75
369.089	373.75
369.315	364.75
369.541	362.75
369.767	358.75
369.993	379.75
370.219	368.75
370.445	377.75
370.672	381.75
370.898	362.75
371.124	364.75
371.35	377.75
371.576	371.75
371.802	384.75
372.028	353.75
372.254	364.75
372.48	382.75
372.706	362.75
372.932	372.75
373.158	362.75
373.384	373.75
373.61	374.75
373.835	386.75
374.061	361.75
374.287	365.75
374.513	391.75
374.739	396.75
374.965	396.75
375.191	390.75
375.416	411.75
375.642	376.75
375.868	380.75
376.094	374.75
376.319	375.75
376.545	370.75
376.771	381.75
376.997	380.75
377.222	351.75
377.448	372.75
377.674	373.75
377.899	374.75
378.125	353.75
378.35	347.75
378.576	350.75
378.802	365.75
379.027	364.75
379.253	358.75
379.478	354.75
379.704	376.75
379.929	364.75
380.155	379.75
380.38	356.75
380.606	361.75
380.831	355.75
381.057	360.75
381.282	368.75
381.507	358.75
381.733	355.75
381.958	362.75
382.184	383.75
382.409	371.75
382.634	385.75
382.86	391.75
383.085	377.75
383.31	385.75
383.535	384.75
383.761	389.75
383.986	404.75
384.211	397.75
384.436	418.75
384.662	417.75
384.887	397.75
385.112	401.75
385.337	418.75
385.562	417.75
385.787	400.75
386.013	416.75
386.238	399.75
386.463	417.75
386.688	421.75
386.913	408.75
387.138	420.75
387.363	396.75
387.588	406.75
387.813	422.75
388.038	407.75
388.263	410.75
388.488	399.75
388.713	407.75
388.938	422.75
389.163	420.75
389.387	411.75
389.612	411.75
389.837	387.75
390.062	408.75
390.287	406.75
390.512	383.75
390.736	398.75
390.961	405.75
391.186	401.75
391.411	426.75
391.636	439.75
391.86	432.75
392.085	453.75
392.31	426.75
392.534	452.75
392.759	449.75
392.984	406.75
393.208	419.75
393.433	410.75
393.658	408.75
393.882	420.75
394.107	428.75
394.331	411.75
394.556	439.75
394.78	415.75
395.005	421.75
395.229	427.75
395.454	441.75
395.678	445.75
395.903	446.75
396.127	439.75
396.352	462.75
396.576	430.75
396.801	434.75
397.025	440.75
397.249	445.75
397.474	437.75
397.698	470.75
397.922	445.75
398.147	466.75
398.371	454.75
398.595	476.75
398.82	479.75
399.044	512.75
399.268	530.75
399.492	579.75
399.717	637.75
399.941	649.75
400.165	637.75
400.389	593.75
400.613	555.75
400.837	520.75
401.062	503.75
401.286	485.75
401.51	484.75
401.734	483.75
401.958	490.75
402.182	501.75
402.406	502.75
402.63	484.75
402.854	502.75
403.078	524.75
403.302	517.75
403.526	544.75
403.75	525.75
403.974	536.75
404.198	543.75
404.422	535.75
404.645	550.75
404.869	561.75
405.093	587.75
405.317	627.75
405.541	668.75
405.765	585.75
405.988	556.75
406.212	555.75
406.436	553.75
406.66	550.75
406.883	571.75
407.107	576.75
407.331	586.75
407.555	643.75
407.778	658.75
408.002	597.75
408.226	606.75
408.449	568.75
408.673	553.75
408.896	578.75
409.12	583.75
409.344	575.75
409.567	515.75
409.791	518.75
410.014	550.75
410.238	520.75
410.461	519.75
410.685	519.75
410.908	542.75
411.132	553.75
411.355	557.75
411.578	548.75
411.802	558.75
412.025	521.75
412.249	543.75
412.472	582.75
412.695	604.75
412.919	592.75
413.142	549.75
413.365	514.75
413.589	519.75
413.812	494.75
414.035	497.75
414.258	484.75
414.482	489.75
414.705	494.75
414.928	481.75
415.151	493.75
415.374	487.75
415.597	490.75
415.821	482.75
416.044	468.75
416.267	476.75
416.49	465.75
416.713	458.75
416.936	479.75
417.159	496.75
417.382	484.75
417.605	492.75
417.828	482.75
418.051	481.75
418.274	497.75
418.497	472.75
418.72	479.75
418.943	490.75
419.166	492.75
419.389	529.75
419.611	544.75
419.834	507.75
420.057	504.75
420.28	540.75
420.503	554.75
420.726	528.75
420.948	526.75
421.171	529.75
421.394	548.75
421.617	519.75
421.839	465.75
422.062	487.75
422.285	513.75
422.507	533.75
422.73	575.75
422.953	542.75
423.175	531.75
423.398	511.75
423.621	494.75
423.843	526.75
424.066	532.75
424.288	527.75
424.511	525.75
424.733	566.75
424.956	589.75
425.178	596.75
425.401	577.75
425.623	589.75
425.846	549.75
426.068	501.75
426.291	467.75
426.513	479.75
426.735	496.75
426.958	516.75
427.18	569.75
427.402	637.75
427.625	696.75
427.847	618.75
428.069	597.75
428.292	538.75
428.514	471.75
428.736	485.75
428.958	455.75
429.181	464.75
429.403	462.75
429.625	479.75
429.847	474.75
430.069	505.75
430.292	530.75
430.514	459.75
430.736	456.75
430.958	460.75
431.18	459.75
431.402	440.75
431.624	421.75
431.846	439.75
432.068	438.75
432.29	445.75
432.512	450.75
432.734	447.75
432.956	447.75
433.178	499.75
433.4	435.75
433.622	443.75
433.844	438.75
434.066	417.75
434.287	453.75
434.509	454.75
434.731	459.75
434.953	471.75
435.175	492.75
435.397	489.75
435.618	494.75
435.84	530.75
436.062	551.75
436.284	599.75
436.505	502.75
436.727	485.75
436.949	473.75
437.17	467.75
437.392	451.75
437.614	461.75
437.835	469.75
438.057	526.75
438.278	578.75
438.5	569.75
438.721	634.75
438.943	629.75
439.165	519.75
439.386	489.75
439.608	463.75
439.829	473.75
440.05	484.75
440.272	537.75
440.493	508.75
440.715	483.75
440.936	467.75
441.158	475.75
441.379	492.75
441.6	472.75
441.822	492.75
442.043	523.75
442.264	546.75
442.486	585.75
442.707	506.75
442.928	489.75
443.149	511.75
443.371	525.75
443.592	531.75
443.813	634.75
444.034	621.75
444.255	548.75
444.476	527.75
444.698	530.75
444.919	542.75
445.14	616.75
445.361	542.75
445.582	542.75
445.803	567.75
446.024	587.75
446.245	614.75
446.466	577.75
446.687	487.75
446.908	457.75
447.129	464.75
447.35	442.75
447.571	443.75
447.792	419.75
448.013	445.75
448.234	442.75
448.455	465.75
448.675	538.75
448.896	613.75
449.117	539.75
449.338	496.75
449.559	575.75
449.779	631.75
450	534.75
450.221	448.75
450.442	418.75
450.662	440.75
450.883	425.75
451.104	431.75
451.324	421.75
451.545	416.75
451.766	419.75
451.986	399.75
452.207	407.75
452.428	416.75
452.648	407.75
452.869	393.75
453.089	414.75
453.31	418.75
453.53	418.75
453.751	408.75
453.971	409.75
454.192	414.75
454.412	391.75
454.633	390.75
454.853	396.75
455.073	386.75
455.294	414.75
455.514	451.75
455.734	445.75
455.955	405.75
456.175	382.75
456.395	396.75
456.616	396.75
456.836	395.75
457.056	383.75
457.276	376.75
457.497	399.75
457.717	381.75
457.937	400.75
458.157	378.75
458.377	402.75
458.598	420.75
458.818	438.75
459.038	482.75
459.258	493.75
459.478	444.75
459.698	442.75
459.918	472.75
460.138	459.75
460.358	463.75
460.578	470.75
460.798	472.75
461.018	490.75
461.238	484.75
461.458	477.75
461.678	464.75
461.898	465.75
462.118	490.75
462.338	502.75
462.558	498.75
462.777	530.75
462.997	552.75
463.217	584.75
463.437	576.75
463.657	545.75
463.876	541.75
464.096	542.75
464.316	538.75
464.536	538.75
464.755	532.75
464.975	495.75
465.195	538.75
465.414	546.75
465.634	501.75
465.854	451.75
466.073	446.75
466.293	442.75
466.512	429.75
466.732	432.75
466.951	418.75
467.171	438.75
467.391	418.75
467.61	426.75
467.829	454.75
468.049	456.75
468.268	469.75
468.488	427.75
468.707	423.75
468.927	412.75
469.146	403.75
469.365	419.75
469.585	442.75
469.804	415.75
470.023	433.75
470.243	436.75
470.462	461.75
470.681	442.75
470.901	443.75
471.12	439.75
471.339	417.75
471.558	413.75
471.777	428.75
471.997	429.75
472.216	469.75
472.435	545.75
472.654	508.75
472.873	459.75
473.092	435.75
473.311	437.75
473.53	437.75
473.749	431.75
473.968	448.75
474.187	483.75
474.406	520.75
474.625	439.75
474.844	431.75
475.063	423.75
475.282	396.75
475.501	401.75
475.72	438.75
475.939	435.75
476.158	411.75
476.377	415.75
476.596	430.75
476.814	433.75
477.033	432.75
477.252	442.75
477.471	451.75
477.69	448.75
477.908	472.75
478.127	471.75
478.346	477.75
478.564	479.75
478.783	479.75
479.002	492.75
479.22	505.75
479.439	474.75
479.658	518.75
479.876	488.75
480.095	510.75
480.313	544.75
480.532	532.75
480.751	541.75
480.969	580.75
481.188	698.75
481.406	781.75
481.624	623.75
481.843	558.75
482.061	537.75
482.28	521.75
482.498	490.75
482.717	493.75
482.935	504.75
483.153	500.75
483.372	505.75
483.59	494.75
483.808	479.75
484.027	480.75
484.245	496.75
484.463	485.75
484.681	474.75
484.9	491.75
485.118	512.75
485.336	501.75
485.554	485.75
485.772	501.75
485.99	518.75
486.209	499.75
486.427	502.75
486.645	500.75
486.863	511.75
487.081	510.75
487.299	522.75
487.517	503.75
487.735	514.75
487.953	528.75
488.171	505.75
488.389	513.75
488.607	514.75
488.825	496.75
489.043	495.75
489.261	505.75
489.479	511.75
489.696	491.75
489.914	518.75
490.132	504.75
490.35	522.75
490.568	544.75
490.786	574.75
491.003	566.75
491.221	568.75
491.439	578.75
491.657	584.75
491.874	580.75
492.092	590.75
492.31	595.75
492.527	605.75
492.745	599.75
492.963	601.75
493.18	617.75
493.398	607.75
493.615	601.75
493.833	614.75
494.05	599.75
494.268	586.75
494.485	595.75
494.703	591.75
494.92	590.75
495.138	570.75
495.355	595.75
495.573	594.75
495.79	583.75
496.008	629.75
496.225	586.75
496.442	584.75
496.66	595.75
496.877	612.75
497.094	599.75
497.312	605.75
497.529	595.75
497.746	630.75
497.963	637.75
498.181	655.75
498.398	671.75
498.615	686.75
498.832	691.75
499.049	735.75
499.267	782.75
499.484	835.75
499.701	881.75
499.918	931.75
500.135	981.75
500.352	1067.75
500.569	1108.75
500.786	1114.75
501.003	1085.75
501.22	1021.75
501.437	923.75
501.654	880.75
501.871	845.75
