Data from 1984.PennyLincolnUp.Lamp.En5.5.200Scan.071819.P1_HRD10591_16-59-24-968.txt Node
Date: Thu Jul 18 16:59:24 EDT 2019
User: cochatt
Spectrometer: HR+D1059
Trigger mode: 1
Integration Time (sec): 1.000000E-1
Scans to average: 1
Electric dark correction enabled: true
Nonlinearity correction enabled: false
Boxcar width: 0
XAxis mode: Wavelengths
Number of Pixels in Spectrum: 2048
>>>>>Begin Spectral Data<<<<<
223.165	-4.69
223.4	-4.69
223.635	-4.69
223.869	-19.69
224.104	-13.69
224.338	-28.69
224.573	-12.69
224.808	-12.69
225.042	-7.69
225.277	7.31
225.511	-4.69
225.746	15.31
225.98	1.31
226.215	4.31
226.449	13.31
226.683	14.31
226.918	27.31
227.152	21.31
227.387	31.31
227.621	32.31
227.856	37.31
228.09	33.31
228.324	45.31
228.559	57.31
228.793	56.31
229.027	86.31
229.262	99.31
229.496	110.31
229.73	114.31
229.964	115.31
230.199	107.31
230.433	101.31
230.667	100.31
230.901	110.31
231.136	91.31
231.37	113.31
231.604	103.31
231.838	107.31
232.072	113.31
232.306	116.31
232.541	99.31
232.775	97.31
233.009	115.31
233.243	102.31
233.477	107.31
233.711	101.31
233.945	94.31
234.179	125.31
234.413	107.31
234.647	115.31
234.881	114.31
235.115	104.31
235.349	127.31
235.583	126.31
235.817	134.31
236.051	121.31
236.285	115.31
236.519	104.31
236.753	119.31
236.987	125.31
237.221	148.31
237.455	169.31
237.689	150.31
237.922	123.31
238.156	123.31
238.39	127.31
238.624	113.31
238.858	119.31
239.091	118.31
239.325	107.31
239.559	99.31
239.793	122.31
240.027	127.31
240.26	134.31
240.494	127.31
240.728	111.31
240.961	123.31
241.195	130.31
241.429	126.31
241.662	119.31
241.896	130.31
242.13	125.31
242.363	135.31
242.597	127.31
242.83	121.31
243.064	129.31
243.298	134.31
243.531	121.31
243.765	129.31
243.998	156.31
244.232	132.31
244.465	137.31
244.699	146.31
244.932	144.31
245.166	137.31
245.399	143.31
245.633	125.31
245.866	141.31
246.099	130.31
246.333	149.31
246.566	144.31
246.8	134.31
247.033	143.31
247.266	137.31
247.5	147.31
247.733	142.31
247.966	144.31
248.2	160.31
248.433	134.31
248.666	162.31
248.899	166.31
249.133	166.31
249.366	181.31
249.599	179.31
249.832	172.31
250.066	184.31
250.299	179.31
250.532	193.31
250.765	185.31
250.998	184.31
251.231	181.31
251.465	177.31
251.698	161.31
251.931	169.31
252.164	174.31
252.397	188.31
252.63	174.31
252.863	190.31
253.096	185.31
253.329	181.31
253.562	180.31
253.795	186.31
254.028	191.31
254.261	186.31
254.494	185.31
254.727	210.31
254.96	234.31
255.193	222.31
255.426	191.31
255.659	209.31
255.892	224.31
256.124	235.31
256.357	249.31
256.59	225.31
256.823	206.31
257.056	200.31
257.289	188.31
257.521	179.31
257.754	187.31
257.987	199.31
258.22	187.31
258.452	193.31
258.685	188.31
258.918	177.31
259.151	189.31
259.383	174.31
259.616	182.31
259.849	175.31
260.081	199.31
260.314	195.31
260.547	219.31
260.779	203.31
261.012	213.31
261.244	208.31
261.477	209.31
261.71	212.31
261.942	205.31
262.175	208.31
262.407	203.31
262.64	202.31
262.872	204.31
263.105	189.31
263.337	206.31
263.57	197.31
263.802	201.31
264.035	189.31
264.267	197.31
264.499	179.31
264.732	211.31
264.964	184.31
265.197	186.31
265.429	200.31
265.661	187.31
265.894	197.31
266.126	211.31
266.358	205.31
266.591	197.31
266.823	198.31
267.055	211.31
267.287	205.31
267.52	217.31
267.752	211.31
267.984	218.31
268.216	234.31
268.448	206.31
268.681	205.31
268.913	210.31
269.145	236.31
269.377	233.31
269.609	242.31
269.841	233.31
270.073	245.31
270.306	253.31
270.538	259.31
270.77	265.31
271.002	257.31
271.234	263.31
271.466	245.31
271.698	247.31
271.93	260.31
272.162	257.31
272.394	234.31
272.626	260.31
272.858	252.31
273.09	243.31
273.322	239.31
273.553	227.31
273.785	226.31
274.017	255.31
274.249	233.31
274.481	236.31
274.713	234.31
274.945	232.31
275.176	237.31
275.408	235.31
275.64	258.31
275.872	249.31
276.104	237.31
276.335	237.31
276.567	265.31
276.799	267.31
277.031	258.31
277.262	277.31
277.494	279.31
277.726	264.31
277.957	259.31
278.189	257.31
278.421	256.31
278.652	267.31
278.884	251.31
279.115	238.31
279.347	232.31
279.579	245.31
279.81	248.31
280.042	258.31
280.273	259.31
280.505	270.31
280.736	272.31
280.968	244.31
281.199	237.31
281.431	269.31
281.662	251.31
281.894	268.31
282.125	265.31
282.356	275.31
282.588	291.31
282.819	279.31
283.051	260.31
283.282	263.31
283.513	260.31
283.745	271.31
283.976	260.31
284.207	268.31
284.439	275.31
284.67	258.31
284.901	273.31
285.132	273.31
285.364	269.31
285.595	258.31
285.826	259.31
286.057	260.31
286.288	272.31
286.52	281.31
286.751	270.31
286.982	253.31
287.213	271.31
287.444	258.31
287.675	286.31
287.906	296.31
288.138	285.31
288.369	294.31
288.6	294.31
288.831	280.31
289.062	283.31
289.293	265.31
289.524	277.31
289.755	272.31
289.986	282.31
290.217	287.31
290.448	275.31
290.679	286.31
290.91	281.31
291.141	283.31
291.371	279.31
291.602	281.31
291.833	292.31
292.064	290.31
292.295	281.31
292.526	285.31
292.757	283.31
292.987	287.31
293.218	285.31
293.449	285.31
293.68	270.31
293.91	274.31
294.141	284.31
294.372	285.31
294.603	301.31
294.833	270.31
295.064	285.31
295.295	283.31
295.525	311.31
295.756	296.31
295.987	295.31
296.217	297.31
296.448	308.31
296.679	308.31
296.909	292.31
297.14	277.31
297.37	300.31
297.601	286.31
297.831	288.31
298.062	287.31
298.292	300.31
298.523	282.31
298.753	283.31
298.984	310.31
299.214	289.31
299.445	286.31
299.675	302.31
299.905	310.31
300.136	299.31
300.366	297.31
300.597	295.31
300.827	305.31
301.057	309.31
301.288	312.31
301.518	333.31
301.748	324.31
301.979	326.31
302.209	314.31
302.439	306.31
302.669	323.31
302.9	311.31
303.13	318.31
303.36	341.31
303.59	314.31
303.82	323.31
304.051	330.31
304.281	309.31
304.511	313.31
304.741	331.31
304.971	321.31
305.201	321.31
305.431	311.31
305.661	328.31
305.891	327.31
306.121	301.31
306.352	335.31
306.582	295.31
306.812	321.31
307.042	317.31
307.272	319.31
307.502	320.31
307.731	317.31
307.961	309.31
308.191	314.31
308.421	321.31
308.651	316.31
308.881	311.31
309.111	314.31
309.341	312.31
309.571	342.31
309.8	340.31
310.03	324.31
310.26	339.31
310.49	337.31
310.72	347.31
310.949	341.31
311.179	371.31
311.409	335.31
311.639	357.31
311.868	357.31
312.098	343.31
312.328	355.31
312.557	365.31
312.787	354.31
313.017	373.31
313.246	357.31
313.476	336.31
313.706	357.31
313.935	330.31
314.165	369.31
314.394	352.31
314.624	349.31
314.853	334.31
315.083	365.31
315.312	346.31
315.542	335.31
315.771	342.31
316.001	321.31
316.23	343.31
316.46	319.31
316.689	345.31
316.919	323.31
317.148	353.31
317.377	353.31
317.607	366.31
317.836	351.31
318.065	357.31
318.295	354.31
318.524	344.31
318.753	325.31
318.983	334.31
319.212	345.31
319.441	321.31
319.67	362.31
319.9	363.31
320.129	364.31
320.358	345.31
320.587	332.31
320.816	361.31
321.046	349.31
321.275	353.31
321.504	357.31
321.733	356.31
321.962	360.31
322.191	382.31
322.42	373.31
322.649	369.31
322.878	395.31
323.108	391.31
323.337	397.31
323.566	411.31
323.795	423.31
324.024	460.31
324.253	513.31
324.482	718.31
324.71	1049.31
324.939	1437.31
325.168	1193.31
325.397	656.31
325.626	494.31
325.855	458.31
326.084	446.31
326.313	443.31
326.542	453.31
326.77	446.31
326.999	516.31
327.228	678.31
327.457	957.31
327.686	1125.31
327.914	803.31
328.143	565.31
328.372	533.31
328.6	501.31
328.829	467.31
329.058	487.31
329.287	469.31
329.515	474.31
329.744	454.31
329.972	479.31
330.201	525.31
330.43	583.31
330.658	542.31
330.887	501.31
331.115	505.31
331.344	467.31
331.572	463.31
331.801	433.31
332.03	432.31
332.258	438.31
332.486	429.31
332.715	451.31
332.943	437.31
333.172	462.31
333.4	468.31
333.629	490.31
333.857	515.31
334.085	521.31
334.314	589.31
334.542	656.31
334.771	641.31
334.999	543.31
335.227	499.31
335.455	488.31
335.684	464.31
335.912	460.31
336.14	467.31
336.369	426.31
336.597	450.31
336.825	435.31
337.053	416.31
337.281	430.31
337.51	425.31
337.738	411.31
337.966	411.31
338.194	414.31
338.422	405.31
338.65	398.31
338.878	410.31
339.106	407.31
339.334	402.31
339.562	405.31
339.79	379.31
340.018	409.31
340.246	407.31
340.474	393.31
340.702	363.31
340.93	396.31
341.158	387.31
341.386	374.31
341.614	387.31
341.842	382.31
342.07	372.31
342.298	385.31
342.526	377.31
342.754	385.31
342.981	382.31
343.209	384.31
343.437	390.31
343.665	412.31
343.893	425.31
344.12	441.31
344.348	429.31
344.576	405.31
344.804	402.31
345.031	408.31
345.259	397.31
345.487	400.31
345.714	381.31
345.942	385.31
346.17	355.31
346.397	367.31
346.625	372.31
346.853	345.31
347.08	349.31
347.308	349.31
347.535	377.31
347.763	388.31
347.99	374.31
348.218	379.31
348.445	380.31
348.673	385.31
348.9	371.31
349.128	346.31
349.355	344.31
349.583	341.31
349.81	361.31
350.037	342.31
350.265	344.31
350.492	349.31
350.72	351.31
350.947	383.31
351.174	363.31
351.402	362.31
351.629	359.31
351.856	342.31
352.083	362.31
352.311	371.31
352.538	362.31
352.765	358.31
352.992	356.31
353.22	379.31
353.447	365.31
353.674	364.31
353.901	354.31
354.128	353.31
354.355	347.31
354.583	352.31
354.81	357.31
355.037	362.31
355.264	375.31
355.491	364.31
355.718	350.31
355.945	345.31
356.172	352.31
356.399	360.31
356.626	350.31
356.853	345.31
357.08	344.31
357.307	343.31
357.534	356.31
357.761	364.31
357.988	358.31
358.215	348.31
358.441	349.31
358.668	352.31
358.895	358.31
359.122	355.31
359.349	381.31
359.576	372.31
359.802	348.31
360.029	377.31
360.256	383.31
360.483	367.31
360.709	356.31
360.936	358.31
361.163	358.31
361.39	374.31
361.616	345.31
361.843	380.31
362.07	362.31
362.296	355.31
362.523	365.31
362.749	341.31
362.976	349.31
363.203	349.31
363.429	346.31
363.656	350.31
363.882	337.31
364.109	333.31
364.335	345.31
364.562	336.31
364.788	344.31
365.015	360.31
365.241	361.31
365.468	330.31
365.694	339.31
365.92	337.31
366.147	340.31
366.373	305.31
366.599	344.31
366.826	350.31
367.052	350.31
367.278	326.31
367.505	370.31
367.731	361.31
367.957	339.31
368.184	331.31
368.41	343.31
368.636	346.31
368.862	360.31
369.089	357.31
369.315	338.31
369.541	342.31
369.767	358.31
369.993	364.31
370.219	352.31
370.445	341.31
370.672	370.31
370.898	355.31
371.124	345.31
371.35	341.31
371.576	357.31
371.802	358.31
372.028	360.31
372.254	345.31
372.48	345.31
372.706	356.31
372.932	362.31
373.158	363.31
373.384	361.31
373.61	356.31
373.835	365.31
374.061	367.31
374.287	348.31
374.513	359.31
374.739	379.31
374.965	392.31
375.191	387.31
375.416	379.31
375.642	376.31
375.868	363.31
376.094	337.31
376.319	350.31
376.545	356.31
376.771	353.31
376.997	345.31
377.222	363.31
377.448	359.31
377.674	318.31
377.899	333.31
378.125	346.31
378.35	333.31
378.576	337.31
378.802	351.31
379.027	337.31
379.253	348.31
379.478	351.31
379.704	346.31
379.929	365.31
380.155	342.31
380.38	335.31
380.606	355.31
380.831	334.31
381.057	346.31
381.282	356.31
381.507	356.31
381.733	336.31
381.958	351.31
382.184	339.31
382.409	355.31
382.634	354.31
382.86	361.31
383.085	359.31
383.31	373.31
383.535	369.31
383.761	382.31
383.986	366.31
384.211	385.31
384.436	395.31
384.662	384.31
384.887	394.31
385.112	395.31
385.337	402.31
385.562	397.31
385.787	399.31
386.013	422.31
386.238	422.31
386.463	398.31
386.688	422.31
386.913	386.31
387.138	411.31
387.363	406.31
387.588	403.31
387.813	405.31
388.038	401.31
388.263	390.31
388.488	398.31
388.713	394.31
388.938	392.31
389.163	399.31
389.387	396.31
389.612	387.31
389.837	390.31
390.062	397.31
390.287	407.31
390.512	398.31
390.736	408.31
390.961	380.31
391.186	406.31
391.411	412.31
391.636	417.31
391.86	438.31
392.085	431.31
392.31	423.31
392.534	423.31
392.759	418.31
392.984	411.31
393.208	388.31
393.433	408.31
393.658	423.31
393.882	409.31
394.107	399.31
394.331	384.31
394.556	399.31
394.78	406.31
395.005	419.31
395.229	419.31
395.454	418.31
395.678	445.31
395.903	442.31
396.127	428.31
396.352	459.31
396.576	442.31
396.801	407.31
397.025	425.31
397.249	424.31
397.474	433.31
397.698	438.31
397.922	446.31
398.147	446.31
398.371	446.31
398.595	454.31
398.82	473.31
399.044	487.31
399.268	525.31
399.492	552.31
399.717	609.31
399.941	647.31
400.165	621.31
400.389	577.31
400.613	543.31
400.837	497.31
401.062	497.31
401.286	464.31
401.51	479.31
401.734	467.31
401.958	489.31
402.182	486.31
402.406	471.31
402.63	490.31
402.854	476.31
403.078	493.31
403.302	500.31
403.526	514.31
403.75	493.31
403.974	523.31
404.198	500.31
404.422	514.31
404.645	520.31
404.869	529.31
405.093	555.31
405.317	579.31
405.541	601.31
405.765	553.31
405.988	533.31
406.212	529.31
406.436	566.31
406.66	558.31
406.883	509.31
407.107	577.31
407.331	610.31
407.555	634.31
407.778	644.31
408.002	578.31
408.226	545.31
408.449	549.31
408.673	526.31
408.896	541.31
409.12	563.31
409.344	554.31
409.567	514.31
409.791	495.31
410.014	500.31
410.238	493.31
410.461	525.31
410.685	511.31
410.908	497.31
411.132	533.31
411.355	535.31
411.578	509.31
411.802	514.31
412.025	512.31
412.249	505.31
412.472	553.31
412.695	586.31
412.919	565.31
413.142	533.31
413.365	486.31
413.589	477.31
413.812	478.31
414.035	482.31
414.258	463.31
414.482	473.31
414.705	466.31
414.928	473.31
415.151	449.31
415.374	470.31
415.597	462.31
415.821	443.31
416.044	469.31
416.267	454.31
416.49	455.31
416.713	442.31
416.936	466.31
417.159	468.31
417.382	461.31
417.605	477.31
417.828	479.31
418.051	487.31
418.274	461.31
418.497	476.31
418.72	472.31
418.943	477.31
419.166	504.31
419.389	499.31
419.611	497.31
419.834	498.31
420.057	490.31
420.28	514.31
420.503	502.31
420.726	501.31
420.948	499.31
421.171	511.31
421.394	538.31
421.617	488.31
421.839	476.31
422.062	493.31
422.285	470.31
422.507	510.31
422.73	541.31
422.953	541.31
423.175	500.31
423.398	501.31
423.621	490.31
423.843	503.31
424.066	500.31
424.288	498.31
424.511	502.31
424.733	532.31
424.956	588.31
425.178	559.31
425.401	561.31
425.623	565.31
425.846	512.31
426.068	487.31
426.291	476.31
426.513	466.31
426.735	473.31
426.958	490.31
427.18	533.31
427.402	605.31
427.625	646.31
427.847	602.31
428.069	557.31
428.292	522.31
428.514	471.31
428.736	453.31
428.958	459.31
429.181	438.31
429.403	446.31
429.625	440.31
429.847	464.31
430.069	491.31
430.292	498.31
430.514	441.31
430.736	416.31
430.958	456.31
431.18	435.31
431.402	418.31
431.624	417.31
431.846	423.31
432.068	422.31
432.29	414.31
432.512	443.31
432.734	430.31
432.956	410.31
433.178	449.31
433.4	421.31
433.622	431.31
433.844	426.31
434.066	427.31
434.287	419.31
434.509	428.31
434.731	452.31
434.953	459.31
435.175	473.31
435.397	489.31
435.618	493.31
435.84	494.31
436.062	533.31
436.284	581.31
436.505	492.31
436.727	452.31
436.949	450.31
437.17	435.31
437.392	434.31
437.614	434.31
437.835	456.31
438.057	479.31
438.278	564.31
438.5	535.31
438.721	612.31
438.943	566.31
439.165	515.31
439.386	467.31
439.608	465.31
439.829	452.31
440.05	468.31
440.272	513.31
440.493	480.31
440.715	459.31
440.936	453.31
441.158	449.31
441.379	442.31
441.6	469.31
441.822	462.31
442.043	493.31
442.264	558.31
442.486	562.31
442.707	493.31
442.928	486.31
443.149	481.31
443.371	498.31
443.592	533.31
443.813	578.31
444.034	601.31
444.255	521.31
444.476	524.31
444.698	534.31
444.919	521.31
445.14	597.31
445.361	548.31
445.582	504.31
445.803	535.31
446.024	600.31
446.245	585.31
446.466	561.31
446.687	482.31
446.908	458.31
447.129	426.31
447.35	424.31
447.571	443.31
447.792	403.31
448.013	425.31
448.234	418.31
448.455	454.31
448.675	525.31
448.896	614.31
449.117	498.31
449.338	486.31
449.559	536.31
449.779	597.31
450	496.31
450.221	431.31
450.442	428.31
450.662	403.31
450.883	415.31
451.104	410.31
451.324	424.31
451.545	415.31
451.766	383.31
451.986	403.31
452.207	398.31
452.428	388.31
452.648	378.31
452.869	379.31
453.089	389.31
453.31	409.31
453.53	397.31
453.751	393.31
453.971	394.31
454.192	386.31
454.412	385.31
454.633	363.31
454.853	387.31
455.073	390.31
455.294	394.31
455.514	439.31
455.734	433.31
455.955	383.31
456.175	357.31
456.395	362.31
456.616	367.31
456.836	362.31
457.056	358.31
457.276	361.31
457.497	387.31
457.717	369.31
457.937	362.31
458.157	383.31
458.377	389.31
458.598	402.31
458.818	423.31
459.038	472.31
459.258	488.31
459.478	456.31
459.698	428.31
459.918	407.31
460.138	449.31
460.358	470.31
460.578	473.31
460.798	446.31
461.018	445.31
461.238	469.31
461.458	476.31
461.678	459.31
461.898	445.31
462.118	476.31
462.338	487.31
462.558	498.31
462.777	496.31
462.997	542.31
463.217	542.31
463.437	586.31
463.657	517.31
463.876	519.31
464.096	499.31
464.316	501.31
464.536	517.31
464.755	509.31
464.975	504.31
465.195	495.31
465.414	513.31
465.634	455.31
465.854	459.31
466.073	423.31
466.293	435.31
466.512	396.31
466.732	413.31
466.951	414.31
467.171	404.31
467.391	407.31
467.61	414.31
467.829	410.31
468.049	415.31
468.268	438.31
468.488	395.31
468.707	400.31
468.927	395.31
469.146	396.31
469.365	399.31
469.585	408.31
469.804	430.31
470.023	411.31
470.243	418.31
470.462	405.31
470.681	421.31
470.901	450.31
471.12	437.31
471.339	407.31
471.558	409.31
471.777	402.31
471.997	417.31
472.216	442.31
472.435	475.31
472.654	472.31
472.873	428.31
473.092	424.31
473.311	401.31
473.53	425.31
473.749	416.31
473.968	422.31
474.187	478.31
474.406	473.31
474.625	429.31
474.844	410.31
475.063	397.31
475.282	382.31
475.501	404.31
475.72	395.31
475.939	414.31
476.158	431.31
476.377	406.31
476.596	397.31
476.814	415.31
477.033	408.31
477.252	430.31
477.471	435.31
477.69	447.31
477.908	451.31
478.127	438.31
478.346	415.31
478.564	469.31
478.783	445.31
479.002	472.31
479.22	485.31
479.439	508.31
479.658	497.31
479.876	493.31
480.095	490.31
480.313	521.31
480.532	514.31
480.751	521.31
480.969	538.31
481.188	629.31
481.406	678.31
481.624	589.31
481.843	530.31
482.061	479.31
482.28	498.31
482.498	484.31
482.717	499.31
482.935	478.31
483.153	495.31
483.372	452.31
483.59	468.31
483.808	451.31
484.027	469.31
484.245	467.31
484.463	460.31
484.681	466.31
484.9	475.31
485.118	472.31
485.336	471.31
485.554	466.31
485.772	482.31
485.99	481.31
486.209	482.31
486.427	491.31
486.645	487.31
486.863	526.31
487.081	498.31
487.299	487.31
487.517	493.31
487.735	486.31
487.953	504.31
488.171	471.31
488.389	477.31
488.607	471.31
488.825	490.31
489.043	488.31
489.261	491.31
489.479	510.31
489.696	503.31
489.914	488.31
490.132	527.31
490.35	538.31
490.568	520.31
490.786	508.31
491.003	528.31
491.221	542.31
491.439	544.31
491.657	561.31
491.874	572.31
492.092	560.31
492.31	565.31
492.527	581.31
492.745	602.31
492.963	581.31
493.18	579.31
493.398	579.31
493.615	570.31
493.833	568.31
494.05	588.31
494.268	593.31
494.485	590.31
494.703	571.31
494.92	584.31
495.138	556.31
495.355	565.31
495.573	561.31
495.79	565.31
496.008	562.31
496.225	582.31
496.442	563.31
496.66	595.31
496.877	578.31
497.094	577.31
497.312	598.31
497.529	585.31
497.746	591.31
497.963	608.31
498.181	637.31
498.398	633.31
498.615	684.31
498.832	705.31
499.049	708.31
499.267	735.31
499.484	805.31
499.701	839.31
499.918	896.31
500.135	971.31
500.352	1043.31
500.569	1105.31
500.786	1098.31
501.003	1053.31
501.22	981.31
501.437	911.31
501.654	856.31
501.871	814.31
502.088	758.31
