Data from 1984.PennyLincolnUp.Lamp.En5.5.200Scan.071819.P1_HRD10591_16-59-05-968.txt Node
Date: Thu Jul 18 16:59:05 EDT 2019
User: cochatt
Spectrometer: HR+D1059
Trigger mode: 1
Integration Time (sec): 1.000000E-1
Scans to average: 1
Electric dark correction enabled: true
Nonlinearity correction enabled: false
Boxcar width: 0
XAxis mode: Wavelengths
Number of Pixels in Spectrum: 2048
>>>>>Begin Spectral Data<<<<<
223.165	-19.06
223.4	-19.06
223.635	-19.06
223.869	-21.06
224.104	-8.06
224.338	-10.06
224.573	-1.06
224.808	-0.06
225.042	-17.06
225.277	-12.06
225.511	-7.06
225.746	9.94
225.98	-2.06
226.215	1.94
226.449	12.94
226.683	18.94
226.918	19.94
227.152	33.94
227.387	49.94
227.621	42.94
227.856	43.94
228.09	54.94
228.324	53.94
228.559	63.94
228.793	53.94
229.027	76.94
229.262	104.94
229.496	87.94
229.73	99.94
229.964	125.94
230.199	119.94
230.433	101.94
230.667	90.94
230.901	96.94
231.136	111.94
231.37	102.94
231.604	105.94
231.838	103.94
232.072	95.94
232.306	107.94
232.541	118.94
232.775	114.94
233.009	115.94
233.243	113.94
233.477	102.94
233.711	118.94
233.945	117.94
234.179	111.94
234.413	112.94
234.647	120.94
234.881	124.94
235.115	113.94
235.349	108.94
235.583	107.94
235.817	100.94
236.051	120.94
236.285	102.94
236.519	123.94
236.753	124.94
236.987	120.94
237.221	129.94
237.455	179.94
237.689	166.94
237.922	120.94
238.156	119.94
238.39	128.94
238.624	116.94
238.858	122.94
239.091	118.94
239.325	112.94
239.559	130.94
239.793	121.94
240.027	128.94
240.26	122.94
240.494	128.94
240.728	146.94
240.961	124.94
241.195	126.94
241.429	134.94
241.662	129.94
241.896	138.94
242.13	120.94
242.363	101.94
242.597	128.94
242.83	128.94
243.064	122.94
243.298	117.94
243.531	136.94
243.765	128.94
243.998	134.94
244.232	152.94
244.465	130.94
244.699	133.94
244.932	148.94
245.166	136.94
245.399	133.94
245.633	141.94
245.866	146.94
246.099	136.94
246.333	133.94
246.566	145.94
246.8	150.94
247.033	151.94
247.266	136.94
247.5	149.94
247.733	159.94
247.966	160.94
248.2	156.94
248.433	148.94
248.666	148.94
248.899	163.94
249.133	178.94
249.366	179.94
249.599	176.94
249.832	153.94
250.066	169.94
250.299	172.94
250.532	181.94
250.765	211.94
250.998	206.94
251.231	206.94
251.465	184.94
251.698	194.94
251.931	156.94
252.164	164.94
252.397	173.94
252.63	178.94
252.863	200.94
253.096	188.94
253.329	187.94
253.562	196.94
253.795	196.94
254.028	204.94
254.261	173.94
254.494	192.94
254.727	218.94
254.96	221.94
255.193	213.94
255.426	206.94
255.659	217.94
255.892	226.94
256.124	251.94
256.357	258.94
256.59	237.94
256.823	200.94
257.056	205.94
257.289	192.94
257.521	208.94
257.754	193.94
257.987	184.94
258.22	184.94
258.452	174.94
258.685	180.94
258.918	184.94
259.151	189.94
259.383	193.94
259.616	195.94
259.849	194.94
260.081	200.94
260.314	224.94
260.547	218.94
260.779	214.94
261.012	188.94
261.244	189.94
261.477	177.94
261.71	197.94
261.942	205.94
262.175	214.94
262.407	198.94
262.64	196.94
262.872	220.94
263.105	203.94
263.337	196.94
263.57	204.94
263.802	197.94
264.035	211.94
264.267	217.94
264.499	197.94
264.732	210.94
264.964	197.94
265.197	185.94
265.429	201.94
265.661	205.94
265.894	213.94
266.126	203.94
266.358	206.94
266.591	199.94
266.823	199.94
267.055	213.94
267.287	213.94
267.52	217.94
267.752	218.94
267.984	207.94
268.216	216.94
268.448	205.94
268.681	208.94
268.913	221.94
269.145	228.94
269.377	231.94
269.609	253.94
269.841	251.94
270.073	242.94
270.306	258.94
270.538	268.94
270.77	262.94
271.002	248.94
271.234	249.94
271.466	256.94
271.698	272.94
271.93	258.94
272.162	268.94
272.394	285.94
272.626	245.94
272.858	260.94
273.09	250.94
273.322	232.94
273.553	248.94
273.785	252.94
274.017	259.94
274.249	270.94
274.481	236.94
274.713	232.94
274.945	264.94
275.176	239.94
275.408	250.94
275.64	255.94
275.872	242.94
276.104	244.94
276.335	236.94
276.567	247.94
276.799	263.94
277.031	248.94
277.262	290.94
277.494	272.94
277.726	275.94
277.957	271.94
278.189	260.94
278.421	255.94
278.652	260.94
278.884	245.94
279.115	262.94
279.347	259.94
279.579	271.94
279.81	266.94
280.042	258.94
280.273	249.94
280.505	264.94
280.736	252.94
280.968	249.94
281.199	263.94
281.431	266.94
281.662	259.94
281.894	246.94
282.125	255.94
282.356	292.94
282.588	285.94
282.819	274.94
283.051	264.94
283.282	266.94
283.513	266.94
283.745	270.94
283.976	275.94
284.207	285.94
284.439	290.94
284.67	284.94
284.901	281.94
285.132	261.94
285.364	273.94
285.595	264.94
285.826	256.94
286.057	274.94
286.288	282.94
286.52	286.94
286.751	271.94
286.982	289.94
287.213	274.94
287.444	280.94
287.675	287.94
287.906	288.94
288.138	275.94
288.369	294.94
288.6	295.94
288.831	279.94
289.062	278.94
289.293	298.94
289.524	290.94
289.755	274.94
289.986	283.94
290.217	267.94
290.448	288.94
290.679	271.94
290.91	278.94
291.141	286.94
291.371	283.94
291.602	285.94
291.833	275.94
292.064	284.94
292.295	293.94
292.526	298.94
292.757	291.94
292.987	297.94
293.218	287.94
293.449	295.94
293.68	285.94
293.91	285.94
294.141	278.94
294.372	293.94
294.603	288.94
294.833	300.94
295.064	306.94
295.295	294.94
295.525	298.94
295.756	296.94
295.987	284.94
296.217	307.94
296.448	302.94
296.679	298.94
296.909	295.94
297.14	293.94
297.37	306.94
297.601	285.94
297.831	286.94
298.062	285.94
298.292	299.94
298.523	302.94
298.753	297.94
298.984	295.94
299.214	289.94
299.445	298.94
299.675	326.94
299.905	322.94
300.136	297.94
300.366	301.94
300.597	316.94
300.827	310.94
301.057	326.94
301.288	328.94
301.518	323.94
301.748	292.94
301.979	321.94
302.209	315.94
302.439	326.94
302.669	313.94
302.9	328.94
303.13	327.94
303.36	331.94
303.59	326.94
303.82	314.94
304.051	333.94
304.281	322.94
304.511	328.94
304.741	318.94
304.971	323.94
305.201	316.94
305.431	325.94
305.661	309.94
305.891	323.94
306.121	301.94
306.352	321.94
306.582	313.94
306.812	318.94
307.042	307.94
307.272	325.94
307.502	331.94
307.731	325.94
307.961	324.94
308.191	315.94
308.421	329.94
308.651	337.94
308.881	316.94
309.111	313.94
309.341	312.94
309.571	329.94
309.8	336.94
310.03	347.94
310.26	350.94
310.49	337.94
310.72	346.94
310.949	351.94
311.179	345.94
311.409	334.94
311.639	351.94
311.868	341.94
312.098	348.94
312.328	351.94
312.557	375.94
312.787	363.94
313.017	363.94
313.246	360.94
313.476	327.94
313.706	353.94
313.935	353.94
314.165	369.94
314.394	359.94
314.624	357.94
314.853	359.94
315.083	359.94
315.312	365.94
315.542	348.94
315.771	348.94
316.001	341.94
316.23	334.94
316.46	338.94
316.689	352.94
316.919	342.94
317.148	355.94
317.377	353.94
317.607	336.94
317.836	332.94
318.065	352.94
318.295	330.94
318.524	344.94
318.753	340.94
318.983	340.94
319.212	343.94
319.441	351.94
319.67	341.94
319.9	354.94
320.129	355.94
320.358	360.94
320.587	326.94
320.816	341.94
321.046	367.94
321.275	380.94
321.504	372.94
321.733	359.94
321.962	388.94
322.191	370.94
322.42	388.94
322.649	373.94
322.878	404.94
323.108	400.94
323.337	413.94
323.566	404.94
323.795	445.94
324.024	466.94
324.253	532.94
324.482	730.94
324.71	1058.94
324.939	1454.94
325.168	1225.94
325.397	694.94
325.626	524.94
325.855	458.94
326.084	448.94
326.313	442.94
326.542	432.94
326.77	473.94
326.999	536.94
327.228	680.94
327.457	978.94
327.686	1170.94
327.914	819.94
328.143	571.94
328.372	537.94
328.6	503.94
328.829	489.94
329.058	502.94
329.287	505.94
329.515	492.94
329.744	467.94
329.972	499.94
330.201	521.94
330.43	582.94
330.658	550.94
330.887	519.94
331.115	509.94
331.344	478.94
331.572	436.94
331.801	466.94
332.03	451.94
332.258	419.94
332.486	444.94
332.715	447.94
332.943	457.94
333.172	489.94
333.4	441.94
333.629	474.94
333.857	523.94
334.085	541.94
334.314	590.94
334.542	637.94
334.771	662.94
334.999	562.94
335.227	506.94
335.455	460.94
335.684	470.94
335.912	454.94
336.14	441.94
336.369	443.94
336.597	452.94
336.825	411.94
337.053	446.94
337.281	412.94
337.51	434.94
337.738	419.94
337.966	410.94
338.194	404.94
338.422	414.94
338.65	406.94
338.878	406.94
339.106	400.94
339.334	398.94
339.562	394.94
339.79	408.94
340.018	410.94
340.246	397.94
340.474	399.94
340.702	395.94
340.93	390.94
341.158	387.94
341.386	385.94
341.614	398.94
341.842	382.94
342.07	391.94
342.298	378.94
342.526	384.94
342.754	389.94
342.981	376.94
343.209	367.94
343.437	417.94
343.665	408.94
343.893	438.94
344.12	432.94
344.348	445.94
344.576	421.94
344.804	408.94
345.031	409.94
345.259	401.94
345.487	392.94
345.714	372.94
345.942	396.94
346.17	381.94
346.397	363.94
346.625	377.94
346.853	371.94
347.08	360.94
347.308	372.94
347.535	363.94
347.763	374.94
347.99	380.94
348.218	396.94
348.445	369.94
348.673	380.94
348.9	372.94
349.128	379.94
349.355	372.94
349.583	362.94
349.81	368.94
350.037	370.94
350.265	358.94
350.492	370.94
350.72	362.94
350.947	361.94
351.174	351.94
351.402	362.94
351.629	377.94
351.856	378.94
352.083	364.94
352.311	366.94
352.538	374.94
352.765	386.94
352.992	361.94
353.22	370.94
353.447	369.94
353.674	371.94
353.901	368.94
354.128	359.94
354.355	349.94
354.583	337.94
354.81	345.94
355.037	355.94
355.264	347.94
355.491	357.94
355.718	345.94
355.945	349.94
356.172	357.94
356.399	342.94
356.626	371.94
356.853	341.94
357.08	361.94
357.307	352.94
357.534	338.94
357.761	337.94
357.988	357.94
358.215	352.94
358.441	349.94
358.668	358.94
358.895	354.94
359.122	341.94
359.349	352.94
359.576	373.94
359.802	383.94
360.029	404.94
360.256	382.94
360.483	386.94
360.709	362.94
360.936	370.94
361.163	374.94
361.39	344.94
361.616	371.94
361.843	357.94
362.07	350.94
362.296	380.94
362.523	370.94
362.749	373.94
362.976	373.94
363.203	354.94
363.429	346.94
363.656	339.94
363.882	350.94
364.109	376.94
364.335	346.94
364.562	355.94
364.788	347.94
365.015	361.94
365.241	368.94
365.468	334.94
365.694	369.94
365.92	371.94
366.147	334.94
366.373	348.94
366.599	342.94
366.826	340.94
367.052	347.94
367.278	355.94
367.505	322.94
367.731	363.94
367.957	355.94
368.184	345.94
368.41	357.94
368.636	354.94
368.862	364.94
369.089	361.94
369.315	354.94
369.541	368.94
369.767	347.94
369.993	359.94
370.219	346.94
370.445	348.94
370.672	368.94
370.898	357.94
371.124	373.94
371.35	357.94
371.576	363.94
371.802	374.94
372.028	367.94
372.254	372.94
372.48	378.94
372.706	382.94
372.932	361.94
373.158	371.94
373.384	354.94
373.61	376.94
373.835	352.94
374.061	385.94
374.287	367.94
374.513	341.94
374.739	363.94
374.965	373.94
375.191	390.94
375.416	366.94
375.642	376.94
375.868	364.94
376.094	370.94
376.319	371.94
376.545	378.94
376.771	358.94
376.997	338.94
377.222	365.94
377.448	363.94
377.674	372.94
377.899	346.94
378.125	348.94
378.35	334.94
378.576	345.94
378.802	339.94
379.027	352.94
379.253	373.94
379.478	336.94
379.704	352.94
379.929	363.94
380.155	345.94
380.38	358.94
380.606	348.94
380.831	340.94
381.057	369.94
381.282	348.94
381.507	339.94
381.733	372.94
381.958	351.94
382.184	371.94
382.409	362.94
382.634	389.94
382.86	357.94
383.085	372.94
383.31	399.94
383.535	373.94
383.761	372.94
383.986	374.94
384.211	373.94
384.436	384.94
384.662	409.94
384.887	407.94
385.112	402.94
385.337	417.94
385.562	408.94
385.787	398.94
386.013	405.94
386.238	421.94
386.463	413.94
386.688	420.94
386.913	412.94
387.138	418.94
387.363	410.94
387.588	410.94
387.813	407.94
388.038	397.94
388.263	413.94
388.488	403.94
388.713	420.94
388.938	412.94
389.163	382.94
389.387	422.94
389.612	390.94
389.837	398.94
390.062	393.94
390.287	393.94
390.512	392.94
390.736	407.94
390.961	413.94
391.186	398.94
391.411	406.94
391.636	429.94
391.86	412.94
392.085	434.94
392.31	426.94
392.534	411.94
392.759	409.94
392.984	417.94
393.208	428.94
393.433	410.94
393.658	416.94
393.882	413.94
394.107	394.94
394.331	408.94
394.556	413.94
394.78	409.94
395.005	417.94
395.229	419.94
395.454	420.94
395.678	442.94
395.903	419.94
396.127	435.94
396.352	458.94
396.576	427.94
396.801	425.94
397.025	425.94
397.249	426.94
397.474	435.94
397.698	460.94
397.922	442.94
398.147	465.94
398.371	457.94
398.595	487.94
398.82	464.94
399.044	511.94
399.268	536.94
399.492	560.94
399.717	619.94
399.941	644.94
400.165	630.94
400.389	585.94
400.613	562.94
400.837	510.94
401.062	506.94
401.286	514.94
401.51	482.94
401.734	489.94
401.958	481.94
402.182	487.94
402.406	482.94
402.63	503.94
402.854	491.94
403.078	491.94
403.302	508.94
403.526	519.94
403.75	529.94
403.974	514.94
404.198	540.94
404.422	534.94
404.645	528.94
404.869	529.94
405.093	572.94
405.317	599.94
405.541	608.94
405.765	579.94
405.988	538.94
406.212	536.94
406.436	544.94
406.66	563.94
406.883	530.94
407.107	557.94
407.331	596.94
407.555	648.94
407.778	663.94
408.002	613.94
408.226	568.94
408.449	549.94
408.673	550.94
408.896	561.94
409.12	584.94
409.344	550.94
409.567	540.94
409.791	526.94
410.014	514.94
410.238	491.94
410.461	511.94
410.685	500.94
410.908	521.94
411.132	523.94
411.355	513.94
411.578	531.94
411.802	505.94
412.025	498.94
412.249	487.94
412.472	560.94
412.695	589.94
412.919	582.94
413.142	540.94
413.365	494.94
413.589	484.94
413.812	493.94
414.035	486.94
414.258	485.94
414.482	491.94
414.705	478.94
414.928	506.94
415.151	470.94
415.374	457.94
415.597	465.94
415.821	472.94
416.044	485.94
416.267	467.94
416.49	468.94
416.713	474.94
416.936	468.94
417.159	448.94
417.382	475.94
417.605	490.94
417.828	476.94
418.051	488.94
418.274	473.94
418.497	483.94
418.72	489.94
418.943	469.94
419.166	480.94
419.389	523.94
419.611	509.94
419.834	484.94
420.057	516.94
420.28	530.94
420.503	524.94
420.726	510.94
420.948	513.94
421.171	496.94
421.394	541.94
421.617	477.94
421.839	485.94
422.062	493.94
422.285	492.94
422.507	509.94
422.73	569.94
422.953	550.94
423.175	495.94
423.398	484.94
423.621	505.94
423.843	540.94
424.066	499.94
424.288	499.94
424.511	512.94
424.733	554.94
424.956	576.94
425.178	569.94
425.401	571.94
425.623	578.94
425.846	515.94
426.068	484.94
426.291	480.94
426.513	485.94
426.735	500.94
426.958	493.94
427.18	546.94
427.402	618.94
427.625	674.94
427.847	609.94
428.069	568.94
428.292	512.94
428.514	476.94
428.736	462.94
428.958	449.94
429.181	456.94
429.403	440.94
429.625	457.94
429.847	444.94
430.069	512.94
430.292	522.94
430.514	467.94
430.736	448.94
430.958	441.94
431.18	465.94
431.402	444.94
431.624	437.94
431.846	453.94
432.068	439.94
432.29	438.94
432.512	433.94
432.734	428.94
432.956	435.94
433.178	442.94
433.4	436.94
433.622	426.94
433.844	430.94
434.066	426.94
434.287	436.94
434.509	456.94
434.731	472.94
434.953	467.94
435.175	478.94
435.397	477.94
435.618	474.94
435.84	502.94
436.062	586.94
436.284	590.94
436.505	485.94
436.727	477.94
436.949	456.94
437.17	444.94
437.392	449.94
437.614	461.94
437.835	456.94
438.057	495.94
438.278	576.94
438.5	552.94
438.721	626.94
438.943	588.94
439.165	512.94
439.386	466.94
439.608	465.94
439.829	461.94
440.05	482.94
440.272	516.94
440.493	488.94
440.715	469.94
440.936	446.94
441.158	473.94
441.379	488.94
441.6	494.94
441.822	494.94
442.043	500.94
442.264	557.94
442.486	568.94
442.707	530.94
442.928	509.94
443.149	525.94
443.371	514.94
443.592	539.94
443.813	588.94
444.034	641.94
444.255	550.94
444.476	516.94
444.698	513.94
444.919	530.94
445.14	628.94
445.361	553.94
445.582	516.94
445.803	560.94
446.024	579.94
446.245	600.94
446.466	534.94
446.687	514.94
446.908	472.94
447.129	426.94
447.35	438.94
447.571	458.94
447.792	429.94
448.013	443.94
448.234	456.94
448.455	469.94
448.675	556.94
448.896	594.94
449.117	530.94
449.338	500.94
449.559	557.94
449.779	618.94
450	503.94
450.221	456.94
450.442	445.94
450.662	424.94
450.883	435.94
451.104	420.94
451.324	430.94
451.545	398.94
451.766	406.94
451.986	390.94
452.207	399.94
452.428	380.94
452.648	370.94
452.869	380.94
453.089	397.94
453.31	412.94
453.53	367.94
453.751	385.94
453.971	390.94
454.192	407.94
454.412	405.94
454.633	398.94
454.853	406.94
455.073	384.94
455.294	392.94
455.514	433.94
455.734	406.94
455.955	385.94
456.175	388.94
456.395	383.94
456.616	378.94
456.836	378.94
457.056	391.94
457.276	364.94
457.497	388.94
457.717	386.94
457.937	393.94
458.157	395.94
458.377	387.94
458.598	419.94
458.818	458.94
459.038	467.94
459.258	508.94
459.478	475.94
459.698	448.94
459.918	438.94
460.138	444.94
460.358	472.94
460.578	470.94
460.798	476.94
461.018	479.94
461.238	463.94
461.458	457.94
461.678	461.94
461.898	471.94
462.118	466.94
462.338	484.94
462.558	509.94
462.777	505.94
462.997	556.94
463.217	558.94
463.437	555.94
463.657	547.94
463.876	514.94
464.096	512.94
464.316	533.94
464.536	539.94
464.755	520.94
464.975	520.94
465.195	521.94
465.414	534.94
465.634	473.94
465.854	444.94
466.073	441.94
466.293	417.94
466.512	407.94
466.732	402.94
466.951	407.94
467.171	416.94
467.391	403.94
467.61	425.94
467.829	434.94
468.049	416.94
468.268	433.94
468.488	422.94
468.707	408.94
468.927	418.94
469.146	410.94
469.365	391.94
469.585	416.94
469.804	401.94
470.023	412.94
470.243	424.94
470.462	409.94
470.681	433.94
470.901	442.94
471.12	428.94
471.339	431.94
471.558	419.94
471.777	412.94
471.997	428.94
472.216	422.94
472.435	495.94
472.654	481.94
472.873	428.94
473.092	425.94
473.311	418.94
473.53	397.94
473.749	436.94
473.968	449.94
474.187	503.94
474.406	515.94
474.625	439.94
474.844	430.94
475.063	412.94
475.282	394.94
475.501	395.94
475.72	404.94
475.939	415.94
476.158	417.94
476.377	412.94
476.596	410.94
476.814	416.94
477.033	421.94
477.252	452.94
477.471	432.94
477.69	434.94
477.908	441.94
478.127	445.94
478.346	446.94
478.564	465.94
478.783	478.94
479.002	449.94
479.22	470.94
479.439	483.94
479.658	482.94
479.876	503.94
480.095	501.94
480.313	528.94
480.532	528.94
480.751	537.94
480.969	538.94
481.188	624.94
481.406	658.94
481.624	562.94
481.843	508.94
482.061	516.94
482.28	493.94
482.498	485.94
482.717	493.94
482.935	480.94
483.153	472.94
483.372	486.94
483.59	495.94
483.808	468.94
484.027	485.94
484.245	489.94
484.463	470.94
484.681	484.94
484.9	504.94
485.118	491.94
485.336	494.94
485.554	474.94
485.772	493.94
485.99	490.94
486.209	495.94
486.427	505.94
486.645	489.94
486.863	482.94
487.081	503.94
487.299	496.94
487.517	496.94
487.735	482.94
487.953	474.94
488.171	494.94
488.389	500.94
488.607	506.94
488.825	483.94
489.043	501.94
489.261	518.94
489.479	505.94
489.696	512.94
489.914	514.94
490.132	522.94
490.35	514.94
490.568	521.94
490.786	541.94
491.003	544.94
491.221	560.94
491.439	566.94
491.657	537.94
491.874	570.94
492.092	588.94
492.31	572.94
492.527	574.94
492.745	577.94
492.963	604.94
493.18	587.94
493.398	588.94
493.615	574.94
493.833	600.94
494.05	568.94
494.268	591.94
494.485	561.94
494.703	573.94
494.92	575.94
495.138	575.94
495.355	597.94
495.573	592.94
495.79	576.94
496.008	561.94
496.225	585.94
496.442	573.94
496.66	598.94
496.877	569.94
497.094	607.94
497.312	600.94
497.529	620.94
497.746	625.94
497.963	644.94
498.181	628.94
498.398	668.94
498.615	707.94
498.832	705.94
499.049	713.94
499.267	769.94
499.484	803.94
499.701	856.94
499.918	900.94
500.135	997.94
500.352	1074.94
500.569	1107.94
500.786	1115.94
501.003	1078.94
501.22	1009.94
501.437	904.94
501.654	861.94
501.871	796.94
