Data from 1984.PennyLincolnUp.Lamp.En5.5.200Scan.071819.P1_HRD10591_16-59-52-969.txt Node
Date: Thu Jul 18 16:59:52 EDT 2019
User: cochatt
Spectrometer: HR+D1059
Trigger mode: 1
Integration Time (sec): 1.000000E-1
Scans to average: 1
Electric dark correction enabled: true
Nonlinearity correction enabled: false
Boxcar width: 0
XAxis mode: Wavelengths
Number of Pixels in Spectrum: 2048
>>>>>Begin Spectral Data<<<<<
223.165	2.31
223.4	2.31
223.635	2.31
223.869	-14.69
224.104	-21.69
224.338	-20.69
224.573	-20.69
224.808	-9.69
225.042	-16.69
225.277	2.31
225.511	-7.69
225.746	5.31
225.98	9.31
226.215	5.31
226.449	10.31
226.683	15.31
226.918	31.31
227.152	30.31
227.387	36.31
227.621	41.31
227.856	40.31
228.09	36.31
228.324	47.31
228.559	55.31
228.793	61.31
229.027	75.31
229.262	90.31
229.496	99.31
229.73	111.31
229.964	123.31
230.199	122.31
230.433	103.31
230.667	96.31
230.901	86.31
231.136	116.31
231.37	108.31
231.604	119.31
231.838	108.31
232.072	102.31
232.306	118.31
232.541	89.31
232.775	115.31
233.009	122.31
233.243	113.31
233.477	112.31
233.711	101.31
233.945	116.31
234.179	113.31
234.413	118.31
234.647	108.31
234.881	108.31
235.115	96.31
235.349	104.31
235.583	107.31
235.817	111.31
236.051	112.31
236.285	107.31
236.519	111.31
236.753	121.31
236.987	132.31
237.221	138.31
237.455	155.31
237.689	161.31
237.922	134.31
238.156	119.31
238.39	121.31
238.624	119.31
238.858	120.31
239.091	104.31
239.325	116.31
239.559	114.31
239.793	113.31
240.027	125.31
240.26	128.31
240.494	141.31
240.728	145.31
240.961	128.31
241.195	121.31
241.429	133.31
241.662	129.31
241.896	130.31
242.13	117.31
242.363	123.31
242.597	127.31
242.83	134.31
243.064	138.31
243.298	136.31
243.531	123.31
243.765	141.31
243.998	129.31
244.232	131.31
244.465	117.31
244.699	128.31
244.932	143.31
245.166	137.31
245.399	136.31
245.633	147.31
245.866	145.31
246.099	141.31
246.333	145.31
246.566	144.31
246.8	144.31
247.033	144.31
247.266	160.31
247.5	139.31
247.733	154.31
247.966	152.31
248.2	155.31
248.433	140.31
248.666	162.31
248.899	148.31
249.133	160.31
249.366	161.31
249.599	156.31
249.832	159.31
250.066	181.31
250.299	187.31
250.532	204.31
250.765	201.31
250.998	196.31
251.231	178.31
251.465	187.31
251.698	191.31
251.931	195.31
252.164	177.31
252.397	187.31
252.63	183.31
252.863	177.31
253.096	182.31
253.329	204.31
253.562	189.31
253.795	191.31
254.028	194.31
254.261	188.31
254.494	186.31
254.727	211.31
254.96	231.31
255.193	232.31
255.426	209.31
255.659	215.31
255.892	246.31
256.124	264.31
256.357	301.31
256.59	255.31
256.823	212.31
257.056	213.31
257.289	189.31
257.521	211.31
257.754	202.31
257.987	203.31
258.22	209.31
258.452	198.31
258.685	191.31
258.918	184.31
259.151	187.31
259.383	184.31
259.616	203.31
259.849	198.31
260.081	208.31
260.314	223.31
260.547	211.31
260.779	206.31
261.012	204.31
261.244	204.31
261.477	207.31
261.71	199.31
261.942	193.31
262.175	225.31
262.407	213.31
262.64	191.31
262.872	187.31
263.105	211.31
263.337	180.31
263.57	185.31
263.802	206.31
264.035	181.31
264.267	213.31
264.499	196.31
264.732	213.31
264.964	199.31
265.197	196.31
265.429	204.31
265.661	205.31
265.894	196.31
266.126	205.31
266.358	196.31
266.591	218.31
266.823	209.31
267.055	213.31
267.287	216.31
267.52	226.31
267.752	209.31
267.984	224.31
268.216	244.31
268.448	215.31
268.681	211.31
268.913	227.31
269.145	238.31
269.377	251.31
269.609	253.31
269.841	227.31
270.073	240.31
270.306	256.31
270.538	269.31
270.77	265.31
271.002	261.31
271.234	241.31
271.466	263.31
271.698	255.31
271.93	266.31
272.162	281.31
272.394	268.31
272.626	260.31
272.858	246.31
273.09	263.31
273.322	247.31
273.553	266.31
273.785	246.31
274.017	259.31
274.249	233.31
274.481	244.31
274.713	247.31
274.945	256.31
275.176	255.31
275.408	261.31
275.64	272.31
275.872	266.31
276.104	259.31
276.335	271.31
276.567	239.31
276.799	260.31
277.031	255.31
277.262	287.31
277.494	292.31
277.726	279.31
277.957	283.31
278.189	277.31
278.421	276.31
278.652	260.31
278.884	251.31
279.115	263.31
279.347	259.31
279.579	254.31
279.81	262.31
280.042	269.31
280.273	283.31
280.505	269.31
280.736	269.31
280.968	271.31
281.199	263.31
281.431	263.31
281.662	255.31
281.894	265.31
282.125	275.31
282.356	273.31
282.588	298.31
282.819	296.31
283.051	281.31
283.282	261.31
283.513	278.31
283.745	284.31
283.976	274.31
284.207	271.31
284.439	275.31
284.67	282.31
284.901	280.31
285.132	264.31
285.364	255.31
285.595	288.31
285.826	260.31
286.057	281.31
286.288	276.31
286.52	286.31
286.751	294.31
286.982	280.31
287.213	289.31
287.444	292.31
287.675	293.31
287.906	282.31
288.138	288.31
288.369	290.31
288.6	308.31
288.831	297.31
289.062	285.31
289.293	296.31
289.524	282.31
289.755	296.31
289.986	281.31
290.217	282.31
290.448	292.31
290.679	291.31
290.91	301.31
291.141	282.31
291.371	295.31
291.602	291.31
291.833	293.31
292.064	291.31
292.295	277.31
292.526	282.31
292.757	295.31
292.987	287.31
293.218	282.31
293.449	291.31
293.68	305.31
293.91	280.31
294.141	299.31
294.372	285.31
294.603	269.31
294.833	290.31
295.064	275.31
295.295	303.31
295.525	294.31
295.756	300.31
295.987	308.31
296.217	329.31
296.448	316.31
296.679	312.31
296.909	306.31
297.14	300.31
297.37	296.31
297.601	315.31
297.831	313.31
298.062	305.31
298.292	291.31
298.523	299.31
298.753	304.31
298.984	300.31
299.214	304.31
299.445	305.31
299.675	297.31
299.905	310.31
300.136	333.31
300.366	304.31
300.597	306.31
300.827	320.31
301.057	315.31
301.288	336.31
301.518	329.31
301.748	316.31
301.979	352.31
302.209	348.31
302.439	360.31
302.669	329.31
302.9	321.31
303.13	337.31
303.36	346.31
303.59	339.31
303.82	338.31
304.051	347.31
304.281	325.31
304.511	324.31
304.741	310.31
304.971	321.31
305.201	328.31
305.431	317.31
305.661	320.31
305.891	336.31
306.121	352.31
306.352	337.31
306.582	343.31
306.812	322.31
307.042	315.31
307.272	329.31
307.502	333.31
307.731	357.31
307.961	353.31
308.191	315.31
308.421	328.31
308.651	317.31
308.881	321.31
309.111	332.31
309.341	318.31
309.571	331.31
309.8	353.31
310.03	343.31
310.26	356.31
310.49	354.31
310.72	339.31
310.949	349.31
311.179	352.31
311.409	327.31
311.639	346.31
311.868	363.31
312.098	359.31
312.328	355.31
312.557	368.31
312.787	367.31
313.017	370.31
313.246	368.31
313.476	352.31
313.706	357.31
313.935	361.31
314.165	380.31
314.394	375.31
314.624	364.31
314.853	360.31
315.083	363.31
315.312	361.31
315.542	354.31
315.771	366.31
316.001	358.31
316.23	341.31
316.46	362.31
316.689	379.31
316.919	353.31
317.148	373.31
317.377	361.31
317.607	367.31
317.836	373.31
318.065	355.31
318.295	353.31
318.524	369.31
318.753	357.31
318.983	349.31
319.212	351.31
319.441	361.31
319.67	380.31
319.9	355.31
320.129	359.31
320.358	359.31
320.587	376.31
320.816	378.31
321.046	377.31
321.275	364.31
321.504	371.31
321.733	384.31
321.962	367.31
322.191	402.31
322.42	412.31
322.649	421.31
322.878	383.31
323.108	408.31
323.337	418.31
323.566	455.31
323.795	459.31
324.024	503.31
324.253	579.31
324.482	750.31
324.71	1108.31
324.939	1548.31
325.168	1299.31
325.397	711.31
325.626	524.31
325.855	495.31
326.084	461.31
326.313	463.31
326.542	462.31
326.77	474.31
326.999	538.31
327.228	712.31
327.457	973.31
327.686	1205.31
327.914	858.31
328.143	606.31
328.372	601.31
328.6	565.31
328.829	509.31
329.058	524.31
329.287	521.31
329.515	504.31
329.744	512.31
329.972	529.31
330.201	622.31
330.43	677.31
330.658	629.31
330.887	575.31
331.115	551.31
331.344	479.31
331.572	477.31
331.801	477.31
332.03	475.31
332.258	460.31
332.486	473.31
332.715	461.31
332.943	465.31
333.172	479.31
333.4	507.31
333.629	516.31
333.857	555.31
334.085	608.31
334.314	703.31
334.542	780.31
334.771	810.31
334.999	642.31
335.227	544.31
335.455	508.31
335.684	491.31
335.912	463.31
336.14	452.31
336.369	467.31
336.597	459.31
336.825	464.31
337.053	449.31
337.281	446.31
337.51	424.31
337.738	451.31
337.966	439.31
338.194	426.31
338.422	415.31
338.65	422.31
338.878	425.31
339.106	415.31
339.334	418.31
339.562	385.31
339.79	401.31
340.018	392.31
340.246	431.31
340.474	413.31
340.702	413.31
340.93	385.31
341.158	396.31
341.386	410.31
341.614	408.31
341.842	424.31
342.07	401.31
342.298	398.31
342.526	385.31
342.754	396.31
342.981	410.31
343.209	397.31
343.437	428.31
343.665	405.31
343.893	420.31
344.12	442.31
344.348	447.31
344.576	413.31
344.804	419.31
345.031	411.31
345.259	407.31
345.487	427.31
345.714	425.31
345.942	398.31
346.17	396.31
346.397	393.31
346.625	385.31
346.853	386.31
347.08	375.31
347.308	373.31
347.535	385.31
347.763	404.31
347.99	385.31
348.218	385.31
348.445	398.31
348.673	395.31
348.9	403.31
349.128	383.31
349.355	364.31
349.583	367.31
349.81	363.31
350.037	367.31
350.265	369.31
350.492	361.31
350.72	375.31
350.947	364.31
351.174	383.31
351.402	377.31
351.629	394.31
351.856	358.31
352.083	383.31
352.311	393.31
352.538	364.31
352.765	371.31
352.992	377.31
353.22	395.31
353.447	360.31
353.674	358.31
353.901	371.31
354.128	353.31
354.355	364.31
354.583	339.31
354.81	356.31
355.037	359.31
355.264	371.31
355.491	360.31
355.718	357.31
355.945	358.31
356.172	362.31
356.399	344.31
356.626	351.31
356.853	363.31
357.08	369.31
357.307	353.31
357.534	374.31
357.761	351.31
357.988	355.31
358.215	352.31
358.441	346.31
358.668	345.31
358.895	392.31
359.122	361.31
359.349	369.31
359.576	379.31
359.802	370.31
360.029	407.31
360.256	381.31
360.483	387.31
360.709	373.31
360.936	379.31
361.163	356.31
361.39	359.31
361.616	368.31
361.843	381.31
362.07	374.31
362.296	377.31
362.523	369.31
362.749	365.31
362.976	367.31
363.203	361.31
363.429	372.31
363.656	342.31
363.882	360.31
364.109	366.31
364.335	373.31
364.562	367.31
364.788	323.31
365.015	383.31
365.241	368.31
365.468	371.31
365.694	354.31
365.92	355.31
366.147	360.31
366.373	361.31
366.599	373.31
366.826	350.31
367.052	342.31
367.278	351.31
367.505	350.31
367.731	368.31
367.957	352.31
368.184	358.31
368.41	371.31
368.636	369.31
368.862	377.31
369.089	378.31
369.315	372.31
369.541	346.31
369.767	366.31
369.993	370.31
370.219	346.31
370.445	362.31
370.672	362.31
370.898	379.31
371.124	363.31
371.35	368.31
371.576	367.31
371.802	382.31
372.028	383.31
372.254	376.31
372.48	389.31
372.706	373.31
372.932	367.31
373.158	392.31
373.384	389.31
373.61	373.31
373.835	372.31
374.061	368.31
374.287	372.31
374.513	380.31
374.739	391.31
374.965	381.31
375.191	406.31
375.416	385.31
375.642	383.31
375.868	388.31
376.094	376.31
376.319	384.31
376.545	352.31
376.771	374.31
376.997	377.31
377.222	348.31
377.448	355.31
377.674	379.31
377.899	348.31
378.125	342.31
378.35	342.31
378.576	369.31
378.802	370.31
379.027	363.31
379.253	371.31
379.478	373.31
379.704	375.31
379.929	378.31
380.155	363.31
380.38	347.31
380.606	364.31
380.831	348.31
381.057	371.31
381.282	369.31
381.507	346.31
381.733	374.31
381.958	385.31
382.184	368.31
382.409	370.31
382.634	386.31
382.86	377.31
383.085	371.31
383.31	370.31
383.535	387.31
383.761	388.31
383.986	386.31
384.211	395.31
384.436	407.31
384.662	395.31
384.887	399.31
385.112	408.31
385.337	413.31
385.562	409.31
385.787	408.31
386.013	442.31
386.238	436.31
386.463	424.31
386.688	415.31
386.913	385.31
387.138	409.31
387.363	395.31
387.588	417.31
387.813	401.31
388.038	416.31
388.263	422.31
388.488	415.31
388.713	403.31
388.938	415.31
389.163	406.31
389.387	408.31
389.612	394.31
389.837	400.31
390.062	419.31
390.287	405.31
390.512	411.31
390.736	415.31
390.961	427.31
391.186	432.31
391.411	440.31
391.636	438.31
391.86	455.31
392.085	412.31
392.31	454.31
392.534	450.31
392.759	429.31
392.984	435.31
393.208	421.31
393.433	425.31
393.658	436.31
393.882	422.31
394.107	427.31
394.331	425.31
394.556	420.31
394.78	423.31
395.005	417.31
395.229	432.31
395.454	437.31
395.678	435.31
395.903	456.31
396.127	460.31
396.352	442.31
396.576	442.31
396.801	407.31
397.025	438.31
397.249	451.31
397.474	435.31
397.698	456.31
397.922	442.31
398.147	471.31
398.371	477.31
398.595	469.31
398.82	473.31
399.044	499.31
399.268	531.31
399.492	602.31
399.717	649.31
399.941	645.31
400.165	660.31
400.389	615.31
400.613	543.31
400.837	517.31
401.062	503.31
401.286	491.31
401.51	502.31
401.734	497.31
401.958	477.31
402.182	491.31
402.406	504.31
402.63	491.31
402.854	527.31
403.078	505.31
403.302	508.31
403.526	517.31
403.75	523.31
403.974	550.31
404.198	544.31
404.422	552.31
404.645	569.31
404.869	565.31
405.093	580.31
405.317	600.31
405.541	624.31
405.765	623.31
405.988	566.31
406.212	556.31
406.436	537.31
406.66	562.31
406.883	565.31
407.107	603.31
407.331	603.31
407.555	665.31
407.778	645.31
408.002	623.31
408.226	587.31
408.449	579.31
408.673	559.31
408.896	562.31
409.12	580.31
409.344	555.31
409.567	528.31
409.791	538.31
410.014	506.31
410.238	511.31
410.461	515.31
410.685	525.31
410.908	543.31
411.132	531.31
411.355	545.31
411.578	550.31
411.802	520.31
412.025	529.31
412.249	521.31
412.472	567.31
412.695	594.31
412.919	624.31
413.142	559.31
413.365	501.31
413.589	491.31
413.812	486.31
414.035	484.31
414.258	502.31
414.482	477.31
414.705	480.31
414.928	488.31
415.151	483.31
415.374	495.31
415.597	472.31
415.821	468.31
416.044	471.31
416.267	503.31
416.49	476.31
416.713	459.31
416.936	485.31
417.159	465.31
417.382	472.31
417.605	497.31
417.828	489.31
418.051	502.31
418.274	505.31
418.497	493.31
418.72	480.31
418.943	489.31
419.166	523.31
419.389	527.31
419.611	529.31
419.834	506.31
420.057	530.31
420.28	532.31
420.503	536.31
420.726	528.31
420.948	526.31
421.171	509.31
421.394	557.31
421.617	493.31
421.839	489.31
422.062	486.31
422.285	514.31
422.507	525.31
422.73	583.31
422.953	564.31
423.175	524.31
423.398	505.31
423.621	534.31
423.843	524.31
424.066	509.31
424.288	537.31
424.511	538.31
424.733	555.31
424.956	587.31
425.178	577.31
425.401	578.31
425.623	587.31
425.846	512.31
426.068	495.31
426.291	480.31
426.513	473.31
426.735	493.31
426.958	512.31
427.18	542.31
427.402	662.31
427.625	709.31
427.847	641.31
428.069	578.31
428.292	548.31
428.514	481.31
428.736	468.31
428.958	483.31
429.181	432.31
429.403	459.31
429.625	465.31
429.847	482.31
430.069	513.31
430.292	528.31
430.514	449.31
430.736	457.31
430.958	442.31
431.18	428.31
431.402	435.31
431.624	440.31
431.846	424.31
432.068	443.31
432.29	449.31
432.512	456.31
432.734	450.31
432.956	447.31
433.178	463.31
433.4	450.31
433.622	450.31
433.844	453.31
434.066	439.31
434.287	459.31
434.509	452.31
434.731	448.31
434.953	471.31
435.175	477.31
435.397	495.31
435.618	497.31
435.84	509.31
436.062	533.31
436.284	602.31
436.505	528.31
436.727	481.31
436.949	448.31
437.17	463.31
437.392	432.31
437.614	449.31
437.835	468.31
438.057	541.31
438.278	577.31
438.5	573.31
438.721	618.31
438.943	621.31
439.165	524.31
439.386	471.31
439.608	485.31
439.829	469.31
440.05	481.31
440.272	529.31
440.493	482.31
440.715	473.31
440.936	451.31
441.158	464.31
441.379	476.31
441.6	498.31
441.822	498.31
442.043	538.31
442.264	571.31
442.486	569.31
442.707	508.31
442.928	496.31
443.149	495.31
443.371	519.31
443.592	530.31
443.813	584.31
444.034	627.31
444.255	553.31
444.476	540.31
444.698	526.31
444.919	544.31
445.14	599.31
445.361	563.31
445.582	563.31
445.803	561.31
446.024	606.31
446.245	596.31
446.466	587.31
446.687	498.31
446.908	480.31
447.129	442.31
447.35	448.31
447.571	454.31
447.792	426.31
448.013	425.31
448.234	435.31
448.455	480.31
448.675	548.31
448.896	603.31
449.117	505.31
449.338	516.31
449.559	587.31
449.779	626.31
450	534.31
450.221	466.31
450.442	458.31
450.662	441.31
450.883	436.31
451.104	433.31
451.324	428.31
451.545	426.31
451.766	401.31
451.986	414.31
452.207	400.31
452.428	409.31
452.648	405.31
452.869	393.31
453.089	424.31
453.31	408.31
453.53	407.31
453.751	393.31
453.971	388.31
454.192	397.31
454.412	417.31
454.633	396.31
454.853	392.31
455.073	386.31
455.294	388.31
455.514	438.31
455.734	452.31
455.955	391.31
456.175	389.31
456.395	372.31
456.616	373.31
456.836	373.31
457.056	372.31
457.276	377.31
457.497	390.31
457.717	390.31
457.937	386.31
458.157	397.31
458.377	405.31
458.598	422.31
458.818	437.31
459.038	486.31
459.258	523.31
459.478	445.31
459.698	446.31
459.918	441.31
460.138	473.31
460.358	479.31
460.578	480.31
460.798	485.31
461.018	463.31
461.238	487.31
461.458	467.31
461.678	472.31
461.898	505.31
462.118	486.31
462.338	506.31
462.558	501.31
462.777	515.31
462.997	545.31
463.217	583.31
463.437	561.31
463.657	551.31
463.876	535.31
464.096	525.31
464.316	524.31
464.536	514.31
464.755	522.31
464.975	510.31
465.195	522.31
465.414	534.31
465.634	479.31
465.854	471.31
466.073	475.31
466.293	461.31
466.512	415.31
466.732	436.31
466.951	447.31
467.171	398.31
467.391	411.31
467.61	435.31
467.829	426.31
468.049	433.31
468.268	450.31
468.488	418.31
468.707	429.31
468.927	408.31
469.146	424.31
469.365	421.31
469.585	417.31
469.804	403.31
470.023	431.31
470.243	425.31
470.462	419.31
470.681	443.31
470.901	436.31
471.12	425.31
471.339	419.31
471.558	452.31
471.777	412.31
471.997	458.31
472.216	469.31
472.435	565.31
472.654	521.31
472.873	466.31
473.092	465.31
473.311	425.31
473.53	402.31
473.749	435.31
473.968	447.31
474.187	476.31
474.406	497.31
474.625	459.31
474.844	420.31
475.063	426.31
475.282	433.31
475.501	407.31
475.72	413.31
475.939	420.31
476.158	422.31
476.377	433.31
476.596	424.31
476.814	434.31
477.033	449.31
477.252	440.31
477.471	429.31
477.69	449.31
477.908	447.31
478.127	474.31
478.346	472.31
478.564	491.31
478.783	499.31
479.002	485.31
479.22	487.31
479.439	511.31
479.658	491.31
479.876	503.31
480.095	523.31
480.313	530.31
480.532	573.31
480.751	545.31
480.969	580.31
481.188	712.31
481.406	819.31
481.624	628.31
481.843	563.31
482.061	522.31
482.28	548.31
482.498	521.31
482.717	483.31
482.935	501.31
483.153	486.31
483.372	473.31
483.59	477.31
483.808	491.31
484.027	490.31
484.245	480.31
484.463	485.31
484.681	489.31
484.9	484.31
485.118	487.31
485.336	484.31
485.554	484.31
485.772	506.31
485.99	474.31
486.209	483.31
486.427	518.31
486.645	530.31
486.863	514.31
487.081	529.31
487.299	515.31
487.517	531.31
487.735	511.31
487.953	513.31
488.171	492.31
488.389	489.31
488.607	502.31
488.825	490.31
489.043	505.31
489.261	499.31
489.479	500.31
489.696	519.31
489.914	535.31
490.132	529.31
490.35	552.31
490.568	552.31
490.786	555.31
491.003	548.31
491.221	577.31
491.439	580.31
491.657	602.31
491.874	593.31
492.092	600.31
492.31	589.31
492.527	590.31
492.745	624.31
492.963	611.31
493.18	622.31
493.398	621.31
493.615	588.31
493.833	621.31
494.05	585.31
494.268	614.31
494.485	620.31
494.703	568.31
494.92	591.31
495.138	590.31
495.355	607.31
495.573	594.31
495.79	614.31
496.008	581.31
496.225	577.31
496.442	602.31
496.66	592.31
496.877	623.31
497.094	616.31
497.312	636.31
497.529	621.31
497.746	617.31
497.963	633.31
498.181	661.31
498.398	699.31
498.615	693.31
498.832	700.31
499.049	758.31
499.267	785.31
499.484	837.31
499.701	872.31
499.918	919.31
500.135	1025.31
500.352	1111.31
500.569	1137.31
500.786	1139.31
501.003	1099.31
501.22	1053.31
501.437	943.31
501.654	885.31
501.871	854.31
502.088	821.31
