Data from 1984.PennyLincolnUp.Lamp.En5.5.200Scan.071819.P1_HRD10591_17-00-02-984.txt Node
Date: Thu Jul 18 17:00:02 EDT 2019
User: cochatt
Spectrometer: HR+D1059
Trigger mode: 1
Integration Time (sec): 1.000000E-1
Scans to average: 1
Electric dark correction enabled: true
Nonlinearity correction enabled: false
Boxcar width: 0
XAxis mode: Wavelengths
Number of Pixels in Spectrum: 2048
>>>>>Begin Spectral Data<<<<<
223.165	-26.44
223.4	-26.44
223.635	-26.44
223.869	-22.44
224.104	-34.44
224.338	-12.44
224.573	-18.44
224.808	-21.44
225.042	1.56
225.277	6.56
225.511	2.56
225.746	20.56
225.98	4.56
226.215	7.56
226.449	17.56
226.683	11.56
226.918	26.56
227.152	36.56
227.387	30.56
227.621	26.56
227.856	34.56
228.09	46.56
228.324	41.56
228.559	54.56
228.793	72.56
229.027	90.56
229.262	86.56
229.496	108.56
229.73	122.56
229.964	118.56
230.199	123.56
230.433	96.56
230.667	100.56
230.901	116.56
231.136	95.56
231.37	101.56
231.604	114.56
231.838	109.56
232.072	116.56
232.306	111.56
232.541	117.56
232.775	102.56
233.009	105.56
233.243	105.56
233.477	108.56
233.711	98.56
233.945	120.56
234.179	106.56
234.413	110.56
234.647	102.56
234.881	113.56
235.115	104.56
235.349	118.56
235.583	111.56
235.817	122.56
236.051	119.56
236.285	122.56
236.519	103.56
236.753	124.56
236.987	127.56
237.221	141.56
237.455	176.56
237.689	149.56
237.922	131.56
238.156	117.56
238.39	117.56
238.624	112.56
238.858	114.56
239.091	118.56
239.325	117.56
239.559	120.56
239.793	124.56
240.027	129.56
240.26	124.56
240.494	135.56
240.728	143.56
240.961	129.56
241.195	137.56
241.429	116.56
241.662	113.56
241.896	115.56
242.13	124.56
242.363	124.56
242.597	121.56
242.83	138.56
243.064	126.56
243.298	125.56
243.531	130.56
243.765	135.56
243.998	124.56
244.232	140.56
244.465	128.56
244.699	126.56
244.932	156.56
245.166	136.56
245.399	136.56
245.633	143.56
245.866	143.56
246.099	139.56
246.333	127.56
246.566	138.56
246.8	146.56
247.033	146.56
247.266	152.56
247.5	137.56
247.733	152.56
247.966	161.56
248.2	148.56
248.433	158.56
248.666	140.56
248.899	148.56
249.133	167.56
249.366	194.56
249.599	168.56
249.832	156.56
250.066	168.56
250.299	166.56
250.532	204.56
250.765	211.56
250.998	220.56
251.231	200.56
251.465	187.56
251.698	181.56
251.931	173.56
252.164	190.56
252.397	180.56
252.63	179.56
252.863	174.56
253.096	188.56
253.329	196.56
253.562	198.56
253.795	193.56
254.028	186.56
254.261	189.56
254.494	183.56
254.727	201.56
254.96	214.56
255.193	233.56
255.426	197.56
255.659	199.56
255.892	249.56
256.124	257.56
256.357	282.56
256.59	241.56
256.823	232.56
257.056	213.56
257.289	198.56
257.521	178.56
257.754	187.56
257.987	209.56
258.22	199.56
258.452	192.56
258.685	184.56
258.918	185.56
259.151	193.56
259.383	207.56
259.616	197.56
259.849	193.56
260.081	198.56
260.314	215.56
260.547	214.56
260.779	223.56
261.012	206.56
261.244	196.56
261.477	210.56
261.71	175.56
261.942	197.56
262.175	228.56
262.407	202.56
262.64	196.56
262.872	201.56
263.105	186.56
263.337	211.56
263.57	210.56
263.802	194.56
264.035	179.56
264.267	193.56
264.499	191.56
264.732	207.56
264.964	183.56
265.197	198.56
265.429	196.56
265.661	187.56
265.894	202.56
266.126	212.56
266.358	204.56
266.591	213.56
266.823	212.56
267.055	192.56
267.287	213.56
267.52	198.56
267.752	212.56
267.984	190.56
268.216	210.56
268.448	210.56
268.681	226.56
268.913	231.56
269.145	247.56
269.377	238.56
269.609	249.56
269.841	244.56
270.073	245.56
270.306	262.56
270.538	251.56
270.77	269.56
271.002	253.56
271.234	242.56
271.466	260.56
271.698	263.56
271.93	264.56
272.162	267.56
272.394	256.56
272.626	268.56
272.858	265.56
273.09	263.56
273.322	245.56
273.553	228.56
273.785	246.56
274.017	249.56
274.249	258.56
274.481	243.56
274.713	251.56
274.945	241.56
275.176	256.56
275.408	240.56
275.64	254.56
275.872	244.56
276.104	257.56
276.335	259.56
276.567	241.56
276.799	260.56
277.031	278.56
277.262	291.56
277.494	295.56
277.726	241.56
277.957	258.56
278.189	271.56
278.421	256.56
278.652	245.56
278.884	242.56
279.115	260.56
279.347	253.56
279.579	237.56
279.81	256.56
280.042	260.56
280.273	251.56
280.505	266.56
280.736	259.56
280.968	243.56
281.199	249.56
281.431	267.56
281.662	270.56
281.894	275.56
282.125	254.56
282.356	268.56
282.588	283.56
282.819	262.56
283.051	268.56
283.282	270.56
283.513	270.56
283.745	260.56
283.976	260.56
284.207	271.56
284.439	277.56
284.67	279.56
284.901	253.56
285.132	264.56
285.364	280.56
285.595	263.56
285.826	276.56
286.057	276.56
286.288	267.56
286.52	261.56
286.751	265.56
286.982	253.56
287.213	262.56
287.444	286.56
287.675	275.56
287.906	296.56
288.138	284.56
288.369	275.56
288.6	291.56
288.831	292.56
289.062	277.56
289.293	275.56
289.524	272.56
289.755	291.56
289.986	281.56
290.217	286.56
290.448	286.56
290.679	273.56
290.91	287.56
291.141	277.56
291.371	271.56
291.602	280.56
291.833	279.56
292.064	265.56
292.295	288.56
292.526	286.56
292.757	272.56
292.987	280.56
293.218	259.56
293.449	289.56
293.68	276.56
293.91	292.56
294.141	280.56
294.372	264.56
294.603	289.56
294.833	261.56
295.064	290.56
295.295	279.56
295.525	283.56
295.756	287.56
295.987	288.56
296.217	310.56
296.448	310.56
296.679	297.56
296.909	286.56
297.14	300.56
297.37	310.56
297.601	279.56
297.831	284.56
298.062	302.56
298.292	306.56
298.523	300.56
298.753	303.56
298.984	293.56
299.214	284.56
299.445	274.56
299.675	296.56
299.905	307.56
300.136	295.56
300.366	313.56
300.597	293.56
300.827	316.56
301.057	307.56
301.288	320.56
301.518	313.56
301.748	317.56
301.979	307.56
302.209	301.56
302.439	322.56
302.669	305.56
302.9	316.56
303.13	288.56
303.36	298.56
303.59	300.56
303.82	317.56
304.051	328.56
304.281	329.56
304.511	320.56
304.741	313.56
304.971	314.56
305.201	311.56
305.431	306.56
305.661	303.56
305.891	314.56
306.121	299.56
306.352	326.56
306.582	317.56
306.812	323.56
307.042	309.56
307.272	315.56
307.502	314.56
307.731	326.56
307.961	307.56
308.191	298.56
308.421	308.56
308.651	300.56
308.881	307.56
309.111	325.56
309.341	292.56
309.571	316.56
309.8	315.56
310.03	328.56
310.26	330.56
310.49	335.56
310.72	333.56
310.949	341.56
311.179	365.56
311.409	342.56
311.639	336.56
311.868	338.56
312.098	339.56
312.328	338.56
312.557	348.56
312.787	369.56
313.017	358.56
313.246	355.56
313.476	360.56
313.706	354.56
313.935	360.56
314.165	360.56
314.394	355.56
314.624	365.56
314.853	360.56
315.083	347.56
315.312	348.56
315.542	337.56
315.771	349.56
316.001	338.56
316.23	332.56
316.46	350.56
316.689	352.56
316.919	357.56
317.148	356.56
317.377	369.56
317.607	340.56
317.836	351.56
318.065	349.56
318.295	349.56
318.524	357.56
318.753	324.56
318.983	341.56
319.212	346.56
319.441	366.56
319.67	350.56
319.9	357.56
320.129	352.56
320.358	354.56
320.587	357.56
320.816	346.56
321.046	350.56
321.275	349.56
321.504	345.56
321.733	349.56
321.962	375.56
322.191	366.56
322.42	369.56
322.649	365.56
322.878	397.56
323.108	405.56
323.337	423.56
323.566	440.56
323.795	433.56
324.024	450.56
324.253	561.56
324.482	724.56
324.71	1038.56
324.939	1426.56
325.168	1257.56
325.397	700.56
325.626	525.56
325.855	451.56
326.084	434.56
326.313	432.56
326.542	445.56
326.77	478.56
326.999	522.56
327.228	699.56
327.457	979.56
327.686	1147.56
327.914	817.56
328.143	595.56
328.372	567.56
328.6	524.56
328.829	497.56
329.058	505.56
329.287	492.56
329.515	503.56
329.744	504.56
329.972	530.56
330.201	608.56
330.43	646.56
330.658	605.56
330.887	549.56
331.115	508.56
331.344	485.56
331.572	475.56
331.801	469.56
332.03	456.56
332.258	438.56
332.486	425.56
332.715	455.56
332.943	458.56
333.172	450.56
333.4	489.56
333.629	509.56
333.857	522.56
334.085	585.56
334.314	659.56
334.542	776.56
334.771	790.56
334.999	624.56
335.227	536.56
335.455	509.56
335.684	458.56
335.912	450.56
336.14	449.56
336.369	432.56
336.597	432.56
336.825	419.56
337.053	425.56
337.281	436.56
337.51	422.56
337.738	412.56
337.966	399.56
338.194	414.56
338.422	386.56
338.65	409.56
338.878	415.56
339.106	389.56
339.334	387.56
339.562	413.56
339.79	376.56
340.018	390.56
340.246	377.56
340.474	402.56
340.702	392.56
340.93	395.56
341.158	389.56
341.386	380.56
341.614	392.56
341.842	388.56
342.07	373.56
342.298	373.56
342.526	394.56
342.754	364.56
342.981	381.56
343.209	365.56
343.437	404.56
343.665	395.56
343.893	405.56
344.12	410.56
344.348	398.56
344.576	411.56
344.804	408.56
345.031	395.56
345.259	381.56
345.487	382.56
345.714	376.56
345.942	382.56
346.17	379.56
346.397	374.56
346.625	377.56
346.853	360.56
347.08	347.56
347.308	371.56
347.535	348.56
347.763	382.56
347.99	365.56
348.218	392.56
348.445	384.56
348.673	373.56
348.9	378.56
349.128	366.56
349.355	359.56
349.583	363.56
349.81	359.56
350.037	369.56
350.265	348.56
350.492	349.56
350.72	355.56
350.947	360.56
351.174	356.56
351.402	357.56
351.629	343.56
351.856	370.56
352.083	368.56
352.311	374.56
352.538	356.56
352.765	357.56
352.992	372.56
353.22	364.56
353.447	354.56
353.674	354.56
353.901	353.56
354.128	350.56
354.355	349.56
354.583	364.56
354.81	352.56
355.037	345.56
355.264	346.56
355.491	348.56
355.718	334.56
355.945	360.56
356.172	344.56
356.399	334.56
356.626	348.56
356.853	337.56
357.08	354.56
357.307	344.56
357.534	345.56
357.761	343.56
357.988	349.56
358.215	349.56
358.441	333.56
358.668	337.56
358.895	347.56
359.122	357.56
359.349	353.56
359.576	358.56
359.802	376.56
360.029	364.56
360.256	376.56
360.483	398.56
360.709	360.56
360.936	368.56
361.163	348.56
361.39	348.56
361.616	360.56
361.843	357.56
362.07	359.56
362.296	365.56
362.523	345.56
362.749	338.56
362.976	360.56
363.203	362.56
363.429	351.56
363.656	344.56
363.882	360.56
364.109	354.56
364.335	355.56
364.562	356.56
364.788	346.56
365.015	356.56
365.241	339.56
365.468	354.56
365.694	346.56
365.92	352.56
366.147	340.56
366.373	349.56
366.599	361.56
366.826	350.56
367.052	330.56
367.278	331.56
367.505	341.56
367.731	364.56
367.957	329.56
368.184	340.56
368.41	373.56
368.636	352.56
368.862	360.56
369.089	368.56
369.315	348.56
369.541	346.56
369.767	364.56
369.993	340.56
370.219	348.56
370.445	352.56
370.672	332.56
370.898	358.56
371.124	347.56
371.35	339.56
371.576	361.56
371.802	370.56
372.028	355.56
372.254	365.56
372.48	356.56
372.706	364.56
372.932	367.56
373.158	358.56
373.384	359.56
373.61	363.56
373.835	360.56
374.061	359.56
374.287	362.56
374.513	371.56
374.739	366.56
374.965	390.56
375.191	373.56
375.416	391.56
375.642	368.56
375.868	373.56
376.094	348.56
376.319	365.56
376.545	369.56
376.771	363.56
376.997	352.56
377.222	328.56
377.448	364.56
377.674	362.56
377.899	335.56
378.125	322.56
378.35	352.56
378.576	339.56
378.802	342.56
379.027	358.56
379.253	361.56
379.478	337.56
379.704	351.56
379.929	347.56
380.155	350.56
380.38	363.56
380.606	339.56
380.831	353.56
381.057	348.56
381.282	350.56
381.507	371.56
381.733	365.56
381.958	368.56
382.184	353.56
382.409	348.56
382.634	361.56
382.86	364.56
383.085	373.56
383.31	378.56
383.535	374.56
383.761	363.56
383.986	377.56
384.211	376.56
384.436	397.56
384.662	376.56
384.887	409.56
385.112	384.56
385.337	400.56
385.562	396.56
385.787	398.56
386.013	424.56
386.238	411.56
386.463	396.56
386.688	407.56
386.913	394.56
387.138	382.56
387.363	396.56
387.588	389.56
387.813	404.56
388.038	413.56
388.263	399.56
388.488	399.56
388.713	402.56
388.938	377.56
389.163	389.56
389.387	397.56
389.612	399.56
389.837	388.56
390.062	375.56
390.287	398.56
390.512	374.56
390.736	392.56
390.961	395.56
391.186	412.56
391.411	410.56
391.636	419.56
391.86	416.56
392.085	432.56
392.31	436.56
392.534	413.56
392.759	413.56
392.984	407.56
393.208	408.56
393.433	385.56
393.658	410.56
393.882	400.56
394.107	402.56
394.331	392.56
394.556	397.56
394.78	408.56
395.005	401.56
395.229	398.56
395.454	412.56
395.678	413.56
395.903	454.56
396.127	440.56
396.352	438.56
396.576	399.56
396.801	417.56
397.025	427.56
397.249	409.56
397.474	421.56
397.698	444.56
397.922	453.56
398.147	435.56
398.371	450.56
398.595	441.56
398.82	469.56
399.044	508.56
399.268	530.56
399.492	568.56
399.717	628.56
399.941	610.56
400.165	594.56
400.389	565.56
400.613	517.56
400.837	502.56
401.062	485.56
401.286	469.56
401.51	462.56
401.734	471.56
401.958	466.56
402.182	473.56
402.406	503.56
402.63	496.56
402.854	486.56
403.078	483.56
403.302	519.56
403.526	510.56
403.75	510.56
403.974	525.56
404.198	517.56
404.422	538.56
404.645	514.56
404.869	551.56
405.093	550.56
405.317	603.56
405.541	642.56
405.765	566.56
405.988	534.56
406.212	531.56
406.436	555.56
406.66	553.56
406.883	546.56
407.107	556.56
407.331	578.56
407.555	624.56
407.778	636.56
408.002	570.56
408.226	562.56
408.449	537.56
408.673	544.56
408.896	560.56
409.12	549.56
409.344	557.56
409.567	496.56
409.791	514.56
410.014	503.56
410.238	493.56
410.461	514.56
410.685	493.56
410.908	496.56
411.132	530.56
411.355	524.56
411.578	507.56
411.802	480.56
412.025	490.56
412.249	527.56
412.472	548.56
412.695	594.56
412.919	580.56
413.142	542.56
413.365	529.56
413.589	513.56
413.812	490.56
414.035	472.56
414.258	486.56
414.482	476.56
414.705	482.56
414.928	471.56
415.151	469.56
415.374	462.56
415.597	445.56
415.821	453.56
416.044	454.56
416.267	455.56
416.49	445.56
416.713	460.56
416.936	455.56
417.159	449.56
417.382	464.56
417.605	460.56
417.828	462.56
418.051	481.56
418.274	484.56
418.497	439.56
418.72	473.56
418.943	473.56
419.166	513.56
419.389	521.56
419.611	505.56
419.834	499.56
420.057	512.56
420.28	527.56
420.503	519.56
420.726	498.56
420.948	512.56
421.171	533.56
421.394	528.56
421.617	488.56
421.839	496.56
422.062	478.56
422.285	464.56
422.507	516.56
422.73	568.56
422.953	513.56
423.175	514.56
423.398	497.56
423.621	499.56
423.843	498.56
424.066	500.56
424.288	497.56
424.511	512.56
424.733	542.56
424.956	575.56
425.178	547.56
425.401	517.56
425.623	564.56
425.846	500.56
426.068	484.56
426.291	480.56
426.513	475.56
426.735	480.56
426.958	506.56
427.18	561.56
427.402	632.56
427.625	681.56
427.847	603.56
428.069	575.56
428.292	515.56
428.514	482.56
428.736	452.56
428.958	464.56
429.181	436.56
429.403	432.56
429.625	454.56
429.847	460.56
430.069	499.56
430.292	495.56
430.514	417.56
430.736	429.56
430.958	427.56
431.18	428.56
431.402	452.56
431.624	419.56
431.846	420.56
432.068	422.56
432.29	434.56
432.512	441.56
432.734	436.56
432.956	423.56
433.178	413.56
433.4	436.56
433.622	417.56
433.844	414.56
434.066	429.56
434.287	462.56
434.509	435.56
434.731	454.56
434.953	442.56
435.175	453.56
435.397	465.56
435.618	487.56
435.84	499.56
436.062	528.56
436.284	555.56
436.505	494.56
436.727	476.56
436.949	451.56
437.17	434.56
437.392	434.56
437.614	422.56
437.835	458.56
438.057	487.56
438.278	562.56
438.5	538.56
438.721	608.56
438.943	569.56
439.165	501.56
439.386	449.56
439.608	465.56
439.829	439.56
440.05	486.56
440.272	483.56
440.493	480.56
440.715	474.56
440.936	441.56
441.158	449.56
441.379	461.56
441.6	453.56
441.822	464.56
442.043	501.56
442.264	548.56
442.486	562.56
442.707	483.56
442.928	493.56
443.149	486.56
443.371	493.56
443.592	527.56
443.813	564.56
444.034	608.56
444.255	533.56
444.476	522.56
444.698	502.56
444.919	527.56
445.14	616.56
445.361	569.56
445.582	492.56
445.803	528.56
446.024	584.56
446.245	575.56
446.466	553.56
446.687	482.56
446.908	440.56
447.129	422.56
447.35	418.56
447.571	433.56
447.792	422.56
448.013	416.56
448.234	441.56
448.455	461.56
448.675	522.56
448.896	568.56
449.117	511.56
449.338	502.56
449.559	557.56
449.779	613.56
450	509.56
450.221	458.56
450.442	421.56
450.662	410.56
450.883	390.56
451.104	396.56
451.324	404.56
451.545	404.56
451.766	402.56
451.986	413.56
452.207	383.56
452.428	380.56
452.648	416.56
452.869	396.56
453.089	412.56
453.31	392.56
453.53	375.56
453.751	373.56
453.971	385.56
454.192	388.56
454.412	378.56
454.633	384.56
454.853	370.56
455.073	393.56
455.294	388.56
455.514	404.56
455.734	417.56
455.955	389.56
456.175	379.56
456.395	373.56
456.616	355.56
456.836	364.56
457.056	370.56
457.276	363.56
457.497	375.56
457.717	359.56
457.937	384.56
458.157	398.56
458.377	390.56
458.598	413.56
458.818	442.56
459.038	490.56
459.258	488.56
459.478	435.56
459.698	426.56
459.918	429.56
460.138	446.56
460.358	446.56
460.578	457.56
460.798	438.56
461.018	476.56
461.238	466.56
461.458	450.56
461.678	458.56
461.898	452.56
462.118	446.56
462.338	482.56
462.558	483.56
462.777	500.56
462.997	514.56
463.217	558.56
463.437	552.56
463.657	522.56
463.876	519.56
464.096	500.56
464.316	486.56
464.536	520.56
464.755	490.56
464.975	490.56
465.195	489.56
465.414	514.56
465.634	483.56
465.854	437.56
466.073	441.56
466.293	423.56
466.512	422.56
466.732	404.56
466.951	404.56
467.171	404.56
467.391	404.56
467.61	402.56
467.829	403.56
468.049	437.56
468.268	444.56
468.488	409.56
468.707	391.56
468.927	401.56
469.146	430.56
469.365	406.56
469.585	393.56
469.804	407.56
470.023	413.56
470.243	422.56
470.462	417.56
470.681	420.56
470.901	419.56
471.12	403.56
471.339	408.56
471.558	430.56
471.777	423.56
471.997	428.56
472.216	443.56
472.435	547.56
472.654	514.56
472.873	456.56
473.092	417.56
473.311	432.56
473.53	433.56
473.749	415.56
473.968	449.56
474.187	498.56
474.406	519.56
474.625	427.56
474.844	394.56
475.063	397.56
475.282	417.56
475.501	415.56
475.72	422.56
475.939	411.56
476.158	409.56
476.377	410.56
476.596	418.56
476.814	417.56
477.033	410.56
477.252	418.56
477.471	442.56
477.69	423.56
477.908	430.56
478.127	459.56
478.346	454.56
478.564	456.56
478.783	461.56
479.002	470.56
479.22	468.56
479.439	487.56
479.658	491.56
479.876	517.56
480.095	508.56
480.313	506.56
480.532	514.56
480.751	530.56
480.969	541.56
481.188	717.56
481.406	798.56
481.624	628.56
481.843	526.56
482.061	504.56
482.28	492.56
482.498	488.56
482.717	474.56
482.935	468.56
483.153	469.56
483.372	469.56
483.59	456.56
483.808	460.56
484.027	481.56
484.245	479.56
484.463	440.56
484.681	480.56
484.9	491.56
485.118	465.56
485.336	490.56
485.554	490.56
485.772	493.56
485.99	483.56
486.209	478.56
486.427	483.56
486.645	500.56
486.863	503.56
487.081	521.56
487.299	501.56
487.517	503.56
487.735	471.56
487.953	477.56
488.171	488.56
488.389	487.56
488.607	494.56
488.825	499.56
489.043	476.56
489.261	494.56
489.479	481.56
489.696	496.56
489.914	512.56
490.132	514.56
490.35	518.56
490.568	508.56
490.786	536.56
491.003	529.56
491.221	561.56
491.439	572.56
491.657	588.56
491.874	551.56
492.092	586.56
492.31	575.56
492.527	578.56
492.745	596.56
492.963	600.56
493.18	603.56
493.398	609.56
493.615	601.56
493.833	578.56
494.05	572.56
494.268	580.56
494.485	571.56
494.703	568.56
494.92	568.56
495.138	587.56
495.355	573.56
495.573	582.56
495.79	580.56
496.008	577.56
496.225	554.56
496.442	604.56
496.66	567.56
496.877	546.56
497.094	590.56
497.312	561.56
497.529	588.56
497.746	616.56
497.963	612.56
498.181	636.56
498.398	652.56
498.615	677.56
498.832	686.56
499.049	720.56
499.267	740.56
499.484	791.56
499.701	875.56
499.918	904.56
500.135	954.56
500.352	1030.56
500.569	1093.56
500.786	1089.56
501.003	1043.56
501.22	985.56
501.437	933.56
501.654	873.56
501.871	816.56
502.088	752.56
