Data from 1984.PennyLincolnUp.Lamp.En5.5.200Scan.071819.P1_HRD10591_16-59-42-969.txt Node
Date: Thu Jul 18 16:59:42 EDT 2019
User: cochatt
Spectrometer: HR+D1059
Trigger mode: 1
Integration Time (sec): 1.000000E-1
Scans to average: 1
Electric dark correction enabled: true
Nonlinearity correction enabled: false
Boxcar width: 0
XAxis mode: Wavelengths
Number of Pixels in Spectrum: 2048
>>>>>Begin Spectral Data<<<<<
223.165	-14.62
223.4	-14.62
223.635	-14.62
223.869	-18.62
224.104	-4.62
224.338	-23.62
224.573	-4.62
224.808	-19.62
225.042	-9.62
225.277	-5.62
225.511	1.38
225.746	5.38
225.98	8.38
226.215	1.38
226.449	15.38
226.683	19.38
226.918	19.38
227.152	30.38
227.387	25.38
227.621	30.38
227.856	62.38
228.09	42.38
228.324	48.38
228.559	51.38
228.793	60.38
229.027	86.38
229.262	84.38
229.496	99.38
229.73	113.38
229.964	115.38
230.199	97.38
230.433	103.38
230.667	124.38
230.901	96.38
231.136	97.38
231.37	106.38
231.604	94.38
231.838	100.38
232.072	102.38
232.306	99.38
232.541	123.38
232.775	127.38
233.009	111.38
233.243	119.38
233.477	115.38
233.711	102.38
233.945	102.38
234.179	114.38
234.413	120.38
234.647	103.38
234.881	102.38
235.115	99.38
235.349	101.38
235.583	104.38
235.817	106.38
236.051	112.38
236.285	111.38
236.519	108.38
236.753	106.38
236.987	105.38
237.221	148.38
237.455	172.38
237.689	145.38
237.922	114.38
238.156	108.38
238.39	123.38
238.624	126.38
238.858	111.38
239.091	118.38
239.325	109.38
239.559	115.38
239.793	121.38
240.027	125.38
240.26	123.38
240.494	131.38
240.728	121.38
240.961	131.38
241.195	132.38
241.429	136.38
241.662	128.38
241.896	121.38
242.13	121.38
242.363	104.38
242.597	123.38
242.83	127.38
243.064	131.38
243.298	127.38
243.531	144.38
243.765	129.38
243.998	134.38
244.232	146.38
244.465	151.38
244.699	117.38
244.932	125.38
245.166	126.38
245.399	119.38
245.633	139.38
245.866	137.38
246.099	136.38
246.333	140.38
246.566	131.38
246.8	145.38
247.033	146.38
247.266	141.38
247.5	153.38
247.733	151.38
247.966	154.38
248.2	162.38
248.433	166.38
248.666	147.38
248.899	168.38
249.133	172.38
249.366	181.38
249.599	168.38
249.832	158.38
250.066	163.38
250.299	177.38
250.532	182.38
250.765	200.38
250.998	213.38
251.231	194.38
251.465	184.38
251.698	200.38
251.931	180.38
252.164	167.38
252.397	163.38
252.63	167.38
252.863	183.38
253.096	203.38
253.329	202.38
253.562	188.38
253.795	179.38
254.028	185.38
254.261	193.38
254.494	194.38
254.727	219.38
254.96	223.38
255.193	202.38
255.426	211.38
255.659	203.38
255.892	221.38
256.124	255.38
256.357	278.38
256.59	241.38
256.823	216.38
257.056	202.38
257.289	214.38
257.521	207.38
257.754	196.38
257.987	179.38
258.22	174.38
258.452	178.38
258.685	193.38
258.918	194.38
259.151	183.38
259.383	197.38
259.616	208.38
259.849	187.38
260.081	194.38
260.314	213.38
260.547	218.38
260.779	216.38
261.012	198.38
261.244	202.38
261.477	187.38
261.71	198.38
261.942	207.38
262.175	198.38
262.407	203.38
262.64	206.38
262.872	195.38
263.105	183.38
263.337	197.38
263.57	189.38
263.802	217.38
264.035	205.38
264.267	196.38
264.499	195.38
264.732	186.38
264.964	200.38
265.197	209.38
265.429	201.38
265.661	206.38
265.894	189.38
266.126	203.38
266.358	194.38
266.591	198.38
266.823	206.38
267.055	213.38
267.287	218.38
267.52	199.38
267.752	213.38
267.984	197.38
268.216	215.38
268.448	194.38
268.681	209.38
268.913	216.38
269.145	233.38
269.377	232.38
269.609	237.38
269.841	231.38
270.073	246.38
270.306	245.38
270.538	246.38
270.77	249.38
271.002	238.38
271.234	256.38
271.466	257.38
271.698	265.38
271.93	267.38
272.162	258.38
272.394	264.38
272.626	243.38
272.858	255.38
273.09	248.38
273.322	254.38
273.553	230.38
273.785	260.38
274.017	247.38
274.249	262.38
274.481	245.38
274.713	245.38
274.945	244.38
275.176	231.38
275.408	241.38
275.64	233.38
275.872	246.38
276.104	265.38
276.335	240.38
276.567	245.38
276.799	268.38
277.031	267.38
277.262	272.38
277.494	279.38
277.726	273.38
277.957	251.38
278.189	263.38
278.421	262.38
278.652	266.38
278.884	242.38
279.115	239.38
279.347	261.38
279.579	255.38
279.81	258.38
280.042	269.38
280.273	255.38
280.505	277.38
280.736	263.38
280.968	279.38
281.199	273.38
281.431	259.38
281.662	269.38
281.894	265.38
282.125	249.38
282.356	282.38
282.588	299.38
282.819	273.38
283.051	267.38
283.282	264.38
283.513	277.38
283.745	257.38
283.976	252.38
284.207	273.38
284.439	251.38
284.67	260.38
284.901	276.38
285.132	266.38
285.364	265.38
285.595	266.38
285.826	272.38
286.057	287.38
286.288	279.38
286.52	277.38
286.751	261.38
286.982	277.38
287.213	275.38
287.444	277.38
287.675	273.38
287.906	294.38
288.138	290.38
288.369	268.38
288.6	293.38
288.831	282.38
289.062	280.38
289.293	284.38
289.524	273.38
289.755	261.38
289.986	257.38
290.217	280.38
290.448	268.38
290.679	282.38
290.91	297.38
291.141	283.38
291.371	291.38
291.602	298.38
291.833	285.38
292.064	282.38
292.295	295.38
292.526	288.38
292.757	298.38
292.987	281.38
293.218	285.38
293.449	296.38
293.68	283.38
293.91	283.38
294.141	289.38
294.372	289.38
294.603	282.38
294.833	271.38
295.064	282.38
295.295	295.38
295.525	282.38
295.756	276.38
295.987	297.38
296.217	298.38
296.448	310.38
296.679	289.38
296.909	296.38
297.14	294.38
297.37	295.38
297.601	295.38
297.831	296.38
298.062	309.38
298.292	302.38
298.523	321.38
298.753	298.38
298.984	301.38
299.214	305.38
299.445	305.38
299.675	289.38
299.905	302.38
300.136	302.38
300.366	305.38
300.597	305.38
300.827	302.38
301.057	317.38
301.288	317.38
301.518	321.38
301.748	315.38
301.979	309.38
302.209	318.38
302.439	323.38
302.669	324.38
302.9	331.38
303.13	319.38
303.36	325.38
303.59	320.38
303.82	336.38
304.051	342.38
304.281	335.38
304.511	313.38
304.741	325.38
304.971	322.38
305.201	303.38
305.431	328.38
305.661	329.38
305.891	321.38
306.121	329.38
306.352	327.38
306.582	325.38
306.812	324.38
307.042	309.38
307.272	313.38
307.502	312.38
307.731	322.38
307.961	339.38
308.191	323.38
308.421	341.38
308.651	329.38
308.881	306.38
309.111	315.38
309.341	308.38
309.571	310.38
309.8	338.38
310.03	343.38
310.26	367.38
310.49	349.38
310.72	329.38
310.949	346.38
311.179	362.38
311.409	339.38
311.639	348.38
311.868	342.38
312.098	364.38
312.328	345.38
312.557	351.38
312.787	380.38
313.017	371.38
313.246	360.38
313.476	354.38
313.706	354.38
313.935	360.38
314.165	368.38
314.394	362.38
314.624	350.38
314.853	350.38
315.083	358.38
315.312	340.38
315.542	351.38
315.771	365.38
316.001	359.38
316.23	356.38
316.46	350.38
316.689	342.38
316.919	362.38
317.148	353.38
317.377	360.38
317.607	360.38
317.836	349.38
318.065	351.38
318.295	341.38
318.524	366.38
318.753	347.38
318.983	343.38
319.212	362.38
319.441	373.38
319.67	350.38
319.9	339.38
320.129	359.38
320.358	351.38
320.587	353.38
320.816	352.38
321.046	374.38
321.275	369.38
321.504	355.38
321.733	375.38
321.962	365.38
322.191	375.38
322.42	372.38
322.649	378.38
322.878	408.38
323.108	392.38
323.337	409.38
323.566	409.38
323.795	441.38
324.024	459.38
324.253	548.38
324.482	743.38
324.71	1060.38
324.939	1482.38
325.168	1247.38
325.397	693.38
325.626	545.38
325.855	467.38
326.084	446.38
326.313	449.38
326.542	436.38
326.77	468.38
326.999	531.38
327.228	701.38
327.457	986.38
327.686	1169.38
327.914	823.38
328.143	599.38
328.372	552.38
328.6	533.38
328.829	491.38
329.058	486.38
329.287	505.38
329.515	478.38
329.744	491.38
329.972	532.38
330.201	581.38
330.43	606.38
330.658	592.38
330.887	552.38
331.115	511.38
331.344	465.38
331.572	472.38
331.801	455.38
332.03	452.38
332.258	437.38
332.486	443.38
332.715	450.38
332.943	460.38
333.172	485.38
333.4	473.38
333.629	527.38
333.857	547.38
334.085	577.38
334.314	631.38
334.542	701.38
334.771	706.38
334.999	578.38
335.227	505.38
335.455	507.38
335.684	477.38
335.912	477.38
336.14	462.38
336.369	434.38
336.597	437.38
336.825	416.38
337.053	452.38
337.281	430.38
337.51	429.38
337.738	414.38
337.966	424.38
338.194	429.38
338.422	405.38
338.65	416.38
338.878	421.38
339.106	408.38
339.334	416.38
339.562	419.38
339.79	391.38
340.018	384.38
340.246	383.38
340.474	389.38
340.702	390.38
340.93	399.38
341.158	371.38
341.386	390.38
341.614	393.38
341.842	403.38
342.07	405.38
342.298	377.38
342.526	395.38
342.754	389.38
342.981	389.38
343.209	391.38
343.437	389.38
343.665	391.38
343.893	421.38
344.12	447.38
344.348	442.38
344.576	428.38
344.804	409.38
345.031	421.38
345.259	412.38
345.487	404.38
345.714	375.38
345.942	383.38
346.17	377.38
346.397	380.38
346.625	381.38
346.853	388.38
347.08	366.38
347.308	373.38
347.535	369.38
347.763	383.38
347.99	374.38
348.218	364.38
348.445	374.38
348.673	375.38
348.9	373.38
349.128	381.38
349.355	364.38
349.583	374.38
349.81	374.38
350.037	349.38
350.265	347.38
350.492	355.38
350.72	383.38
350.947	371.38
351.174	372.38
351.402	389.38
351.629	377.38
351.856	370.38
352.083	353.38
352.311	373.38
352.538	378.38
352.765	375.38
352.992	382.38
353.22	354.38
353.447	368.38
353.674	373.38
353.901	359.38
354.128	331.38
354.355	365.38
354.583	359.38
354.81	359.38
355.037	335.38
355.264	361.38
355.491	357.38
355.718	350.38
355.945	363.38
356.172	360.38
356.399	359.38
356.626	350.38
356.853	348.38
357.08	358.38
357.307	344.38
357.534	355.38
357.761	363.38
357.988	369.38
358.215	347.38
358.441	358.38
358.668	358.38
358.895	358.38
359.122	368.38
359.349	358.38
359.576	358.38
359.802	381.38
360.029	381.38
360.256	384.38
360.483	373.38
360.709	365.38
360.936	375.38
361.163	360.38
361.39	346.38
361.616	367.38
361.843	366.38
362.07	376.38
362.296	377.38
362.523	358.38
362.749	361.38
362.976	356.38
363.203	373.38
363.429	344.38
363.656	349.38
363.882	351.38
364.109	345.38
364.335	325.38
364.562	357.38
364.788	368.38
365.015	352.38
365.241	362.38
365.468	363.38
365.694	353.38
365.92	350.38
366.147	354.38
366.373	344.38
366.599	334.38
366.826	351.38
367.052	350.38
367.278	349.38
367.505	343.38
367.731	340.38
367.957	351.38
368.184	354.38
368.41	348.38
368.636	390.38
368.862	377.38
369.089	361.38
369.315	357.38
369.541	351.38
369.767	369.38
369.993	371.38
370.219	342.38
370.445	361.38
370.672	377.38
370.898	352.38
371.124	367.38
371.35	365.38
371.576	371.38
371.802	345.38
372.028	349.38
372.254	375.38
372.48	357.38
372.706	373.38
372.932	377.38
373.158	373.38
373.384	369.38
373.61	367.38
373.835	348.38
374.061	365.38
374.287	409.38
374.513	375.38
374.739	385.38
374.965	386.38
375.191	387.38
375.416	394.38
375.642	389.38
375.868	375.38
376.094	375.38
376.319	370.38
376.545	369.38
376.771	362.38
376.997	344.38
377.222	355.38
377.448	372.38
377.674	368.38
377.899	363.38
378.125	358.38
378.35	358.38
378.576	358.38
378.802	362.38
379.027	356.38
379.253	337.38
379.478	337.38
379.704	337.38
379.929	345.38
380.155	360.38
380.38	350.38
380.606	366.38
380.831	363.38
381.057	359.38
381.282	364.38
381.507	353.38
381.733	358.38
381.958	360.38
382.184	381.38
382.409	367.38
382.634	366.38
382.86	352.38
383.085	369.38
383.31	399.38
383.535	379.38
383.761	388.38
383.986	383.38
384.211	378.38
384.436	390.38
384.662	399.38
384.887	399.38
385.112	431.38
385.337	409.38
385.562	417.38
385.787	410.38
386.013	422.38
386.238	398.38
386.463	425.38
386.688	415.38
386.913	409.38
387.138	400.38
387.363	408.38
387.588	411.38
387.813	413.38
388.038	391.38
388.263	396.38
388.488	395.38
388.713	391.38
388.938	391.38
389.163	412.38
389.387	413.38
389.612	409.38
389.837	398.38
390.062	387.38
390.287	401.38
390.512	392.38
390.736	395.38
390.961	409.38
391.186	420.38
391.411	416.38
391.636	414.38
391.86	439.38
392.085	433.38
392.31	429.38
392.534	438.38
392.759	419.38
392.984	413.38
393.208	407.38
393.433	415.38
393.658	412.38
393.882	416.38
394.107	411.38
394.331	399.38
394.556	436.38
394.78	421.38
395.005	413.38
395.229	406.38
395.454	435.38
395.678	437.38
395.903	443.38
396.127	444.38
396.352	453.38
396.576	445.38
396.801	416.38
397.025	418.38
397.249	434.38
397.474	450.38
397.698	455.38
397.922	424.38
398.147	444.38
398.371	450.38
398.595	445.38
398.82	456.38
399.044	498.38
399.268	521.38
399.492	558.38
399.717	643.38
399.941	649.38
400.165	613.38
400.389	621.38
400.613	573.38
400.837	493.38
401.062	497.38
401.286	494.38
401.51	487.38
401.734	487.38
401.958	481.38
402.182	493.38
402.406	478.38
402.63	505.38
402.854	505.38
403.078	513.38
403.302	523.38
403.526	498.38
403.75	508.38
403.974	514.38
404.198	529.38
404.422	528.38
404.645	521.38
404.869	536.38
405.093	569.38
405.317	610.38
405.541	616.38
405.765	591.38
405.988	539.38
406.212	538.38
406.436	548.38
406.66	534.38
406.883	543.38
407.107	571.38
407.331	599.38
407.555	653.38
407.778	636.38
408.002	591.38
408.226	569.38
408.449	562.38
408.673	538.38
408.896	562.38
409.12	592.38
409.344	532.38
409.567	538.38
409.791	511.38
410.014	500.38
410.238	513.38
410.461	491.38
410.685	494.38
410.908	499.38
411.132	526.38
411.355	536.38
411.578	513.38
411.802	520.38
412.025	479.38
412.249	517.38
412.472	563.38
412.695	613.38
412.919	583.38
413.142	546.38
413.365	509.38
413.589	478.38
413.812	510.38
414.035	489.38
414.258	487.38
414.482	457.38
414.705	490.38
414.928	478.38
415.151	496.38
415.374	491.38
415.597	476.38
415.821	443.38
416.044	467.38
416.267	454.38
416.49	459.38
416.713	467.38
416.936	465.38
417.159	470.38
417.382	462.38
417.605	486.38
417.828	483.38
418.051	460.38
418.274	499.38
418.497	487.38
418.72	491.38
418.943	479.38
419.166	500.38
419.389	519.38
419.611	521.38
419.834	531.38
420.057	514.38
420.28	543.38
420.503	535.38
420.726	536.38
420.948	539.38
421.171	510.38
421.394	522.38
421.617	486.38
421.839	485.38
422.062	490.38
422.285	505.38
422.507	520.38
422.73	549.38
422.953	542.38
423.175	488.38
423.398	507.38
423.621	490.38
423.843	533.38
424.066	505.38
424.288	493.38
424.511	521.38
424.733	561.38
424.956	616.38
425.178	598.38
425.401	580.38
425.623	563.38
425.846	528.38
426.068	484.38
426.291	478.38
426.513	482.38
426.735	500.38
426.958	511.38
427.18	563.38
427.402	641.38
427.625	677.38
427.847	609.38
428.069	582.38
428.292	527.38
428.514	457.38
428.736	470.38
428.958	467.38
429.181	446.38
429.403	459.38
429.625	433.38
429.847	470.38
430.069	487.38
430.292	509.38
430.514	440.38
430.736	428.38
430.958	436.38
431.18	416.38
431.402	406.38
431.624	407.38
431.846	432.38
432.068	424.38
432.29	439.38
432.512	431.38
432.734	417.38
432.956	458.38
433.178	440.38
433.4	459.38
433.622	421.38
433.844	451.38
434.066	447.38
434.287	424.38
434.509	456.38
434.731	453.38
434.953	458.38
435.175	476.38
435.397	478.38
435.618	480.38
435.84	495.38
436.062	540.38
436.284	585.38
436.505	509.38
436.727	493.38
436.949	451.38
437.17	443.38
437.392	441.38
437.614	453.38
437.835	451.38
438.057	513.38
438.278	573.38
438.5	568.38
438.721	605.38
438.943	583.38
439.165	479.38
439.386	447.38
439.608	476.38
439.829	465.38
440.05	481.38
440.272	514.38
440.493	483.38
440.715	452.38
440.936	450.38
441.158	469.38
441.379	456.38
441.6	484.38
441.822	484.38
442.043	532.38
442.264	541.38
442.486	563.38
442.707	490.38
442.928	487.38
443.149	496.38
443.371	497.38
443.592	518.38
443.813	567.38
444.034	640.38
444.255	553.38
444.476	513.38
444.698	534.38
444.919	543.38
445.14	616.38
445.361	550.38
445.582	502.38
445.803	536.38
446.024	571.38
446.245	585.38
446.466	543.38
446.687	474.38
446.908	458.38
447.129	447.38
447.35	444.38
447.571	433.38
447.792	410.38
448.013	415.38
448.234	450.38
448.455	490.38
448.675	539.38
448.896	574.38
449.117	539.38
449.338	506.38
449.559	547.38
449.779	635.38
450	478.38
450.221	449.38
450.442	445.38
450.662	415.38
450.883	431.38
451.104	433.38
451.324	412.38
451.545	381.38
451.766	397.38
451.986	394.38
452.207	389.38
452.428	391.38
452.648	411.38
452.869	396.38
453.089	407.38
453.31	387.38
453.53	401.38
453.751	393.38
453.971	402.38
454.192	385.38
454.412	391.38
454.633	381.38
454.853	374.38
455.073	387.38
455.294	415.38
455.514	446.38
455.734	427.38
455.955	381.38
456.175	385.38
456.395	366.38
456.616	363.38
456.836	369.38
457.056	363.38
457.276	367.38
457.497	371.38
457.717	369.38
457.937	367.38
458.157	395.38
458.377	383.38
458.598	404.38
458.818	410.38
459.038	481.38
459.258	491.38
459.478	453.38
459.698	426.38
459.918	453.38
460.138	458.38
460.358	475.38
460.578	474.38
460.798	481.38
461.018	470.38
461.238	473.38
461.458	460.38
461.678	461.38
461.898	474.38
462.118	485.38
462.338	483.38
462.558	511.38
462.777	487.38
462.997	528.38
463.217	554.38
463.437	537.38
463.657	535.38
463.876	511.38
464.096	522.38
464.316	537.38
464.536	539.38
464.755	509.38
464.975	511.38
465.195	520.38
465.414	539.38
465.634	459.38
465.854	452.38
466.073	449.38
466.293	431.38
466.512	435.38
466.732	402.38
466.951	399.38
467.171	415.38
467.391	411.38
467.61	431.38
467.829	434.38
468.049	422.38
468.268	448.38
468.488	439.38
468.707	411.38
468.927	420.38
469.146	395.38
469.365	405.38
469.585	401.38
469.804	401.38
470.023	440.38
470.243	445.38
470.462	438.38
470.681	445.38
470.901	449.38
471.12	445.38
471.339	422.38
471.558	424.38
471.777	420.38
471.997	430.38
472.216	433.38
472.435	524.38
472.654	497.38
472.873	465.38
473.092	447.38
473.311	424.38
473.53	418.38
473.749	423.38
473.968	457.38
474.187	459.38
474.406	512.38
474.625	460.38
474.844	422.38
475.063	424.38
475.282	413.38
475.501	404.38
475.72	419.38
475.939	417.38
476.158	416.38
476.377	424.38
476.596	414.38
476.814	427.38
477.033	423.38
477.252	417.38
477.471	451.38
477.69	455.38
477.908	453.38
478.127	468.38
478.346	446.38
478.564	477.38
478.783	468.38
479.002	508.38
479.22	493.38
479.439	470.38
479.658	480.38
479.876	495.38
480.095	502.38
480.313	535.38
480.532	533.38
480.751	531.38
480.969	539.38
481.188	701.38
481.406	765.38
481.624	601.38
481.843	544.38
482.061	514.38
482.28	489.38
482.498	497.38
482.717	477.38
482.935	473.38
483.153	471.38
483.372	485.38
483.59	479.38
483.808	457.38
484.027	459.38
484.245	487.38
484.463	493.38
484.681	496.38
484.9	502.38
485.118	482.38
485.336	467.38
485.554	487.38
485.772	499.38
485.99	486.38
486.209	509.38
486.427	498.38
486.645	481.38
486.863	529.38
487.081	499.38
487.299	504.38
487.517	484.38
487.735	495.38
487.953	479.38
488.171	511.38
488.389	485.38
488.607	483.38
488.825	516.38
489.043	498.38
489.261	500.38
489.479	485.38
489.696	497.38
489.914	510.38
490.132	517.38
490.35	525.38
490.568	532.38
490.786	537.38
491.003	545.38
491.221	545.38
491.439	542.38
491.657	583.38
491.874	560.38
492.092	595.38
492.31	553.38
492.527	601.38
492.745	584.38
492.963	600.38
493.18	607.38
493.398	602.38
493.615	597.38
493.833	600.38
494.05	578.38
494.268	567.38
494.485	589.38
494.703	594.38
494.92	584.38
495.138	584.38
495.355	580.38
495.573	589.38
495.79	573.38
496.008	568.38
496.225	579.38
496.442	595.38
496.66	569.38
496.877	589.38
497.094	592.38
497.312	571.38
497.529	624.38
497.746	611.38
497.963	618.38
498.181	654.38
498.398	656.38
498.615	704.38
498.832	707.38
499.049	746.38
499.267	783.38
499.484	793.38
499.701	858.38
499.918	936.38
500.135	1010.38
500.352	1085.38
500.569	1112.38
500.786	1130.38
501.003	1101.38
501.22	1016.38
501.437	953.38
501.654	875.38
501.871	832.38
502.088	774.38
