Data from 1984.PennyLincolnUp.Lamp.En5.5.200Scan.071819.P1_HRD10591_16-57-54-968.txt Node
Date: Thu Jul 18 16:57:54 EDT 2019
User: cochatt
Spectrometer: HR+D1059
Trigger mode: 1
Integration Time (sec): 1.000000E-1
Scans to average: 1
Electric dark correction enabled: true
Nonlinearity correction enabled: false
Boxcar width: 0
XAxis mode: Wavelengths
Number of Pixels in Spectrum: 2048
>>>>>Begin Spectral Data<<<<<
223.165	-11.56
223.4	-11.56
223.635	-11.56
223.869	-23.56
224.104	-21.56
224.338	-4.56
224.573	-10.56
224.808	-18.56
225.042	-6.56
225.277	-18.56
225.511	-6.56
225.746	1.44
225.98	8.44
226.215	16.44
226.449	24.44
226.683	20.44
226.918	19.44
227.152	31.44
227.387	21.44
227.621	34.44
227.856	39.44
228.09	30.44
228.324	44.44
228.559	57.44
228.793	68.44
229.027	109.44
229.262	91.44
229.496	102.44
229.73	108.44
229.964	127.44
230.199	105.44
230.433	112.44
230.667	124.44
230.901	110.44
231.136	120.44
231.37	123.44
231.604	117.44
231.838	118.44
232.072	129.44
232.306	111.44
232.541	108.44
232.775	95.44
233.009	117.44
233.243	98.44
233.477	128.44
233.711	112.44
233.945	108.44
234.179	89.44
234.413	112.44
234.647	126.44
234.881	110.44
235.115	111.44
235.349	129.44
235.583	105.44
235.817	126.44
236.051	116.44
236.285	121.44
236.519	109.44
236.753	127.44
236.987	123.44
237.221	114.44
237.455	158.44
237.689	147.44
237.922	139.44
238.156	132.44
238.39	126.44
238.624	122.44
238.858	107.44
239.091	113.44
239.325	120.44
239.559	120.44
239.793	130.44
240.027	132.44
240.26	123.44
240.494	133.44
240.728	127.44
240.961	128.44
241.195	122.44
241.429	138.44
241.662	113.44
241.896	129.44
242.13	118.44
242.363	121.44
242.597	130.44
242.83	126.44
243.064	128.44
243.298	127.44
243.531	132.44
243.765	113.44
243.998	137.44
244.232	132.44
244.465	127.44
244.699	129.44
244.932	129.44
245.166	124.44
245.399	150.44
245.633	125.44
245.866	135.44
246.099	154.44
246.333	154.44
246.566	152.44
246.8	141.44
247.033	148.44
247.266	148.44
247.5	153.44
247.733	155.44
247.966	159.44
248.2	157.44
248.433	162.44
248.666	164.44
248.899	169.44
249.133	172.44
249.366	173.44
249.599	180.44
249.832	171.44
250.066	170.44
250.299	169.44
250.532	177.44
250.765	181.44
250.998	193.44
251.231	200.44
251.465	188.44
251.698	165.44
251.931	175.44
252.164	180.44
252.397	173.44
252.63	189.44
252.863	193.44
253.096	196.44
253.329	203.44
253.562	185.44
253.795	207.44
254.028	170.44
254.261	162.44
254.494	180.44
254.727	209.44
254.96	230.44
255.193	213.44
255.426	209.44
255.659	185.44
255.892	209.44
256.124	203.44
256.357	194.44
256.59	212.44
256.823	187.44
257.056	183.44
257.289	189.44
257.521	215.44
257.754	196.44
257.987	194.44
258.22	198.44
258.452	180.44
258.685	173.44
258.918	196.44
259.151	201.44
259.383	192.44
259.616	195.44
259.849	209.44
260.081	199.44
260.314	213.44
260.547	198.44
260.779	194.44
261.012	200.44
261.244	201.44
261.477	201.44
261.71	207.44
261.942	201.44
262.175	192.44
262.407	190.44
262.64	211.44
262.872	188.44
263.105	210.44
263.337	208.44
263.57	200.44
263.802	195.44
264.035	211.44
264.267	213.44
264.499	205.44
264.732	208.44
264.964	210.44
265.197	216.44
265.429	204.44
265.661	205.44
265.894	193.44
266.126	215.44
266.358	196.44
266.591	207.44
266.823	206.44
267.055	228.44
267.287	220.44
267.52	197.44
267.752	208.44
267.984	215.44
268.216	212.44
268.448	208.44
268.681	218.44
268.913	223.44
269.145	241.44
269.377	245.44
269.609	234.44
269.841	246.44
270.073	232.44
270.306	260.44
270.538	261.44
270.77	269.44
271.002	248.44
271.234	247.44
271.466	257.44
271.698	235.44
271.93	263.44
272.162	264.44
272.394	250.44
272.626	253.44
272.858	268.44
273.09	264.44
273.322	262.44
273.553	239.44
273.785	233.44
274.017	240.44
274.249	248.44
274.481	248.44
274.713	233.44
274.945	238.44
275.176	232.44
275.408	235.44
275.64	241.44
275.872	240.44
276.104	239.44
276.335	243.44
276.567	244.44
276.799	247.44
277.031	261.44
277.262	271.44
277.494	258.44
277.726	264.44
277.957	255.44
278.189	274.44
278.421	251.44
278.652	262.44
278.884	248.44
279.115	250.44
279.347	248.44
279.579	278.44
279.81	262.44
280.042	263.44
280.273	267.44
280.505	258.44
280.736	246.44
280.968	254.44
281.199	270.44
281.431	259.44
281.662	252.44
281.894	257.44
282.125	272.44
282.356	269.44
282.588	280.44
282.819	274.44
283.051	249.44
283.282	264.44
283.513	258.44
283.745	268.44
283.976	278.44
284.207	255.44
284.439	265.44
284.67	280.44
284.901	273.44
285.132	285.44
285.364	262.44
285.595	260.44
285.826	270.44
286.057	275.44
286.288	267.44
286.52	281.44
286.751	257.44
286.982	275.44
287.213	272.44
287.444	281.44
287.675	286.44
287.906	301.44
288.138	276.44
288.369	287.44
288.6	280.44
288.831	287.44
289.062	273.44
289.293	277.44
289.524	268.44
289.755	265.44
289.986	290.44
290.217	283.44
290.448	274.44
290.679	282.44
290.91	283.44
291.141	286.44
291.371	290.44
291.602	289.44
291.833	284.44
292.064	278.44
292.295	273.44
292.526	298.44
292.757	289.44
292.987	295.44
293.218	270.44
293.449	281.44
293.68	297.44
293.91	293.44
294.141	279.44
294.372	273.44
294.603	312.44
294.833	291.44
295.064	298.44
295.295	294.44
295.525	276.44
295.756	286.44
295.987	299.44
296.217	297.44
296.448	313.44
296.679	305.44
296.909	283.44
297.14	304.44
297.37	289.44
297.601	285.44
297.831	301.44
298.062	311.44
298.292	314.44
298.523	315.44
298.753	296.44
298.984	310.44
299.214	318.44
299.445	302.44
299.675	288.44
299.905	299.44
300.136	315.44
300.366	310.44
300.597	322.44
300.827	306.44
301.057	312.44
301.288	319.44
301.518	335.44
301.748	320.44
301.979	316.44
302.209	316.44
302.439	332.44
302.669	316.44
302.9	328.44
303.13	325.44
303.36	348.44
303.59	330.44
303.82	329.44
304.051	331.44
304.281	308.44
304.511	312.44
304.741	334.44
304.971	316.44
305.201	326.44
305.431	320.44
305.661	305.44
305.891	333.44
306.121	326.44
306.352	328.44
306.582	313.44
306.812	310.44
307.042	329.44
307.272	307.44
307.502	308.44
307.731	337.44
307.961	316.44
308.191	300.44
308.421	333.44
308.651	328.44
308.881	323.44
309.111	330.44
309.341	324.44
309.571	327.44
309.8	334.44
310.03	334.44
310.26	333.44
310.49	333.44
310.72	327.44
310.949	339.44
311.179	366.44
311.409	332.44
311.639	350.44
311.868	344.44
312.098	362.44
312.328	360.44
312.557	353.44
312.787	342.44
313.017	346.44
313.246	350.44
313.476	349.44
313.706	360.44
313.935	365.44
314.165	369.44
314.394	345.44
314.624	359.44
314.853	359.44
315.083	364.44
315.312	338.44
315.542	355.44
315.771	351.44
316.001	351.44
316.23	348.44
316.46	351.44
316.689	358.44
316.919	372.44
317.148	372.44
317.377	361.44
317.607	350.44
317.836	352.44
318.065	354.44
318.295	355.44
318.524	335.44
318.753	354.44
318.983	338.44
319.212	349.44
319.441	347.44
319.67	364.44
319.9	358.44
320.129	357.44
320.358	342.44
320.587	336.44
320.816	342.44
321.046	362.44
321.275	365.44
321.504	361.44
321.733	377.44
321.962	367.44
322.191	372.44
322.42	375.44
322.649	396.44
322.878	388.44
323.108	389.44
323.337	408.44
323.566	414.44
323.795	430.44
324.024	469.44
324.253	513.44
324.482	676.44
324.71	951.44
324.939	1336.44
325.168	1158.44
325.397	654.44
325.626	516.44
325.855	427.44
326.084	426.44
326.313	445.44
326.542	422.44
326.77	443.44
326.999	519.44
327.228	615.44
327.457	881.44
327.686	1052.44
327.914	714.44
328.143	516.44
328.372	485.44
328.6	477.44
328.829	484.44
329.058	458.44
329.287	448.44
329.515	431.44
329.744	422.44
329.972	416.44
330.201	449.44
330.43	453.44
330.658	462.44
330.887	475.44
331.115	470.44
331.344	437.44
331.572	445.44
331.801	437.44
332.03	436.44
332.258	432.44
332.486	428.44
332.715	441.44
332.943	456.44
333.172	439.44
333.4	463.44
333.629	464.44
333.857	458.44
334.085	476.44
334.314	480.44
334.542	492.44
334.771	480.44
334.999	475.44
335.227	467.44
335.455	434.44
335.684	439.44
335.912	432.44
336.14	430.44
336.369	431.44
336.597	428.44
336.825	434.44
337.053	421.44
337.281	404.44
337.51	429.44
337.738	414.44
337.966	402.44
338.194	406.44
338.422	397.44
338.65	391.44
338.878	403.44
339.106	390.44
339.334	408.44
339.562	391.44
339.79	400.44
340.018	392.44
340.246	394.44
340.474	405.44
340.702	390.44
340.93	388.44
341.158	400.44
341.386	394.44
341.614	396.44
341.842	390.44
342.07	407.44
342.298	390.44
342.526	400.44
342.754	381.44
342.981	386.44
343.209	383.44
343.437	384.44
343.665	393.44
343.893	427.44
344.12	451.44
344.348	433.44
344.576	424.44
344.804	406.44
345.031	398.44
345.259	401.44
345.487	403.44
345.714	390.44
345.942	408.44
346.17	391.44
346.397	383.44
346.625	363.44
346.853	361.44
347.08	370.44
347.308	393.44
347.535	370.44
347.763	372.44
347.99	375.44
348.218	375.44
348.445	396.44
348.673	377.44
348.9	365.44
349.128	381.44
349.355	374.44
349.583	367.44
349.81	378.44
350.037	379.44
350.265	364.44
350.492	363.44
350.72	363.44
350.947	375.44
351.174	379.44
351.402	370.44
351.629	370.44
351.856	355.44
352.083	372.44
352.311	362.44
352.538	376.44
352.765	360.44
352.992	358.44
353.22	374.44
353.447	359.44
353.674	359.44
353.901	341.44
354.128	354.44
354.355	363.44
354.583	348.44
354.81	343.44
355.037	358.44
355.264	355.44
355.491	369.44
355.718	351.44
355.945	373.44
356.172	351.44
356.399	361.44
356.626	354.44
356.853	356.44
357.08	353.44
357.307	362.44
357.534	359.44
357.761	338.44
357.988	346.44
358.215	352.44
358.441	347.44
358.668	349.44
358.895	357.44
359.122	349.44
359.349	358.44
359.576	360.44
359.802	388.44
360.029	390.44
360.256	384.44
360.483	366.44
360.709	356.44
360.936	356.44
361.163	367.44
361.39	374.44
361.616	351.44
361.843	353.44
362.07	354.44
362.296	364.44
362.523	354.44
362.749	351.44
362.976	344.44
363.203	365.44
363.429	358.44
363.656	353.44
363.882	357.44
364.109	360.44
364.335	345.44
364.562	360.44
364.788	365.44
365.015	350.44
365.241	350.44
365.468	357.44
365.694	345.44
365.92	349.44
366.147	365.44
366.373	367.44
366.599	342.44
366.826	349.44
367.052	336.44
367.278	361.44
367.505	363.44
367.731	373.44
367.957	350.44
368.184	340.44
368.41	337.44
368.636	370.44
368.862	368.44
369.089	349.44
369.315	359.44
369.541	356.44
369.767	359.44
369.993	374.44
370.219	321.44
370.445	351.44
370.672	360.44
370.898	352.44
371.124	356.44
371.35	376.44
371.576	361.44
371.802	378.44
372.028	376.44
372.254	346.44
372.48	372.44
372.706	366.44
372.932	357.44
373.158	368.44
373.384	369.44
373.61	373.44
373.835	360.44
374.061	356.44
374.287	352.44
374.513	375.44
374.739	370.44
374.965	385.44
375.191	406.44
375.416	394.44
375.642	390.44
375.868	387.44
376.094	370.44
376.319	348.44
376.545	381.44
376.771	384.44
376.997	375.44
377.222	373.44
377.448	365.44
377.674	354.44
377.899	376.44
378.125	376.44
378.35	332.44
378.576	360.44
378.802	341.44
379.027	359.44
379.253	356.44
379.478	350.44
379.704	341.44
379.929	361.44
380.155	344.44
380.38	365.44
380.606	347.44
380.831	361.44
381.057	351.44
381.282	375.44
381.507	368.44
381.733	363.44
381.958	364.44
382.184	371.44
382.409	381.44
382.634	358.44
382.86	378.44
383.085	375.44
383.31	378.44
383.535	384.44
383.761	400.44
383.986	387.44
384.211	386.44
384.436	394.44
384.662	412.44
384.887	396.44
385.112	399.44
385.337	417.44
385.562	422.44
385.787	390.44
386.013	414.44
386.238	425.44
386.463	423.44
386.688	402.44
386.913	399.44
387.138	397.44
387.363	396.44
387.588	385.44
387.813	402.44
388.038	396.44
388.263	416.44
388.488	421.44
388.713	398.44
388.938	413.44
389.163	401.44
389.387	396.44
389.612	417.44
389.837	388.44
390.062	392.44
390.287	417.44
390.512	394.44
390.736	398.44
390.961	410.44
391.186	410.44
391.411	407.44
391.636	440.44
391.86	437.44
392.085	440.44
392.31	438.44
392.534	424.44
392.759	434.44
392.984	422.44
393.208	417.44
393.433	412.44
393.658	410.44
393.882	416.44
394.107	420.44
394.331	402.44
394.556	399.44
394.78	408.44
395.005	414.44
395.229	424.44
395.454	416.44
395.678	444.44
395.903	438.44
396.127	456.44
396.352	445.44
396.576	438.44
396.801	426.44
397.025	437.44
397.249	442.44
397.474	433.44
397.698	451.44
397.922	432.44
398.147	466.44
398.371	459.44
398.595	453.44
398.82	477.44
399.044	504.44
399.268	534.44
399.492	581.44
399.717	620.44
399.941	647.44
400.165	634.44
400.389	600.44
400.613	566.44
400.837	496.44
401.062	486.44
401.286	486.44
401.51	493.44
401.734	475.44
401.958	484.44
402.182	484.44
402.406	484.44
402.63	494.44
402.854	504.44
403.078	526.44
403.302	507.44
403.526	534.44
403.75	505.44
403.974	516.44
404.198	528.44
404.422	516.44
404.645	527.44
404.869	545.44
405.093	554.44
405.317	551.44
405.541	566.44
405.765	534.44
405.988	531.44
406.212	524.44
406.436	530.44
406.66	546.44
406.883	530.44
407.107	577.44
407.331	588.44
407.555	625.44
407.778	629.44
408.002	581.44
408.226	594.44
408.449	549.44
408.673	565.44
408.896	550.44
409.12	576.44
409.344	564.44
409.567	523.44
409.791	498.44
410.014	524.44
410.238	509.44
410.461	523.44
410.685	500.44
410.908	495.44
411.132	534.44
411.355	522.44
411.578	528.44
411.802	500.44
412.025	494.44
412.249	508.44
412.472	520.44
412.695	509.44
412.919	514.44
413.142	496.44
413.365	503.44
413.589	493.44
413.812	468.44
414.035	482.44
414.258	465.44
414.482	454.44
414.705	486.44
414.928	476.44
415.151	464.44
415.374	467.44
415.597	465.44
415.821	472.44
416.044	468.44
416.267	463.44
416.49	456.44
416.713	479.44
416.936	462.44
417.159	468.44
417.382	465.44
417.605	446.44
417.828	473.44
418.051	481.44
418.274	474.44
418.497	473.44
418.72	473.44
418.943	474.44
419.166	478.44
419.389	529.44
419.611	519.44
419.834	501.44
420.057	487.44
420.28	502.44
420.503	493.44
420.726	467.44
420.948	487.44
421.171	486.44
421.394	513.44
421.617	488.44
421.839	490.44
422.062	466.44
422.285	476.44
422.507	505.44
422.73	575.44
422.953	566.44
423.175	510.44
423.398	525.44
423.621	486.44
423.843	510.44
424.066	525.44
424.288	513.44
424.511	538.44
424.733	540.44
424.956	598.44
425.178	534.44
425.401	548.44
425.623	580.44
425.846	498.44
426.068	486.44
426.291	489.44
426.513	480.44
426.735	493.44
426.958	493.44
427.18	548.44
427.402	614.44
427.625	672.44
427.847	598.44
428.069	529.44
428.292	477.44
428.514	467.44
428.736	474.44
428.958	457.44
429.181	429.44
429.403	449.44
429.625	444.44
429.847	467.44
430.069	499.44
430.292	473.44
430.514	448.44
430.736	449.44
430.958	427.44
431.18	430.44
431.402	439.44
431.624	421.44
431.846	415.44
432.068	448.44
432.29	440.44
432.512	468.44
432.734	456.44
432.956	455.44
433.178	450.44
433.4	452.44
433.622	452.44
433.844	431.44
434.066	434.44
434.287	437.44
434.509	458.44
434.731	457.44
434.953	487.44
435.175	468.44
435.397	473.44
435.618	491.44
435.84	502.44
436.062	558.44
436.284	575.44
436.505	508.44
436.727	486.44
436.949	465.44
437.17	443.44
437.392	432.44
437.614	417.44
437.835	466.44
438.057	507.44
438.278	564.44
438.5	558.44
438.721	613.44
438.943	590.44
439.165	496.44
439.386	472.44
439.608	464.44
439.829	485.44
440.05	468.44
440.272	520.44
440.493	475.44
440.715	464.44
440.936	452.44
441.158	454.44
441.379	464.44
441.6	483.44
441.822	509.44
442.043	524.44
442.264	557.44
442.486	580.44
442.707	510.44
442.928	506.44
443.149	503.44
443.371	514.44
443.592	546.44
443.813	584.44
444.034	630.44
444.255	561.44
444.476	518.44
444.698	502.44
444.919	528.44
445.14	652.44
445.361	566.44
445.582	520.44
445.803	557.44
446.024	580.44
446.245	584.44
446.466	546.44
446.687	484.44
446.908	472.44
447.129	467.44
447.35	448.44
447.571	433.44
447.792	428.44
448.013	428.44
448.234	445.44
448.455	461.44
448.675	555.44
448.896	580.44
449.117	522.44
449.338	504.44
449.559	561.44
449.779	619.44
450	510.44
450.221	447.44
450.442	422.44
450.662	412.44
450.883	424.44
451.104	422.44
451.324	407.44
451.545	426.44
451.766	405.44
451.986	407.44
452.207	400.44
452.428	389.44
452.648	411.44
452.869	383.44
453.089	417.44
453.31	414.44
453.53	412.44
453.751	401.44
453.971	397.44
454.192	401.44
454.412	382.44
454.633	396.44
454.853	397.44
455.073	391.44
455.294	408.44
455.514	436.44
455.734	415.44
455.955	380.44
456.175	388.44
456.395	375.44
456.616	387.44
456.836	381.44
457.056	388.44
457.276	393.44
457.497	373.44
457.717	369.44
457.937	380.44
458.157	395.44
458.377	381.44
458.598	408.44
458.818	420.44
459.038	491.44
459.258	493.44
459.478	443.44
459.698	441.44
459.918	441.44
460.138	454.44
460.358	468.44
460.578	456.44
460.798	485.44
461.018	482.44
461.238	472.44
461.458	479.44
461.678	462.44
461.898	476.44
462.118	473.44
462.338	490.44
462.558	492.44
462.777	509.44
462.997	550.44
463.217	552.44
463.437	580.44
463.657	541.44
463.876	532.44
464.096	526.44
464.316	520.44
464.536	502.44
464.755	505.44
464.975	482.44
465.195	518.44
465.414	527.44
465.634	462.44
465.854	462.44
466.073	453.44
466.293	433.44
466.512	421.44
466.732	426.44
466.951	415.44
467.171	412.44
467.391	414.44
467.61	411.44
467.829	410.44
468.049	403.44
468.268	421.44
468.488	410.44
468.707	395.44
468.927	391.44
469.146	392.44
469.365	399.44
469.585	400.44
469.804	420.44
470.023	438.44
470.243	440.44
470.462	418.44
470.681	406.44
470.901	425.44
471.12	428.44
471.339	426.44
471.558	413.44
471.777	414.44
471.997	392.44
472.216	405.44
472.435	409.44
472.654	410.44
472.873	389.44
473.092	391.44
473.311	414.44
473.53	408.44
473.749	411.44
473.968	443.44
474.187	470.44
474.406	486.44
474.625	413.44
474.844	411.44
475.063	395.44
475.282	396.44
475.501	418.44
475.72	424.44
475.939	418.44
476.158	424.44
476.377	424.44
476.596	415.44
476.814	402.44
477.033	424.44
477.252	427.44
477.471	459.44
477.69	428.44
477.908	456.44
478.127	437.44
478.346	456.44
478.564	444.44
478.783	464.44
479.002	472.44
479.22	463.44
479.439	494.44
479.658	500.44
479.876	484.44
480.095	487.44
480.313	536.44
480.532	535.44
480.751	521.44
480.969	507.44
481.188	530.44
481.406	527.44
481.624	500.44
481.843	480.44
482.061	455.44
482.28	468.44
482.498	460.44
482.717	464.44
482.935	473.44
483.153	464.44
483.372	448.44
483.59	456.44
483.808	452.44
484.027	481.44
484.245	465.44
484.463	466.44
484.681	473.44
484.9	464.44
485.118	475.44
485.336	474.44
485.554	455.44
485.772	485.44
485.99	480.44
486.209	485.44
486.427	484.44
486.645	464.44
486.863	495.44
487.081	487.44
487.299	480.44
487.517	484.44
487.735	498.44
487.953	462.44
488.171	502.44
488.389	491.44
488.607	500.44
488.825	492.44
489.043	485.44
489.261	504.44
489.479	500.44
489.696	486.44
489.914	492.44
490.132	497.44
490.35	469.44
490.568	484.44
490.786	500.44
491.003	524.44
491.221	520.44
491.439	518.44
491.657	522.44
491.874	527.44
492.092	536.44
492.31	544.44
492.527	543.44
492.745	528.44
492.963	535.44
493.18	547.44
493.398	552.44
493.615	555.44
493.833	564.44
494.05	545.44
494.268	534.44
494.485	552.44
494.703	543.44
494.92	542.44
495.138	545.44
495.355	574.44
495.573	548.44
495.79	579.44
496.008	585.44
496.225	568.44
496.442	565.44
496.66	573.44
496.877	567.44
497.094	572.44
497.312	578.44
497.529	608.44
497.746	618.44
497.963	634.44
498.181	648.44
498.398	640.44
498.615	666.44
498.832	712.44
499.049	719.44
499.267	746.44
499.484	793.44
499.701	859.44
499.918	927.44
500.135	979.44
500.352	1073.44
500.569	1105.44
500.786	1087.44
501.003	1058.44
501.22	997.44
501.437	942.44
501.654	872.44
501.871	814.44
