Data from 1984.PennyLincolnUp.Lamp.En5.5.200Scan.071819.P1_HRD10591_16-57-47-968.txt Node
Date: Thu Jul 18 16:57:47 EDT 2019
User: cochatt
Spectrometer: HR+D1059
Trigger mode: 1
Integration Time (sec): 1.000000E-1
Scans to average: 1
Electric dark correction enabled: true
Nonlinearity correction enabled: false
Boxcar width: 0
XAxis mode: Wavelengths
Number of Pixels in Spectrum: 2048
>>>>>Begin Spectral Data<<<<<
223.165	-20.5
223.4	-20.5
223.635	-20.5
223.869	-17.5
224.104	-29.5
224.338	-20.5
224.573	-8.5
224.808	-7.5
225.042	-7.5
225.277	-9.5
225.511	2.5
225.746	16.5
225.98	-0.5
226.215	18.5
226.449	9.5
226.683	22.5
226.918	30.5
227.152	21.5
227.387	45.5
227.621	35.5
227.856	45.5
228.09	54.5
228.324	62.5
228.559	55.5
228.793	63.5
229.027	71.5
229.262	94.5
229.496	83.5
229.73	96.5
229.964	113.5
230.199	116.5
230.433	78.5
230.667	99.5
230.901	102.5
231.136	96.5
231.37	108.5
231.604	111.5
231.838	98.5
232.072	94.5
232.306	104.5
232.541	103.5
232.775	101.5
233.009	107.5
233.243	125.5
233.477	101.5
233.711	115.5
233.945	104.5
234.179	123.5
234.413	111.5
234.647	102.5
234.881	118.5
235.115	92.5
235.349	95.5
235.583	120.5
235.817	115.5
236.051	110.5
236.285	121.5
236.519	115.5
236.753	116.5
236.987	101.5
237.221	125.5
237.455	157.5
237.689	136.5
237.922	103.5
238.156	118.5
238.39	114.5
238.624	115.5
238.858	120.5
239.091	114.5
239.325	111.5
239.559	109.5
239.793	99.5
240.027	120.5
240.26	125.5
240.494	118.5
240.728	128.5
240.961	125.5
241.195	126.5
241.429	123.5
241.662	115.5
241.896	123.5
242.13	133.5
242.363	117.5
242.597	118.5
242.83	137.5
243.064	105.5
243.298	128.5
243.531	129.5
243.765	144.5
243.998	132.5
244.232	127.5
244.465	140.5
244.699	122.5
244.932	119.5
245.166	122.5
245.399	127.5
245.633	129.5
245.866	128.5
246.099	121.5
246.333	129.5
246.566	130.5
246.8	131.5
247.033	142.5
247.266	132.5
247.5	138.5
247.733	154.5
247.966	138.5
248.2	143.5
248.433	157.5
248.666	134.5
248.899	158.5
249.133	158.5
249.366	149.5
249.599	137.5
249.832	147.5
250.066	144.5
250.299	157.5
250.532	165.5
250.765	158.5
250.998	176.5
251.231	166.5
251.465	162.5
251.698	174.5
251.931	173.5
252.164	176.5
252.397	156.5
252.63	151.5
252.863	182.5
253.096	176.5
253.329	189.5
253.562	167.5
253.795	174.5
254.028	187.5
254.261	180.5
254.494	177.5
254.727	191.5
254.96	196.5
255.193	208.5
255.426	204.5
255.659	184.5
255.892	192.5
256.124	183.5
256.357	186.5
256.59	189.5
256.823	178.5
257.056	183.5
257.289	188.5
257.521	153.5
257.754	175.5
257.987	179.5
258.22	198.5
258.452	186.5
258.685	185.5
258.918	162.5
259.151	176.5
259.383	192.5
259.616	183.5
259.849	190.5
260.081	175.5
260.314	189.5
260.547	212.5
260.779	195.5
261.012	200.5
261.244	202.5
261.477	185.5
261.71	193.5
261.942	190.5
262.175	183.5
262.407	175.5
262.64	197.5
262.872	175.5
263.105	191.5
263.337	190.5
263.57	165.5
263.802	200.5
264.035	183.5
264.267	192.5
264.499	189.5
264.732	179.5
264.964	200.5
265.197	195.5
265.429	184.5
265.661	193.5
265.894	191.5
266.126	202.5
266.358	191.5
266.591	193.5
266.823	198.5
267.055	191.5
267.287	217.5
267.52	209.5
267.752	192.5
267.984	200.5
268.216	206.5
268.448	202.5
268.681	215.5
268.913	214.5
269.145	222.5
269.377	229.5
269.609	233.5
269.841	191.5
270.073	219.5
270.306	239.5
270.538	253.5
270.77	234.5
271.002	253.5
271.234	236.5
271.466	237.5
271.698	237.5
271.93	257.5
272.162	245.5
272.394	263.5
272.626	233.5
272.858	239.5
273.09	241.5
273.322	222.5
273.553	239.5
273.785	240.5
274.017	225.5
274.249	225.5
274.481	234.5
274.713	244.5
274.945	234.5
275.176	220.5
275.408	216.5
275.64	223.5
275.872	237.5
276.104	233.5
276.335	248.5
276.567	232.5
276.799	234.5
277.031	258.5
277.262	252.5
277.494	246.5
277.726	248.5
277.957	231.5
278.189	231.5
278.421	248.5
278.652	224.5
278.884	238.5
279.115	243.5
279.347	224.5
279.579	229.5
279.81	244.5
280.042	231.5
280.273	237.5
280.505	246.5
280.736	222.5
280.968	242.5
281.199	249.5
281.431	244.5
281.662	263.5
281.894	247.5
282.125	256.5
282.356	263.5
282.588	278.5
282.819	251.5
283.051	247.5
283.282	240.5
283.513	257.5
283.745	238.5
283.976	273.5
284.207	261.5
284.439	241.5
284.67	247.5
284.901	241.5
285.132	243.5
285.364	253.5
285.595	253.5
285.826	263.5
286.057	272.5
286.288	250.5
286.52	272.5
286.751	250.5
286.982	264.5
287.213	265.5
287.444	233.5
287.675	272.5
287.906	259.5
288.138	271.5
288.369	273.5
288.6	286.5
288.831	261.5
289.062	273.5
289.293	278.5
289.524	270.5
289.755	271.5
289.986	248.5
290.217	253.5
290.448	265.5
290.679	281.5
290.91	276.5
291.141	281.5
291.371	266.5
291.602	252.5
291.833	260.5
292.064	259.5
292.295	273.5
292.526	281.5
292.757	269.5
292.987	264.5
293.218	257.5
293.449	288.5
293.68	278.5
293.91	268.5
294.141	274.5
294.372	267.5
294.603	275.5
294.833	265.5
295.064	274.5
295.295	272.5
295.525	287.5
295.756	280.5
295.987	291.5
296.217	296.5
296.448	291.5
296.679	265.5
296.909	287.5
297.14	276.5
297.37	283.5
297.601	301.5
297.831	295.5
298.062	281.5
298.292	276.5
298.523	288.5
298.753	287.5
298.984	289.5
299.214	294.5
299.445	286.5
299.675	294.5
299.905	299.5
300.136	291.5
300.366	301.5
300.597	287.5
300.827	317.5
301.057	301.5
301.288	314.5
301.518	315.5
301.748	314.5
301.979	297.5
302.209	302.5
302.439	289.5
302.669	300.5
302.9	310.5
303.13	304.5
303.36	314.5
303.59	294.5
303.82	310.5
304.051	300.5
304.281	309.5
304.511	313.5
304.741	298.5
304.971	292.5
305.201	313.5
305.431	307.5
305.661	311.5
305.891	307.5
306.121	299.5
306.352	333.5
306.582	319.5
306.812	307.5
307.042	301.5
307.272	294.5
307.502	297.5
307.731	303.5
307.961	300.5
308.191	292.5
308.421	292.5
308.651	303.5
308.881	321.5
309.111	317.5
309.341	312.5
309.571	310.5
309.8	323.5
310.03	320.5
310.26	303.5
310.49	318.5
310.72	334.5
310.949	328.5
311.179	326.5
311.409	325.5
311.639	313.5
311.868	321.5
312.098	324.5
312.328	327.5
312.557	329.5
312.787	343.5
313.017	332.5
313.246	315.5
313.476	328.5
313.706	326.5
313.935	334.5
314.165	349.5
314.394	335.5
314.624	329.5
314.853	321.5
315.083	333.5
315.312	334.5
315.542	336.5
315.771	330.5
316.001	322.5
316.23	349.5
316.46	325.5
316.689	319.5
316.919	333.5
317.148	339.5
317.377	337.5
317.607	329.5
317.836	325.5
318.065	343.5
318.295	331.5
318.524	334.5
318.753	322.5
318.983	327.5
319.212	323.5
319.441	358.5
319.67	336.5
319.9	327.5
320.129	327.5
320.358	331.5
320.587	332.5
320.816	338.5
321.046	333.5
321.275	350.5
321.504	339.5
321.733	343.5
321.962	343.5
322.191	339.5
322.42	351.5
322.649	360.5
322.878	361.5
323.108	368.5
323.337	385.5
323.566	371.5
323.795	371.5
324.024	425.5
324.253	469.5
324.482	569.5
324.71	864.5
324.939	1181.5
325.168	1030.5
325.397	597.5
325.626	445.5
325.855	413.5
326.084	383.5
326.313	398.5
326.542	408.5
326.77	420.5
326.999	441.5
327.228	582.5
327.457	805.5
327.686	919.5
327.914	663.5
328.143	487.5
328.372	415.5
328.6	423.5
328.829	419.5
329.058	420.5
329.287	409.5
329.515	410.5
329.744	393.5
329.972	419.5
330.201	416.5
330.43	415.5
330.658	435.5
330.887	424.5
331.115	439.5
331.344	401.5
331.572	398.5
331.801	394.5
332.03	409.5
332.258	403.5
332.486	403.5
332.715	397.5
332.943	422.5
333.172	419.5
333.4	440.5
333.629	418.5
333.857	454.5
334.085	437.5
334.314	445.5
334.542	437.5
334.771	451.5
334.999	435.5
335.227	423.5
335.455	413.5
335.684	403.5
335.912	406.5
336.14	419.5
336.369	387.5
336.597	415.5
336.825	400.5
337.053	403.5
337.281	392.5
337.51	386.5
337.738	368.5
337.966	383.5
338.194	390.5
338.422	388.5
338.65	386.5
338.878	374.5
339.106	381.5
339.334	375.5
339.562	371.5
339.79	386.5
340.018	374.5
340.246	354.5
340.474	377.5
340.702	370.5
340.93	388.5
341.158	372.5
341.386	386.5
341.614	371.5
341.842	349.5
342.07	342.5
342.298	364.5
342.526	342.5
342.754	358.5
342.981	362.5
343.209	350.5
343.437	379.5
343.665	407.5
343.893	403.5
344.12	405.5
344.348	398.5
344.576	389.5
344.804	384.5
345.031	383.5
345.259	377.5
345.487	361.5
345.714	368.5
345.942	360.5
346.17	341.5
346.397	347.5
346.625	358.5
346.853	342.5
347.08	361.5
347.308	361.5
347.535	379.5
347.763	354.5
347.99	337.5
348.218	358.5
348.445	356.5
348.673	355.5
348.9	352.5
349.128	351.5
349.355	339.5
349.583	349.5
349.81	344.5
350.037	336.5
350.265	343.5
350.492	353.5
350.72	331.5
350.947	330.5
351.174	346.5
351.402	356.5
351.629	341.5
351.856	348.5
352.083	359.5
352.311	344.5
352.538	343.5
352.765	358.5
352.992	339.5
353.22	328.5
353.447	322.5
353.674	330.5
353.901	326.5
354.128	348.5
354.355	347.5
354.583	346.5
354.81	347.5
355.037	333.5
355.264	338.5
355.491	330.5
355.718	319.5
355.945	348.5
356.172	332.5
356.399	348.5
356.626	337.5
356.853	329.5
357.08	327.5
357.307	327.5
357.534	318.5
357.761	317.5
357.988	331.5
358.215	320.5
358.441	333.5
358.668	338.5
358.895	332.5
359.122	327.5
359.349	323.5
359.576	340.5
359.802	341.5
360.029	363.5
360.256	358.5
360.483	369.5
360.709	347.5
360.936	343.5
361.163	346.5
361.39	330.5
361.616	356.5
361.843	337.5
362.07	341.5
362.296	344.5
362.523	344.5
362.749	346.5
362.976	341.5
363.203	339.5
363.429	332.5
363.656	329.5
363.882	323.5
364.109	362.5
364.335	340.5
364.562	329.5
364.788	325.5
365.015	336.5
365.241	330.5
365.468	337.5
365.694	342.5
365.92	330.5
366.147	326.5
366.373	325.5
366.599	327.5
366.826	339.5
367.052	323.5
367.278	339.5
367.505	329.5
367.731	343.5
367.957	327.5
368.184	325.5
368.41	327.5
368.636	333.5
368.862	344.5
369.089	316.5
369.315	349.5
369.541	323.5
369.767	336.5
369.993	323.5
370.219	319.5
370.445	344.5
370.672	333.5
370.898	330.5
371.124	337.5
371.35	329.5
371.576	327.5
371.802	330.5
372.028	359.5
372.254	338.5
372.48	344.5
372.706	349.5
372.932	331.5
373.158	350.5
373.384	344.5
373.61	367.5
373.835	333.5
374.061	324.5
374.287	343.5
374.513	372.5
374.739	362.5
374.965	370.5
375.191	386.5
375.416	366.5
375.642	349.5
375.868	351.5
376.094	354.5
376.319	351.5
376.545	328.5
376.771	336.5
376.997	338.5
377.222	342.5
377.448	344.5
377.674	370.5
377.899	351.5
378.125	319.5
378.35	338.5
378.576	351.5
378.802	356.5
379.027	337.5
379.253	341.5
379.478	343.5
379.704	344.5
379.929	323.5
380.155	354.5
380.38	349.5
380.606	352.5
380.831	345.5
381.057	355.5
381.282	318.5
381.507	347.5
381.733	344.5
381.958	343.5
382.184	353.5
382.409	365.5
382.634	343.5
382.86	349.5
383.085	343.5
383.31	361.5
383.535	367.5
383.761	360.5
383.986	381.5
384.211	362.5
384.436	370.5
384.662	377.5
384.887	380.5
385.112	372.5
385.337	383.5
385.562	382.5
385.787	387.5
386.013	383.5
386.238	392.5
386.463	413.5
386.688	381.5
386.913	376.5
387.138	380.5
387.363	385.5
387.588	368.5
387.813	376.5
388.038	387.5
388.263	396.5
388.488	390.5
388.713	385.5
388.938	378.5
389.163	377.5
389.387	391.5
389.612	376.5
389.837	385.5
390.062	382.5
390.287	383.5
390.512	387.5
390.736	382.5
390.961	379.5
391.186	372.5
391.411	393.5
391.636	402.5
391.86	416.5
392.085	416.5
392.31	435.5
392.534	411.5
392.759	377.5
392.984	385.5
393.208	393.5
393.433	371.5
393.658	407.5
393.882	388.5
394.107	416.5
394.331	416.5
394.556	420.5
394.78	402.5
395.005	418.5
395.229	392.5
395.454	413.5
395.678	416.5
395.903	426.5
396.127	420.5
396.352	408.5
396.576	404.5
396.801	409.5
397.025	388.5
397.249	413.5
397.474	401.5
397.698	417.5
397.922	429.5
398.147	433.5
398.371	434.5
398.595	437.5
398.82	451.5
399.044	483.5
399.268	491.5
399.492	589.5
399.717	609.5
399.941	611.5
400.165	574.5
400.389	544.5
400.613	523.5
400.837	482.5
401.062	471.5
401.286	471.5
401.51	459.5
401.734	439.5
401.958	449.5
402.182	461.5
402.406	438.5
402.63	475.5
402.854	462.5
403.078	464.5
403.302	480.5
403.526	469.5
403.75	485.5
403.974	491.5
404.198	486.5
404.422	515.5
404.645	481.5
404.869	477.5
405.093	511.5
405.317	517.5
405.541	521.5
405.765	512.5
405.988	488.5
406.212	469.5
406.436	486.5
406.66	506.5
406.883	515.5
407.107	546.5
407.331	577.5
407.555	597.5
407.778	601.5
408.002	570.5
408.226	529.5
408.449	533.5
408.673	520.5
408.896	543.5
409.12	546.5
409.344	524.5
409.567	499.5
409.791	505.5
410.014	491.5
410.238	471.5
410.461	485.5
410.685	468.5
410.908	503.5
411.132	506.5
411.355	508.5
411.578	491.5
411.802	470.5
412.025	472.5
412.249	453.5
412.472	483.5
412.695	484.5
412.919	461.5
413.142	450.5
413.365	458.5
413.589	457.5
413.812	462.5
414.035	437.5
414.258	454.5
414.482	438.5
414.705	452.5
414.928	464.5
415.151	448.5
415.374	444.5
415.597	443.5
415.821	424.5
416.044	453.5
416.267	438.5
416.49	416.5
416.713	427.5
416.936	454.5
417.159	423.5
417.382	438.5
417.605	420.5
417.828	437.5
418.051	451.5
418.274	456.5
418.497	442.5
418.72	445.5
418.943	461.5
419.166	470.5
419.389	510.5
419.611	495.5
419.834	483.5
420.057	481.5
420.28	466.5
420.503	456.5
420.726	459.5
420.948	470.5
421.171	477.5
421.394	475.5
421.617	441.5
421.839	453.5
422.062	445.5
422.285	462.5
422.507	490.5
422.73	529.5
422.953	511.5
423.175	497.5
423.398	459.5
423.621	465.5
423.843	485.5
424.066	488.5
424.288	487.5
424.511	504.5
424.733	511.5
424.956	556.5
425.178	553.5
425.401	530.5
425.623	549.5
425.846	501.5
426.068	469.5
426.291	451.5
426.513	437.5
426.735	451.5
426.958	463.5
427.18	515.5
427.402	587.5
427.625	639.5
427.847	543.5
428.069	478.5
428.292	464.5
428.514	438.5
428.736	434.5
428.958	419.5
429.181	429.5
429.403	423.5
429.625	413.5
429.847	448.5
430.069	457.5
430.292	465.5
430.514	440.5
430.736	402.5
430.958	414.5
431.18	414.5
431.402	413.5
431.624	407.5
431.846	414.5
432.068	402.5
432.29	415.5
432.512	409.5
432.734	405.5
432.956	414.5
433.178	413.5
433.4	418.5
433.622	431.5
433.844	419.5
434.066	414.5
434.287	412.5
434.509	434.5
434.731	433.5
434.953	444.5
435.175	445.5
435.397	490.5
435.618	470.5
435.84	496.5
436.062	502.5
436.284	541.5
436.505	439.5
436.727	453.5
436.949	418.5
437.17	418.5
437.392	417.5
437.614	426.5
437.835	420.5
438.057	476.5
438.278	515.5
438.5	545.5
438.721	598.5
438.943	561.5
439.165	481.5
439.386	457.5
439.608	461.5
439.829	443.5
440.05	451.5
440.272	464.5
440.493	473.5
440.715	431.5
440.936	424.5
441.158	426.5
441.379	432.5
441.6	454.5
441.822	464.5
442.043	475.5
442.264	505.5
442.486	538.5
442.707	482.5
442.928	488.5
443.149	455.5
443.371	468.5
443.592	500.5
443.813	568.5
444.034	588.5
444.255	524.5
444.476	511.5
444.698	496.5
444.919	487.5
445.14	605.5
445.361	554.5
445.582	498.5
445.803	519.5
446.024	567.5
446.245	552.5
446.466	513.5
446.687	480.5
446.908	466.5
447.129	428.5
447.35	414.5
447.571	426.5
447.792	405.5
448.013	416.5
448.234	420.5
448.455	437.5
448.675	499.5
448.896	562.5
449.117	483.5
449.338	467.5
449.559	528.5
449.779	579.5
450	478.5
450.221	438.5
450.442	387.5
450.662	408.5
450.883	407.5
451.104	406.5
451.324	406.5
451.545	388.5
451.766	387.5
451.986	384.5
452.207	379.5
452.428	365.5
452.648	381.5
452.869	357.5
453.089	364.5
453.31	374.5
453.53	369.5
453.751	373.5
453.971	371.5
454.192	369.5
454.412	371.5
454.633	360.5
454.853	365.5
455.073	351.5
455.294	379.5
455.514	411.5
455.734	409.5
455.955	357.5
456.175	344.5
456.395	335.5
456.616	347.5
456.836	355.5
457.056	342.5
457.276	347.5
457.497	359.5
457.717	371.5
457.937	371.5
458.157	354.5
458.377	369.5
458.598	377.5
458.818	408.5
459.038	440.5
459.258	469.5
459.478	430.5
459.698	403.5
459.918	391.5
460.138	418.5
460.358	447.5
460.578	446.5
460.798	459.5
461.018	455.5
461.238	446.5
461.458	448.5
461.678	441.5
461.898	453.5
462.118	461.5
462.338	460.5
462.558	462.5
462.777	501.5
462.997	511.5
463.217	525.5
463.437	560.5
463.657	497.5
463.876	481.5
464.096	482.5
464.316	482.5
464.536	506.5
464.755	490.5
464.975	478.5
465.195	474.5
465.414	507.5
465.634	437.5
465.854	421.5
466.073	398.5
466.293	409.5
466.512	387.5
466.732	387.5
466.951	390.5
467.171	386.5
467.391	369.5
467.61	390.5
467.829	390.5
468.049	395.5
468.268	385.5
468.488	386.5
468.707	367.5
468.927	369.5
469.146	372.5
469.365	372.5
469.585	374.5
469.804	376.5
470.023	404.5
470.243	406.5
470.462	406.5
470.681	390.5
470.901	419.5
471.12	376.5
471.339	369.5
471.558	405.5
471.777	406.5
471.997	385.5
472.216	371.5
472.435	400.5
472.654	372.5
472.873	375.5
473.092	349.5
473.311	377.5
473.53	385.5
473.749	402.5
473.968	415.5
474.187	459.5
474.406	463.5
474.625	386.5
474.844	375.5
475.063	375.5
475.282	376.5
475.501	391.5
475.72	385.5
475.939	385.5
476.158	404.5
476.377	385.5
476.596	385.5
476.814	405.5
477.033	421.5
477.252	409.5
477.471	421.5
477.69	413.5
477.908	405.5
478.127	431.5
478.346	457.5
478.564	452.5
478.783	439.5
479.002	449.5
479.22	458.5
479.439	459.5
479.658	462.5
479.876	471.5
480.095	453.5
480.313	500.5
480.532	491.5
480.751	472.5
480.969	493.5
481.188	463.5
481.406	495.5
481.624	438.5
481.843	434.5
482.061	468.5
482.28	441.5
482.498	448.5
482.717	454.5
482.935	447.5
483.153	433.5
483.372	441.5
483.59	429.5
483.808	437.5
484.027	427.5
484.245	464.5
484.463	451.5
484.681	462.5
484.9	448.5
485.118	457.5
485.336	442.5
485.554	447.5
485.772	459.5
485.99	455.5
486.209	465.5
486.427	466.5
486.645	465.5
486.863	480.5
487.081	470.5
487.299	458.5
487.517	469.5
487.735	471.5
487.953	455.5
488.171	456.5
488.389	463.5
488.607	449.5
488.825	445.5
489.043	467.5
489.261	455.5
489.479	481.5
489.696	462.5
489.914	466.5
490.132	481.5
490.35	467.5
490.568	474.5
490.786	476.5
491.003	461.5
491.221	478.5
491.439	493.5
491.657	481.5
491.874	521.5
492.092	511.5
492.31	518.5
492.527	516.5
492.745	522.5
492.963	512.5
493.18	497.5
493.398	515.5
493.615	510.5
493.833	531.5
494.05	513.5
494.268	512.5
494.485	520.5
494.703	521.5
494.92	527.5
495.138	537.5
495.355	513.5
495.573	549.5
495.79	542.5
496.008	537.5
496.225	537.5
496.442	514.5
496.66	540.5
496.877	540.5
497.094	535.5
497.312	544.5
497.529	578.5
497.746	565.5
497.963	579.5
498.181	605.5
498.398	612.5
498.615	633.5
498.832	664.5
499.049	683.5
499.267	707.5
499.484	742.5
499.701	811.5
499.918	877.5
500.135	930.5
500.352	1031.5
500.569	1036.5
500.786	1048.5
501.003	1026.5
501.22	939.5
501.437	861.5
501.654	797.5
501.871	804.5
502.088	756.5
502.305	686.5
502.522	669.5
502.739	670.5
502.956	632.5
503.172	617.5
503.389	581.5
503.606	563.5
503.823	559.5
504.04	581.5
504.256	548.5
504.473	552.5
504.69	566.5
504.907	561.5
505.123	531.5
505.34	523.5
505.557	523.5
505.773	521.5
505.99	481.5
506.207	493.5
506.423	513.5
506.64	504.5
506.856	489.5
507.073	508.5
507.289	479.5
507.506	489.5
507.722	488.5
507.939	486.5
508.155	466.5
508.372	461.5
508.588	471.5
508.805	464.5
509.021	463.5
509.238	453.5
509.454	465.5
509.67	441.5
509.887	447.5
510.103	459.5
510.319	462.5
510.536	494.5
510.752	695.5
510.968	601.5
511.184	449.5
511.401	437.5
511.617	445.5
511.833	430.5
512.049	439.5
512.265	442.5
512.481	457.5
512.698	433.5
512.914	451.5
513.13	441.5
513.346	426.5
513.562	439.5
513.778	449.5
513.994	455.5
514.21	447.5
514.426	455.5
514.642	466.5
514.858	472.5
515.074	470.5
515.29	542.5
515.506	702.5
515.721	625.5
515.937	495.5
516.153	488.5
516.369	496.5
516.585	470.5
516.801	491.5
517.016	515.5
517.232	504.5
517.448	513.5
517.664	536.5
517.879	547.5
518.095	517.5
518.311	513.5
518.527	515.5
518.742	489.5
518.958	466.5
519.173	483.5
519.389	456.5
519.605	450.5
519.82	453.5
520.036	446.5
