Data from 1984.PennyLincolnUp.Lamp.En5.5.200Scan.071819.P1_HRD10591_16-58-12-969.txt Node
Date: Thu Jul 18 16:58:12 EDT 2019
User: cochatt
Spectrometer: HR+D1059
Trigger mode: 1
Integration Time (sec): 1.000000E-1
Scans to average: 1
Electric dark correction enabled: true
Nonlinearity correction enabled: false
Boxcar width: 0
XAxis mode: Wavelengths
Number of Pixels in Spectrum: 2048
>>>>>Begin Spectral Data<<<<<
223.165	-16.81
223.4	-16.81
223.635	-16.81
223.869	-13.81
224.104	-25.81
224.338	-8.81
224.573	-9.81
224.808	-9.81
225.042	-8.81
225.277	-3.81
225.511	5.19
225.746	-3.81
225.98	10.19
226.215	3.19
226.449	16.19
226.683	19.19
226.918	13.19
227.152	34.19
227.387	18.19
227.621	34.19
227.856	48.19
228.09	39.19
228.324	51.19
228.559	55.19
228.793	53.19
229.027	84.19
229.262	90.19
229.496	100.19
229.73	102.19
229.964	123.19
230.199	107.19
230.433	98.19
230.667	101.19
230.901	97.19
231.136	104.19
231.37	104.19
231.604	94.19
231.838	103.19
232.072	92.19
232.306	113.19
232.541	98.19
232.775	98.19
233.009	110.19
233.243	119.19
233.477	117.19
233.711	95.19
233.945	113.19
234.179	113.19
234.413	110.19
234.647	102.19
234.881	115.19
235.115	120.19
235.349	104.19
235.583	109.19
235.817	119.19
236.051	116.19
236.285	123.19
236.519	127.19
236.753	115.19
236.987	126.19
237.221	153.19
237.455	176.19
237.689	139.19
237.922	123.19
238.156	112.19
238.39	107.19
238.624	105.19
238.858	117.19
239.091	110.19
239.325	117.19
239.559	112.19
239.793	126.19
240.027	112.19
240.26	118.19
240.494	138.19
240.728	135.19
240.961	131.19
241.195	124.19
241.429	118.19
241.662	135.19
241.896	127.19
242.13	119.19
242.363	131.19
242.597	127.19
242.83	139.19
243.064	131.19
243.298	130.19
243.531	125.19
243.765	126.19
243.998	151.19
244.232	135.19
244.465	128.19
244.699	127.19
244.932	135.19
245.166	144.19
245.399	136.19
245.633	132.19
245.866	136.19
246.099	130.19
246.333	138.19
246.566	146.19
246.8	129.19
247.033	148.19
247.266	151.19
247.5	149.19
247.733	142.19
247.966	153.19
248.2	151.19
248.433	158.19
248.666	155.19
248.899	165.19
249.133	176.19
249.366	190.19
249.599	175.19
249.832	176.19
250.066	172.19
250.299	170.19
250.532	183.19
250.765	188.19
250.998	197.19
251.231	200.19
251.465	187.19
251.698	188.19
251.931	177.19
252.164	169.19
252.397	162.19
252.63	165.19
252.863	164.19
253.096	182.19
253.329	193.19
253.562	188.19
253.795	184.19
254.028	195.19
254.261	171.19
254.494	181.19
254.727	198.19
254.96	202.19
255.193	215.19
255.426	194.19
255.659	183.19
255.892	225.19
256.124	223.19
256.357	216.19
256.59	208.19
256.823	207.19
257.056	178.19
257.289	201.19
257.521	178.19
257.754	178.19
257.987	198.19
258.22	196.19
258.452	184.19
258.685	197.19
258.918	182.19
259.151	177.19
259.383	212.19
259.616	196.19
259.849	203.19
260.081	204.19
260.314	207.19
260.547	204.19
260.779	221.19
261.012	193.19
261.244	203.19
261.477	214.19
261.71	217.19
261.942	215.19
262.175	201.19
262.407	195.19
262.64	179.19
262.872	190.19
263.105	180.19
263.337	184.19
263.57	186.19
263.802	186.19
264.035	195.19
264.267	184.19
264.499	210.19
264.732	192.19
264.964	198.19
265.197	182.19
265.429	201.19
265.661	209.19
265.894	214.19
266.126	209.19
266.358	197.19
266.591	209.19
266.823	196.19
267.055	204.19
267.287	218.19
267.52	212.19
267.752	200.19
267.984	225.19
268.216	218.19
268.448	226.19
268.681	217.19
268.913	215.19
269.145	258.19
269.377	241.19
269.609	238.19
269.841	262.19
270.073	250.19
270.306	230.19
270.538	256.19
270.77	266.19
271.002	240.19
271.234	259.19
271.466	274.19
271.698	266.19
271.93	259.19
272.162	263.19
272.394	272.19
272.626	242.19
272.858	265.19
273.09	228.19
273.322	272.19
273.553	247.19
273.785	246.19
274.017	246.19
274.249	235.19
274.481	247.19
274.713	254.19
274.945	254.19
275.176	235.19
275.408	251.19
275.64	266.19
275.872	243.19
276.104	247.19
276.335	262.19
276.567	260.19
276.799	259.19
277.031	266.19
277.262	277.19
277.494	261.19
277.726	250.19
277.957	260.19
278.189	260.19
278.421	232.19
278.652	272.19
278.884	242.19
279.115	251.19
279.347	245.19
279.579	256.19
279.81	244.19
280.042	255.19
280.273	258.19
280.505	262.19
280.736	250.19
280.968	248.19
281.199	245.19
281.431	255.19
281.662	263.19
281.894	265.19
282.125	265.19
282.356	263.19
282.588	279.19
282.819	285.19
283.051	272.19
283.282	250.19
283.513	280.19
283.745	278.19
283.976	269.19
284.207	261.19
284.439	248.19
284.67	267.19
284.901	266.19
285.132	258.19
285.364	268.19
285.595	271.19
285.826	287.19
286.057	270.19
286.288	267.19
286.52	266.19
286.751	290.19
286.982	285.19
287.213	292.19
287.444	299.19
287.675	279.19
287.906	283.19
288.138	282.19
288.369	285.19
288.6	273.19
288.831	279.19
289.062	274.19
289.293	283.19
289.524	288.19
289.755	274.19
289.986	299.19
290.217	285.19
290.448	276.19
290.679	286.19
290.91	276.19
291.141	289.19
291.371	303.19
291.602	278.19
291.833	302.19
292.064	278.19
292.295	291.19
292.526	289.19
292.757	280.19
292.987	280.19
293.218	287.19
293.449	294.19
293.68	284.19
293.91	288.19
294.141	294.19
294.372	292.19
294.603	288.19
294.833	291.19
295.064	290.19
295.295	291.19
295.525	268.19
295.756	283.19
295.987	298.19
296.217	315.19
296.448	304.19
296.679	302.19
296.909	293.19
297.14	302.19
297.37	314.19
297.601	295.19
297.831	320.19
298.062	295.19
298.292	279.19
298.523	315.19
298.753	298.19
298.984	305.19
299.214	296.19
299.445	293.19
299.675	313.19
299.905	330.19
300.136	313.19
300.366	308.19
300.597	315.19
300.827	304.19
301.057	318.19
301.288	323.19
301.518	310.19
301.748	297.19
301.979	312.19
302.209	326.19
302.439	311.19
302.669	320.19
302.9	314.19
303.13	297.19
303.36	329.19
303.59	313.19
303.82	329.19
304.051	323.19
304.281	327.19
304.511	338.19
304.741	323.19
304.971	303.19
305.201	306.19
305.431	314.19
305.661	333.19
305.891	320.19
306.121	312.19
306.352	334.19
306.582	331.19
306.812	318.19
307.042	326.19
307.272	331.19
307.502	312.19
307.731	313.19
307.961	327.19
308.191	321.19
308.421	341.19
308.651	349.19
308.881	308.19
309.111	327.19
309.341	324.19
309.571	336.19
309.8	326.19
310.03	329.19
310.26	338.19
310.49	348.19
310.72	331.19
310.949	344.19
311.179	358.19
311.409	353.19
311.639	345.19
311.868	346.19
312.098	346.19
312.328	340.19
312.557	363.19
312.787	360.19
313.017	369.19
313.246	336.19
313.476	343.19
313.706	353.19
313.935	346.19
314.165	347.19
314.394	367.19
314.624	342.19
314.853	355.19
315.083	354.19
315.312	351.19
315.542	342.19
315.771	358.19
316.001	336.19
316.23	347.19
316.46	351.19
316.689	346.19
316.919	344.19
317.148	372.19
317.377	366.19
317.607	360.19
317.836	341.19
318.065	356.19
318.295	350.19
318.524	351.19
318.753	369.19
318.983	355.19
319.212	342.19
319.441	362.19
319.67	345.19
319.9	343.19
320.129	327.19
320.358	346.19
320.587	355.19
320.816	344.19
321.046	366.19
321.275	368.19
321.504	389.19
321.733	361.19
321.962	353.19
322.191	373.19
322.42	388.19
322.649	388.19
322.878	383.19
323.108	411.19
323.337	422.19
323.566	427.19
323.795	441.19
324.024	455.19
324.253	555.19
324.482	712.19
324.71	1006.19
324.939	1417.19
325.168	1214.19
325.397	651.19
325.626	538.19
325.855	458.19
326.084	447.19
326.313	434.19
326.542	431.19
326.77	469.19
326.999	509.19
327.228	668.19
327.457	938.19
327.686	1091.19
327.914	770.19
328.143	569.19
328.372	510.19
328.6	494.19
328.829	470.19
329.058	476.19
329.287	468.19
329.515	483.19
329.744	445.19
329.972	443.19
330.201	478.19
330.43	485.19
330.658	501.19
330.887	495.19
331.115	495.19
331.344	470.19
331.572	446.19
331.801	442.19
332.03	440.19
332.258	426.19
332.486	428.19
332.715	442.19
332.943	454.19
333.172	461.19
333.4	461.19
333.629	472.19
333.857	495.19
334.085	505.19
334.314	525.19
334.542	558.19
334.771	580.19
334.999	503.19
335.227	491.19
335.455	452.19
335.684	453.19
335.912	447.19
336.14	452.19
336.369	421.19
336.597	450.19
336.825	444.19
337.053	435.19
337.281	420.19
337.51	417.19
337.738	409.19
337.966	416.19
338.194	412.19
338.422	410.19
338.65	420.19
338.878	424.19
339.106	386.19
339.334	392.19
339.562	392.19
339.79	408.19
340.018	411.19
340.246	400.19
340.474	391.19
340.702	388.19
340.93	374.19
341.158	377.19
341.386	387.19
341.614	401.19
341.842	389.19
342.07	387.19
342.298	380.19
342.526	406.19
342.754	372.19
342.981	380.19
343.209	384.19
343.437	392.19
343.665	408.19
343.893	422.19
344.12	448.19
344.348	411.19
344.576	432.19
344.804	398.19
345.031	396.19
345.259	408.19
345.487	404.19
345.714	389.19
345.942	386.19
346.17	370.19
346.397	402.19
346.625	375.19
346.853	374.19
347.08	358.19
347.308	375.19
347.535	378.19
347.763	387.19
347.99	392.19
348.218	378.19
348.445	386.19
348.673	375.19
348.9	373.19
349.128	375.19
349.355	352.19
349.583	351.19
349.81	383.19
350.037	351.19
350.265	347.19
350.492	374.19
350.72	359.19
350.947	365.19
351.174	360.19
351.402	376.19
351.629	370.19
351.856	387.19
352.083	360.19
352.311	364.19
352.538	362.19
352.765	367.19
352.992	358.19
353.22	357.19
353.447	366.19
353.674	370.19
353.901	354.19
354.128	358.19
354.355	353.19
354.583	353.19
354.81	350.19
355.037	358.19
355.264	351.19
355.491	340.19
355.718	358.19
355.945	351.19
356.172	340.19
356.399	346.19
356.626	350.19
356.853	363.19
357.08	368.19
357.307	342.19
357.534	364.19
357.761	358.19
357.988	328.19
358.215	352.19
358.441	348.19
358.668	348.19
358.895	367.19
359.122	353.19
359.349	352.19
359.576	360.19
359.802	373.19
360.029	390.19
360.256	375.19
360.483	363.19
360.709	355.19
360.936	367.19
361.163	362.19
361.39	370.19
361.616	360.19
361.843	344.19
362.07	359.19
362.296	359.19
362.523	358.19
362.749	351.19
362.976	347.19
363.203	367.19
363.429	368.19
363.656	363.19
363.882	335.19
364.109	352.19
364.335	367.19
364.562	352.19
364.788	374.19
365.015	355.19
365.241	352.19
365.468	359.19
365.694	362.19
365.92	355.19
366.147	360.19
366.373	334.19
366.599	334.19
366.826	359.19
367.052	343.19
367.278	355.19
367.505	359.19
367.731	358.19
367.957	347.19
368.184	360.19
368.41	376.19
368.636	361.19
368.862	358.19
369.089	356.19
369.315	354.19
369.541	353.19
369.767	373.19
369.993	369.19
370.219	343.19
370.445	346.19
370.672	366.19
370.898	355.19
371.124	370.19
371.35	378.19
371.576	362.19
371.802	359.19
372.028	353.19
372.254	359.19
372.48	355.19
372.706	374.19
372.932	374.19
373.158	367.19
373.384	390.19
373.61	360.19
373.835	359.19
374.061	363.19
374.287	362.19
374.513	363.19
374.739	374.19
374.965	382.19
375.191	384.19
375.416	396.19
375.642	378.19
375.868	375.19
376.094	373.19
376.319	341.19
376.545	357.19
376.771	359.19
376.997	332.19
377.222	362.19
377.448	360.19
377.674	350.19
377.899	363.19
378.125	363.19
378.35	374.19
378.576	347.19
378.802	347.19
379.027	363.19
379.253	350.19
379.478	360.19
379.704	361.19
379.929	355.19
380.155	360.19
380.38	374.19
380.606	349.19
380.831	362.19
381.057	387.19
381.282	360.19
381.507	347.19
381.733	358.19
381.958	380.19
382.184	360.19
382.409	368.19
382.634	390.19
382.86	370.19
383.085	386.19
383.31	382.19
383.535	381.19
383.761	376.19
383.986	379.19
384.211	390.19
384.436	392.19
384.662	397.19
384.887	410.19
385.112	417.19
385.337	400.19
385.562	387.19
385.787	394.19
386.013	421.19
386.238	427.19
386.463	419.19
386.688	407.19
386.913	421.19
387.138	407.19
387.363	391.19
387.588	395.19
387.813	393.19
388.038	407.19
388.263	406.19
388.488	404.19
388.713	415.19
388.938	399.19
389.163	408.19
389.387	404.19
389.612	398.19
389.837	408.19
390.062	408.19
390.287	407.19
390.512	398.19
390.736	412.19
390.961	404.19
391.186	406.19
391.411	419.19
391.636	443.19
391.86	424.19
392.085	454.19
392.31	443.19
392.534	435.19
392.759	418.19
392.984	411.19
393.208	404.19
393.433	409.19
393.658	399.19
393.882	414.19
394.107	425.19
394.331	408.19
394.556	409.19
394.78	410.19
395.005	395.19
395.229	420.19
395.454	418.19
395.678	447.19
395.903	454.19
396.127	466.19
396.352	442.19
396.576	425.19
396.801	436.19
397.025	434.19
397.249	410.19
397.474	437.19
397.698	424.19
397.922	427.19
398.147	470.19
398.371	487.19
398.595	470.19
398.82	487.19
399.044	463.19
399.268	529.19
399.492	574.19
399.717	637.19
399.941	670.19
400.165	616.19
400.389	598.19
400.613	534.19
400.837	517.19
401.062	511.19
401.286	504.19
401.51	476.19
401.734	489.19
401.958	478.19
402.182	487.19
402.406	498.19
402.63	497.19
402.854	495.19
403.078	524.19
403.302	510.19
403.526	538.19
403.75	514.19
403.974	532.19
404.198	514.19
404.422	514.19
404.645	532.19
404.869	530.19
405.093	559.19
405.317	561.19
405.541	612.19
405.765	542.19
405.988	523.19
406.212	550.19
406.436	516.19
406.66	535.19
406.883	571.19
407.107	546.19
407.331	608.19
407.555	644.19
407.778	638.19
408.002	588.19
408.226	549.19
408.449	554.19
408.673	546.19
408.896	560.19
409.12	580.19
409.344	545.19
409.567	516.19
409.791	518.19
410.014	490.19
410.238	516.19
410.461	516.19
410.685	497.19
410.908	506.19
411.132	528.19
411.355	564.19
411.578	526.19
411.802	499.19
412.025	492.19
412.249	520.19
412.472	522.19
412.695	544.19
412.919	528.19
413.142	519.19
413.365	506.19
413.589	495.19
413.812	482.19
414.035	494.19
414.258	448.19
414.482	494.19
414.705	459.19
414.928	462.19
415.151	462.19
415.374	464.19
415.597	472.19
415.821	469.19
416.044	449.19
416.267	471.19
416.49	478.19
416.713	458.19
416.936	470.19
417.159	463.19
417.382	476.19
417.605	483.19
417.828	474.19
418.051	510.19
418.274	476.19
418.497	479.19
418.72	469.19
418.943	487.19
419.166	518.19
419.389	530.19
419.611	503.19
419.834	516.19
420.057	499.19
420.28	507.19
420.503	509.19
420.726	474.19
420.948	506.19
421.171	518.19
421.394	523.19
421.617	476.19
421.839	459.19
422.062	488.19
422.285	487.19
422.507	543.19
422.73	577.19
422.953	564.19
423.175	514.19
423.398	491.19
423.621	514.19
423.843	514.19
424.066	544.19
424.288	530.19
424.511	509.19
424.733	554.19
424.956	588.19
425.178	583.19
425.401	552.19
425.623	586.19
425.846	503.19
426.068	488.19
426.291	470.19
426.513	476.19
426.735	479.19
426.958	519.19
427.18	562.19
427.402	646.19
427.625	712.19
427.847	623.19
428.069	553.19
428.292	523.19
428.514	474.19
428.736	476.19
428.958	446.19
429.181	445.19
429.403	441.19
429.625	454.19
429.847	466.19
430.069	492.19
430.292	511.19
430.514	452.19
430.736	468.19
430.958	433.19
431.18	424.19
431.402	456.19
431.624	439.19
431.846	440.19
432.068	429.19
432.29	447.19
432.512	432.19
432.734	444.19
432.956	422.19
433.178	438.19
433.4	426.19
433.622	434.19
433.844	412.19
434.066	433.19
434.287	432.19
434.509	430.19
434.731	439.19
434.953	466.19
435.175	484.19
435.397	502.19
435.618	499.19
435.84	515.19
436.062	544.19
436.284	594.19
436.505	515.19
436.727	474.19
436.949	452.19
437.17	444.19
437.392	420.19
437.614	439.19
437.835	471.19
438.057	515.19
438.278	581.19
438.5	602.19
438.721	625.19
438.943	602.19
439.165	514.19
439.386	476.19
439.608	469.19
439.829	469.19
440.05	470.19
440.272	518.19
440.493	483.19
440.715	467.19
440.936	464.19
441.158	438.19
441.379	462.19
441.6	484.19
441.822	499.19
442.043	500.19
442.264	555.19
442.486	571.19
442.707	542.19
442.928	496.19
443.149	513.19
443.371	496.19
443.592	509.19
443.813	576.19
444.034	656.19
444.255	572.19
444.476	521.19
444.698	535.19
444.919	554.19
445.14	616.19
445.361	553.19
445.582	522.19
445.803	553.19
446.024	579.19
446.245	594.19
446.466	561.19
446.687	509.19
446.908	471.19
447.129	455.19
447.35	435.19
447.571	443.19
447.792	426.19
448.013	430.19
448.234	455.19
448.455	464.19
448.675	545.19
448.896	580.19
449.117	531.19
449.338	512.19
449.559	562.19
449.779	626.19
450	517.19
450.221	466.19
450.442	430.19
450.662	434.19
450.883	432.19
451.104	447.19
451.324	405.19
451.545	430.19
451.766	406.19
451.986	403.19
452.207	391.19
452.428	388.19
452.648	408.19
452.869	393.19
453.089	410.19
453.31	406.19
453.53	401.19
453.751	375.19
453.971	392.19
454.192	407.19
454.412	382.19
454.633	394.19
454.853	395.19
455.073	371.19
455.294	416.19
455.514	432.19
455.734	426.19
455.955	403.19
456.175	385.19
456.395	390.19
456.616	366.19
456.836	377.19
457.056	374.19
457.276	355.19
457.497	363.19
457.717	373.19
457.937	366.19
458.157	385.19
458.377	402.19
458.598	401.19
458.818	413.19
459.038	488.19
459.258	499.19
459.478	432.19
459.698	434.19
459.918	446.19
460.138	452.19
460.358	483.19
460.578	474.19
460.798	472.19
461.018	490.19
461.238	458.19
461.458	464.19
461.678	500.19
461.898	467.19
462.118	460.19
462.338	486.19
462.558	495.19
462.777	522.19
462.997	528.19
463.217	540.19
463.437	576.19
463.657	538.19
463.876	535.19
464.096	515.19
464.316	512.19
464.536	513.19
464.755	509.19
464.975	500.19
465.195	509.19
465.414	510.19
465.634	485.19
465.854	446.19
466.073	443.19
466.293	428.19
466.512	412.19
466.732	425.19
466.951	418.19
467.171	411.19
467.391	409.19
467.61	400.19
467.829	409.19
468.049	416.19
468.268	406.19
468.488	414.19
468.707	399.19
468.927	405.19
469.146	403.19
469.365	391.19
469.585	400.19
469.804	427.19
470.023	432.19
470.243	439.19
470.462	414.19
470.681	446.19
470.901	411.19
471.12	400.19
471.339	417.19
471.558	428.19
471.777	409.19
471.997	401.19
472.216	430.19
472.435	446.19
472.654	443.19
472.873	416.19
473.092	415.19
473.311	386.19
473.53	418.19
473.749	418.19
473.968	417.19
474.187	485.19
474.406	500.19
474.625	430.19
474.844	423.19
475.063	410.19
475.282	389.19
475.501	426.19
475.72	419.19
475.939	406.19
476.158	430.19
476.377	426.19
476.596	402.19
476.814	455.19
477.033	436.19
477.252	424.19
477.471	419.19
477.69	423.19
477.908	430.19
478.127	462.19
478.346	481.19
478.564	467.19
478.783	469.19
479.002	468.19
479.22	462.19
479.439	497.19
479.658	487.19
479.876	508.19
480.095	504.19
480.313	503.19
480.532	529.19
480.751	519.19
480.969	508.19
481.188	541.19
481.406	586.19
481.624	524.19
481.843	486.19
482.061	468.19
482.28	466.19
482.498	480.19
482.717	471.19
482.935	459.19
483.153	458.19
483.372	458.19
483.59	461.19
483.808	463.19
484.027	458.19
484.245	459.19
484.463	468.19
484.681	482.19
484.9	470.19
485.118	466.19
485.336	482.19
485.554	485.19
485.772	473.19
485.99	479.19
486.209	494.19
486.427	476.19
486.645	486.19
486.863	505.19
487.081	494.19
487.299	491.19
487.517	497.19
487.735	497.19
487.953	486.19
488.171	490.19
488.389	487.19
488.607	507.19
488.825	482.19
489.043	487.19
489.261	489.19
489.479	523.19
489.696	518.19
489.914	489.19
490.132	512.19
490.35	525.19
490.568	506.19
490.786	499.19
491.003	491.19
491.221	532.19
491.439	539.19
491.657	544.19
491.874	560.19
492.092	572.19
492.31	564.19
492.527	555.19
492.745	560.19
492.963	582.19
493.18	558.19
493.398	579.19
493.615	566.19
493.833	581.19
494.05	560.19
494.268	560.19
494.485	589.19
494.703	558.19
494.92	576.19
495.138	569.19
495.355	574.19
495.573	561.19
495.79	554.19
496.008	569.19
496.225	590.19
496.442	570.19
496.66	565.19
496.877	568.19
497.094	595.19
497.312	616.19
497.529	587.19
497.746	606.19
497.963	629.19
498.181	622.19
498.398	652.19
498.615	672.19
498.832	716.19
499.049	753.19
499.267	770.19
499.484	815.19
499.701	855.19
499.918	918.19
500.135	990.19
500.352	1074.19
500.569	1118.19
500.786	1114.19
501.003	1074.19
501.22	1012.19
501.437	908.19
501.654	857.19
501.871	827.19
502.088	775.19
