Data from 1984.PennyLincolnUp.Lamp.En5.5.200Scan.071819.P1_HRD10591_16-59-31-969.txt Node
Date: Thu Jul 18 16:59:31 EDT 2019
User: cochatt
Spectrometer: HR+D1059
Trigger mode: 1
Integration Time (sec): 1.000000E-1
Scans to average: 1
Electric dark correction enabled: true
Nonlinearity correction enabled: false
Boxcar width: 0
XAxis mode: Wavelengths
Number of Pixels in Spectrum: 2048
>>>>>Begin Spectral Data<<<<<
223.165	-21.88
223.4	-21.88
223.635	-21.88
223.869	-21.88
224.104	-8.88
224.338	-21.88
224.573	-5.88
224.808	-12.88
225.042	-6.88
225.277	-8.88
225.511	4.12
225.746	-1.88
225.98	2.12
226.215	3.12
226.449	20.12
226.683	15.12
226.918	45.12
227.152	21.12
227.387	27.12
227.621	35.12
227.856	52.12
228.09	50.12
228.324	53.12
228.559	52.12
228.793	64.12
229.027	92.12
229.262	98.12
229.496	99.12
229.73	114.12
229.964	115.12
230.199	116.12
230.433	119.12
230.667	111.12
230.901	103.12
231.136	95.12
231.37	104.12
231.604	104.12
231.838	98.12
232.072	118.12
232.306	119.12
232.541	115.12
232.775	104.12
233.009	106.12
233.243	118.12
233.477	126.12
233.711	111.12
233.945	114.12
234.179	117.12
234.413	109.12
234.647	120.12
234.881	114.12
235.115	112.12
235.349	110.12
235.583	109.12
235.817	133.12
236.051	102.12
236.285	127.12
236.519	121.12
236.753	117.12
236.987	128.12
237.221	142.12
237.455	169.12
237.689	163.12
237.922	120.12
238.156	136.12
238.39	125.12
238.624	109.12
238.858	109.12
239.091	109.12
239.325	124.12
239.559	107.12
239.793	128.12
240.027	132.12
240.26	144.12
240.494	121.12
240.728	137.12
240.961	122.12
241.195	127.12
241.429	131.12
241.662	126.12
241.896	119.12
242.13	132.12
242.363	146.12
242.597	133.12
242.83	123.12
243.064	137.12
243.298	129.12
243.531	129.12
243.765	126.12
243.998	118.12
244.232	133.12
244.465	138.12
244.699	143.12
244.932	130.12
245.166	132.12
245.399	135.12
245.633	144.12
245.866	131.12
246.099	137.12
246.333	137.12
246.566	147.12
246.8	130.12
247.033	139.12
247.266	144.12
247.5	157.12
247.733	134.12
247.966	160.12
248.2	181.12
248.433	158.12
248.666	156.12
248.899	155.12
249.133	163.12
249.366	163.12
249.599	160.12
249.832	169.12
250.066	170.12
250.299	175.12
250.532	186.12
250.765	200.12
250.998	194.12
251.231	204.12
251.465	184.12
251.698	179.12
251.931	181.12
252.164	183.12
252.397	172.12
252.63	181.12
252.863	172.12
253.096	180.12
253.329	200.12
253.562	191.12
253.795	204.12
254.028	187.12
254.261	200.12
254.494	184.12
254.727	196.12
254.96	214.12
255.193	207.12
255.426	214.12
255.659	199.12
255.892	234.12
256.124	255.12
256.357	281.12
256.59	245.12
256.823	199.12
257.056	207.12
257.289	198.12
257.521	199.12
257.754	186.12
257.987	187.12
258.22	195.12
258.452	181.12
258.685	198.12
258.918	181.12
259.151	184.12
259.383	205.12
259.616	195.12
259.849	198.12
260.081	214.12
260.314	215.12
260.547	228.12
260.779	217.12
261.012	189.12
261.244	196.12
261.477	214.12
261.71	199.12
261.942	215.12
262.175	204.12
262.407	205.12
262.64	210.12
262.872	189.12
263.105	201.12
263.337	203.12
263.57	192.12
263.802	208.12
264.035	198.12
264.267	196.12
264.499	196.12
264.732	190.12
264.964	198.12
265.197	181.12
265.429	195.12
265.661	210.12
265.894	203.12
266.126	206.12
266.358	183.12
266.591	195.12
266.823	223.12
267.055	185.12
267.287	203.12
267.52	219.12
267.752	213.12
267.984	210.12
268.216	221.12
268.448	223.12
268.681	216.12
268.913	212.12
269.145	227.12
269.377	225.12
269.609	220.12
269.841	238.12
270.073	227.12
270.306	229.12
270.538	265.12
270.77	253.12
271.002	236.12
271.234	240.12
271.466	243.12
271.698	232.12
271.93	250.12
272.162	247.12
272.394	258.12
272.626	248.12
272.858	259.12
273.09	232.12
273.322	238.12
273.553	245.12
273.785	253.12
274.017	238.12
274.249	230.12
274.481	247.12
274.713	239.12
274.945	244.12
275.176	227.12
275.408	235.12
275.64	225.12
275.872	235.12
276.104	252.12
276.335	250.12
276.567	246.12
276.799	248.12
277.031	283.12
277.262	294.12
277.494	276.12
277.726	267.12
277.957	251.12
278.189	267.12
278.421	268.12
278.652	271.12
278.884	252.12
279.115	258.12
279.347	235.12
279.579	239.12
279.81	254.12
280.042	259.12
280.273	280.12
280.505	258.12
280.736	254.12
280.968	252.12
281.199	263.12
281.431	247.12
281.662	272.12
281.894	269.12
282.125	248.12
282.356	261.12
282.588	285.12
282.819	273.12
283.051	269.12
283.282	250.12
283.513	268.12
283.745	245.12
283.976	278.12
284.207	272.12
284.439	266.12
284.67	288.12
284.901	283.12
285.132	277.12
285.364	256.12
285.595	288.12
285.826	268.12
286.057	264.12
286.288	287.12
286.52	271.12
286.751	251.12
286.982	270.12
287.213	267.12
287.444	269.12
287.675	284.12
287.906	271.12
288.138	280.12
288.369	299.12
288.6	296.12
288.831	286.12
289.062	271.12
289.293	274.12
289.524	275.12
289.755	280.12
289.986	264.12
290.217	301.12
290.448	262.12
290.679	280.12
290.91	283.12
291.141	273.12
291.371	287.12
291.602	273.12
291.833	279.12
292.064	278.12
292.295	285.12
292.526	290.12
292.757	271.12
292.987	280.12
293.218	292.12
293.449	282.12
293.68	286.12
293.91	272.12
294.141	293.12
294.372	267.12
294.603	270.12
294.833	268.12
295.064	286.12
295.295	278.12
295.525	299.12
295.756	290.12
295.987	313.12
296.217	310.12
296.448	304.12
296.679	292.12
296.909	299.12
297.14	290.12
297.37	287.12
297.601	308.12
297.831	300.12
298.062	312.12
298.292	286.12
298.523	309.12
298.753	293.12
298.984	290.12
299.214	296.12
299.445	299.12
299.675	333.12
299.905	324.12
300.136	316.12
300.366	306.12
300.597	300.12
300.827	299.12
301.057	309.12
301.288	327.12
301.518	310.12
301.748	309.12
301.979	330.12
302.209	316.12
302.439	324.12
302.669	324.12
302.9	315.12
303.13	314.12
303.36	325.12
303.59	319.12
303.82	335.12
304.051	321.12
304.281	331.12
304.511	309.12
304.741	317.12
304.971	325.12
305.201	310.12
305.431	312.12
305.661	293.12
305.891	317.12
306.121	317.12
306.352	312.12
306.582	325.12
306.812	330.12
307.042	310.12
307.272	306.12
307.502	325.12
307.731	324.12
307.961	311.12
308.191	299.12
308.421	316.12
308.651	328.12
308.881	320.12
309.111	335.12
309.341	312.12
309.571	349.12
309.8	331.12
310.03	334.12
310.26	345.12
310.49	322.12
310.72	334.12
310.949	349.12
311.179	348.12
311.409	347.12
311.639	335.12
311.868	346.12
312.098	348.12
312.328	354.12
312.557	364.12
312.787	377.12
313.017	363.12
313.246	346.12
313.476	349.12
313.706	341.12
313.935	361.12
314.165	378.12
314.394	364.12
314.624	357.12
314.853	353.12
315.083	357.12
315.312	358.12
315.542	339.12
315.771	344.12
316.001	342.12
316.23	331.12
316.46	338.12
316.689	325.12
316.919	332.12
317.148	351.12
317.377	367.12
317.607	368.12
317.836	339.12
318.065	347.12
318.295	356.12
318.524	351.12
318.753	362.12
318.983	339.12
319.212	355.12
319.441	350.12
319.67	363.12
319.9	361.12
320.129	352.12
320.358	340.12
320.587	351.12
320.816	343.12
321.046	365.12
321.275	359.12
321.504	367.12
321.733	343.12
321.962	371.12
322.191	355.12
322.42	365.12
322.649	380.12
322.878	382.12
323.108	388.12
323.337	393.12
323.566	415.12
323.795	444.12
324.024	463.12
324.253	542.12
324.482	677.12
324.71	977.12
324.939	1416.12
325.168	1240.12
325.397	684.12
325.626	526.12
325.855	448.12
326.084	430.12
326.313	426.12
326.542	430.12
326.77	463.12
326.999	527.12
327.228	678.12
327.457	942.12
327.686	1107.12
327.914	802.12
328.143	583.12
328.372	536.12
328.6	518.12
328.829	476.12
329.058	463.12
329.287	476.12
329.515	478.12
329.744	473.12
329.972	492.12
330.201	566.12
330.43	589.12
330.658	570.12
330.887	539.12
331.115	493.12
331.344	468.12
331.572	443.12
331.801	452.12
332.03	440.12
332.258	452.12
332.486	455.12
332.715	470.12
332.943	460.12
333.172	464.12
333.4	455.12
333.629	490.12
333.857	518.12
334.085	554.12
334.314	607.12
334.542	682.12
334.771	703.12
334.999	584.12
335.227	523.12
335.455	469.12
335.684	458.12
335.912	462.12
336.14	444.12
336.369	453.12
336.597	419.12
336.825	442.12
337.053	421.12
337.281	398.12
337.51	418.12
337.738	402.12
337.966	420.12
338.194	407.12
338.422	414.12
338.65	409.12
338.878	403.12
339.106	409.12
339.334	404.12
339.562	416.12
339.79	385.12
340.018	386.12
340.246	396.12
340.474	400.12
340.702	413.12
340.93	387.12
341.158	381.12
341.386	394.12
341.614	400.12
341.842	410.12
342.07	388.12
342.298	372.12
342.526	387.12
342.754	388.12
342.981	381.12
343.209	381.12
343.437	388.12
343.665	394.12
343.893	421.12
344.12	448.12
344.348	421.12
344.576	423.12
344.804	393.12
345.031	397.12
345.259	409.12
345.487	376.12
345.714	390.12
345.942	386.12
346.17	376.12
346.397	381.12
346.625	372.12
346.853	375.12
347.08	360.12
347.308	353.12
347.535	354.12
347.763	379.12
347.99	379.12
348.218	393.12
348.445	376.12
348.673	376.12
348.9	365.12
349.128	373.12
349.355	351.12
349.583	344.12
349.81	373.12
350.037	359.12
350.265	335.12
350.492	364.12
350.72	349.12
350.947	355.12
351.174	367.12
351.402	359.12
351.629	368.12
351.856	359.12
352.083	397.12
352.311	362.12
352.538	384.12
352.765	374.12
352.992	374.12
353.22	362.12
353.447	354.12
353.674	360.12
353.901	361.12
354.128	370.12
354.355	362.12
354.583	356.12
354.81	360.12
355.037	354.12
355.264	348.12
355.491	365.12
355.718	351.12
355.945	378.12
356.172	350.12
356.399	359.12
356.626	347.12
356.853	332.12
357.08	339.12
357.307	356.12
357.534	343.12
357.761	346.12
357.988	341.12
358.215	365.12
358.441	343.12
358.668	357.12
358.895	349.12
359.122	355.12
359.349	366.12
359.576	374.12
359.802	366.12
360.029	388.12
360.256	406.12
360.483	379.12
360.709	360.12
360.936	378.12
361.163	374.12
361.39	362.12
361.616	361.12
361.843	357.12
362.07	364.12
362.296	368.12
362.523	359.12
362.749	367.12
362.976	374.12
363.203	364.12
363.429	354.12
363.656	344.12
363.882	350.12
364.109	365.12
364.335	351.12
364.562	353.12
364.788	363.12
365.015	355.12
365.241	355.12
365.468	345.12
365.694	350.12
365.92	362.12
366.147	362.12
366.373	332.12
366.599	335.12
366.826	342.12
367.052	346.12
367.278	358.12
367.505	340.12
367.731	353.12
367.957	351.12
368.184	354.12
368.41	358.12
368.636	362.12
368.862	347.12
369.089	363.12
369.315	349.12
369.541	349.12
369.767	351.12
369.993	367.12
370.219	375.12
370.445	358.12
370.672	350.12
370.898	338.12
371.124	334.12
371.35	348.12
371.576	342.12
371.802	357.12
372.028	352.12
372.254	362.12
372.48	355.12
372.706	365.12
372.932	361.12
373.158	364.12
373.384	351.12
373.61	363.12
373.835	377.12
374.061	345.12
374.287	349.12
374.513	365.12
374.739	395.12
374.965	384.12
375.191	382.12
375.416	378.12
375.642	342.12
375.868	378.12
376.094	366.12
376.319	366.12
376.545	372.12
376.771	356.12
376.997	347.12
377.222	352.12
377.448	357.12
377.674	363.12
377.899	334.12
378.125	336.12
378.35	343.12
378.576	374.12
378.802	349.12
379.027	345.12
379.253	373.12
379.478	356.12
379.704	349.12
379.929	364.12
380.155	359.12
380.38	335.12
380.606	352.12
380.831	363.12
381.057	363.12
381.282	355.12
381.507	360.12
381.733	358.12
381.958	352.12
382.184	358.12
382.409	383.12
382.634	361.12
382.86	386.12
383.085	370.12
383.31	371.12
383.535	379.12
383.761	380.12
383.986	374.12
384.211	373.12
384.436	412.12
384.662	388.12
384.887	420.12
385.112	387.12
385.337	404.12
385.562	408.12
385.787	418.12
386.013	412.12
386.238	412.12
386.463	409.12
386.688	410.12
386.913	401.12
387.138	376.12
387.363	414.12
387.588	388.12
387.813	400.12
388.038	412.12
388.263	401.12
388.488	415.12
388.713	415.12
388.938	404.12
389.163	398.12
389.387	397.12
389.612	402.12
389.837	396.12
390.062	394.12
390.287	410.12
390.512	415.12
390.736	395.12
390.961	393.12
391.186	429.12
391.411	405.12
391.636	411.12
391.86	440.12
392.085	435.12
392.31	442.12
392.534	435.12
392.759	437.12
392.984	424.12
393.208	410.12
393.433	427.12
393.658	392.12
393.882	390.12
394.107	391.12
394.331	406.12
394.556	416.12
394.78	397.12
395.005	440.12
395.229	410.12
395.454	440.12
395.678	419.12
395.903	445.12
396.127	434.12
396.352	458.12
396.576	417.12
396.801	422.12
397.025	406.12
397.249	432.12
397.474	444.12
397.698	422.12
397.922	431.12
398.147	446.12
398.371	446.12
398.595	478.12
398.82	478.12
399.044	483.12
399.268	533.12
399.492	551.12
399.717	622.12
399.941	632.12
400.165	614.12
400.389	590.12
400.613	527.12
400.837	494.12
401.062	477.12
401.286	474.12
401.51	490.12
401.734	477.12
401.958	468.12
402.182	495.12
402.406	491.12
402.63	453.12
402.854	474.12
403.078	496.12
403.302	484.12
403.526	500.12
403.75	499.12
403.974	506.12
404.198	534.12
404.422	531.12
404.645	552.12
404.869	521.12
405.093	559.12
405.317	574.12
405.541	630.12
405.765	570.12
405.988	540.12
406.212	528.12
406.436	526.12
406.66	550.12
406.883	546.12
407.107	552.12
407.331	595.12
407.555	635.12
407.778	634.12
408.002	594.12
408.226	550.12
408.449	531.12
408.673	555.12
408.896	542.12
409.12	553.12
409.344	571.12
409.567	524.12
409.791	528.12
410.014	520.12
410.238	498.12
410.461	483.12
410.685	493.12
410.908	490.12
411.132	508.12
411.355	526.12
411.578	488.12
411.802	486.12
412.025	513.12
412.249	524.12
412.472	546.12
412.695	578.12
412.919	571.12
413.142	538.12
413.365	543.12
413.589	503.12
413.812	486.12
414.035	478.12
414.258	480.12
414.482	477.12
414.705	474.12
414.928	492.12
415.151	487.12
415.374	474.12
415.597	460.12
415.821	473.12
416.044	462.12
416.267	473.12
416.49	433.12
416.713	474.12
416.936	455.12
417.159	451.12
417.382	467.12
417.605	466.12
417.828	451.12
418.051	480.12
418.274	474.12
418.497	463.12
418.72	458.12
418.943	467.12
419.166	479.12
419.389	509.12
419.611	509.12
419.834	515.12
420.057	520.12
420.28	504.12
420.503	537.12
420.726	503.12
420.948	498.12
421.171	493.12
421.394	524.12
421.617	502.12
421.839	493.12
422.062	487.12
422.285	485.12
422.507	534.12
422.73	549.12
422.953	546.12
423.175	525.12
423.398	514.12
423.621	499.12
423.843	508.12
424.066	541.12
424.288	499.12
424.511	510.12
424.733	525.12
424.956	582.12
425.178	560.12
425.401	562.12
425.623	585.12
425.846	505.12
426.068	484.12
426.291	500.12
426.513	472.12
426.735	467.12
426.958	486.12
427.18	546.12
427.402	618.12
427.625	686.12
427.847	607.12
428.069	590.12
428.292	516.12
428.514	484.12
428.736	444.12
428.958	443.12
429.181	450.12
429.403	443.12
429.625	437.12
429.847	440.12
430.069	472.12
430.292	470.12
430.514	450.12
430.736	424.12
430.958	429.12
431.18	422.12
431.402	450.12
431.624	431.12
431.846	413.12
432.068	448.12
432.29	429.12
432.512	432.12
432.734	431.12
432.956	426.12
433.178	418.12
433.4	429.12
433.622	426.12
433.844	425.12
434.066	410.12
434.287	445.12
434.509	440.12
434.731	444.12
434.953	454.12
435.175	485.12
435.397	496.12
435.618	484.12
435.84	488.12
436.062	519.12
436.284	567.12
436.505	508.12
436.727	475.12
436.949	460.12
437.17	443.12
437.392	442.12
437.614	455.12
437.835	464.12
438.057	516.12
438.278	546.12
438.5	544.12
438.721	594.12
438.943	595.12
439.165	483.12
439.386	455.12
439.608	462.12
439.829	446.12
440.05	459.12
440.272	494.12
440.493	474.12
440.715	471.12
440.936	466.12
441.158	451.12
441.379	450.12
441.6	454.12
441.822	497.12
442.043	479.12
442.264	557.12
442.486	563.12
442.707	521.12
442.928	492.12
443.149	492.12
443.371	529.12
443.592	499.12
443.813	570.12
444.034	608.12
444.255	566.12
444.476	555.12
444.698	525.12
444.919	532.12
445.14	607.12
445.361	543.12
445.582	510.12
445.803	541.12
446.024	570.12
446.245	569.12
446.466	540.12
446.687	467.12
446.908	455.12
447.129	431.12
447.35	422.12
447.571	437.12
447.792	404.12
448.013	453.12
448.234	438.12
448.455	468.12
448.675	517.12
448.896	584.12
449.117	516.12
449.338	499.12
449.559	540.12
449.779	602.12
450	495.12
450.221	436.12
450.442	430.12
450.662	442.12
450.883	439.12
451.104	416.12
451.324	434.12
451.545	409.12
451.766	422.12
451.986	395.12
452.207	400.12
452.428	388.12
452.648	404.12
452.869	395.12
453.089	387.12
453.31	396.12
453.53	389.12
453.751	382.12
453.971	380.12
454.192	387.12
454.412	382.12
454.633	384.12
454.853	379.12
455.073	378.12
455.294	393.12
455.514	427.12
455.734	420.12
455.955	384.12
456.175	396.12
456.395	365.12
456.616	380.12
456.836	378.12
457.056	364.12
457.276	374.12
457.497	379.12
457.717	365.12
457.937	363.12
458.157	379.12
458.377	383.12
458.598	407.12
458.818	423.12
459.038	456.12
459.258	491.12
459.478	463.12
459.698	411.12
459.918	445.12
460.138	445.12
460.358	465.12
460.578	462.12
460.798	471.12
461.018	468.12
461.238	438.12
461.458	455.12
461.678	445.12
461.898	458.12
462.118	477.12
462.338	468.12
462.558	490.12
462.777	484.12
462.997	516.12
463.217	565.12
463.437	558.12
463.657	526.12
463.876	504.12
464.096	514.12
464.316	502.12
464.536	501.12
464.755	509.12
464.975	508.12
465.195	498.12
465.414	525.12
465.634	473.12
465.854	450.12
466.073	434.12
466.293	450.12
466.512	406.12
466.732	396.12
466.951	419.12
467.171	421.12
467.391	388.12
467.61	403.12
467.829	415.12
468.049	434.12
468.268	434.12
468.488	410.12
468.707	388.12
468.927	391.12
469.146	393.12
469.365	400.12
469.585	403.12
469.804	411.12
470.023	407.12
470.243	408.12
470.462	435.12
470.681	439.12
470.901	447.12
471.12	415.12
471.339	425.12
471.558	400.12
471.777	421.12
471.997	414.12
472.216	453.12
472.435	522.12
472.654	489.12
472.873	443.12
473.092	423.12
473.311	439.12
473.53	446.12
473.749	410.12
473.968	435.12
474.187	481.12
474.406	498.12
474.625	445.12
474.844	418.12
475.063	408.12
475.282	395.12
475.501	398.12
475.72	412.12
475.939	408.12
476.158	405.12
476.377	425.12
476.596	420.12
476.814	419.12
477.033	437.12
477.252	408.12
477.471	429.12
477.69	445.12
477.908	440.12
478.127	455.12
478.346	446.12
478.564	450.12
478.783	464.12
479.002	486.12
479.22	471.12
479.439	455.12
479.658	479.12
479.876	512.12
480.095	504.12
480.313	524.12
480.532	517.12
480.751	543.12
480.969	532.12
481.188	639.12
481.406	684.12
481.624	578.12
481.843	536.12
482.061	518.12
482.28	519.12
482.498	473.12
482.717	477.12
482.935	488.12
483.153	484.12
483.372	467.12
483.59	471.12
483.808	480.12
484.027	494.12
484.245	464.12
484.463	464.12
484.681	473.12
484.9	457.12
485.118	463.12
485.336	468.12
485.554	472.12
485.772	477.12
485.99	475.12
486.209	493.12
486.427	479.12
486.645	508.12
486.863	522.12
487.081	498.12
487.299	487.12
487.517	517.12
487.735	472.12
487.953	492.12
488.171	485.12
488.389	490.12
488.607	499.12
488.825	483.12
489.043	500.12
489.261	483.12
489.479	488.12
489.696	492.12
489.914	505.12
490.132	512.12
490.35	522.12
490.568	514.12
490.786	525.12
491.003	547.12
491.221	550.12
491.439	533.12
491.657	574.12
491.874	570.12
492.092	580.12
492.31	568.12
492.527	585.12
492.745	566.12
492.963	589.12
493.18	573.12
493.398	589.12
493.615	596.12
493.833	565.12
494.05	581.12
494.268	583.12
494.485	590.12
494.703	582.12
494.92	576.12
495.138	582.12
495.355	568.12
495.573	583.12
495.79	576.12
496.008	584.12
496.225	558.12
496.442	577.12
496.66	594.12
496.877	569.12
497.094	578.12
497.312	586.12
497.529	613.12
497.746	620.12
497.963	632.12
498.181	630.12
498.398	646.12
498.615	677.12
498.832	694.12
499.049	720.12
499.267	767.12
499.484	789.12
499.701	854.12
499.918	884.12
500.135	982.12
500.352	1067.12
500.569	1102.12
500.786	1072.12
501.003	1038.12
501.22	989.12
501.437	943.12
501.654	840.12
501.871	790.12
502.088	758.12
