Data from 1984.PennyLincolnUp.Lamp.En5.5.200Scan.071819.P1_HRD10591_16-59-10-970.txt Node
Date: Thu Jul 18 16:59:10 EDT 2019
User: cochatt
Spectrometer: HR+D1059
Trigger mode: 1
Integration Time (sec): 1.000000E-1
Scans to average: 1
Electric dark correction enabled: true
Nonlinearity correction enabled: false
Boxcar width: 0
XAxis mode: Wavelengths
Number of Pixels in Spectrum: 2048
>>>>>Begin Spectral Data<<<<<
223.165	-11.06
223.4	-11.06
223.635	-11.06
223.869	0.94
224.104	-8.06
224.338	-23.06
224.573	-19.06
224.808	4.94
225.042	2.94
225.277	-4.06
225.511	-0.06
225.746	-5.06
225.98	2.94
226.215	-0.06
226.449	5.94
226.683	3.94
226.918	19.94
227.152	28.94
227.387	38.94
227.621	42.94
227.856	32.94
228.09	39.94
228.324	44.94
228.559	64.94
228.793	79.94
229.027	83.94
229.262	103.94
229.496	108.94
229.73	111.94
229.964	114.94
230.199	118.94
230.433	95.94
230.667	101.94
230.901	112.94
231.136	107.94
231.37	121.94
231.604	100.94
231.838	103.94
232.072	106.94
232.306	123.94
232.541	103.94
232.775	108.94
233.009	109.94
233.243	94.94
233.477	122.94
233.711	127.94
233.945	115.94
234.179	109.94
234.413	114.94
234.647	97.94
234.881	116.94
235.115	109.94
235.349	109.94
235.583	118.94
235.817	121.94
236.051	119.94
236.285	118.94
236.519	114.94
236.753	121.94
236.987	127.94
237.221	139.94
237.455	162.94
237.689	151.94
237.922	121.94
238.156	127.94
238.39	126.94
238.624	118.94
238.858	116.94
239.091	118.94
239.325	119.94
239.559	108.94
239.793	116.94
240.027	118.94
240.26	136.94
240.494	141.94
240.728	124.94
240.961	128.94
241.195	143.94
241.429	134.94
241.662	140.94
241.896	118.94
242.13	127.94
242.363	128.94
242.597	148.94
242.83	125.94
243.064	134.94
243.298	141.94
243.531	135.94
243.765	128.94
243.998	142.94
244.232	140.94
244.465	146.94
244.699	132.94
244.932	140.94
245.166	129.94
245.399	131.94
245.633	146.94
245.866	136.94
246.099	129.94
246.333	131.94
246.566	149.94
246.8	151.94
247.033	141.94
247.266	162.94
247.5	158.94
247.733	164.94
247.966	162.94
248.2	184.94
248.433	169.94
248.666	164.94
248.899	169.94
249.133	159.94
249.366	181.94
249.599	175.94
249.832	171.94
250.066	179.94
250.299	166.94
250.532	184.94
250.765	210.94
250.998	214.94
251.231	190.94
251.465	181.94
251.698	179.94
251.931	176.94
252.164	178.94
252.397	167.94
252.63	180.94
252.863	180.94
253.096	200.94
253.329	175.94
253.562	205.94
253.795	181.94
254.028	200.94
254.261	195.94
254.494	165.94
254.727	200.94
254.96	215.94
255.193	231.94
255.426	229.94
255.659	211.94
255.892	226.94
256.124	224.94
256.357	276.94
256.59	232.94
256.823	212.94
257.056	212.94
257.289	195.94
257.521	190.94
257.754	194.94
257.987	189.94
258.22	194.94
258.452	192.94
258.685	189.94
258.918	184.94
259.151	174.94
259.383	196.94
259.616	183.94
259.849	212.94
260.081	200.94
260.314	199.94
260.547	213.94
260.779	209.94
261.012	189.94
261.244	193.94
261.477	204.94
261.71	196.94
261.942	211.94
262.175	214.94
262.407	197.94
262.64	202.94
262.872	203.94
263.105	186.94
263.337	195.94
263.57	172.94
263.802	186.94
264.035	194.94
264.267	194.94
264.499	188.94
264.732	192.94
264.964	204.94
265.197	187.94
265.429	199.94
265.661	215.94
265.894	201.94
266.126	214.94
266.358	214.94
266.591	212.94
266.823	218.94
267.055	207.94
267.287	209.94
267.52	198.94
267.752	206.94
267.984	214.94
268.216	219.94
268.448	227.94
268.681	214.94
268.913	232.94
269.145	238.94
269.377	231.94
269.609	239.94
269.841	239.94
270.073	233.94
270.306	242.94
270.538	269.94
270.77	291.94
271.002	273.94
271.234	236.94
271.466	251.94
271.698	260.94
271.93	263.94
272.162	253.94
272.394	286.94
272.626	254.94
272.858	251.94
273.09	265.94
273.322	236.94
273.553	233.94
273.785	241.94
274.017	247.94
274.249	234.94
274.481	238.94
274.713	226.94
274.945	268.94
275.176	252.94
275.408	245.94
275.64	250.94
275.872	246.94
276.104	244.94
276.335	233.94
276.567	246.94
276.799	253.94
277.031	294.94
277.262	278.94
277.494	276.94
277.726	270.94
277.957	264.94
278.189	271.94
278.421	260.94
278.652	252.94
278.884	267.94
279.115	260.94
279.347	248.94
279.579	268.94
279.81	257.94
280.042	254.94
280.273	276.94
280.505	275.94
280.736	270.94
280.968	284.94
281.199	266.94
281.431	260.94
281.662	255.94
281.894	273.94
282.125	285.94
282.356	283.94
282.588	288.94
282.819	288.94
283.051	276.94
283.282	271.94
283.513	274.94
283.745	268.94
283.976	276.94
284.207	272.94
284.439	259.94
284.67	266.94
284.901	284.94
285.132	298.94
285.364	286.94
285.595	271.94
285.826	291.94
286.057	287.94
286.288	269.94
286.52	286.94
286.751	258.94
286.982	271.94
287.213	270.94
287.444	293.94
287.675	272.94
287.906	280.94
288.138	302.94
288.369	298.94
288.6	300.94
288.831	294.94
289.062	284.94
289.293	277.94
289.524	283.94
289.755	292.94
289.986	280.94
290.217	283.94
290.448	296.94
290.679	292.94
290.91	304.94
291.141	278.94
291.371	285.94
291.602	309.94
291.833	260.94
292.064	284.94
292.295	286.94
292.526	285.94
292.757	281.94
292.987	292.94
293.218	282.94
293.449	288.94
293.68	287.94
293.91	295.94
294.141	277.94
294.372	286.94
294.603	270.94
294.833	287.94
295.064	273.94
295.295	288.94
295.525	278.94
295.756	284.94
295.987	302.94
296.217	314.94
296.448	347.94
296.679	300.94
296.909	305.94
297.14	269.94
297.37	299.94
297.601	290.94
297.831	309.94
298.062	284.94
298.292	312.94
298.523	317.94
298.753	296.94
298.984	298.94
299.214	293.94
299.445	315.94
299.675	326.94
299.905	309.94
300.136	314.94
300.366	312.94
300.597	306.94
300.827	312.94
301.057	322.94
301.288	309.94
301.518	332.94
301.748	320.94
301.979	325.94
302.209	304.94
302.439	322.94
302.669	316.94
302.9	323.94
303.13	308.94
303.36	336.94
303.59	334.94
303.82	323.94
304.051	342.94
304.281	318.94
304.511	328.94
304.741	318.94
304.971	320.94
305.201	320.94
305.431	319.94
305.661	332.94
305.891	333.94
306.121	318.94
306.352	314.94
306.582	320.94
306.812	320.94
307.042	342.94
307.272	323.94
307.502	305.94
307.731	323.94
307.961	328.94
308.191	302.94
308.421	330.94
308.651	326.94
308.881	325.94
309.111	332.94
309.341	320.94
309.571	319.94
309.8	332.94
310.03	329.94
310.26	327.94
310.49	320.94
310.72	354.94
310.949	348.94
311.179	348.94
311.409	341.94
311.639	352.94
311.868	331.94
312.098	346.94
312.328	342.94
312.557	357.94
312.787	370.94
313.017	382.94
313.246	360.94
313.476	346.94
313.706	354.94
313.935	357.94
314.165	358.94
314.394	372.94
314.624	367.94
314.853	365.94
315.083	354.94
315.312	335.94
315.542	358.94
315.771	343.94
316.001	352.94
316.23	350.94
316.46	363.94
316.689	346.94
316.919	352.94
317.148	350.94
317.377	362.94
317.607	346.94
317.836	347.94
318.065	334.94
318.295	342.94
318.524	348.94
318.753	354.94
318.983	349.94
319.212	339.94
319.441	338.94
319.67	353.94
319.9	338.94
320.129	374.94
320.358	351.94
320.587	358.94
320.816	375.94
321.046	352.94
321.275	352.94
321.504	367.94
321.733	363.94
321.962	370.94
322.191	373.94
322.42	381.94
322.649	389.94
322.878	398.94
323.108	409.94
323.337	418.94
323.566	403.94
323.795	446.94
324.024	474.94
324.253	533.94
324.482	732.94
324.71	1038.94
324.939	1414.94
325.168	1234.94
325.397	673.94
325.626	532.94
325.855	480.94
326.084	434.94
326.313	440.94
326.542	449.94
326.77	478.94
326.999	541.94
327.228	679.94
327.457	952.94
327.686	1129.94
327.914	838.94
328.143	596.94
328.372	533.94
328.6	526.94
328.829	472.94
329.058	486.94
329.287	488.94
329.515	469.94
329.744	461.94
329.972	493.94
330.201	531.94
330.43	590.94
330.658	578.94
330.887	528.94
331.115	509.94
331.344	459.94
331.572	431.94
331.801	471.94
332.03	460.94
332.258	432.94
332.486	424.94
332.715	456.94
332.943	482.94
333.172	506.94
333.4	477.94
333.629	498.94
333.857	518.94
334.085	557.94
334.314	603.94
334.542	664.94
334.771	671.94
334.999	586.94
335.227	520.94
335.455	482.94
335.684	476.94
335.912	452.94
336.14	452.94
336.369	460.94
336.597	441.94
336.825	460.94
337.053	440.94
337.281	426.94
337.51	431.94
337.738	429.94
337.966	417.94
338.194	424.94
338.422	423.94
338.65	405.94
338.878	406.94
339.106	398.94
339.334	394.94
339.562	396.94
339.79	411.94
340.018	376.94
340.246	397.94
340.474	407.94
340.702	382.94
340.93	393.94
341.158	402.94
341.386	413.94
341.614	396.94
341.842	394.94
342.07	387.94
342.298	372.94
342.526	378.94
342.754	385.94
342.981	377.94
343.209	382.94
343.437	405.94
343.665	400.94
343.893	408.94
344.12	427.94
344.348	454.94
344.576	406.94
344.804	405.94
345.031	400.94
345.259	410.94
345.487	403.94
345.714	394.94
345.942	371.94
346.17	373.94
346.397	364.94
346.625	375.94
346.853	376.94
347.08	372.94
347.308	380.94
347.535	383.94
347.763	381.94
347.99	402.94
348.218	389.94
348.445	376.94
348.673	379.94
348.9	386.94
349.128	365.94
349.355	367.94
349.583	360.94
349.81	388.94
350.037	358.94
350.265	360.94
350.492	389.94
350.72	384.94
350.947	380.94
351.174	355.94
351.402	394.94
351.629	364.94
351.856	355.94
352.083	376.94
352.311	369.94
352.538	372.94
352.765	370.94
352.992	362.94
353.22	381.94
353.447	365.94
353.674	359.94
353.901	366.94
354.128	365.94
354.355	329.94
354.583	358.94
354.81	388.94
355.037	346.94
355.264	368.94
355.491	353.94
355.718	362.94
355.945	380.94
356.172	352.94
356.399	348.94
356.626	344.94
356.853	362.94
357.08	347.94
357.307	356.94
357.534	341.94
357.761	337.94
357.988	362.94
358.215	351.94
358.441	350.94
358.668	356.94
358.895	359.94
359.122	331.94
359.349	360.94
359.576	361.94
359.802	375.94
360.029	358.94
360.256	375.94
360.483	389.94
360.709	360.94
360.936	374.94
361.163	352.94
361.39	378.94
361.616	373.94
361.843	348.94
362.07	375.94
362.296	352.94
362.523	356.94
362.749	363.94
362.976	350.94
363.203	366.94
363.429	354.94
363.656	358.94
363.882	350.94
364.109	342.94
364.335	356.94
364.562	366.94
364.788	346.94
365.015	344.94
365.241	367.94
365.468	346.94
365.694	354.94
365.92	347.94
366.147	352.94
366.373	357.94
366.599	350.94
366.826	362.94
367.052	355.94
367.278	346.94
367.505	336.94
367.731	346.94
367.957	358.94
368.184	347.94
368.41	349.94
368.636	371.94
368.862	366.94
369.089	353.94
369.315	350.94
369.541	363.94
369.767	342.94
369.993	359.94
370.219	352.94
370.445	346.94
370.672	359.94
370.898	344.94
371.124	365.94
371.35	358.94
371.576	366.94
371.802	366.94
372.028	352.94
372.254	352.94
372.48	376.94
372.706	374.94
372.932	374.94
373.158	359.94
373.384	373.94
373.61	374.94
373.835	378.94
374.061	374.94
374.287	359.94
374.513	384.94
374.739	380.94
374.965	377.94
375.191	394.94
375.416	390.94
375.642	389.94
375.868	383.94
376.094	364.94
376.319	372.94
376.545	354.94
376.771	370.94
376.997	350.94
377.222	375.94
377.448	382.94
377.674	355.94
377.899	332.94
378.125	361.94
378.35	360.94
378.576	358.94
378.802	370.94
379.027	330.94
379.253	380.94
379.478	374.94
379.704	358.94
379.929	348.94
380.155	354.94
380.38	353.94
380.606	352.94
380.831	363.94
381.057	367.94
381.282	358.94
381.507	366.94
381.733	379.94
381.958	382.94
382.184	372.94
382.409	357.94
382.634	366.94
382.86	357.94
383.085	385.94
383.31	363.94
383.535	366.94
383.761	364.94
383.986	381.94
384.211	384.94
384.436	392.94
384.662	388.94
384.887	392.94
385.112	395.94
385.337	414.94
385.562	412.94
385.787	418.94
386.013	418.94
386.238	410.94
386.463	442.94
386.688	400.94
386.913	404.94
387.138	421.94
387.363	394.94
387.588	380.94
387.813	383.94
388.038	394.94
388.263	414.94
388.488	408.94
388.713	416.94
388.938	399.94
389.163	402.94
389.387	414.94
389.612	405.94
389.837	403.94
390.062	403.94
390.287	398.94
390.512	397.94
390.736	400.94
390.961	406.94
391.186	392.94
391.411	416.94
391.636	431.94
391.86	432.94
392.085	422.94
392.31	429.94
392.534	408.94
392.759	408.94
392.984	420.94
393.208	427.94
393.433	398.94
393.658	399.94
393.882	436.94
394.107	422.94
394.331	389.94
394.556	434.94
394.78	422.94
395.005	405.94
395.229	414.94
395.454	424.94
395.678	427.94
395.903	430.94
396.127	453.94
396.352	432.94
396.576	436.94
396.801	423.94
397.025	416.94
397.249	418.94
397.474	452.94
397.698	444.94
397.922	451.94
398.147	446.94
398.371	463.94
398.595	470.94
398.82	457.94
399.044	495.94
399.268	532.94
399.492	589.94
399.717	632.94
399.941	648.94
400.165	619.94
400.389	589.94
400.613	543.94
400.837	495.94
401.062	490.94
401.286	487.94
401.51	477.94
401.734	470.94
401.958	472.94
402.182	490.94
402.406	468.94
402.63	492.94
402.854	494.94
403.078	495.94
403.302	505.94
403.526	520.94
403.75	545.94
403.974	514.94
404.198	517.94
404.422	529.94
404.645	531.94
404.869	529.94
405.093	568.94
405.317	611.94
405.541	634.94
405.765	584.94
405.988	535.94
406.212	534.94
406.436	548.94
406.66	562.94
406.883	528.94
407.107	562.94
407.331	601.94
407.555	644.94
407.778	640.94
408.002	579.94
408.226	589.94
408.449	547.94
408.673	557.94
408.896	560.94
409.12	574.94
409.344	556.94
409.567	522.94
409.791	513.94
410.014	479.94
410.238	485.94
410.461	480.94
410.685	494.94
410.908	501.94
411.132	533.94
411.355	524.94
411.578	530.94
411.802	503.94
412.025	494.94
412.249	516.94
412.472	551.94
412.695	590.94
412.919	559.94
413.142	533.94
413.365	489.94
413.589	504.94
413.812	478.94
414.035	468.94
414.258	503.94
414.482	467.94
414.705	484.94
414.928	468.94
415.151	506.94
415.374	478.94
415.597	475.94
415.821	456.94
416.044	445.94
416.267	457.94
416.49	474.94
416.713	461.94
416.936	453.94
417.159	465.94
417.382	475.94
417.605	479.94
417.828	475.94
418.051	487.94
418.274	492.94
418.497	474.94
418.72	475.94
418.943	468.94
419.166	490.94
419.389	535.94
419.611	509.94
419.834	501.94
420.057	512.94
420.28	526.94
420.503	506.94
420.726	507.94
420.948	519.94
421.171	523.94
421.394	536.94
421.617	484.94
421.839	464.94
422.062	484.94
422.285	487.94
422.507	530.94
422.73	565.94
422.953	557.94
423.175	518.94
423.398	502.94
423.621	501.94
423.843	492.94
424.066	520.94
424.288	486.94
424.511	511.94
424.733	528.94
424.956	577.94
425.178	556.94
425.401	562.94
425.623	580.94
425.846	518.94
426.068	496.94
426.291	485.94
426.513	477.94
426.735	502.94
426.958	524.94
427.18	538.94
427.402	635.94
427.625	685.94
427.847	605.94
428.069	561.94
428.292	526.94
428.514	476.94
428.736	457.94
428.958	468.94
429.181	455.94
429.403	436.94
429.625	455.94
429.847	476.94
430.069	512.94
430.292	486.94
430.514	462.94
430.736	450.94
430.958	444.94
431.18	426.94
431.402	431.94
431.624	423.94
431.846	425.94
432.068	433.94
432.29	446.94
432.512	448.94
432.734	442.94
432.956	431.94
433.178	460.94
433.4	440.94
433.622	444.94
433.844	431.94
434.066	434.94
434.287	453.94
434.509	446.94
434.731	452.94
434.953	456.94
435.175	465.94
435.397	491.94
435.618	476.94
435.84	479.94
436.062	532.94
436.284	598.94
436.505	524.94
436.727	501.94
436.949	457.94
437.17	423.94
437.392	450.94
437.614	420.94
437.835	452.94
438.057	517.94
438.278	570.94
438.5	569.94
438.721	586.94
438.943	594.94
439.165	498.94
439.386	484.94
439.608	483.94
439.829	467.94
440.05	472.94
440.272	505.94
440.493	498.94
440.715	470.94
440.936	456.94
441.158	453.94
441.379	447.94
441.6	486.94
441.822	504.94
442.043	516.94
442.264	558.94
442.486	566.94
442.707	510.94
442.928	500.94
443.149	501.94
443.371	510.94
443.592	538.94
443.813	594.94
444.034	635.94
444.255	542.94
444.476	528.94
444.698	541.94
444.919	528.94
445.14	617.94
445.361	580.94
445.582	532.94
445.803	536.94
446.024	575.94
446.245	587.94
446.466	551.94
446.687	488.94
446.908	452.94
447.129	442.94
447.35	453.94
447.571	443.94
447.792	413.94
448.013	424.94
448.234	442.94
448.455	482.94
448.675	525.94
448.896	553.94
449.117	525.94
449.338	495.94
449.559	564.94
449.779	619.94
450	547.94
450.221	428.94
450.442	426.94
450.662	419.94
450.883	427.94
451.104	415.94
451.324	440.94
451.545	395.94
451.766	430.94
451.986	414.94
452.207	397.94
452.428	418.94
452.648	394.94
452.869	392.94
453.089	398.94
453.31	399.94
453.53	400.94
453.751	393.94
453.971	403.94
454.192	406.94
454.412	383.94
454.633	392.94
454.853	396.94
455.073	385.94
455.294	410.94
455.514	429.94
455.734	426.94
455.955	402.94
456.175	380.94
456.395	376.94
456.616	364.94
456.836	390.94
457.056	363.94
457.276	364.94
457.497	394.94
457.717	408.94
457.937	367.94
458.157	396.94
458.377	390.94
458.598	413.94
458.818	435.94
459.038	474.94
459.258	487.94
459.478	451.94
459.698	438.94
459.918	435.94
460.138	440.94
460.358	474.94
460.578	474.94
460.798	477.94
461.018	460.94
461.238	463.94
461.458	464.94
461.678	463.94
461.898	479.94
462.118	454.94
462.338	489.94
462.558	510.94
462.777	506.94
462.997	536.94
463.217	540.94
463.437	565.94
463.657	559.94
463.876	547.94
464.096	503.94
464.316	495.94
464.536	483.94
464.755	513.94
464.975	497.94
465.195	508.94
465.414	514.94
465.634	487.94
465.854	443.94
466.073	436.94
466.293	437.94
466.512	405.94
466.732	419.94
466.951	420.94
467.171	420.94
467.391	413.94
467.61	410.94
467.829	421.94
468.049	450.94
468.268	428.94
468.488	423.94
468.707	408.94
468.927	391.94
469.146	383.94
469.365	418.94
469.585	406.94
469.804	401.94
470.023	404.94
470.243	438.94
470.462	427.94
470.681	453.94
470.901	408.94
471.12	418.94
471.339	432.94
471.558	433.94
471.777	404.94
471.997	416.94
472.216	427.94
472.435	503.94
472.654	475.94
472.873	445.94
473.092	411.94
473.311	411.94
473.53	400.94
473.749	434.94
473.968	451.94
474.187	490.94
474.406	482.94
474.625	443.94
474.844	400.94
475.063	408.94
475.282	423.94
475.501	415.94
475.72	413.94
475.939	418.94
476.158	425.94
476.377	421.94
476.596	399.94
476.814	435.94
477.033	423.94
477.252	432.94
477.471	429.94
477.69	441.94
477.908	459.94
478.127	464.94
478.346	448.94
478.564	453.94
478.783	474.94
479.002	490.94
479.22	473.94
479.439	474.94
479.658	479.94
479.876	490.94
480.095	524.94
480.313	523.94
480.532	519.94
480.751	538.94
480.969	546.94
481.188	652.94
481.406	704.94
481.624	581.94
481.843	530.94
482.061	504.94
482.28	492.94
482.498	481.94
482.717	472.94
482.935	484.94
483.153	507.94
483.372	475.94
483.59	468.94
483.808	465.94
484.027	473.94
484.245	463.94
484.463	476.94
484.681	489.94
484.9	490.94
485.118	471.94
485.336	463.94
485.554	474.94
485.772	491.94
485.99	486.94
486.209	484.94
486.427	495.94
486.645	507.94
486.863	507.94
487.081	498.94
487.299	498.94
487.517	511.94
487.735	492.94
487.953	482.94
488.171	490.94
488.389	518.94
488.607	490.94
488.825	500.94
489.043	504.94
489.261	510.94
489.479	504.94
489.696	508.94
489.914	491.94
490.132	515.94
490.35	518.94
490.568	525.94
490.786	532.94
491.003	562.94
491.221	534.94
491.439	551.94
491.657	553.94
491.874	566.94
492.092	564.94
492.31	578.94
492.527	578.94
492.745	590.94
492.963	607.94
493.18	593.94
493.398	599.94
493.615	577.94
493.833	612.94
494.05	584.94
494.268	580.94
494.485	595.94
494.703	578.94
494.92	578.94
495.138	577.94
495.355	567.94
495.573	587.94
495.79	586.94
496.008	572.94
496.225	555.94
496.442	551.94
496.66	582.94
496.877	581.94
497.094	580.94
497.312	605.94
497.529	607.94
497.746	611.94
497.963	626.94
498.181	648.94
498.398	663.94
498.615	682.94
498.832	709.94
499.049	731.94
499.267	765.94
499.484	813.94
499.701	894.94
499.918	909.94
500.135	975.94
500.352	1082.94
500.569	1100.94
500.786	1125.94
501.003	1080.94
501.22	998.94
501.437	944.94
501.654	875.94
501.871	815.94
502.088	780.94
