Data from 1984.PennyLincolnUp.Lamp.En5.5.200Scan.071819.P1_HRD10591_16-58-42-967.txt Node
Date: Thu Jul 18 16:58:42 EDT 2019
User: cochatt
Spectrometer: HR+D1059
Trigger mode: 1
Integration Time (sec): 1.000000E-1
Scans to average: 1
Electric dark correction enabled: true
Nonlinearity correction enabled: false
Boxcar width: 0
XAxis mode: Wavelengths
Number of Pixels in Spectrum: 2048
>>>>>Begin Spectral Data<<<<<
223.165	-15.69
223.4	-15.69
223.635	-15.69
223.869	-25.69
224.104	-5.69
224.338	-15.69
224.573	-18.69
224.808	-5.69
225.042	-3.69
225.277	0.31
225.511	-1.69
225.746	1.31
225.98	7.31
226.215	7.31
226.449	12.31
226.683	26.31
226.918	16.31
227.152	21.31
227.387	33.31
227.621	29.31
227.856	49.31
228.09	31.31
228.324	30.31
228.559	54.31
228.793	60.31
229.027	85.31
229.262	81.31
229.496	81.31
229.73	107.31
229.964	111.31
230.199	89.31
230.433	91.31
230.667	110.31
230.901	109.31
231.136	108.31
231.37	109.31
231.604	92.31
231.838	96.31
232.072	106.31
232.306	103.31
232.541	98.31
232.775	103.31
233.009	92.31
233.243	114.31
233.477	112.31
233.711	99.31
233.945	100.31
234.179	88.31
234.413	122.31
234.647	118.31
234.881	103.31
235.115	104.31
235.349	93.31
235.583	106.31
235.817	114.31
236.051	94.31
236.285	104.31
236.519	113.31
236.753	103.31
236.987	118.31
237.221	130.31
237.455	152.31
237.689	144.31
237.922	103.31
238.156	108.31
238.39	108.31
238.624	103.31
238.858	97.31
239.091	111.31
239.325	107.31
239.559	115.31
239.793	112.31
240.027	120.31
240.26	130.31
240.494	127.31
240.728	140.31
240.961	128.31
241.195	116.31
241.429	117.31
241.662	117.31
241.896	112.31
242.13	134.31
242.363	99.31
242.597	101.31
242.83	126.31
243.064	109.31
243.298	124.31
243.531	111.31
243.765	122.31
243.998	123.31
244.232	131.31
244.465	114.31
244.699	130.31
244.932	128.31
245.166	122.31
245.399	127.31
245.633	117.31
245.866	131.31
246.099	129.31
246.333	125.31
246.566	130.31
246.8	148.31
247.033	136.31
247.266	137.31
247.5	141.31
247.733	154.31
247.966	140.31
248.2	130.31
248.433	136.31
248.666	148.31
248.899	150.31
249.133	168.31
249.366	173.31
249.599	153.31
249.832	133.31
250.066	154.31
250.299	151.31
250.532	164.31
250.765	188.31
250.998	166.31
251.231	176.31
251.465	172.31
251.698	162.31
251.931	160.31
252.164	160.31
252.397	166.31
252.63	182.31
252.863	163.31
253.096	154.31
253.329	183.31
253.562	170.31
253.795	176.31
254.028	168.31
254.261	179.31
254.494	187.31
254.727	202.31
254.96	210.31
255.193	215.31
255.426	190.31
255.659	186.31
255.892	195.31
256.124	221.31
256.357	225.31
256.59	184.31
256.823	185.31
257.056	193.31
257.289	203.31
257.521	183.31
257.754	176.31
257.987	187.31
258.22	177.31
258.452	177.31
258.685	179.31
258.918	176.31
259.151	195.31
259.383	176.31
259.616	183.31
259.849	179.31
260.081	194.31
260.314	209.31
260.547	206.31
260.779	197.31
261.012	181.31
261.244	189.31
261.477	206.31
261.71	182.31
261.942	206.31
262.175	182.31
262.407	193.31
262.64	170.31
262.872	190.31
263.105	171.31
263.337	178.31
263.57	180.31
263.802	185.31
264.035	192.31
264.267	202.31
264.499	190.31
264.732	196.31
264.964	196.31
265.197	213.31
265.429	184.31
265.661	186.31
265.894	193.31
266.126	189.31
266.358	181.31
266.591	199.31
266.823	202.31
267.055	188.31
267.287	208.31
267.52	183.31
267.752	200.31
267.984	210.31
268.216	209.31
268.448	191.31
268.681	197.31
268.913	192.31
269.145	207.31
269.377	233.31
269.609	218.31
269.841	222.31
270.073	232.31
270.306	245.31
270.538	233.31
270.77	225.31
271.002	253.31
271.234	234.31
271.466	237.31
271.698	235.31
271.93	240.31
272.162	237.31
272.394	237.31
272.626	248.31
272.858	250.31
273.09	230.31
273.322	224.31
273.553	215.31
273.785	230.31
274.017	215.31
274.249	236.31
274.481	236.31
274.713	227.31
274.945	243.31
275.176	239.31
275.408	237.31
275.64	237.31
275.872	222.31
276.104	208.31
276.335	222.31
276.567	234.31
276.799	234.31
277.031	273.31
277.262	267.31
277.494	276.31
277.726	251.31
277.957	258.31
278.189	225.31
278.421	231.31
278.652	240.31
278.884	234.31
279.115	237.31
279.347	240.31
279.579	239.31
279.81	244.31
280.042	243.31
280.273	235.31
280.505	247.31
280.736	240.31
280.968	240.31
281.199	245.31
281.431	243.31
281.662	250.31
281.894	245.31
282.125	245.31
282.356	257.31
282.588	270.31
282.819	265.31
283.051	255.31
283.282	256.31
283.513	256.31
283.745	254.31
283.976	268.31
284.207	239.31
284.439	243.31
284.67	260.31
284.901	245.31
285.132	264.31
285.364	262.31
285.595	252.31
285.826	260.31
286.057	263.31
286.288	268.31
286.52	253.31
286.751	255.31
286.982	254.31
287.213	245.31
287.444	252.31
287.675	259.31
287.906	252.31
288.138	276.31
288.369	261.31
288.6	264.31
288.831	282.31
289.062	263.31
289.293	266.31
289.524	256.31
289.755	241.31
289.986	282.31
290.217	260.31
290.448	260.31
290.679	267.31
290.91	270.31
291.141	287.31
291.371	291.31
291.602	267.31
291.833	270.31
292.064	267.31
292.295	274.31
292.526	261.31
292.757	272.31
292.987	250.31
293.218	255.31
293.449	280.31
293.68	266.31
293.91	277.31
294.141	251.31
294.372	266.31
294.603	292.31
294.833	279.31
295.064	272.31
295.295	269.31
295.525	273.31
295.756	268.31
295.987	281.31
296.217	292.31
296.448	286.31
296.679	283.31
296.909	279.31
297.14	256.31
297.37	307.31
297.601	282.31
297.831	279.31
298.062	282.31
298.292	267.31
298.523	276.31
298.753	292.31
298.984	286.31
299.214	287.31
299.445	291.31
299.675	311.31
299.905	303.31
300.136	295.31
300.366	273.31
300.597	295.31
300.827	282.31
301.057	292.31
301.288	303.31
301.518	303.31
301.748	306.31
301.979	298.31
302.209	308.31
302.439	305.31
302.669	299.31
302.9	316.31
303.13	296.31
303.36	303.31
303.59	306.31
303.82	321.31
304.051	301.31
304.281	316.31
304.511	304.31
304.741	303.31
304.971	305.31
305.201	314.31
305.431	286.31
305.661	300.31
305.891	293.31
306.121	306.31
306.352	312.31
306.582	302.31
306.812	290.31
307.042	307.31
307.272	298.31
307.502	304.31
307.731	311.31
307.961	306.31
308.191	290.31
308.421	292.31
308.651	302.31
308.881	282.31
309.111	314.31
309.341	307.31
309.571	309.31
309.8	312.31
310.03	287.31
310.26	319.31
310.49	329.31
310.72	337.31
310.949	331.31
311.179	344.31
311.409	316.31
311.639	323.31
311.868	335.31
312.098	348.31
312.328	330.31
312.557	326.31
312.787	327.31
313.017	335.31
313.246	349.31
313.476	327.31
313.706	350.31
313.935	325.31
314.165	354.31
314.394	351.31
314.624	331.31
314.853	342.31
315.083	343.31
315.312	353.31
315.542	329.31
315.771	331.31
316.001	335.31
316.23	321.31
316.46	324.31
316.689	336.31
316.919	314.31
317.148	324.31
317.377	320.31
317.607	332.31
317.836	322.31
318.065	323.31
318.295	341.31
318.524	332.31
318.753	330.31
318.983	345.31
319.212	323.31
319.441	321.31
319.67	335.31
319.9	345.31
320.129	337.31
320.358	329.31
320.587	336.31
320.816	346.31
321.046	335.31
321.275	333.31
321.504	348.31
321.733	350.31
321.962	346.31
322.191	343.31
322.42	365.31
322.649	370.31
322.878	381.31
323.108	379.31
323.337	371.31
323.566	416.31
323.795	398.31
324.024	428.31
324.253	496.31
324.482	659.31
324.71	918.31
324.939	1262.31
325.168	1130.31
325.397	643.31
325.626	490.31
325.855	419.31
326.084	402.31
326.313	403.31
326.542	384.31
326.77	451.31
326.999	496.31
327.228	615.31
327.457	870.31
327.686	1027.31
327.914	728.31
328.143	526.31
328.372	485.31
328.6	452.31
328.829	456.31
329.058	442.31
329.287	458.31
329.515	443.31
329.744	419.31
329.972	453.31
330.201	471.31
330.43	505.31
330.658	489.31
330.887	456.31
331.115	467.31
331.344	447.31
331.572	422.31
331.801	408.31
332.03	413.31
332.258	402.31
332.486	414.31
332.715	406.31
332.943	440.31
333.172	453.31
333.4	456.31
333.629	461.31
333.857	495.31
334.085	493.31
334.314	504.31
334.542	543.31
334.771	566.31
334.999	490.31
335.227	462.31
335.455	435.31
335.684	433.31
335.912	431.31
336.14	428.31
336.369	393.31
336.597	412.31
336.825	397.31
337.053	406.31
337.281	402.31
337.51	393.31
337.738	406.31
337.966	397.31
338.194	392.31
338.422	392.31
338.65	378.31
338.878	379.31
339.106	388.31
339.334	375.31
339.562	387.31
339.79	364.31
340.018	365.31
340.246	378.31
340.474	371.31
340.702	386.31
340.93	372.31
341.158	367.31
341.386	349.31
341.614	367.31
341.842	369.31
342.07	369.31
342.298	364.31
342.526	350.31
342.754	346.31
342.981	379.31
343.209	360.31
343.437	379.31
343.665	400.31
343.893	403.31
344.12	419.31
344.348	413.31
344.576	380.31
344.804	394.31
345.031	399.31
345.259	384.31
345.487	363.31
345.714	358.31
345.942	362.31
346.17	359.31
346.397	363.31
346.625	352.31
346.853	346.31
347.08	334.31
347.308	349.31
347.535	356.31
347.763	343.31
347.99	350.31
348.218	344.31
348.445	344.31
348.673	359.31
348.9	346.31
349.128	352.31
349.355	326.31
349.583	342.31
349.81	343.31
350.037	348.31
350.265	337.31
350.492	331.31
350.72	341.31
350.947	340.31
351.174	366.31
351.402	356.31
351.629	339.31
351.856	363.31
352.083	328.31
352.311	347.31
352.538	340.31
352.765	327.31
352.992	363.31
353.22	340.31
353.447	344.31
353.674	357.31
353.901	345.31
354.128	326.31
354.355	329.31
354.583	330.31
354.81	345.31
355.037	361.31
355.264	320.31
355.491	326.31
355.718	339.31
355.945	330.31
356.172	332.31
356.399	334.31
356.626	336.31
356.853	318.31
357.08	335.31
357.307	326.31
357.534	341.31
357.761	321.31
357.988	333.31
358.215	312.31
358.441	325.31
358.668	342.31
358.895	329.31
359.122	337.31
359.349	333.31
359.576	351.31
359.802	352.31
360.029	366.31
360.256	357.31
360.483	355.31
360.709	357.31
360.936	351.31
361.163	340.31
361.39	340.31
361.616	363.31
361.843	335.31
362.07	351.31
362.296	343.31
362.523	355.31
362.749	354.31
362.976	329.31
363.203	328.31
363.429	328.31
363.656	362.31
363.882	332.31
364.109	341.31
364.335	346.31
364.562	320.31
364.788	343.31
365.015	336.31
365.241	316.31
365.468	335.31
365.694	348.31
365.92	318.31
366.147	342.31
366.373	334.31
366.599	325.31
366.826	318.31
367.052	318.31
367.278	342.31
367.505	339.31
367.731	323.31
367.957	324.31
368.184	316.31
368.41	334.31
368.636	334.31
368.862	347.31
369.089	352.31
369.315	361.31
369.541	329.31
369.767	343.31
369.993	351.31
370.219	327.31
370.445	328.31
370.672	339.31
370.898	344.31
371.124	339.31
371.35	347.31
371.576	351.31
371.802	342.31
372.028	333.31
372.254	340.31
372.48	328.31
372.706	301.31
372.932	349.31
373.158	360.31
373.384	358.31
373.61	336.31
373.835	330.31
374.061	338.31
374.287	339.31
374.513	353.31
374.739	362.31
374.965	351.31
375.191	357.31
375.416	354.31
375.642	339.31
375.868	354.31
376.094	357.31
376.319	348.31
376.545	364.31
376.771	328.31
376.997	343.31
377.222	354.31
377.448	312.31
377.674	344.31
377.899	333.31
378.125	332.31
378.35	346.31
378.576	329.31
378.802	337.31
379.027	326.31
379.253	338.31
379.478	328.31
379.704	342.31
379.929	330.31
380.155	347.31
380.38	356.31
380.606	315.31
380.831	322.31
381.057	334.31
381.282	329.31
381.507	332.31
381.733	339.31
381.958	345.31
382.184	367.31
382.409	333.31
382.634	339.31
382.86	347.31
383.085	345.31
383.31	354.31
383.535	364.31
383.761	336.31
383.986	358.31
384.211	379.31
384.436	372.31
384.662	374.31
384.887	387.31
385.112	381.31
385.337	384.31
385.562	405.31
385.787	388.31
386.013	389.31
386.238	396.31
386.463	390.31
386.688	376.31
386.913	387.31
387.138	382.31
387.363	380.31
387.588	383.31
387.813	395.31
388.038	400.31
388.263	385.31
388.488	378.31
388.713	365.31
388.938	380.31
389.163	365.31
389.387	376.31
389.612	368.31
389.837	356.31
390.062	388.31
390.287	380.31
390.512	383.31
390.736	372.31
390.961	387.31
391.186	378.31
391.411	391.31
391.636	405.31
391.86	412.31
392.085	422.31
392.31	407.31
392.534	388.31
392.759	371.31
392.984	386.31
393.208	388.31
393.433	388.31
393.658	375.31
393.882	388.31
394.107	402.31
394.331	405.31
394.556	385.31
394.78	393.31
395.005	392.31
395.229	383.31
395.454	391.31
395.678	411.31
395.903	414.31
396.127	443.31
396.352	406.31
396.576	405.31
396.801	388.31
397.025	409.31
397.249	404.31
397.474	405.31
397.698	424.31
397.922	406.31
398.147	413.31
398.371	432.31
398.595	432.31
398.82	442.31
399.044	463.31
399.268	504.31
399.492	549.31
399.717	588.31
399.941	592.31
400.165	590.31
400.389	562.31
400.613	516.31
400.837	497.31
401.062	472.31
401.286	476.31
401.51	450.31
401.734	466.31
401.958	466.31
402.182	471.31
402.406	482.31
402.63	454.31
402.854	448.31
403.078	447.31
403.302	462.31
403.526	506.31
403.75	476.31
403.974	477.31
404.198	475.31
404.422	496.31
404.645	502.31
404.869	486.31
405.093	530.31
405.317	544.31
405.541	578.31
405.765	520.31
405.988	487.31
406.212	490.31
406.436	509.31
406.66	512.31
406.883	533.31
407.107	530.31
407.331	545.31
407.555	594.31
407.778	598.31
408.002	578.31
408.226	531.31
408.449	530.31
408.673	521.31
408.896	534.31
409.12	552.31
409.344	529.31
409.567	473.31
409.791	507.31
410.014	478.31
410.238	474.31
410.461	475.31
410.685	488.31
410.908	508.31
411.132	487.31
411.355	511.31
411.578	484.31
411.802	470.31
412.025	488.31
412.249	496.31
412.472	525.31
412.695	523.31
412.919	505.31
413.142	499.31
413.365	480.31
413.589	473.31
413.812	441.31
414.035	444.31
414.258	448.31
414.482	421.31
414.705	447.31
414.928	456.31
415.151	438.31
415.374	452.31
415.597	421.31
415.821	448.31
416.044	449.31
416.267	439.31
416.49	440.31
416.713	446.31
416.936	431.31
417.159	435.31
417.382	452.31
417.605	433.31
417.828	461.31
418.051	459.31
418.274	465.31
418.497	431.31
418.72	456.31
418.943	432.31
419.166	462.31
419.389	498.31
419.611	511.31
419.834	502.31
420.057	471.31
420.28	487.31
420.503	461.31
420.726	464.31
420.948	477.31
421.171	476.31
421.394	472.31
421.617	450.31
421.839	450.31
422.062	459.31
422.285	455.31
422.507	506.31
422.73	520.31
422.953	495.31
423.175	472.31
423.398	472.31
423.621	486.31
423.843	497.31
424.066	486.31
424.288	485.31
424.511	483.31
424.733	530.31
424.956	558.31
425.178	513.31
425.401	520.31
425.623	537.31
425.846	486.31
426.068	473.31
426.291	456.31
426.513	462.31
426.735	439.31
426.958	498.31
427.18	520.31
427.402	587.31
427.625	643.31
427.847	572.31
428.069	529.31
428.292	481.31
428.514	439.31
428.736	442.31
428.958	414.31
429.181	408.31
429.403	415.31
429.625	426.31
429.847	437.31
430.069	470.31
430.292	459.31
430.514	431.31
430.736	422.31
430.958	426.31
431.18	400.31
431.402	416.31
431.624	396.31
431.846	418.31
432.068	413.31
432.29	394.31
432.512	439.31
432.734	434.31
432.956	388.31
433.178	413.31
433.4	417.31
433.622	432.31
433.844	407.31
434.066	436.31
434.287	415.31
434.509	422.31
434.731	438.31
434.953	430.31
435.175	450.31
435.397	455.31
435.618	438.31
435.84	462.31
436.062	516.31
436.284	531.31
436.505	474.31
436.727	456.31
436.949	432.31
437.17	413.31
437.392	398.31
437.614	408.31
437.835	431.31
438.057	502.31
438.278	508.31
438.5	515.31
438.721	565.31
438.943	539.31
439.165	454.31
439.386	447.31
439.608	435.31
439.829	447.31
440.05	435.31
440.272	467.31
440.493	460.31
440.715	439.31
440.936	447.31
441.158	441.31
441.379	435.31
441.6	460.31
441.822	455.31
442.043	482.31
442.264	532.31
442.486	534.31
442.707	490.31
442.928	475.31
443.149	475.31
443.371	467.31
443.592	502.31
443.813	528.31
444.034	576.31
444.255	509.31
444.476	503.31
444.698	507.31
444.919	488.31
445.14	575.31
445.361	548.31
445.582	506.31
445.803	528.31
446.024	554.31
446.245	564.31
446.466	512.31
446.687	453.31
446.908	425.31
447.129	402.31
447.35	423.31
447.571	399.31
447.792	413.31
448.013	399.31
448.234	411.31
448.455	436.31
448.675	481.31
448.896	565.31
449.117	483.31
449.338	464.31
449.559	532.31
449.779	583.31
450	471.31
450.221	441.31
450.442	423.31
450.662	405.31
450.883	407.31
451.104	394.31
451.324	387.31
451.545	398.31
451.766	393.31
451.986	376.31
452.207	361.31
452.428	368.31
452.648	372.31
452.869	355.31
453.089	360.31
453.31	381.31
453.53	375.31
453.751	363.31
453.971	349.31
454.192	375.31
454.412	350.31
454.633	370.31
454.853	350.31
455.073	362.31
455.294	385.31
455.514	412.31
455.734	379.31
455.955	369.31
456.175	357.31
456.395	370.31
456.616	359.31
456.836	338.31
457.056	360.31
457.276	355.31
457.497	359.31
457.717	343.31
457.937	358.31
458.157	350.31
458.377	368.31
458.598	384.31
458.818	416.31
459.038	456.31
459.258	470.31
459.478	401.31
459.698	409.31
459.918	430.31
460.138	423.31
460.358	430.31
460.578	439.31
460.798	457.31
461.018	450.31
461.238	434.31
461.458	437.31
461.678	427.31
461.898	433.31
462.118	461.31
462.338	445.31
462.558	466.31
462.777	484.31
462.997	506.31
463.217	532.31
463.437	533.31
463.657	497.31
463.876	480.31
464.096	477.31
464.316	487.31
464.536	506.31
464.755	491.31
464.975	461.31
465.195	455.31
465.414	487.31
465.634	456.31
465.854	434.31
466.073	405.31
466.293	403.31
466.512	400.31
466.732	375.31
466.951	374.31
467.171	390.31
467.391	380.31
467.61	370.31
467.829	393.31
468.049	391.31
468.268	390.31
468.488	384.31
468.707	369.31
468.927	382.31
469.146	372.31
469.365	377.31
469.585	393.31
469.804	392.31
470.023	396.31
470.243	366.31
470.462	394.31
470.681	423.31
470.901	422.31
471.12	398.31
471.339	392.31
471.558	390.31
471.777	380.31
471.997	366.31
472.216	418.31
472.435	453.31
472.654	426.31
472.873	397.31
473.092	388.31
473.311	365.31
473.53	410.31
473.749	389.31
473.968	410.31
474.187	438.31
474.406	474.31
474.625	404.31
474.844	388.31
475.063	391.31
475.282	377.31
475.501	383.31
475.72	390.31
475.939	370.31
476.158	386.31
476.377	389.31
476.596	392.31
476.814	398.31
477.033	406.31
477.252	395.31
477.471	426.31
477.69	431.31
477.908	451.31
478.127	437.31
478.346	431.31
478.564	446.31
478.783	423.31
479.002	445.31
479.22	455.31
479.439	468.31
479.658	446.31
479.876	456.31
480.095	475.31
480.313	490.31
480.532	510.31
480.751	493.31
480.969	512.31
481.188	568.31
481.406	593.31
481.624	532.31
481.843	474.31
482.061	457.31
482.28	447.31
482.498	454.31
482.717	437.31
482.935	435.31
483.153	442.31
483.372	430.31
483.59	437.31
483.808	435.31
484.027	432.31
484.245	436.31
484.463	444.31
484.681	424.31
484.9	433.31
485.118	444.31
485.336	429.31
485.554	449.31
485.772	461.31
485.99	459.31
486.209	442.31
486.427	455.31
486.645	443.31
486.863	466.31
487.081	470.31
487.299	469.31
487.517	478.31
487.735	475.31
487.953	459.31
488.171	484.31
488.389	458.31
488.607	455.31
488.825	477.31
489.043	470.31
489.261	463.31
489.479	469.31
489.696	474.31
489.914	470.31
490.132	474.31
490.35	468.31
490.568	486.31
490.786	492.31
491.003	484.31
491.221	523.31
491.439	499.31
491.657	516.31
491.874	526.31
492.092	524.31
492.31	509.31
492.527	521.31
492.745	532.31
492.963	534.31
493.18	522.31
493.398	536.31
493.615	546.31
493.833	556.31
494.05	540.31
494.268	541.31
494.485	520.31
494.703	527.31
494.92	509.31
495.138	525.31
495.355	531.31
495.573	527.31
495.79	530.31
496.008	543.31
496.225	526.31
496.442	556.31
496.66	555.31
496.877	538.31
497.094	562.31
497.312	536.31
497.529	566.31
497.746	554.31
497.963	583.31
498.181	596.31
498.398	588.31
498.615	630.31
498.832	672.31
499.049	701.31
499.267	714.31
499.484	780.31
499.701	814.31
499.918	828.31
500.135	887.31
500.352	1018.31
500.569	1049.31
500.786	1060.31
501.003	1005.31
501.22	948.31
501.437	868.31
501.654	822.31
501.871	748.31
502.088	715.31
