Data from 1984.PennyLincolnUp.Lamp.En5.5.200Scan.071819.P1_HRD10591_16-58-34-968.txt Node
Date: Thu Jul 18 16:58:34 EDT 2019
User: cochatt
Spectrometer: HR+D1059
Trigger mode: 1
Integration Time (sec): 1.000000E-1
Scans to average: 1
Electric dark correction enabled: true
Nonlinearity correction enabled: false
Boxcar width: 0
XAxis mode: Wavelengths
Number of Pixels in Spectrum: 2048
>>>>>Begin Spectral Data<<<<<
223.165	-24.5
223.4	-24.5
223.635	-24.5
223.869	-16.5
224.104	-20.5
224.338	-26.5
224.573	-6.5
224.808	-9.5
225.042	-14.5
225.277	2.5
225.511	0.5
225.746	1.5
225.98	8.5
226.215	11.5
226.449	22.5
226.683	17.5
226.918	20.5
227.152	33.5
227.387	36.5
227.621	36.5
227.856	48.5
228.09	40.5
228.324	60.5
228.559	65.5
228.793	62.5
229.027	70.5
229.262	91.5
229.496	93.5
229.73	103.5
229.964	131.5
230.199	116.5
230.433	98.5
230.667	108.5
230.901	121.5
231.136	118.5
231.37	117.5
231.604	115.5
231.838	130.5
232.072	93.5
232.306	113.5
232.541	111.5
232.775	122.5
233.009	133.5
233.243	129.5
233.477	105.5
233.711	100.5
233.945	114.5
234.179	115.5
234.413	114.5
234.647	125.5
234.881	118.5
235.115	100.5
235.349	121.5
235.583	113.5
235.817	114.5
236.051	122.5
236.285	104.5
236.519	129.5
236.753	123.5
236.987	121.5
237.221	129.5
237.455	157.5
237.689	156.5
237.922	133.5
238.156	121.5
238.39	123.5
238.624	112.5
238.858	117.5
239.091	115.5
239.325	131.5
239.559	118.5
239.793	105.5
240.027	121.5
240.26	124.5
240.494	145.5
240.728	122.5
240.961	133.5
241.195	133.5
241.429	125.5
241.662	115.5
241.896	133.5
242.13	131.5
242.363	124.5
242.597	147.5
242.83	136.5
243.064	121.5
243.298	139.5
243.531	124.5
243.765	123.5
243.998	129.5
244.232	120.5
244.465	129.5
244.699	138.5
244.932	126.5
245.166	132.5
245.399	136.5
245.633	139.5
245.866	150.5
246.099	134.5
246.333	139.5
246.566	132.5
246.8	127.5
247.033	137.5
247.266	148.5
247.5	163.5
247.733	157.5
247.966	153.5
248.2	140.5
248.433	154.5
248.666	167.5
248.899	162.5
249.133	166.5
249.366	180.5
249.599	177.5
249.832	172.5
250.066	172.5
250.299	159.5
250.532	185.5
250.765	205.5
250.998	208.5
251.231	193.5
251.465	186.5
251.698	181.5
251.931	174.5
252.164	171.5
252.397	187.5
252.63	177.5
252.863	183.5
253.096	183.5
253.329	189.5
253.562	188.5
253.795	188.5
254.028	170.5
254.261	188.5
254.494	204.5
254.727	215.5
254.96	238.5
255.193	224.5
255.426	206.5
255.659	210.5
255.892	215.5
256.124	228.5
256.357	254.5
256.59	211.5
256.823	195.5
257.056	211.5
257.289	200.5
257.521	182.5
257.754	170.5
257.987	169.5
258.22	186.5
258.452	195.5
258.685	181.5
258.918	192.5
259.151	192.5
259.383	207.5
259.616	199.5
259.849	189.5
260.081	209.5
260.314	213.5
260.547	208.5
260.779	218.5
261.012	206.5
261.244	194.5
261.477	207.5
261.71	187.5
261.942	214.5
262.175	211.5
262.407	184.5
262.64	183.5
262.872	198.5
263.105	187.5
263.337	201.5
263.57	197.5
263.802	186.5
264.035	196.5
264.267	211.5
264.499	193.5
264.732	189.5
264.964	210.5
265.197	213.5
265.429	206.5
265.661	203.5
265.894	200.5
266.126	220.5
266.358	201.5
266.591	197.5
266.823	205.5
267.055	211.5
267.287	213.5
267.52	197.5
267.752	201.5
267.984	195.5
268.216	213.5
268.448	208.5
268.681	222.5
268.913	212.5
269.145	237.5
269.377	230.5
269.609	227.5
269.841	229.5
270.073	249.5
270.306	247.5
270.538	264.5
270.77	243.5
271.002	255.5
271.234	234.5
271.466	265.5
271.698	262.5
271.93	259.5
272.162	263.5
272.394	278.5
272.626	252.5
272.858	241.5
273.09	237.5
273.322	237.5
273.553	252.5
273.785	240.5
274.017	249.5
274.249	226.5
274.481	246.5
274.713	255.5
274.945	242.5
275.176	259.5
275.408	272.5
275.64	232.5
275.872	238.5
276.104	245.5
276.335	249.5
276.567	244.5
276.799	263.5
277.031	278.5
277.262	279.5
277.494	269.5
277.726	268.5
277.957	254.5
278.189	232.5
278.421	277.5
278.652	246.5
278.884	239.5
279.115	267.5
279.347	259.5
279.579	264.5
279.81	260.5
280.042	257.5
280.273	248.5
280.505	262.5
280.736	249.5
280.968	256.5
281.199	265.5
281.431	251.5
281.662	267.5
281.894	250.5
282.125	268.5
282.356	275.5
282.588	285.5
282.819	269.5
283.051	273.5
283.282	239.5
283.513	265.5
283.745	263.5
283.976	262.5
284.207	285.5
284.439	279.5
284.67	274.5
284.901	272.5
285.132	270.5
285.364	255.5
285.595	265.5
285.826	261.5
286.057	280.5
286.288	268.5
286.52	273.5
286.751	253.5
286.982	269.5
287.213	275.5
287.444	294.5
287.675	264.5
287.906	270.5
288.138	290.5
288.369	264.5
288.6	292.5
288.831	283.5
289.062	272.5
289.293	287.5
289.524	287.5
289.755	293.5
289.986	291.5
290.217	268.5
290.448	277.5
290.679	279.5
290.91	278.5
291.141	271.5
291.371	288.5
291.602	289.5
291.833	269.5
292.064	290.5
292.295	285.5
292.526	266.5
292.757	284.5
292.987	296.5
293.218	289.5
293.449	293.5
293.68	285.5
293.91	266.5
294.141	286.5
294.372	288.5
294.603	264.5
294.833	293.5
295.064	298.5
295.295	289.5
295.525	291.5
295.756	305.5
295.987	303.5
296.217	302.5
296.448	294.5
296.679	310.5
296.909	306.5
297.14	282.5
297.37	301.5
297.601	283.5
297.831	293.5
298.062	289.5
298.292	303.5
298.523	284.5
298.753	301.5
298.984	298.5
299.214	308.5
299.445	309.5
299.675	309.5
299.905	297.5
300.136	313.5
300.366	319.5
300.597	298.5
300.827	304.5
301.057	313.5
301.288	306.5
301.518	329.5
301.748	324.5
301.979	331.5
302.209	301.5
302.439	307.5
302.669	292.5
302.9	322.5
303.13	312.5
303.36	323.5
303.59	323.5
303.82	318.5
304.051	323.5
304.281	310.5
304.511	310.5
304.741	291.5
304.971	325.5
305.201	316.5
305.431	310.5
305.661	334.5
305.891	301.5
306.121	337.5
306.352	313.5
306.582	308.5
306.812	317.5
307.042	301.5
307.272	306.5
307.502	321.5
307.731	333.5
307.961	348.5
308.191	315.5
308.421	311.5
308.651	335.5
308.881	327.5
309.111	312.5
309.341	317.5
309.571	321.5
309.8	335.5
310.03	334.5
310.26	335.5
310.49	337.5
310.72	342.5
310.949	354.5
311.179	359.5
311.409	358.5
311.639	335.5
311.868	330.5
312.098	348.5
312.328	337.5
312.557	372.5
312.787	361.5
313.017	365.5
313.246	354.5
313.476	354.5
313.706	345.5
313.935	346.5
314.165	351.5
314.394	371.5
314.624	361.5
314.853	357.5
315.083	365.5
315.312	340.5
315.542	349.5
315.771	335.5
316.001	348.5
316.23	351.5
316.46	333.5
316.689	350.5
316.919	337.5
317.148	355.5
317.377	354.5
317.607	352.5
317.836	354.5
318.065	345.5
318.295	358.5
318.524	348.5
318.753	343.5
318.983	345.5
319.212	339.5
319.441	349.5
319.67	341.5
319.9	377.5
320.129	342.5
320.358	347.5
320.587	366.5
320.816	371.5
321.046	357.5
321.275	372.5
321.504	370.5
321.733	371.5
321.962	371.5
322.191	374.5
322.42	384.5
322.649	386.5
322.878	387.5
323.108	377.5
323.337	407.5
323.566	449.5
323.795	441.5
324.024	456.5
324.253	512.5
324.482	723.5
324.71	1037.5
324.939	1419.5
325.168	1228.5
325.397	685.5
325.626	528.5
325.855	465.5
326.084	445.5
326.313	435.5
326.542	441.5
326.77	471.5
326.999	541.5
327.228	673.5
327.457	921.5
327.686	1118.5
327.914	760.5
328.143	558.5
328.372	501.5
328.6	487.5
328.829	473.5
329.058	476.5
329.287	486.5
329.515	465.5
329.744	467.5
329.972	472.5
330.201	480.5
330.43	522.5
330.658	539.5
330.887	523.5
331.115	512.5
331.344	455.5
331.572	417.5
331.801	442.5
332.03	434.5
332.258	440.5
332.486	447.5
332.715	427.5
332.943	441.5
333.172	462.5
333.4	470.5
333.629	473.5
333.857	497.5
334.085	501.5
334.314	527.5
334.542	593.5
334.771	577.5
334.999	518.5
335.227	488.5
335.455	474.5
335.684	453.5
335.912	441.5
336.14	412.5
336.369	420.5
336.597	441.5
336.825	439.5
337.053	426.5
337.281	431.5
337.51	402.5
337.738	425.5
337.966	397.5
338.194	416.5
338.422	397.5
338.65	399.5
338.878	405.5
339.106	411.5
339.334	390.5
339.562	392.5
339.79	378.5
340.018	378.5
340.246	379.5
340.474	395.5
340.702	401.5
340.93	391.5
341.158	396.5
341.386	391.5
341.614	380.5
341.842	393.5
342.07	378.5
342.298	365.5
342.526	366.5
342.754	382.5
342.981	387.5
343.209	382.5
343.437	391.5
343.665	412.5
343.893	444.5
344.12	434.5
344.348	432.5
344.576	409.5
344.804	417.5
345.031	399.5
345.259	394.5
345.487	388.5
345.714	383.5
345.942	373.5
346.17	375.5
346.397	368.5
346.625	379.5
346.853	355.5
347.08	362.5
347.308	377.5
347.535	371.5
347.763	358.5
347.99	380.5
348.218	379.5
348.445	393.5
348.673	379.5
348.9	374.5
349.128	363.5
349.355	377.5
349.583	371.5
349.81	341.5
350.037	359.5
350.265	358.5
350.492	382.5
350.72	385.5
350.947	358.5
351.174	376.5
351.402	348.5
351.629	355.5
351.856	387.5
352.083	373.5
352.311	366.5
352.538	373.5
352.765	393.5
352.992	371.5
353.22	383.5
353.447	363.5
353.674	375.5
353.901	349.5
354.128	353.5
354.355	342.5
354.583	350.5
354.81	342.5
355.037	337.5
355.264	351.5
355.491	353.5
355.718	343.5
355.945	354.5
356.172	350.5
356.399	355.5
356.626	361.5
356.853	354.5
357.08	347.5
357.307	344.5
357.534	358.5
357.761	355.5
357.988	345.5
358.215	349.5
358.441	346.5
358.668	341.5
358.895	352.5
359.122	356.5
359.349	345.5
359.576	366.5
359.802	389.5
360.029	379.5
360.256	393.5
360.483	385.5
360.709	385.5
360.936	378.5
361.163	362.5
361.39	354.5
361.616	353.5
361.843	356.5
362.07	368.5
362.296	357.5
362.523	347.5
362.749	366.5
362.976	350.5
363.203	375.5
363.429	355.5
363.656	349.5
363.882	342.5
364.109	359.5
364.335	341.5
364.562	371.5
364.788	337.5
365.015	360.5
365.241	350.5
365.468	358.5
365.694	343.5
365.92	354.5
366.147	340.5
366.373	357.5
366.599	330.5
366.826	342.5
367.052	335.5
367.278	348.5
367.505	339.5
367.731	354.5
367.957	364.5
368.184	358.5
368.41	356.5
368.636	386.5
368.862	371.5
369.089	369.5
369.315	356.5
369.541	340.5
369.767	359.5
369.993	369.5
370.219	355.5
370.445	338.5
370.672	341.5
370.898	375.5
371.124	354.5
371.35	354.5
371.576	366.5
371.802	351.5
372.028	354.5
372.254	375.5
372.48	356.5
372.706	362.5
372.932	382.5
373.158	376.5
373.384	360.5
373.61	367.5
373.835	366.5
374.061	359.5
374.287	362.5
374.513	376.5
374.739	365.5
374.965	383.5
375.191	381.5
375.416	383.5
375.642	355.5
375.868	377.5
376.094	364.5
376.319	363.5
376.545	374.5
376.771	346.5
376.997	347.5
377.222	344.5
377.448	358.5
377.674	355.5
377.899	347.5
378.125	357.5
378.35	331.5
378.576	357.5
378.802	345.5
379.027	354.5
379.253	361.5
379.478	358.5
379.704	347.5
379.929	356.5
380.155	363.5
380.38	364.5
380.606	344.5
380.831	349.5
381.057	370.5
381.282	373.5
381.507	370.5
381.733	372.5
381.958	357.5
382.184	369.5
382.409	373.5
382.634	355.5
382.86	364.5
383.085	364.5
383.31	364.5
383.535	370.5
383.761	368.5
383.986	389.5
384.211	390.5
384.436	381.5
384.662	392.5
384.887	380.5
385.112	391.5
385.337	392.5
385.562	393.5
385.787	394.5
386.013	404.5
386.238	404.5
386.463	420.5
386.688	397.5
386.913	396.5
387.138	382.5
387.363	421.5
387.588	386.5
387.813	396.5
388.038	407.5
388.263	395.5
388.488	409.5
388.713	398.5
388.938	391.5
389.163	390.5
389.387	412.5
389.612	395.5
389.837	389.5
390.062	390.5
390.287	386.5
390.512	394.5
390.736	403.5
390.961	406.5
391.186	409.5
391.411	409.5
391.636	414.5
391.86	427.5
392.085	430.5
392.31	417.5
392.534	413.5
392.759	437.5
392.984	418.5
393.208	414.5
393.433	407.5
393.658	417.5
393.882	403.5
394.107	396.5
394.331	416.5
394.556	417.5
394.78	416.5
395.005	420.5
395.229	411.5
395.454	424.5
395.678	441.5
395.903	437.5
396.127	428.5
396.352	447.5
396.576	411.5
396.801	423.5
397.025	428.5
397.249	446.5
397.474	439.5
397.698	418.5
397.922	440.5
398.147	443.5
398.371	455.5
398.595	447.5
398.82	473.5
399.044	508.5
399.268	513.5
399.492	543.5
399.717	606.5
399.941	616.5
400.165	614.5
400.389	582.5
400.613	543.5
400.837	478.5
401.062	487.5
401.286	477.5
401.51	475.5
401.734	469.5
401.958	493.5
402.182	477.5
402.406	497.5
402.63	477.5
402.854	509.5
403.078	487.5
403.302	501.5
403.526	522.5
403.75	530.5
403.974	530.5
404.198	506.5
404.422	534.5
404.645	511.5
404.869	537.5
405.093	561.5
405.317	565.5
405.541	595.5
405.765	541.5
405.988	521.5
406.212	544.5
406.436	534.5
406.66	550.5
406.883	523.5
407.107	548.5
407.331	599.5
407.555	628.5
407.778	655.5
408.002	598.5
408.226	576.5
408.449	552.5
408.673	524.5
408.896	519.5
409.12	569.5
409.344	540.5
409.567	525.5
409.791	494.5
410.014	489.5
410.238	492.5
410.461	497.5
410.685	497.5
410.908	498.5
411.132	506.5
411.355	524.5
411.578	513.5
411.802	489.5
412.025	501.5
412.249	526.5
412.472	530.5
412.695	553.5
412.919	543.5
413.142	513.5
413.365	501.5
413.589	489.5
413.812	480.5
414.035	453.5
414.258	467.5
414.482	453.5
414.705	462.5
414.928	485.5
415.151	495.5
415.374	451.5
415.597	472.5
415.821	468.5
416.044	454.5
416.267	460.5
416.49	468.5
416.713	456.5
416.936	463.5
417.159	457.5
417.382	473.5
417.605	484.5
417.828	472.5
418.051	482.5
418.274	468.5
418.497	481.5
418.72	469.5
418.943	480.5
419.166	485.5
419.389	507.5
419.611	526.5
419.834	490.5
420.057	491.5
420.28	485.5
420.503	493.5
420.726	477.5
420.948	506.5
421.171	531.5
421.394	523.5
421.617	476.5
421.839	499.5
422.062	481.5
422.285	483.5
422.507	511.5
422.73	571.5
422.953	545.5
423.175	513.5
423.398	519.5
423.621	512.5
423.843	491.5
424.066	497.5
424.288	490.5
424.511	529.5
424.733	544.5
424.956	574.5
425.178	543.5
425.401	553.5
425.623	556.5
425.846	520.5
426.068	470.5
426.291	474.5
426.513	462.5
426.735	478.5
426.958	505.5
427.18	541.5
427.402	631.5
427.625	668.5
427.847	586.5
428.069	567.5
428.292	502.5
428.514	470.5
428.736	450.5
428.958	466.5
429.181	457.5
429.403	438.5
429.625	445.5
429.847	467.5
430.069	504.5
430.292	506.5
430.514	443.5
430.736	461.5
430.958	453.5
431.18	422.5
431.402	430.5
431.624	427.5
431.846	433.5
432.068	431.5
432.29	422.5
432.512	414.5
432.734	431.5
432.956	439.5
433.178	450.5
433.4	420.5
433.622	439.5
433.844	436.5
434.066	425.5
434.287	415.5
434.509	456.5
434.731	459.5
434.953	464.5
435.175	472.5
435.397	482.5
435.618	457.5
435.84	491.5
436.062	537.5
436.284	587.5
436.505	503.5
436.727	447.5
436.949	449.5
437.17	457.5
437.392	440.5
437.614	435.5
437.835	457.5
438.057	500.5
438.278	563.5
438.5	561.5
438.721	590.5
438.943	583.5
439.165	509.5
439.386	474.5
439.608	468.5
439.829	475.5
440.05	449.5
440.272	508.5
440.493	487.5
440.715	476.5
440.936	454.5
441.158	470.5
441.379	476.5
441.6	484.5
441.822	474.5
442.043	489.5
442.264	540.5
442.486	558.5
442.707	501.5
442.928	485.5
443.149	501.5
443.371	510.5
443.592	523.5
443.813	583.5
444.034	619.5
444.255	530.5
444.476	497.5
444.698	532.5
444.919	540.5
445.14	620.5
445.361	570.5
445.582	524.5
445.803	537.5
446.024	593.5
446.245	569.5
446.466	533.5
446.687	481.5
446.908	449.5
447.129	458.5
447.35	438.5
447.571	435.5
447.792	428.5
448.013	415.5
448.234	419.5
448.455	461.5
448.675	511.5
448.896	588.5
449.117	522.5
449.338	505.5
449.559	561.5
449.779	613.5
450	534.5
450.221	426.5
450.442	419.5
450.662	425.5
450.883	403.5
451.104	436.5
451.324	430.5
451.545	400.5
451.766	381.5
451.986	404.5
452.207	370.5
452.428	403.5
452.648	405.5
452.869	395.5
453.089	391.5
453.31	388.5
453.53	401.5
453.751	383.5
453.971	383.5
454.192	395.5
454.412	377.5
454.633	365.5
454.853	413.5
455.073	381.5
455.294	378.5
455.514	422.5
455.734	427.5
455.955	379.5
456.175	366.5
456.395	345.5
456.616	370.5
456.836	374.5
457.056	371.5
457.276	376.5
457.497	381.5
457.717	365.5
457.937	372.5
458.157	383.5
458.377	386.5
458.598	417.5
458.818	413.5
459.038	457.5
459.258	487.5
459.478	451.5
459.698	429.5
459.918	441.5
460.138	455.5
460.358	474.5
460.578	475.5
460.798	461.5
461.018	462.5
461.238	462.5
461.458	458.5
461.678	444.5
461.898	464.5
462.118	482.5
462.338	486.5
462.558	479.5
462.777	526.5
462.997	527.5
463.217	574.5
463.437	559.5
463.657	532.5
463.876	508.5
464.096	513.5
464.316	503.5
464.536	500.5
464.755	518.5
464.975	495.5
465.195	523.5
465.414	525.5
465.634	475.5
465.854	458.5
466.073	446.5
466.293	398.5
466.512	423.5
466.732	423.5
466.951	402.5
467.171	409.5
467.391	402.5
467.61	423.5
467.829	429.5
468.049	435.5
468.268	407.5
468.488	422.5
468.707	409.5
468.927	380.5
469.146	392.5
469.365	395.5
469.585	393.5
469.804	392.5
470.023	412.5
470.243	396.5
470.462	422.5
470.681	416.5
470.901	414.5
471.12	414.5
471.339	414.5
471.558	423.5
471.777	435.5
471.997	409.5
472.216	442.5
472.435	447.5
472.654	421.5
472.873	402.5
473.092	417.5
473.311	400.5
473.53	415.5
473.749	423.5
473.968	435.5
474.187	473.5
474.406	501.5
474.625	427.5
474.844	413.5
475.063	398.5
475.282	401.5
475.501	401.5
475.72	389.5
475.939	404.5
476.158	411.5
476.377	394.5
476.596	419.5
476.814	403.5
477.033	414.5
477.252	412.5
477.471	445.5
477.69	444.5
477.908	432.5
478.127	443.5
478.346	458.5
478.564	463.5
478.783	457.5
479.002	454.5
479.22	474.5
479.439	486.5
479.658	472.5
479.876	506.5
480.095	495.5
480.313	516.5
480.532	550.5
480.751	496.5
480.969	522.5
481.188	585.5
481.406	578.5
481.624	523.5
481.843	497.5
482.061	473.5
482.28	481.5
482.498	476.5
482.717	468.5
482.935	444.5
483.153	471.5
483.372	457.5
483.59	463.5
483.808	458.5
484.027	450.5
484.245	466.5
484.463	472.5
484.681	457.5
484.9	469.5
485.118	481.5
485.336	481.5
485.554	455.5
485.772	518.5
485.99	499.5
486.209	487.5
486.427	505.5
486.645	485.5
486.863	497.5
487.081	486.5
487.299	494.5
487.517	468.5
487.735	482.5
487.953	470.5
488.171	472.5
488.389	473.5
488.607	495.5
488.825	489.5
489.043	487.5
489.261	493.5
489.479	499.5
489.696	498.5
489.914	488.5
490.132	499.5
490.35	507.5
490.568	521.5
490.786	492.5
491.003	524.5
491.221	537.5
491.439	536.5
491.657	510.5
491.874	545.5
492.092	541.5
492.31	542.5
492.527	555.5
492.745	557.5
492.963	553.5
493.18	557.5
493.398	551.5
493.615	569.5
493.833	584.5
494.05	541.5
494.268	541.5
494.485	559.5
494.703	554.5
494.92	543.5
495.138	571.5
495.355	549.5
495.573	581.5
495.79	536.5
496.008	573.5
496.225	566.5
496.442	561.5
496.66	555.5
496.877	567.5
497.094	565.5
497.312	587.5
497.529	616.5
497.746	599.5
497.963	620.5
498.181	628.5
498.398	629.5
498.615	665.5
498.832	679.5
499.049	700.5
499.267	757.5
499.484	807.5
499.701	831.5
499.918	883.5
500.135	982.5
500.352	1038.5
500.569	1076.5
500.786	1110.5
501.003	1051.5
501.22	981.5
501.437	897.5
501.654	845.5
501.871	836.5
502.088	761.5
502.305	721.5
502.522	709.5
502.739	681.5
502.956	642.5
503.172	635.5
503.389	604.5
503.606	602.5
503.823	621.5
504.04	579.5
504.256	593.5
504.473	586.5
504.69	602.5
504.907	610.5
505.123	561.5
505.34	543.5
505.557	505.5
505.773	540.5
505.99	539.5
506.207	521.5
506.423	500.5
506.64	518.5
506.856	511.5
507.073	531.5
507.289	513.5
507.506	501.5
507.722	497.5
507.939	526.5
508.155	489.5
508.372	483.5
508.588	489.5
508.805	480.5
509.021	485.5
509.238	494.5
509.454	500.5
509.67	485.5
509.887	497.5
510.103	469.5
510.319	477.5
510.536	537.5
510.752	849.5
510.968	657.5
511.184	482.5
511.401	477.5
511.617	482.5
511.833	462.5
512.049	478.5
512.265	485.5
512.481	467.5
512.698	461.5
512.914	448.5
513.13	453.5
513.346	473.5
513.562	455.5
513.778	466.5
513.994	463.5
514.21	481.5
514.426	467.5
514.642	485.5
514.858	509.5
515.074	543.5
515.29	581.5
515.506	815.5
515.721	690.5
515.937	547.5
516.153	490.5
516.369	522.5
516.585	518.5
516.801	516.5
517.016	531.5
517.232	533.5
517.448	562.5
517.664	527.5
517.879	553.5
518.095	547.5
518.311	539.5
518.527	533.5
518.742	516.5
518.958	498.5
519.173	488.5
519.389	478.5
519.605	475.5
519.82	476.5
520.036	471.5
