Data from 1984.PennyLincolnUp.Lamp.En5.5.200Scan.071819.P1_HRD10591_16-59-11-968.txt Node
Date: Thu Jul 18 16:59:11 EDT 2019
User: cochatt
Spectrometer: HR+D1059
Trigger mode: 1
Integration Time (sec): 1.000000E-1
Scans to average: 1
Electric dark correction enabled: true
Nonlinearity correction enabled: false
Boxcar width: 0
XAxis mode: Wavelengths
Number of Pixels in Spectrum: 2048
>>>>>Begin Spectral Data<<<<<
223.165	-24.69
223.4	-24.69
223.635	-24.69
223.869	-13.69
224.104	-8.69
224.338	-5.69
224.573	-5.69
224.808	-9.69
225.042	-9.69
225.277	-14.69
225.511	-8.69
225.746	7.31
225.98	5.31
226.215	10.31
226.449	23.31
226.683	4.31
226.918	26.31
227.152	24.31
227.387	23.31
227.621	36.31
227.856	42.31
228.09	42.31
228.324	39.31
228.559	38.31
228.793	62.31
229.027	82.31
229.262	79.31
229.496	108.31
229.73	102.31
229.964	119.31
230.199	118.31
230.433	91.31
230.667	110.31
230.901	98.31
231.136	87.31
231.37	116.31
231.604	96.31
231.838	98.31
232.072	114.31
232.306	113.31
232.541	105.31
232.775	118.31
233.009	106.31
233.243	108.31
233.477	116.31
233.711	121.31
233.945	82.31
234.179	113.31
234.413	108.31
234.647	106.31
234.881	104.31
235.115	115.31
235.349	110.31
235.583	115.31
235.817	104.31
236.051	105.31
236.285	106.31
236.519	134.31
236.753	107.31
236.987	126.31
237.221	139.31
237.455	149.31
237.689	129.31
237.922	133.31
238.156	124.31
238.39	122.31
238.624	111.31
238.858	120.31
239.091	113.31
239.325	118.31
239.559	105.31
239.793	115.31
240.027	106.31
240.26	130.31
240.494	133.31
240.728	142.31
240.961	134.31
241.195	125.31
241.429	132.31
241.662	121.31
241.896	119.31
242.13	114.31
242.363	120.31
242.597	121.31
242.83	119.31
243.064	128.31
243.298	122.31
243.531	124.31
243.765	122.31
243.998	134.31
244.232	140.31
244.465	151.31
244.699	139.31
244.932	140.31
245.166	131.31
245.399	118.31
245.633	138.31
245.866	137.31
246.099	138.31
246.333	135.31
246.566	131.31
246.8	139.31
247.033	136.31
247.266	138.31
247.5	140.31
247.733	158.31
247.966	166.31
248.2	140.31
248.433	147.31
248.666	151.31
248.899	153.31
249.133	167.31
249.366	157.31
249.599	188.31
249.832	165.31
250.066	148.31
250.299	149.31
250.532	184.31
250.765	188.31
250.998	208.31
251.231	196.31
251.465	187.31
251.698	161.31
251.931	174.31
252.164	162.31
252.397	194.31
252.63	186.31
252.863	161.31
253.096	169.31
253.329	183.31
253.562	176.31
253.795	182.31
254.028	188.31
254.261	192.31
254.494	195.31
254.727	214.31
254.96	215.31
255.193	194.31
255.426	204.31
255.659	210.31
255.892	218.31
256.124	219.31
256.357	263.31
256.59	225.31
256.823	213.31
257.056	192.31
257.289	200.31
257.521	180.31
257.754	187.31
257.987	176.31
258.22	170.31
258.452	174.31
258.685	174.31
258.918	182.31
259.151	181.31
259.383	187.31
259.616	180.31
259.849	190.31
260.081	188.31
260.314	216.31
260.547	216.31
260.779	200.31
261.012	204.31
261.244	180.31
261.477	198.31
261.71	199.31
261.942	194.31
262.175	218.31
262.407	195.31
262.64	186.31
262.872	185.31
263.105	187.31
263.337	186.31
263.57	200.31
263.802	208.31
264.035	183.31
264.267	208.31
264.499	212.31
264.732	190.31
264.964	194.31
265.197	203.31
265.429	187.31
265.661	226.31
265.894	197.31
266.126	202.31
266.358	197.31
266.591	200.31
266.823	195.31
267.055	201.31
267.287	209.31
267.52	220.31
267.752	199.31
267.984	209.31
268.216	206.31
268.448	207.31
268.681	203.31
268.913	208.31
269.145	210.31
269.377	235.31
269.609	217.31
269.841	227.31
270.073	241.31
270.306	234.31
270.538	240.31
270.77	249.31
271.002	262.31
271.234	233.31
271.466	239.31
271.698	262.31
271.93	262.31
272.162	259.31
272.394	255.31
272.626	247.31
272.858	258.31
273.09	227.31
273.322	226.31
273.553	235.31
273.785	254.31
274.017	217.31
274.249	243.31
274.481	226.31
274.713	223.31
274.945	244.31
275.176	243.31
275.408	240.31
275.64	239.31
275.872	238.31
276.104	242.31
276.335	232.31
276.567	238.31
276.799	263.31
277.031	293.31
277.262	275.31
277.494	247.31
277.726	269.31
277.957	263.31
278.189	259.31
278.421	243.31
278.652	244.31
278.884	250.31
279.115	250.31
279.347	243.31
279.579	242.31
279.81	258.31
280.042	243.31
280.273	252.31
280.505	246.31
280.736	257.31
280.968	245.31
281.199	267.31
281.431	254.31
281.662	253.31
281.894	240.31
282.125	248.31
282.356	276.31
282.588	250.31
282.819	271.31
283.051	278.31
283.282	266.31
283.513	281.31
283.745	266.31
283.976	254.31
284.207	284.31
284.439	258.31
284.67	276.31
284.901	276.31
285.132	255.31
285.364	261.31
285.595	238.31
285.826	273.31
286.057	268.31
286.288	272.31
286.52	274.31
286.751	265.31
286.982	272.31
287.213	264.31
287.444	274.31
287.675	271.31
287.906	293.31
288.138	282.31
288.369	297.31
288.6	277.31
288.831	276.31
289.062	267.31
289.293	280.31
289.524	277.31
289.755	284.31
289.986	275.31
290.217	287.31
290.448	288.31
290.679	263.31
290.91	278.31
291.141	254.31
291.371	280.31
291.602	277.31
291.833	279.31
292.064	269.31
292.295	280.31
292.526	280.31
292.757	291.31
292.987	286.31
293.218	281.31
293.449	295.31
293.68	289.31
293.91	286.31
294.141	274.31
294.372	276.31
294.603	275.31
294.833	295.31
295.064	270.31
295.295	283.31
295.525	276.31
295.756	273.31
295.987	289.31
296.217	303.31
296.448	287.31
296.679	282.31
296.909	274.31
297.14	291.31
297.37	289.31
297.601	282.31
297.831	278.31
298.062	295.31
298.292	310.31
298.523	279.31
298.753	286.31
298.984	292.31
299.214	290.31
299.445	307.31
299.675	296.31
299.905	286.31
300.136	301.31
300.366	298.31
300.597	299.31
300.827	290.31
301.057	307.31
301.288	325.31
301.518	333.31
301.748	305.31
301.979	306.31
302.209	331.31
302.439	289.31
302.669	309.31
302.9	328.31
303.13	314.31
303.36	309.31
303.59	308.31
303.82	312.31
304.051	307.31
304.281	307.31
304.511	311.31
304.741	311.31
304.971	307.31
305.201	311.31
305.431	321.31
305.661	312.31
305.891	323.31
306.121	308.31
306.352	287.31
306.582	308.31
306.812	299.31
307.042	306.31
307.272	316.31
307.502	311.31
307.731	311.31
307.961	332.31
308.191	329.31
308.421	310.31
308.651	325.31
308.881	330.31
309.111	307.31
309.341	302.31
309.571	315.31
309.8	323.31
310.03	326.31
310.26	326.31
310.49	342.31
310.72	343.31
310.949	346.31
311.179	366.31
311.409	359.31
311.639	331.31
311.868	323.31
312.098	328.31
312.328	340.31
312.557	352.31
312.787	345.31
313.017	344.31
313.246	342.31
313.476	328.31
313.706	318.31
313.935	355.31
314.165	350.31
314.394	348.31
314.624	359.31
314.853	358.31
315.083	351.31
315.312	357.31
315.542	342.31
315.771	335.31
316.001	336.31
316.23	331.31
316.46	351.31
316.689	327.31
316.919	335.31
317.148	346.31
317.377	342.31
317.607	354.31
317.836	341.31
318.065	341.31
318.295	333.31
318.524	331.31
318.753	346.31
318.983	339.31
319.212	335.31
319.441	334.31
319.67	340.31
319.9	338.31
320.129	336.31
320.358	351.31
320.587	343.31
320.816	359.31
321.046	334.31
321.275	354.31
321.504	366.31
321.733	367.31
321.962	342.31
322.191	362.31
322.42	387.31
322.649	384.31
322.878	390.31
323.108	376.31
323.337	392.31
323.566	399.31
323.795	446.31
324.024	455.31
324.253	529.31
324.482	689.31
324.71	1001.31
324.939	1390.31
325.168	1198.31
325.397	653.31
325.626	502.31
325.855	452.31
326.084	443.31
326.313	432.31
326.542	433.31
326.77	438.31
326.999	509.31
327.228	666.31
327.457	944.31
327.686	1102.31
327.914	771.31
328.143	570.31
328.372	512.31
328.6	501.31
328.829	461.31
329.058	452.31
329.287	446.31
329.515	455.31
329.744	451.31
329.972	481.31
330.201	500.31
330.43	564.31
330.658	543.31
330.887	520.31
331.115	485.31
331.344	467.31
331.572	439.31
331.801	466.31
332.03	439.31
332.258	423.31
332.486	414.31
332.715	440.31
332.943	440.31
333.172	441.31
333.4	458.31
333.629	451.31
333.857	497.31
334.085	516.31
334.314	572.31
334.542	610.31
334.771	615.31
334.999	542.31
335.227	459.31
335.455	454.31
335.684	456.31
335.912	435.31
336.14	414.31
336.369	434.31
336.597	414.31
336.825	436.31
337.053	413.31
337.281	426.31
337.51	411.31
337.738	398.31
337.966	412.31
338.194	434.31
338.422	397.31
338.65	380.31
338.878	394.31
339.106	386.31
339.334	411.31
339.562	394.31
339.79	387.31
340.018	412.31
340.246	386.31
340.474	394.31
340.702	390.31
340.93	388.31
341.158	397.31
341.386	378.31
341.614	395.31
341.842	378.31
342.07	370.31
342.298	389.31
342.526	371.31
342.754	378.31
342.981	378.31
343.209	358.31
343.437	386.31
343.665	407.31
343.893	425.31
344.12	417.31
344.348	420.31
344.576	406.31
344.804	412.31
345.031	394.31
345.259	402.31
345.487	402.31
345.714	373.31
345.942	360.31
346.17	367.31
346.397	390.31
346.625	359.31
346.853	354.31
347.08	361.31
347.308	355.31
347.535	351.31
347.763	378.31
347.99	350.31
348.218	364.31
348.445	371.31
348.673	387.31
348.9	379.31
349.128	356.31
349.355	348.31
349.583	370.31
349.81	342.31
350.037	352.31
350.265	348.31
350.492	345.31
350.72	358.31
350.947	353.31
351.174	342.31
351.402	350.31
351.629	375.31
351.856	358.31
352.083	348.31
352.311	350.31
352.538	374.31
352.765	358.31
352.992	374.31
353.22	360.31
353.447	369.31
353.674	348.31
353.901	347.31
354.128	336.31
354.355	351.31
354.583	347.31
354.81	334.31
355.037	348.31
355.264	341.31
355.491	354.31
355.718	323.31
355.945	332.31
356.172	355.31
356.399	331.31
356.626	345.31
356.853	351.31
357.08	326.31
357.307	344.31
357.534	339.31
357.761	344.31
357.988	342.31
358.215	361.31
358.441	350.31
358.668	337.31
358.895	332.31
359.122	350.31
359.349	352.31
359.576	351.31
359.802	363.31
360.029	366.31
360.256	378.31
360.483	382.31
360.709	354.31
360.936	364.31
361.163	352.31
361.39	351.31
361.616	358.31
361.843	361.31
362.07	366.31
362.296	349.31
362.523	358.31
362.749	331.31
362.976	333.31
363.203	344.31
363.429	354.31
363.656	323.31
363.882	340.31
364.109	349.31
364.335	352.31
364.562	320.31
364.788	346.31
365.015	348.31
365.241	338.31
365.468	339.31
365.694	351.31
365.92	358.31
366.147	339.31
366.373	328.31
366.599	345.31
366.826	346.31
367.052	332.31
367.278	347.31
367.505	353.31
367.731	361.31
367.957	350.31
368.184	342.31
368.41	340.31
368.636	358.31
368.862	364.31
369.089	354.31
369.315	340.31
369.541	355.31
369.767	354.31
369.993	348.31
370.219	351.31
370.445	354.31
370.672	348.31
370.898	341.31
371.124	348.31
371.35	345.31
371.576	358.31
371.802	348.31
372.028	343.31
372.254	359.31
372.48	339.31
372.706	378.31
372.932	368.31
373.158	359.31
373.384	340.31
373.61	374.31
373.835	354.31
374.061	344.31
374.287	324.31
374.513	342.31
374.739	357.31
374.965	379.31
375.191	380.31
375.416	377.31
375.642	375.31
375.868	362.31
376.094	350.31
376.319	356.31
376.545	366.31
376.771	358.31
376.997	344.31
377.222	341.31
377.448	353.31
377.674	344.31
377.899	349.31
378.125	336.31
378.35	337.31
378.576	347.31
378.802	360.31
379.027	338.31
379.253	356.31
379.478	364.31
379.704	339.31
379.929	334.31
380.155	354.31
380.38	341.31
380.606	355.31
380.831	339.31
381.057	353.31
381.282	345.31
381.507	357.31
381.733	361.31
381.958	352.31
382.184	358.31
382.409	357.31
382.634	358.31
382.86	353.31
383.085	363.31
383.31	358.31
383.535	364.31
383.761	381.31
383.986	372.31
384.211	385.31
384.436	384.31
384.662	400.31
384.887	410.31
385.112	396.31
385.337	395.31
385.562	382.31
385.787	384.31
386.013	396.31
386.238	397.31
386.463	399.31
386.688	402.31
386.913	396.31
387.138	400.31
387.363	406.31
387.588	375.31
387.813	388.31
388.038	395.31
388.263	393.31
388.488	413.31
388.713	396.31
388.938	386.31
389.163	391.31
389.387	399.31
389.612	387.31
389.837	387.31
390.062	396.31
390.287	381.31
390.512	394.31
390.736	390.31
390.961	416.31
391.186	412.31
391.411	404.31
391.636	411.31
391.86	422.31
392.085	430.31
392.31	414.31
392.534	402.31
392.759	417.31
392.984	418.31
393.208	391.31
393.433	399.31
393.658	409.31
393.882	412.31
394.107	405.31
394.331	410.31
394.556	404.31
394.78	400.31
395.005	405.31
395.229	392.31
395.454	418.31
395.678	428.31
395.903	415.31
396.127	430.31
396.352	422.31
396.576	424.31
396.801	418.31
397.025	406.31
397.249	424.31
397.474	432.31
397.698	416.31
397.922	432.31
398.147	445.31
398.371	447.31
398.595	460.31
398.82	463.31
399.044	482.31
399.268	502.31
399.492	548.31
399.717	630.31
399.941	650.31
400.165	613.31
400.389	588.31
400.613	539.31
400.837	502.31
401.062	461.31
401.286	464.31
401.51	466.31
401.734	470.31
401.958	453.31
402.182	472.31
402.406	480.31
402.63	482.31
402.854	510.31
403.078	491.31
403.302	501.31
403.526	512.31
403.75	496.31
403.974	497.31
404.198	515.31
404.422	515.31
404.645	522.31
404.869	551.31
405.093	552.31
405.317	578.31
405.541	608.31
405.765	548.31
405.988	524.31
406.212	528.31
406.436	539.31
406.66	537.31
406.883	518.31
407.107	562.31
407.331	574.31
407.555	614.31
407.778	627.31
408.002	566.31
408.226	542.31
408.449	524.31
408.673	519.31
408.896	514.31
409.12	579.31
409.344	537.31
409.567	484.31
409.791	520.31
410.014	515.31
410.238	460.31
410.461	483.31
410.685	498.31
410.908	518.31
411.132	486.31
411.355	505.31
411.578	516.31
411.802	487.31
412.025	480.31
412.249	516.31
412.472	509.31
412.695	579.31
412.919	543.31
413.142	528.31
413.365	524.31
413.589	495.31
413.812	463.31
414.035	456.31
414.258	481.31
414.482	471.31
414.705	469.31
414.928	467.31
415.151	468.31
415.374	479.31
415.597	443.31
415.821	464.31
416.044	463.31
416.267	454.31
416.49	443.31
416.713	439.31
416.936	448.31
417.159	451.31
417.382	460.31
417.605	448.31
417.828	470.31
418.051	477.31
418.274	470.31
418.497	461.31
418.72	479.31
418.943	437.31
419.166	482.31
419.389	512.31
419.611	495.31
419.834	510.31
420.057	516.31
420.28	513.31
420.503	522.31
420.726	507.31
420.948	479.31
421.171	495.31
421.394	495.31
421.617	479.31
421.839	473.31
422.062	478.31
422.285	489.31
422.507	515.31
422.73	536.31
422.953	526.31
423.175	500.31
423.398	496.31
423.621	495.31
423.843	510.31
424.066	514.31
424.288	483.31
424.511	492.31
424.733	529.31
424.956	571.31
425.178	555.31
425.401	538.31
425.623	551.31
425.846	485.31
426.068	476.31
426.291	473.31
426.513	466.31
426.735	475.31
426.958	496.31
427.18	547.31
427.402	627.31
427.625	667.31
427.847	577.31
428.069	583.31
428.292	499.31
428.514	470.31
428.736	458.31
428.958	436.31
429.181	431.31
429.403	445.31
429.625	443.31
429.847	448.31
430.069	480.31
430.292	485.31
430.514	444.31
430.736	433.31
430.958	404.31
431.18	427.31
431.402	410.31
431.624	414.31
431.846	397.31
432.068	399.31
432.29	421.31
432.512	425.31
432.734	430.31
432.956	404.31
433.178	420.31
433.4	420.31
433.622	415.31
433.844	432.31
434.066	422.31
434.287	424.31
434.509	449.31
434.731	449.31
434.953	465.31
435.175	452.31
435.397	458.31
435.618	470.31
435.84	499.31
436.062	539.31
436.284	571.31
436.505	505.31
436.727	487.31
436.949	432.31
437.17	429.31
437.392	426.31
437.614	432.31
437.835	459.31
438.057	497.31
438.278	554.31
438.5	542.31
438.721	593.31
438.943	572.31
439.165	474.31
439.386	470.31
439.608	447.31
439.829	457.31
440.05	452.31
440.272	513.31
440.493	463.31
440.715	467.31
440.936	444.31
441.158	416.31
441.379	457.31
441.6	454.31
441.822	479.31
442.043	486.31
442.264	544.31
442.486	566.31
442.707	500.31
442.928	488.31
443.149	491.31
443.371	510.31
443.592	501.31
443.813	558.31
444.034	597.31
444.255	532.31
444.476	512.31
444.698	505.31
444.919	528.31
445.14	601.31
445.361	551.31
445.582	522.31
445.803	511.31
446.024	556.31
446.245	579.31
446.466	553.31
446.687	474.31
446.908	442.31
447.129	434.31
447.35	423.31
447.571	418.31
447.792	404.31
448.013	442.31
448.234	415.31
448.455	462.31
448.675	528.31
448.896	587.31
449.117	508.31
449.338	492.31
449.559	567.31
449.779	589.31
450	499.31
450.221	446.31
450.442	420.31
450.662	426.31
450.883	408.31
451.104	417.31
451.324	402.31
451.545	404.31
451.766	412.31
451.986	393.31
452.207	391.31
452.428	401.31
452.648	389.31
452.869	385.31
453.089	397.31
453.31	384.31
453.53	395.31
453.751	402.31
453.971	380.31
454.192	410.31
454.412	375.31
454.633	372.31
454.853	396.31
455.073	354.31
455.294	382.31
455.514	424.31
455.734	395.31
455.955	377.31
456.175	369.31
456.395	375.31
456.616	371.31
456.836	371.31
457.056	372.31
457.276	361.31
457.497	386.31
457.717	382.31
457.937	363.31
458.157	376.31
458.377	365.31
458.598	402.31
458.818	420.31
459.038	472.31
459.258	473.31
459.478	452.31
459.698	414.31
459.918	424.31
460.138	454.31
460.358	439.31
460.578	447.31
460.798	470.31
461.018	447.31
461.238	458.31
461.458	463.31
461.678	467.31
461.898	475.31
462.118	454.31
462.338	466.31
462.558	490.31
462.777	480.31
462.997	507.31
463.217	547.31
463.437	534.31
463.657	510.31
463.876	483.31
464.096	515.31
464.316	510.31
464.536	491.31
464.755	494.31
464.975	494.31
465.195	480.31
465.414	508.31
465.634	447.31
465.854	445.31
466.073	427.31
466.293	400.31
466.512	416.31
466.732	406.31
466.951	414.31
467.171	406.31
467.391	402.31
467.61	424.31
467.829	395.31
468.049	422.31
468.268	430.31
468.488	402.31
468.707	395.31
468.927	398.31
469.146	402.31
469.365	382.31
469.585	386.31
469.804	412.31
470.023	434.31
470.243	412.31
470.462	439.31
470.681	431.31
470.901	420.31
471.12	394.31
471.339	410.31
471.558	421.31
471.777	418.31
471.997	405.31
472.216	417.31
472.435	479.31
472.654	461.31
472.873	414.31
473.092	408.31
473.311	387.31
473.53	378.31
473.749	402.31
473.968	412.31
474.187	481.31
474.406	484.31
474.625	412.31
474.844	404.31
475.063	411.31
475.282	397.31
475.501	384.31
475.72	400.31
475.939	398.31
476.158	403.31
476.377	396.31
476.596	422.31
476.814	403.31
477.033	396.31
477.252	425.31
477.471	420.31
477.69	426.31
477.908	457.31
478.127	441.31
478.346	437.31
478.564	475.31
478.783	467.31
479.002	471.31
479.22	474.31
479.439	462.31
479.658	498.31
479.876	479.31
480.095	484.31
480.313	491.31
480.532	513.31
480.751	518.31
480.969	516.31
481.188	602.31
481.406	663.31
481.624	553.31
481.843	499.31
482.061	506.31
482.28	482.31
482.498	468.31
482.717	476.31
482.935	438.31
483.153	435.31
483.372	460.31
483.59	448.31
483.808	460.31
484.027	468.31
484.245	460.31
484.463	465.31
484.681	468.31
484.9	474.31
485.118	465.31
485.336	446.31
485.554	470.31
485.772	475.31
485.99	474.31
486.209	470.31
486.427	481.31
486.645	494.31
486.863	503.31
487.081	488.31
487.299	481.31
487.517	468.31
487.735	485.31
487.953	498.31
488.171	483.31
488.389	494.31
488.607	498.31
488.825	495.31
489.043	467.31
489.261	495.31
489.479	482.31
489.696	512.31
489.914	504.31
490.132	500.31
490.35	506.31
490.568	503.31
490.786	504.31
491.003	524.31
491.221	551.31
491.439	530.31
491.657	549.31
491.874	562.31
492.092	566.31
492.31	568.31
492.527	571.31
492.745	578.31
492.963	574.31
493.18	586.31
493.398	592.31
493.615	573.31
493.833	569.31
494.05	584.31
494.268	555.31
494.485	573.31
494.703	580.31
494.92	563.31
495.138	545.31
495.355	580.31
495.573	575.31
495.79	550.31
496.008	551.31
496.225	546.31
496.442	569.31
496.66	549.31
496.877	560.31
497.094	567.31
497.312	572.31
497.529	582.31
497.746	588.31
497.963	609.31
498.181	617.31
498.398	626.31
498.615	666.31
498.832	678.31
499.049	702.31
499.267	754.31
499.484	798.31
499.701	858.31
499.918	898.31
500.135	938.31
500.352	1049.31
500.569	1076.31
500.786	1096.31
501.003	1055.31
501.22	956.31
501.437	936.31
501.654	851.31
501.871	819.31
502.088	770.31
