Data from 1984.PennyLincolnUp.Lamp.En5.5.200Scan.071819.P1_HRD10591_17-00-03-968.txt Node
Date: Thu Jul 18 17:00:03 EDT 2019
User: cochatt
Spectrometer: HR+D1059
Trigger mode: 1
Integration Time (sec): 1.000000E-1
Scans to average: 1
Electric dark correction enabled: true
Nonlinearity correction enabled: false
Boxcar width: 0
XAxis mode: Wavelengths
Number of Pixels in Spectrum: 2048
>>>>>Begin Spectral Data<<<<<
223.165	-9.25
223.4	-9.25
223.635	-9.25
223.869	-17.25
224.104	-21.25
224.338	-8.25
224.573	-1.25
224.808	-16.25
225.042	0.75
225.277	3.75
225.511	-15.25
225.746	2.75
225.98	0.75
226.215	9.75
226.449	10.75
226.683	11.75
226.918	14.75
227.152	33.75
227.387	25.75
227.621	30.75
227.856	36.75
228.09	34.75
228.324	49.75
228.559	52.75
228.793	72.75
229.027	96.75
229.262	107.75
229.496	107.75
229.73	103.75
229.964	129.75
230.199	105.75
230.433	94.75
230.667	95.75
230.901	111.75
231.136	115.75
231.37	109.75
231.604	104.75
231.838	113.75
232.072	113.75
232.306	108.75
232.541	100.75
232.775	109.75
233.009	118.75
233.243	105.75
233.477	119.75
233.711	119.75
233.945	107.75
234.179	105.75
234.413	125.75
234.647	125.75
234.881	103.75
235.115	106.75
235.349	119.75
235.583	102.75
235.817	104.75
236.051	114.75
236.285	124.75
236.519	123.75
236.753	125.75
236.987	110.75
237.221	149.75
237.455	184.75
237.689	152.75
237.922	129.75
238.156	133.75
238.39	120.75
238.624	127.75
238.858	124.75
239.091	125.75
239.325	119.75
239.559	124.75
239.793	102.75
240.027	123.75
240.26	127.75
240.494	136.75
240.728	137.75
240.961	129.75
241.195	116.75
241.429	131.75
241.662	108.75
241.896	129.75
242.13	110.75
242.363	139.75
242.597	143.75
242.83	116.75
243.064	140.75
243.298	141.75
243.531	131.75
243.765	122.75
243.998	129.75
244.232	143.75
244.465	135.75
244.699	142.75
244.932	134.75
245.166	145.75
245.399	132.75
245.633	141.75
245.866	142.75
246.099	144.75
246.333	138.75
246.566	128.75
246.8	139.75
247.033	150.75
247.266	142.75
247.5	148.75
247.733	149.75
247.966	147.75
248.2	155.75
248.433	154.75
248.666	141.75
248.899	160.75
249.133	177.75
249.366	189.75
249.599	170.75
249.832	174.75
250.066	170.75
250.299	192.75
250.532	200.75
250.765	212.75
250.998	219.75
251.231	202.75
251.465	187.75
251.698	187.75
251.931	177.75
252.164	175.75
252.397	180.75
252.63	187.75
252.863	190.75
253.096	189.75
253.329	191.75
253.562	194.75
253.795	194.75
254.028	186.75
254.261	196.75
254.494	200.75
254.727	205.75
254.96	223.75
255.193	232.75
255.426	223.75
255.659	228.75
255.892	250.75
256.124	267.75
256.357	299.75
256.59	264.75
256.823	229.75
257.056	202.75
257.289	206.75
257.521	205.75
257.754	198.75
257.987	210.75
258.22	195.75
258.452	201.75
258.685	203.75
258.918	200.75
259.151	202.75
259.383	210.75
259.616	187.75
259.849	198.75
260.081	193.75
260.314	218.75
260.547	240.75
260.779	213.75
261.012	193.75
261.244	211.75
261.477	199.75
261.71	209.75
261.942	204.75
262.175	211.75
262.407	199.75
262.64	197.75
262.872	203.75
263.105	210.75
263.337	191.75
263.57	216.75
263.802	217.75
264.035	212.75
264.267	198.75
264.499	196.75
264.732	210.75
264.964	195.75
265.197	207.75
265.429	206.75
265.661	187.75
265.894	218.75
266.126	230.75
266.358	199.75
266.591	205.75
266.823	222.75
267.055	222.75
267.287	219.75
267.52	213.75
267.752	231.75
267.984	220.75
268.216	215.75
268.448	219.75
268.681	226.75
268.913	234.75
269.145	237.75
269.377	246.75
269.609	264.75
269.841	234.75
270.073	248.75
270.306	274.75
270.538	262.75
270.77	264.75
271.002	248.75
271.234	268.75
271.466	269.75
271.698	259.75
271.93	275.75
272.162	274.75
272.394	279.75
272.626	272.75
272.858	249.75
273.09	259.75
273.322	265.75
273.553	257.75
273.785	259.75
274.017	262.75
274.249	267.75
274.481	244.75
274.713	255.75
274.945	250.75
275.176	274.75
275.408	250.75
275.64	244.75
275.872	242.75
276.104	257.75
276.335	241.75
276.567	260.75
276.799	258.75
277.031	274.75
277.262	290.75
277.494	288.75
277.726	286.75
277.957	281.75
278.189	284.75
278.421	254.75
278.652	275.75
278.884	269.75
279.115	258.75
279.347	268.75
279.579	270.75
279.81	274.75
280.042	279.75
280.273	274.75
280.505	278.75
280.736	275.75
280.968	272.75
281.199	269.75
281.431	255.75
281.662	261.75
281.894	275.75
282.125	269.75
282.356	292.75
282.588	281.75
282.819	305.75
283.051	283.75
283.282	285.75
283.513	284.75
283.745	263.75
283.976	277.75
284.207	278.75
284.439	278.75
284.67	278.75
284.901	271.75
285.132	275.75
285.364	272.75
285.595	284.75
285.826	279.75
286.057	276.75
286.288	270.75
286.52	287.75
286.751	296.75
286.982	285.75
287.213	279.75
287.444	272.75
287.675	275.75
287.906	279.75
288.138	309.75
288.369	318.75
288.6	298.75
288.831	307.75
289.062	290.75
289.293	302.75
289.524	293.75
289.755	297.75
289.986	279.75
290.217	279.75
290.448	285.75
290.679	296.75
290.91	295.75
291.141	297.75
291.371	303.75
291.602	292.75
291.833	297.75
292.064	287.75
292.295	293.75
292.526	302.75
292.757	307.75
292.987	277.75
293.218	277.75
293.449	294.75
293.68	301.75
293.91	291.75
294.141	297.75
294.372	283.75
294.603	291.75
294.833	298.75
295.064	305.75
295.295	305.75
295.525	291.75
295.756	291.75
295.987	312.75
296.217	320.75
296.448	322.75
296.679	303.75
296.909	286.75
297.14	289.75
297.37	299.75
297.601	302.75
297.831	299.75
298.062	316.75
298.292	289.75
298.523	326.75
298.753	317.75
298.984	307.75
299.214	314.75
299.445	317.75
299.675	307.75
299.905	321.75
300.136	315.75
300.366	306.75
300.597	332.75
300.827	310.75
301.057	330.75
301.288	327.75
301.518	309.75
301.748	325.75
301.979	344.75
302.209	333.75
302.439	341.75
302.669	348.75
302.9	332.75
303.13	317.75
303.36	327.75
303.59	323.75
303.82	335.75
304.051	343.75
304.281	339.75
304.511	331.75
304.741	318.75
304.971	319.75
305.201	337.75
305.431	318.75
305.661	335.75
305.891	331.75
306.121	333.75
306.352	334.75
306.582	339.75
306.812	329.75
307.042	324.75
307.272	330.75
307.502	330.75
307.731	333.75
307.961	335.75
308.191	348.75
308.421	334.75
308.651	348.75
308.881	326.75
309.111	327.75
309.341	331.75
309.571	336.75
309.8	353.75
310.03	336.75
310.26	349.75
310.49	342.75
310.72	359.75
310.949	347.75
311.179	364.75
311.409	361.75
311.639	360.75
311.868	347.75
312.098	344.75
312.328	358.75
312.557	382.75
312.787	353.75
313.017	367.75
313.246	355.75
313.476	330.75
313.706	367.75
313.935	369.75
314.165	351.75
314.394	376.75
314.624	395.75
314.853	359.75
315.083	362.75
315.312	369.75
315.542	347.75
315.771	346.75
316.001	344.75
316.23	344.75
316.46	341.75
316.689	369.75
316.919	365.75
317.148	365.75
317.377	378.75
317.607	384.75
317.836	355.75
318.065	351.75
318.295	354.75
318.524	378.75
318.753	355.75
318.983	347.75
319.212	371.75
319.441	367.75
319.67	365.75
319.9	373.75
320.129	357.75
320.358	374.75
320.587	370.75
320.816	371.75
321.046	368.75
321.275	364.75
321.504	367.75
321.733	374.75
321.962	387.75
322.191	383.75
322.42	401.75
322.649	395.75
322.878	402.75
323.108	391.75
323.337	428.75
323.566	438.75
323.795	445.75
324.024	507.75
324.253	577.75
324.482	726.75
324.71	1079.75
324.939	1563.75
325.168	1313.75
325.397	726.75
325.626	566.75
325.855	501.75
326.084	471.75
326.313	463.75
326.542	447.75
326.77	483.75
326.999	567.75
327.228	736.75
327.457	1039.75
327.686	1181.75
327.914	830.75
328.143	621.75
328.372	598.75
328.6	569.75
328.829	507.75
329.058	511.75
329.287	524.75
329.515	508.75
329.744	515.75
329.972	537.75
330.201	633.75
330.43	693.75
330.658	666.75
330.887	588.75
331.115	550.75
331.344	491.75
331.572	472.75
331.801	476.75
332.03	485.75
332.258	483.75
332.486	494.75
332.715	492.75
332.943	491.75
333.172	486.75
333.4	527.75
333.629	520.75
333.857	575.75
334.085	602.75
334.314	697.75
334.542	819.75
334.771	808.75
334.999	649.75
335.227	551.75
335.455	512.75
335.684	479.75
335.912	461.75
336.14	451.75
336.369	459.75
336.597	455.75
336.825	452.75
337.053	442.75
337.281	427.75
337.51	448.75
337.738	440.75
337.966	426.75
338.194	419.75
338.422	406.75
338.65	427.75
338.878	418.75
339.106	414.75
339.334	420.75
339.562	415.75
339.79	415.75
340.018	391.75
340.246	403.75
340.474	417.75
340.702	407.75
340.93	399.75
341.158	392.75
341.386	383.75
341.614	387.75
341.842	400.75
342.07	393.75
342.298	404.75
342.526	385.75
342.754	401.75
342.981	405.75
343.209	402.75
343.437	394.75
343.665	422.75
343.893	434.75
344.12	439.75
344.348	426.75
344.576	409.75
344.804	403.75
345.031	431.75
345.259	399.75
345.487	409.75
345.714	388.75
345.942	378.75
346.17	389.75
346.397	403.75
346.625	390.75
346.853	380.75
347.08	387.75
347.308	385.75
347.535	381.75
347.763	373.75
347.99	402.75
348.218	404.75
348.445	394.75
348.673	389.75
348.9	383.75
349.128	383.75
349.355	365.75
349.583	366.75
349.81	375.75
350.037	375.75
350.265	384.75
350.492	394.75
350.72	375.75
350.947	367.75
351.174	376.75
351.402	382.75
351.629	381.75
351.856	380.75
352.083	384.75
352.311	403.75
352.538	380.75
352.765	375.75
352.992	375.75
353.22	390.75
353.447	359.75
353.674	356.75
353.901	387.75
354.128	352.75
354.355	369.75
354.583	364.75
354.81	366.75
355.037	382.75
355.264	360.75
355.491	371.75
355.718	365.75
355.945	356.75
356.172	351.75
356.399	365.75
356.626	371.75
356.853	372.75
357.08	350.75
357.307	365.75
357.534	362.75
357.761	357.75
357.988	364.75
358.215	358.75
358.441	359.75
358.668	353.75
358.895	372.75
359.122	385.75
359.349	403.75
359.576	383.75
359.802	382.75
360.029	407.75
360.256	405.75
360.483	375.75
360.709	379.75
360.936	373.75
361.163	358.75
361.39	378.75
361.616	394.75
361.843	388.75
362.07	362.75
362.296	377.75
362.523	377.75
362.749	365.75
362.976	375.75
363.203	370.75
363.429	357.75
363.656	347.75
363.882	363.75
364.109	355.75
364.335	352.75
364.562	364.75
364.788	366.75
365.015	378.75
365.241	357.75
365.468	369.75
365.694	363.75
365.92	362.75
366.147	362.75
366.373	364.75
366.599	352.75
366.826	348.75
367.052	359.75
367.278	338.75
367.505	361.75
367.731	374.75
367.957	369.75
368.184	378.75
368.41	362.75
368.636	372.75
368.862	370.75
369.089	361.75
369.315	377.75
369.541	371.75
369.767	376.75
369.993	356.75
370.219	371.75
370.445	353.75
370.672	373.75
370.898	374.75
371.124	359.75
371.35	374.75
371.576	377.75
371.802	375.75
372.028	378.75
372.254	378.75
372.48	363.75
372.706	385.75
372.932	377.75
373.158	378.75
373.384	390.75
373.61	374.75
373.835	362.75
374.061	359.75
374.287	355.75
374.513	380.75
374.739	400.75
374.965	400.75
375.191	396.75
375.416	400.75
375.642	373.75
375.868	389.75
376.094	371.75
376.319	364.75
376.545	365.75
376.771	348.75
376.997	352.75
377.222	376.75
377.448	375.75
377.674	370.75
377.899	351.75
378.125	360.75
378.35	381.75
378.576	373.75
378.802	351.75
379.027	369.75
379.253	381.75
379.478	378.75
379.704	381.75
379.929	351.75
380.155	364.75
380.38	372.75
380.606	381.75
380.831	358.75
381.057	387.75
381.282	373.75
381.507	362.75
381.733	375.75
381.958	366.75
382.184	369.75
382.409	381.75
382.634	373.75
382.86	380.75
383.085	382.75
383.31	378.75
383.535	388.75
383.761	388.75
383.986	399.75
384.211	423.75
384.436	403.75
384.662	390.75
384.887	388.75
385.112	395.75
385.337	431.75
385.562	426.75
385.787	397.75
386.013	428.75
386.238	422.75
386.463	414.75
386.688	408.75
386.913	406.75
387.138	413.75
387.363	405.75
387.588	438.75
387.813	414.75
388.038	400.75
388.263	412.75
388.488	401.75
388.713	415.75
388.938	423.75
389.163	409.75
389.387	407.75
389.612	417.75
389.837	387.75
390.062	392.75
390.287	421.75
390.512	395.75
390.736	415.75
390.961	424.75
391.186	431.75
391.411	413.75
391.636	427.75
391.86	426.75
392.085	441.75
392.31	446.75
392.534	455.75
392.759	440.75
392.984	440.75
393.208	420.75
393.433	411.75
393.658	413.75
393.882	433.75
394.107	426.75
394.331	428.75
394.556	424.75
394.78	416.75
395.005	434.75
395.229	417.75
395.454	442.75
395.678	434.75
395.903	453.75
396.127	447.75
396.352	455.75
396.576	423.75
396.801	449.75
397.025	428.75
397.249	432.75
397.474	445.75
397.698	463.75
397.922	470.75
398.147	460.75
398.371	439.75
398.595	467.75
398.82	481.75
399.044	482.75
399.268	529.75
399.492	608.75
399.717	623.75
399.941	638.75
400.165	626.75
400.389	598.75
400.613	549.75
400.837	506.75
401.062	499.75
401.286	492.75
401.51	497.75
401.734	477.75
401.958	486.75
402.182	511.75
402.406	509.75
402.63	488.75
402.854	538.75
403.078	503.75
403.302	515.75
403.526	525.75
403.75	528.75
403.974	527.75
404.198	526.75
404.422	543.75
404.645	538.75
404.869	550.75
405.093	590.75
405.317	622.75
405.541	659.75
405.765	585.75
405.988	547.75
406.212	551.75
406.436	564.75
406.66	555.75
406.883	547.75
407.107	585.75
407.331	622.75
407.555	663.75
407.778	651.75
408.002	599.75
408.226	597.75
408.449	581.75
408.673	559.75
408.896	557.75
409.12	584.75
409.344	589.75
409.567	531.75
409.791	525.75
410.014	515.75
410.238	499.75
410.461	524.75
410.685	512.75
410.908	534.75
411.132	539.75
411.355	539.75
411.578	540.75
411.802	508.75
412.025	528.75
412.249	524.75
412.472	573.75
412.695	652.75
412.919	599.75
413.142	580.75
413.365	531.75
413.589	527.75
413.812	482.75
414.035	479.75
414.258	477.75
414.482	506.75
414.705	472.75
414.928	480.75
415.151	512.75
415.374	483.75
415.597	474.75
415.821	471.75
416.044	498.75
416.267	465.75
416.49	501.75
416.713	478.75
416.936	478.75
417.159	494.75
417.382	490.75
417.605	498.75
417.828	497.75
418.051	492.75
418.274	505.75
418.497	478.75
418.72	467.75
418.943	499.75
419.166	521.75
419.389	528.75
419.611	545.75
419.834	543.75
420.057	545.75
420.28	553.75
420.503	550.75
420.726	538.75
420.948	534.75
421.171	550.75
421.394	533.75
421.617	514.75
421.839	508.75
422.062	500.75
422.285	484.75
422.507	521.75
422.73	589.75
422.953	544.75
423.175	531.75
423.398	507.75
423.621	523.75
423.843	504.75
424.066	529.75
424.288	525.75
424.511	502.75
424.733	549.75
424.956	585.75
425.178	599.75
425.401	573.75
425.623	563.75
425.846	515.75
426.068	495.75
426.291	495.75
426.513	495.75
426.735	493.75
426.958	506.75
427.18	577.75
427.402	645.75
427.625	707.75
427.847	641.75
428.069	614.75
428.292	563.75
428.514	492.75
428.736	455.75
428.958	486.75
429.181	451.75
429.403	452.75
429.625	471.75
429.847	483.75
430.069	487.75
430.292	495.75
430.514	466.75
430.736	437.75
430.958	426.75
431.18	430.75
431.402	435.75
431.624	445.75
431.846	438.75
432.068	428.75
432.29	439.75
432.512	447.75
432.734	457.75
432.956	439.75
433.178	456.75
433.4	427.75
433.622	433.75
433.844	446.75
434.066	463.75
434.287	444.75
434.509	466.75
434.731	453.75
434.953	475.75
435.175	491.75
435.397	483.75
435.618	491.75
435.84	500.75
436.062	577.75
436.284	601.75
436.505	515.75
436.727	499.75
436.949	461.75
437.17	462.75
437.392	469.75
437.614	455.75
437.835	478.75
438.057	545.75
438.278	600.75
438.5	600.75
438.721	646.75
438.943	606.75
439.165	526.75
439.386	484.75
439.608	478.75
439.829	484.75
440.05	502.75
440.272	505.75
440.493	489.75
440.715	478.75
440.936	459.75
441.158	477.75
441.379	468.75
441.6	474.75
441.822	498.75
442.043	525.75
442.264	581.75
442.486	596.75
442.707	522.75
442.928	498.75
443.149	527.75
443.371	521.75
443.592	557.75
443.813	612.75
444.034	631.75
444.255	565.75
444.476	534.75
444.698	548.75
444.919	553.75
445.14	670.75
445.361	599.75
445.582	531.75
445.803	561.75
446.024	597.75
446.245	593.75
446.466	555.75
446.687	520.75
446.908	476.75
447.129	474.75
447.35	442.75
447.571	443.75
447.792	424.75
448.013	453.75
448.234	438.75
448.455	486.75
448.675	527.75
448.896	627.75
449.117	545.75
449.338	517.75
449.559	577.75
449.779	644.75
450	542.75
450.221	476.75
450.442	421.75
450.662	421.75
450.883	413.75
451.104	451.75
451.324	423.75
451.545	417.75
451.766	419.75
451.986	413.75
452.207	399.75
452.428	399.75
452.648	409.75
452.869	387.75
453.089	409.75
453.31	405.75
453.53	420.75
453.751	411.75
453.971	392.75
454.192	429.75
454.412	414.75
454.633	393.75
454.853	377.75
455.073	393.75
455.294	414.75
455.514	455.75
455.734	445.75
455.955	410.75
456.175	405.75
456.395	391.75
456.616	363.75
456.836	381.75
457.056	379.75
457.276	375.75
457.497	386.75
457.717	380.75
457.937	400.75
458.157	409.75
458.377	409.75
458.598	436.75
458.818	426.75
459.038	474.75
459.258	494.75
459.478	465.75
459.698	446.75
459.918	441.75
460.138	463.75
460.358	486.75
460.578	468.75
460.798	484.75
461.018	476.75
461.238	479.75
461.458	476.75
461.678	476.75
461.898	468.75
462.118	485.75
462.338	475.75
462.558	505.75
462.777	541.75
462.997	562.75
463.217	575.75
463.437	598.75
463.657	559.75
463.876	531.75
464.096	509.75
464.316	535.75
464.536	520.75
464.755	509.75
464.975	512.75
465.195	507.75
465.414	554.75
465.634	488.75
465.854	458.75
466.073	435.75
466.293	453.75
466.512	430.75
466.732	435.75
466.951	437.75
467.171	423.75
467.391	414.75
467.61	414.75
467.829	431.75
468.049	438.75
468.268	484.75
468.488	448.75
468.707	419.75
468.927	407.75
469.146	423.75
469.365	413.75
469.585	398.75
469.804	431.75
470.023	439.75
470.243	427.75
470.462	444.75
470.681	443.75
470.901	442.75
471.12	450.75
471.339	443.75
471.558	428.75
471.777	437.75
471.997	446.75
472.216	454.75
472.435	586.75
472.654	513.75
472.873	483.75
473.092	430.75
473.311	428.75
473.53	427.75
473.749	441.75
473.968	460.75
474.187	526.75
474.406	507.75
474.625	461.75
474.844	434.75
475.063	416.75
475.282	432.75
475.501	435.75
475.72	435.75
475.939	411.75
476.158	413.75
476.377	443.75
476.596	435.75
476.814	441.75
477.033	424.75
477.252	451.75
477.471	449.75
477.69	448.75
477.908	455.75
478.127	461.75
478.346	467.75
478.564	486.75
478.783	476.75
479.002	504.75
479.22	479.75
479.439	485.75
479.658	482.75
479.876	532.75
480.095	511.75
480.313	545.75
480.532	553.75
480.751	549.75
480.969	590.75
481.188	750.75
481.406	846.75
481.624	652.75
481.843	578.75
482.061	537.75
482.28	520.75
482.498	521.75
482.717	504.75
482.935	500.75
483.153	494.75
483.372	469.75
483.59	498.75
483.808	483.75
484.027	459.75
484.245	518.75
484.463	487.75
484.681	484.75
484.9	508.75
485.118	513.75
485.336	489.75
485.554	491.75
485.772	517.75
485.99	506.75
486.209	521.75
486.427	520.75
486.645	482.75
486.863	523.75
487.081	537.75
487.299	515.75
487.517	513.75
487.735	484.75
487.953	517.75
488.171	514.75
488.389	537.75
488.607	509.75
488.825	488.75
489.043	526.75
489.261	492.75
489.479	510.75
489.696	504.75
489.914	514.75
490.132	534.75
490.35	551.75
490.568	554.75
490.786	555.75
491.003	534.75
491.221	572.75
491.439	597.75
491.657	598.75
491.874	603.75
492.092	614.75
492.31	606.75
492.527	625.75
492.745	619.75
492.963	632.75
493.18	637.75
493.398	641.75
493.615	634.75
493.833	611.75
494.05	591.75
494.268	627.75
494.485	609.75
494.703	617.75
494.92	591.75
495.138	609.75
495.355	605.75
495.573	605.75
495.79	604.75
496.008	578.75
496.225	590.75
496.442	579.75
496.66	601.75
496.877	595.75
497.094	599.75
497.312	611.75
497.529	632.75
497.746	627.75
497.963	644.75
498.181	666.75
498.398	681.75
498.615	682.75
498.832	713.75
499.049	746.75
499.267	785.75
499.484	829.75
499.701	895.75
499.918	931.75
500.135	983.75
500.352	1095.75
500.569	1147.75
500.786	1114.75
501.003	1099.75
501.22	1013.75
501.437	979.75
501.654	882.75
501.871	849.75
502.088	802.75
