Data from 1984.PennyLincolnUp.Lamp.En5.5.200Scan.071819.P1_HRD10591_16-59-38-968.txt Node
Date: Thu Jul 18 16:59:38 EDT 2019
User: cochatt
Spectrometer: HR+D1059
Trigger mode: 1
Integration Time (sec): 1.000000E-1
Scans to average: 1
Electric dark correction enabled: true
Nonlinearity correction enabled: false
Boxcar width: 0
XAxis mode: Wavelengths
Number of Pixels in Spectrum: 2048
>>>>>Begin Spectral Data<<<<<
223.165	-8.19
223.4	-8.19
223.635	-8.19
223.869	-20.19
224.104	-6.19
224.338	-9.19
224.573	-4.19
224.808	-18.19
225.042	-15.19
225.277	-10.19
225.511	-11.19
225.746	0.81
225.98	3.81
226.215	0.81
226.449	9.81
226.683	15.81
226.918	37.81
227.152	33.81
227.387	28.81
227.621	22.81
227.856	43.81
228.09	33.81
228.324	49.81
228.559	49.81
228.793	61.81
229.027	90.81
229.262	85.81
229.496	91.81
229.73	102.81
229.964	115.81
230.199	97.81
230.433	96.81
230.667	96.81
230.901	88.81
231.136	104.81
231.37	108.81
231.604	99.81
231.838	91.81
232.072	102.81
232.306	93.81
232.541	98.81
232.775	112.81
233.009	107.81
233.243	104.81
233.477	99.81
233.711	97.81
233.945	101.81
234.179	91.81
234.413	104.81
234.647	99.81
234.881	108.81
235.115	98.81
235.349	109.81
235.583	99.81
235.817	119.81
236.051	101.81
236.285	103.81
236.519	98.81
236.753	114.81
236.987	117.81
237.221	137.81
237.455	151.81
237.689	143.81
237.922	113.81
238.156	124.81
238.39	116.81
238.624	109.81
238.858	94.81
239.091	109.81
239.325	123.81
239.559	120.81
239.793	111.81
240.027	128.81
240.26	119.81
240.494	141.81
240.728	118.81
240.961	115.81
241.195	113.81
241.429	123.81
241.662	125.81
241.896	104.81
242.13	120.81
242.363	112.81
242.597	130.81
242.83	114.81
243.064	108.81
243.298	114.81
243.531	125.81
243.765	119.81
243.998	119.81
244.232	108.81
244.465	129.81
244.699	124.81
244.932	119.81
245.166	125.81
245.399	138.81
245.633	133.81
245.866	123.81
246.099	119.81
246.333	109.81
246.566	125.81
246.8	128.81
247.033	144.81
247.266	138.81
247.5	132.81
247.733	140.81
247.966	140.81
248.2	153.81
248.433	144.81
248.666	143.81
248.899	155.81
249.133	172.81
249.366	159.81
249.599	166.81
249.832	158.81
250.066	163.81
250.299	164.81
250.532	180.81
250.765	182.81
250.998	196.81
251.231	172.81
251.465	168.81
251.698	181.81
251.931	168.81
252.164	167.81
252.397	166.81
252.63	167.81
252.863	165.81
253.096	152.81
253.329	164.81
253.562	183.81
253.795	176.81
254.028	173.81
254.261	168.81
254.494	171.81
254.727	189.81
254.96	200.81
255.193	204.81
255.426	193.81
255.659	193.81
255.892	216.81
256.124	245.81
256.357	269.81
256.59	239.81
256.823	211.81
257.056	183.81
257.289	185.81
257.521	184.81
257.754	192.81
257.987	176.81
258.22	172.81
258.452	188.81
258.685	173.81
258.918	182.81
259.151	187.81
259.383	176.81
259.616	187.81
259.849	201.81
260.081	180.81
260.314	184.81
260.547	188.81
260.779	188.81
261.012	194.81
261.244	192.81
261.477	171.81
261.71	196.81
261.942	180.81
262.175	191.81
262.407	184.81
262.64	177.81
262.872	194.81
263.105	185.81
263.337	181.81
263.57	189.81
263.802	188.81
264.035	186.81
264.267	187.81
264.499	188.81
264.732	187.81
264.964	187.81
265.197	204.81
265.429	198.81
265.661	197.81
265.894	185.81
266.126	197.81
266.358	191.81
266.591	185.81
266.823	201.81
267.055	188.81
267.287	193.81
267.52	184.81
267.752	178.81
267.984	196.81
268.216	198.81
268.448	222.81
268.681	220.81
268.913	209.81
269.145	214.81
269.377	221.81
269.609	217.81
269.841	220.81
270.073	211.81
270.306	223.81
270.538	236.81
270.77	246.81
271.002	237.81
271.234	243.81
271.466	245.81
271.698	230.81
271.93	256.81
272.162	235.81
272.394	234.81
272.626	236.81
272.858	231.81
273.09	221.81
273.322	236.81
273.553	220.81
273.785	222.81
274.017	235.81
274.249	235.81
274.481	236.81
274.713	235.81
274.945	211.81
275.176	239.81
275.408	228.81
275.64	235.81
275.872	218.81
276.104	235.81
276.335	236.81
276.567	222.81
276.799	246.81
277.031	251.81
277.262	255.81
277.494	267.81
277.726	249.81
277.957	249.81
278.189	246.81
278.421	223.81
278.652	241.81
278.884	240.81
279.115	214.81
279.347	231.81
279.579	237.81
279.81	235.81
280.042	252.81
280.273	249.81
280.505	223.81
280.736	250.81
280.968	251.81
281.199	247.81
281.431	251.81
281.662	245.81
281.894	237.81
282.125	257.81
282.356	253.81
282.588	259.81
282.819	275.81
283.051	258.81
283.282	271.81
283.513	241.81
283.745	248.81
283.976	241.81
284.207	246.81
284.439	250.81
284.67	243.81
284.901	251.81
285.132	229.81
285.364	239.81
285.595	251.81
285.826	243.81
286.057	273.81
286.288	270.81
286.52	253.81
286.751	250.81
286.982	271.81
287.213	257.81
287.444	265.81
287.675	278.81
287.906	286.81
288.138	275.81
288.369	269.81
288.6	259.81
288.831	258.81
289.062	271.81
289.293	240.81
289.524	263.81
289.755	261.81
289.986	259.81
290.217	267.81
290.448	266.81
290.679	278.81
290.91	256.81
291.141	258.81
291.371	285.81
291.602	261.81
291.833	270.81
292.064	275.81
292.295	269.81
292.526	258.81
292.757	292.81
292.987	268.81
293.218	275.81
293.449	256.81
293.68	290.81
293.91	272.81
294.141	254.81
294.372	254.81
294.603	271.81
294.833	264.81
295.064	273.81
295.295	294.81
295.525	270.81
295.756	295.81
295.987	271.81
296.217	291.81
296.448	316.81
296.679	290.81
296.909	299.81
297.14	292.81
297.37	291.81
297.601	289.81
297.831	275.81
298.062	293.81
298.292	292.81
298.523	300.81
298.753	288.81
298.984	284.81
299.214	299.81
299.445	280.81
299.675	289.81
299.905	299.81
300.136	311.81
300.366	289.81
300.597	306.81
300.827	309.81
301.057	295.81
301.288	283.81
301.518	302.81
301.748	287.81
301.979	307.81
302.209	295.81
302.439	313.81
302.669	300.81
302.9	304.81
303.13	310.81
303.36	325.81
303.59	296.81
303.82	320.81
304.051	301.81
304.281	291.81
304.511	308.81
304.741	321.81
304.971	289.81
305.201	297.81
305.431	277.81
305.661	284.81
305.891	296.81
306.121	286.81
306.352	300.81
306.582	290.81
306.812	309.81
307.042	314.81
307.272	305.81
307.502	306.81
307.731	303.81
307.961	317.81
308.191	294.81
308.421	312.81
308.651	317.81
308.881	298.81
309.111	311.81
309.341	310.81
309.571	313.81
309.8	314.81
310.03	324.81
310.26	311.81
310.49	341.81
310.72	327.81
310.949	327.81
311.179	341.81
311.409	331.81
311.639	296.81
311.868	340.81
312.098	332.81
312.328	320.81
312.557	337.81
312.787	343.81
313.017	321.81
313.246	349.81
313.476	338.81
313.706	331.81
313.935	348.81
314.165	340.81
314.394	345.81
314.624	338.81
314.853	328.81
315.083	334.81
315.312	325.81
315.542	323.81
315.771	329.81
316.001	316.81
316.23	335.81
316.46	336.81
316.689	309.81
316.919	326.81
317.148	333.81
317.377	353.81
317.607	357.81
317.836	335.81
318.065	335.81
318.295	324.81
318.524	337.81
318.753	334.81
318.983	350.81
319.212	327.81
319.441	323.81
319.67	333.81
319.9	321.81
320.129	339.81
320.358	325.81
320.587	342.81
320.816	335.81
321.046	338.81
321.275	363.81
321.504	350.81
321.733	351.81
321.962	349.81
322.191	334.81
322.42	365.81
322.649	363.81
322.878	350.81
323.108	367.81
323.337	381.81
323.566	406.81
323.795	409.81
324.024	433.81
324.253	501.81
324.482	662.81
324.71	968.81
324.939	1259.81
325.168	1122.81
325.397	639.81
325.626	517.81
325.855	420.81
326.084	423.81
326.313	408.81
326.542	431.81
326.77	440.81
326.999	493.81
327.228	642.81
327.457	902.81
327.686	1064.81
327.914	748.81
328.143	575.81
328.372	522.81
328.6	503.81
328.829	444.81
329.058	462.81
329.287	462.81
329.515	467.81
329.744	454.81
329.972	478.81
330.201	514.81
330.43	592.81
330.658	546.81
330.887	503.81
331.115	476.81
331.344	449.81
331.572	431.81
331.801	436.81
332.03	443.81
332.258	422.81
332.486	429.81
332.715	401.81
332.943	443.81
333.172	441.81
333.4	443.81
333.629	473.81
333.857	511.81
334.085	510.81
334.314	608.81
334.542	639.81
334.771	670.81
334.999	555.81
335.227	480.81
335.455	445.81
335.684	453.81
335.912	443.81
336.14	417.81
336.369	425.81
336.597	448.81
336.825	407.81
337.053	401.81
337.281	396.81
337.51	389.81
337.738	404.81
337.966	397.81
338.194	393.81
338.422	380.81
338.65	387.81
338.878	397.81
339.106	385.81
339.334	396.81
339.562	379.81
339.79	366.81
340.018	381.81
340.246	404.81
340.474	372.81
340.702	357.81
340.93	381.81
341.158	361.81
341.386	386.81
341.614	374.81
341.842	351.81
342.07	358.81
342.298	373.81
342.526	360.81
342.754	367.81
342.981	377.81
343.209	372.81
343.437	365.81
343.665	393.81
343.893	414.81
344.12	409.81
344.348	413.81
344.576	403.81
344.804	398.81
345.031	398.81
345.259	389.81
345.487	389.81
345.714	379.81
345.942	365.81
346.17	357.81
346.397	357.81
346.625	373.81
346.853	357.81
347.08	358.81
347.308	329.81
347.535	364.81
347.763	373.81
347.99	364.81
348.218	353.81
348.445	363.81
348.673	371.81
348.9	351.81
349.128	341.81
349.355	349.81
349.583	357.81
349.81	352.81
350.037	355.81
350.265	341.81
350.492	344.81
350.72	342.81
350.947	323.81
351.174	346.81
351.402	358.81
351.629	344.81
351.856	352.81
352.083	340.81
352.311	346.81
352.538	369.81
352.765	350.81
352.992	347.81
353.22	357.81
353.447	341.81
353.674	328.81
353.901	337.81
354.128	329.81
354.355	352.81
354.583	340.81
354.81	336.81
355.037	343.81
355.264	332.81
355.491	325.81
355.718	347.81
355.945	327.81
356.172	349.81
356.399	337.81
356.626	337.81
356.853	349.81
357.08	316.81
357.307	329.81
357.534	316.81
357.761	350.81
357.988	325.81
358.215	325.81
358.441	332.81
358.668	323.81
358.895	324.81
359.122	348.81
359.349	343.81
359.576	360.81
359.802	343.81
360.029	367.81
360.256	368.81
360.483	352.81
360.709	344.81
360.936	351.81
361.163	336.81
361.39	323.81
361.616	344.81
361.843	347.81
362.07	331.81
362.296	348.81
362.523	341.81
362.749	343.81
362.976	353.81
363.203	335.81
363.429	337.81
363.656	344.81
363.882	338.81
364.109	334.81
364.335	339.81
364.562	329.81
364.788	341.81
365.015	340.81
365.241	311.81
365.468	342.81
365.694	323.81
365.92	350.81
366.147	334.81
366.373	332.81
366.599	331.81
366.826	331.81
367.052	337.81
367.278	330.81
367.505	326.81
367.731	336.81
367.957	327.81
368.184	331.81
368.41	324.81
368.636	339.81
368.862	353.81
369.089	337.81
369.315	338.81
369.541	351.81
369.767	350.81
369.993	340.81
370.219	347.81
370.445	329.81
370.672	351.81
370.898	348.81
371.124	330.81
371.35	343.81
371.576	349.81
371.802	332.81
372.028	359.81
372.254	328.81
372.48	335.81
372.706	345.81
372.932	347.81
373.158	353.81
373.384	334.81
373.61	342.81
373.835	350.81
374.061	355.81
374.287	342.81
374.513	351.81
374.739	371.81
374.965	381.81
375.191	352.81
375.416	349.81
375.642	345.81
375.868	334.81
376.094	340.81
376.319	334.81
376.545	334.81
376.771	358.81
376.997	335.81
377.222	336.81
377.448	348.81
377.674	329.81
377.899	344.81
378.125	354.81
378.35	335.81
378.576	329.81
378.802	332.81
379.027	335.81
379.253	348.81
379.478	341.81
379.704	332.81
379.929	343.81
380.155	326.81
380.38	329.81
380.606	350.81
380.831	348.81
381.057	332.81
381.282	334.81
381.507	357.81
381.733	367.81
381.958	347.81
382.184	329.81
382.409	358.81
382.634	359.81
382.86	352.81
383.085	349.81
383.31	351.81
383.535	374.81
383.761	349.81
383.986	369.81
384.211	387.81
384.436	345.81
384.662	366.81
384.887	381.81
385.112	374.81
385.337	391.81
385.562	388.81
385.787	383.81
386.013	394.81
386.238	390.81
386.463	407.81
386.688	383.81
386.913	383.81
387.138	391.81
387.363	370.81
387.588	385.81
387.813	372.81
388.038	391.81
388.263	375.81
388.488	376.81
388.713	388.81
388.938	381.81
389.163	381.81
389.387	393.81
389.612	390.81
389.837	379.81
390.062	371.81
390.287	375.81
390.512	380.81
390.736	369.81
390.961	406.81
391.186	395.81
391.411	385.81
391.636	409.81
391.86	412.81
392.085	401.81
392.31	413.81
392.534	400.81
392.759	386.81
392.984	415.81
393.208	399.81
393.433	388.81
393.658	391.81
393.882	382.81
394.107	391.81
394.331	387.81
394.556	376.81
394.78	414.81
395.005	403.81
395.229	411.81
395.454	408.81
395.678	415.81
395.903	421.81
396.127	417.81
396.352	413.81
396.576	395.81
396.801	382.81
397.025	387.81
397.249	415.81
397.474	427.81
397.698	437.81
397.922	421.81
398.147	447.81
398.371	433.81
398.595	455.81
398.82	455.81
399.044	450.81
399.268	508.81
399.492	531.81
399.717	621.81
399.941	605.81
400.165	609.81
400.389	568.81
400.613	504.81
400.837	485.81
401.062	467.81
401.286	470.81
401.51	462.81
401.734	448.81
401.958	462.81
402.182	457.81
402.406	471.81
402.63	481.81
402.854	461.81
403.078	469.81
403.302	465.81
403.526	493.81
403.75	504.81
403.974	491.81
404.198	485.81
404.422	516.81
404.645	489.81
404.869	514.81
405.093	539.81
405.317	557.81
405.541	593.81
405.765	545.81
405.988	516.81
406.212	528.81
406.436	514.81
406.66	521.81
406.883	516.81
407.107	535.81
407.331	584.81
407.555	606.81
407.778	589.81
408.002	553.81
408.226	539.81
408.449	525.81
408.673	518.81
408.896	530.81
409.12	549.81
409.344	527.81
409.567	497.81
409.791	471.81
410.014	468.81
410.238	468.81
410.461	484.81
410.685	487.81
410.908	504.81
411.132	509.81
411.355	505.81
411.578	493.81
411.802	478.81
412.025	512.81
412.249	510.81
412.472	538.81
412.695	561.81
412.919	546.81
413.142	511.81
413.365	494.81
413.589	488.81
413.812	481.81
414.035	478.81
414.258	464.81
414.482	469.81
414.705	451.81
414.928	457.81
415.151	463.81
415.374	441.81
415.597	440.81
415.821	430.81
416.044	456.81
416.267	476.81
416.49	435.81
416.713	427.81
416.936	450.81
417.159	445.81
417.382	432.81
417.605	457.81
417.828	470.81
418.051	459.81
418.274	461.81
418.497	439.81
418.72	449.81
418.943	438.81
419.166	481.81
419.389	495.81
419.611	478.81
419.834	465.81
420.057	476.81
420.28	497.81
420.503	525.81
420.726	519.81
420.948	466.81
421.171	495.81
421.394	483.81
421.617	467.81
421.839	465.81
422.062	448.81
422.285	476.81
422.507	495.81
422.73	536.81
422.953	516.81
423.175	510.81
423.398	458.81
423.621	457.81
423.843	493.81
424.066	493.81
424.288	476.81
424.511	489.81
424.733	527.81
424.956	544.81
425.178	537.81
425.401	528.81
425.623	551.81
425.846	478.81
426.068	452.81
426.291	457.81
426.513	455.81
426.735	467.81
426.958	493.81
427.18	527.81
427.402	598.81
427.625	669.81
427.847	557.81
428.069	519.81
428.292	488.81
428.514	453.81
428.736	456.81
428.958	432.81
429.181	431.81
429.403	437.81
429.625	437.81
429.847	423.81
430.069	448.81
430.292	496.81
430.514	438.81
430.736	417.81
430.958	420.81
431.18	429.81
431.402	413.81
431.624	400.81
431.846	410.81
432.068	399.81
432.29	426.81
432.512	412.81
432.734	407.81
432.956	406.81
433.178	407.81
433.4	432.81
433.622	428.81
433.844	418.81
434.066	427.81
434.287	434.81
434.509	411.81
434.731	446.81
434.953	459.81
435.175	439.81
435.397	465.81
435.618	459.81
435.84	469.81
436.062	532.81
436.284	530.81
436.505	476.81
436.727	440.81
436.949	445.81
437.17	440.81
437.392	408.81
437.614	431.81
437.835	427.81
438.057	478.81
438.278	527.81
438.5	542.81
438.721	575.81
438.943	567.81
439.165	482.81
439.386	451.81
439.608	453.81
439.829	456.81
440.05	469.81
440.272	485.81
440.493	461.81
440.715	435.81
440.936	432.81
441.158	443.81
441.379	440.81
441.6	464.81
441.822	475.81
442.043	468.81
442.264	533.81
442.486	541.81
442.707	495.81
442.928	470.81
443.149	467.81
443.371	456.81
443.592	500.81
443.813	552.81
444.034	589.81
444.255	526.81
444.476	508.81
444.698	494.81
444.919	519.81
445.14	596.81
445.361	521.81
445.582	488.81
445.803	506.81
446.024	539.81
446.245	536.81
446.466	516.81
446.687	462.81
446.908	451.81
447.129	438.81
447.35	431.81
447.571	405.81
447.792	411.81
448.013	407.81
448.234	413.81
448.455	439.81
448.675	520.81
448.896	564.81
449.117	513.81
449.338	469.81
449.559	521.81
449.779	610.81
450	495.81
450.221	438.81
450.442	425.81
450.662	393.81
450.883	392.81
451.104	403.81
451.324	393.81
451.545	384.81
451.766	393.81
451.986	385.81
452.207	376.81
452.428	379.81
452.648	365.81
452.869	352.81
453.089	381.81
453.31	367.81
453.53	379.81
453.751	371.81
453.971	390.81
454.192	366.81
454.412	388.81
454.633	375.81
454.853	371.81
455.073	353.81
455.294	371.81
455.514	413.81
455.734	384.81
455.955	369.81
456.175	360.81
456.395	338.81
456.616	363.81
456.836	360.81
457.056	357.81
457.276	365.81
457.497	355.81
457.717	347.81
457.937	373.81
458.157	373.81
458.377	371.81
458.598	384.81
458.818	403.81
459.038	416.81
459.258	472.81
459.478	437.81
459.698	417.81
459.918	408.81
460.138	415.81
460.358	445.81
460.578	439.81
460.798	435.81
461.018	463.81
461.238	465.81
461.458	430.81
461.678	438.81
461.898	440.81
462.118	423.81
462.338	437.81
462.558	478.81
462.777	489.81
462.997	504.81
463.217	514.81
463.437	541.81
463.657	510.81
463.876	497.81
464.096	494.81
464.316	477.81
464.536	471.81
464.755	481.81
464.975	465.81
465.195	462.81
465.414	470.81
465.634	440.81
465.854	412.81
466.073	398.81
466.293	389.81
466.512	392.81
466.732	393.81
466.951	380.81
467.171	381.81
467.391	384.81
467.61	392.81
467.829	391.81
468.049	412.81
468.268	427.81
468.488	393.81
468.707	399.81
468.927	397.81
469.146	396.81
469.365	387.81
469.585	384.81
469.804	413.81
470.023	405.81
470.243	401.81
470.462	413.81
470.681	412.81
470.901	412.81
471.12	424.81
471.339	392.81
471.558	405.81
471.777	390.81
471.997	401.81
472.216	439.81
472.435	486.81
472.654	443.81
472.873	421.81
473.092	409.81
473.311	421.81
473.53	403.81
473.749	399.81
473.968	415.81
474.187	461.81
474.406	462.81
474.625	413.81
474.844	397.81
475.063	407.81
475.282	377.81
475.501	380.81
475.72	397.81
475.939	391.81
476.158	398.81
476.377	409.81
476.596	383.81
476.814	401.81
477.033	392.81
477.252	421.81
477.471	418.81
477.69	415.81
477.908	434.81
478.127	432.81
478.346	428.81
478.564	444.81
478.783	447.81
479.002	457.81
479.22	471.81
479.439	475.81
479.658	479.81
479.876	478.81
480.095	503.81
480.313	505.81
480.532	511.81
480.751	491.81
480.969	520.81
481.188	630.81
481.406	701.81
481.624	568.81
481.843	536.81
482.061	485.81
482.28	475.81
482.498	464.81
482.717	469.81
482.935	457.81
483.153	454.81
483.372	439.81
483.59	437.81
483.808	433.81
484.027	446.81
484.245	443.81
484.463	443.81
484.681	436.81
484.9	466.81
485.118	461.81
485.336	423.81
485.554	469.81
485.772	476.81
485.99	458.81
486.209	451.81
486.427	463.81
486.645	488.81
486.863	477.81
487.081	518.81
487.299	483.81
487.517	486.81
487.735	468.81
487.953	472.81
488.171	488.81
488.389	484.81
488.607	468.81
488.825	465.81
489.043	479.81
489.261	473.81
489.479	486.81
489.696	492.81
489.914	491.81
490.132	492.81
490.35	499.81
490.568	529.81
490.786	537.81
491.003	491.81
491.221	512.81
491.439	506.81
491.657	527.81
491.874	524.81
492.092	533.81
492.31	571.81
492.527	548.81
492.745	551.81
492.963	546.81
493.18	571.81
493.398	569.81
493.615	546.81
493.833	566.81
494.05	559.81
494.268	550.81
494.485	561.81
494.703	544.81
494.92	533.81
495.138	555.81
495.355	542.81
495.573	540.81
495.79	559.81
496.008	537.81
496.225	546.81
496.442	538.81
496.66	563.81
496.877	551.81
497.094	558.81
497.312	572.81
497.529	566.81
497.746	585.81
497.963	597.81
498.181	629.81
498.398	650.81
498.615	677.81
498.832	665.81
499.049	687.81
499.267	747.81
499.484	808.81
499.701	810.81
499.918	871.81
500.135	950.81
500.352	1033.81
500.569	1043.81
500.786	1065.81
501.003	1041.81
501.22	973.81
501.437	878.81
501.654	815.81
501.871	781.81
502.088	743.81
502.305	702.81
