Data from 1984.PennyLincolnUp.Lamp.En5.5.200Scan.071819.P1_HRD10591_16-57-20-967.txt Node
Date: Thu Jul 18 16:57:20 EDT 2019
User: cochatt
Spectrometer: HR+D1059
Trigger mode: 1
Integration Time (sec): 1.000000E-1
Scans to average: 1
Electric dark correction enabled: true
Nonlinearity correction enabled: false
Boxcar width: 0
XAxis mode: Wavelengths
Number of Pixels in Spectrum: 2048
>>>>>Begin Spectral Data<<<<<
223.165	-20.12
223.4	-20.12
223.635	-20.12
223.869	-26.12
224.104	-13.12
224.338	-22.12
224.573	-0.12
224.808	-9.12
225.042	-1.12
225.277	-17.12
225.511	-3.12
225.746	19.88
225.98	-6.12
226.215	-1.12
226.449	23.88
226.683	28.88
226.918	19.88
227.152	26.88
227.387	34.88
227.621	33.88
227.856	44.88
228.09	44.88
228.324	41.88
228.559	59.88
228.793	60.88
229.027	95.88
229.262	91.88
229.496	96.88
229.73	101.88
229.964	111.88
230.199	91.88
230.433	98.88
230.667	118.88
230.901	104.88
231.136	110.88
231.37	89.88
231.604	97.88
231.838	118.88
232.072	107.88
232.306	109.88
232.541	98.88
232.775	115.88
233.009	111.88
233.243	114.88
233.477	105.88
233.711	111.88
233.945	108.88
234.179	115.88
234.413	108.88
234.647	94.88
234.881	90.88
235.115	114.88
235.349	99.88
235.583	106.88
235.817	111.88
236.051	107.88
236.285	108.88
236.519	115.88
236.753	110.88
236.987	129.88
237.221	125.88
237.455	152.88
237.689	137.88
237.922	137.88
238.156	119.88
238.39	111.88
238.624	116.88
238.858	100.88
239.091	111.88
239.325	106.88
239.559	134.88
239.793	118.88
240.027	113.88
240.26	122.88
240.494	131.88
240.728	107.88
240.961	125.88
241.195	132.88
241.429	120.88
241.662	121.88
241.896	111.88
242.13	103.88
242.363	115.88
242.597	103.88
242.83	130.88
243.064	121.88
243.298	132.88
243.531	125.88
243.765	143.88
243.998	123.88
244.232	125.88
244.465	125.88
244.699	116.88
244.932	127.88
245.166	121.88
245.399	143.88
245.633	135.88
245.866	132.88
246.099	124.88
246.333	126.88
246.566	144.88
246.8	135.88
247.033	138.88
247.266	140.88
247.5	159.88
247.733	130.88
247.966	154.88
248.2	146.88
248.433	134.88
248.666	133.88
248.899	152.88
249.133	153.88
249.366	154.88
249.599	155.88
249.832	153.88
250.066	159.88
250.299	134.88
250.532	139.88
250.765	165.88
250.998	161.88
251.231	181.88
251.465	168.88
251.698	177.88
251.931	150.88
252.164	156.88
252.397	153.88
252.63	169.88
252.863	158.88
253.096	166.88
253.329	161.88
253.562	176.88
253.795	177.88
254.028	174.88
254.261	174.88
254.494	170.88
254.727	179.88
254.96	182.88
255.193	206.88
255.426	186.88
255.659	175.88
255.892	169.88
256.124	154.88
256.357	173.88
256.59	179.88
256.823	159.88
257.056	188.88
257.289	160.88
257.521	189.88
257.754	163.88
257.987	165.88
258.22	189.88
258.452	163.88
258.685	181.88
258.918	161.88
259.151	153.88
259.383	173.88
259.616	172.88
259.849	181.88
260.081	196.88
260.314	198.88
260.547	195.88
260.779	201.88
261.012	191.88
261.244	171.88
261.477	183.88
261.71	166.88
261.942	174.88
262.175	188.88
262.407	185.88
262.64	188.88
262.872	200.88
263.105	180.88
263.337	196.88
263.57	199.88
263.802	180.88
264.035	197.88
264.267	181.88
264.499	196.88
264.732	190.88
264.964	197.88
265.197	198.88
265.429	203.88
265.661	190.88
265.894	201.88
266.126	218.88
266.358	179.88
266.591	205.88
266.823	187.88
267.055	200.88
267.287	192.88
267.52	198.88
267.752	189.88
267.984	201.88
268.216	213.88
268.448	204.88
268.681	209.88
268.913	205.88
269.145	217.88
269.377	227.88
269.609	218.88
269.841	208.88
270.073	226.88
270.306	227.88
270.538	238.88
270.77	238.88
271.002	216.88
271.234	222.88
271.466	225.88
271.698	225.88
271.93	247.88
272.162	251.88
272.394	233.88
272.626	233.88
272.858	235.88
273.09	232.88
273.322	234.88
273.553	214.88
273.785	222.88
274.017	221.88
274.249	242.88
274.481	237.88
274.713	218.88
274.945	203.88
275.176	228.88
275.408	217.88
275.64	227.88
275.872	214.88
276.104	225.88
276.335	225.88
276.567	230.88
276.799	258.88
277.031	226.88
277.262	244.88
277.494	242.88
277.726	236.88
277.957	225.88
278.189	232.88
278.421	233.88
278.652	230.88
278.884	212.88
279.115	220.88
279.347	233.88
279.579	241.88
279.81	237.88
280.042	241.88
280.273	221.88
280.505	249.88
280.736	236.88
280.968	240.88
281.199	251.88
281.431	246.88
281.662	228.88
281.894	244.88
282.125	224.88
282.356	248.88
282.588	264.88
282.819	248.88
283.051	241.88
283.282	234.88
283.513	240.88
283.745	248.88
283.976	269.88
284.207	236.88
284.439	258.88
284.67	233.88
284.901	228.88
285.132	264.88
285.364	254.88
285.595	247.88
285.826	264.88
286.057	253.88
286.288	262.88
286.52	267.88
286.751	239.88
286.982	255.88
287.213	263.88
287.444	263.88
287.675	264.88
287.906	285.88
288.138	270.88
288.369	244.88
288.6	257.88
288.831	272.88
289.062	272.88
289.293	266.88
289.524	262.88
289.755	253.88
289.986	247.88
290.217	269.88
290.448	268.88
290.679	258.88
290.91	273.88
291.141	266.88
291.371	264.88
291.602	274.88
291.833	282.88
292.064	259.88
292.295	265.88
292.526	266.88
292.757	270.88
292.987	271.88
293.218	283.88
293.449	267.88
293.68	267.88
293.91	265.88
294.141	254.88
294.372	252.88
294.603	263.88
294.833	263.88
295.064	272.88
295.295	262.88
295.525	262.88
295.756	280.88
295.987	257.88
296.217	265.88
296.448	288.88
296.679	271.88
296.909	275.88
297.14	283.88
297.37	276.88
297.601	279.88
297.831	297.88
298.062	292.88
298.292	296.88
298.523	292.88
298.753	276.88
298.984	281.88
299.214	292.88
299.445	295.88
299.675	281.88
299.905	292.88
300.136	284.88
300.366	288.88
300.597	312.88
300.827	283.88
301.057	293.88
301.288	296.88
301.518	302.88
301.748	285.88
301.979	289.88
302.209	298.88
302.439	305.88
302.669	299.88
302.9	284.88
303.13	296.88
303.36	283.88
303.59	289.88
303.82	307.88
304.051	312.88
304.281	294.88
304.511	290.88
304.741	298.88
304.971	311.88
305.201	297.88
305.431	295.88
305.661	308.88
305.891	289.88
306.121	301.88
306.352	289.88
306.582	285.88
306.812	292.88
307.042	297.88
307.272	282.88
307.502	283.88
307.731	289.88
307.961	298.88
308.191	317.88
308.421	301.88
308.651	314.88
308.881	299.88
309.111	313.88
309.341	292.88
309.571	311.88
309.8	313.88
310.03	312.88
310.26	307.88
310.49	309.88
310.72	319.88
310.949	308.88
311.179	313.88
311.409	312.88
311.639	302.88
311.868	277.88
312.098	309.88
312.328	311.88
312.557	314.88
312.787	325.88
313.017	329.88
313.246	329.88
313.476	320.88
313.706	315.88
313.935	330.88
314.165	316.88
314.394	329.88
314.624	321.88
314.853	325.88
315.083	315.88
315.312	326.88
315.542	307.88
315.771	312.88
316.001	313.88
316.23	318.88
316.46	326.88
316.689	301.88
316.919	321.88
317.148	325.88
317.377	335.88
317.607	324.88
317.836	328.88
318.065	298.88
318.295	305.88
318.524	306.88
318.753	325.88
318.983	313.88
319.212	322.88
319.441	305.88
319.67	321.88
319.9	327.88
320.129	313.88
320.358	331.88
320.587	331.88
320.816	330.88
321.046	334.88
321.275	325.88
321.504	324.88
321.733	327.88
321.962	336.88
322.191	323.88
322.42	333.88
322.649	350.88
322.878	338.88
323.108	341.88
323.337	343.88
323.566	367.88
323.795	365.88
324.024	380.88
324.253	420.88
324.482	517.88
324.71	673.88
324.939	910.88
325.168	799.88
325.397	472.88
325.626	400.88
325.855	377.88
326.084	355.88
326.313	354.88
326.542	354.88
326.77	379.88
326.999	413.88
327.228	492.88
327.457	651.88
327.686	734.88
327.914	541.88
328.143	411.88
328.372	386.88
328.6	367.88
328.829	369.88
329.058	391.88
329.287	378.88
329.515	359.88
329.744	352.88
329.972	378.88
330.201	360.88
330.43	373.88
330.658	357.88
330.887	379.88
331.115	391.88
331.344	392.88
331.572	367.88
331.801	379.88
332.03	399.88
332.258	377.88
332.486	382.88
332.715	391.88
332.943	389.88
333.172	404.88
333.4	405.88
333.629	413.88
333.857	435.88
334.085	430.88
334.314	413.88
334.542	391.88
334.771	421.88
334.999	412.88
335.227	403.88
335.455	386.88
335.684	397.88
335.912	387.88
336.14	389.88
336.369	391.88
336.597	384.88
336.825	391.88
337.053	381.88
337.281	380.88
337.51	390.88
337.738	385.88
337.966	379.88
338.194	373.88
338.422	369.88
338.65	378.88
338.878	371.88
339.106	348.88
339.334	366.88
339.562	370.88
339.79	349.88
340.018	365.88
340.246	357.88
340.474	355.88
340.702	362.88
340.93	361.88
341.158	340.88
341.386	363.88
341.614	354.88
341.842	366.88
342.07	344.88
342.298	345.88
342.526	362.88
342.754	350.88
342.981	346.88
343.209	362.88
343.437	370.88
343.665	365.88
343.893	381.88
344.12	398.88
344.348	403.88
344.576	373.88
344.804	379.88
345.031	376.88
345.259	365.88
345.487	348.88
345.714	359.88
345.942	342.88
346.17	331.88
346.397	347.88
346.625	351.88
346.853	345.88
347.08	338.88
347.308	357.88
347.535	327.88
347.763	346.88
347.99	338.88
348.218	342.88
348.445	325.88
348.673	347.88
348.9	347.88
349.128	326.88
349.355	329.88
349.583	317.88
349.81	349.88
350.037	327.88
350.265	330.88
350.492	330.88
350.72	327.88
350.947	325.88
351.174	330.88
351.402	337.88
351.629	323.88
351.856	315.88
352.083	336.88
352.311	339.88
352.538	344.88
352.765	330.88
352.992	333.88
353.22	319.88
353.447	322.88
353.674	326.88
353.901	322.88
354.128	332.88
354.355	330.88
354.583	326.88
354.81	314.88
355.037	318.88
355.264	323.88
355.491	323.88
355.718	322.88
355.945	339.88
356.172	332.88
356.399	313.88
356.626	335.88
356.853	314.88
357.08	335.88
357.307	349.88
357.534	321.88
357.761	311.88
357.988	324.88
358.215	328.88
358.441	318.88
358.668	335.88
358.895	332.88
359.122	317.88
359.349	356.88
359.576	338.88
359.802	329.88
360.029	343.88
360.256	324.88
360.483	345.88
360.709	330.88
360.936	325.88
361.163	310.88
361.39	313.88
361.616	341.88
361.843	354.88
362.07	344.88
362.296	317.88
362.523	310.88
362.749	331.88
362.976	332.88
363.203	343.88
363.429	316.88
363.656	310.88
363.882	335.88
364.109	331.88
364.335	337.88
364.562	335.88
364.788	321.88
365.015	310.88
365.241	329.88
365.468	327.88
365.694	321.88
365.92	330.88
366.147	331.88
366.373	323.88
366.599	333.88
366.826	320.88
367.052	311.88
367.278	323.88
367.505	327.88
367.731	343.88
367.957	353.88
368.184	326.88
368.41	318.88
368.636	331.88
368.862	323.88
369.089	323.88
369.315	316.88
369.541	326.88
369.767	334.88
369.993	329.88
370.219	303.88
370.445	321.88
370.672	338.88
370.898	322.88
371.124	329.88
371.35	342.88
371.576	348.88
371.802	341.88
372.028	354.88
372.254	348.88
372.48	348.88
372.706	341.88
372.932	349.88
373.158	358.88
373.384	355.88
373.61	340.88
373.835	339.88
374.061	345.88
374.287	343.88
374.513	349.88
374.739	351.88
374.965	361.88
375.191	340.88
375.416	350.88
375.642	336.88
375.868	336.88
376.094	341.88
376.319	343.88
376.545	336.88
376.771	348.88
376.997	325.88
377.222	332.88
377.448	319.88
377.674	317.88
377.899	335.88
378.125	321.88
378.35	333.88
378.576	317.88
378.802	327.88
379.027	327.88
379.253	333.88
379.478	347.88
379.704	328.88
379.929	315.88
380.155	316.88
380.38	348.88
380.606	339.88
380.831	342.88
381.057	364.88
381.282	334.88
381.507	333.88
381.733	350.88
381.958	347.88
382.184	332.88
382.409	343.88
382.634	338.88
382.86	334.88
383.085	354.88
383.31	357.88
383.535	357.88
383.761	344.88
383.986	339.88
384.211	356.88
384.436	374.88
384.662	377.88
384.887	373.88
385.112	380.88
385.337	375.88
385.562	391.88
385.787	385.88
386.013	385.88
386.238	381.88
386.463	380.88
386.688	380.88
386.913	383.88
387.138	387.88
387.363	369.88
387.588	363.88
387.813	368.88
388.038	387.88
388.263	389.88
388.488	359.88
388.713	373.88
388.938	381.88
389.163	372.88
389.387	376.88
389.612	376.88
389.837	374.88
390.062	379.88
390.287	371.88
390.512	360.88
390.736	381.88
390.961	389.88
391.186	397.88
391.411	391.88
391.636	389.88
391.86	402.88
392.085	422.88
392.31	403.88
392.534	405.88
392.759	398.88
392.984	385.88
393.208	388.88
393.433	377.88
393.658	411.88
393.882	377.88
394.107	389.88
394.331	384.88
394.556	380.88
394.78	403.88
395.005	382.88
395.229	381.88
395.454	400.88
395.678	413.88
395.903	422.88
396.127	430.88
396.352	412.88
396.576	381.88
396.801	397.88
397.025	392.88
397.249	406.88
397.474	414.88
397.698	400.88
397.922	406.88
398.147	429.88
398.371	423.88
398.595	441.88
398.82	435.88
399.044	459.88
399.268	517.88
399.492	544.88
399.717	587.88
399.941	592.88
400.165	595.88
400.389	541.88
400.613	492.88
400.837	462.88
401.062	460.88
401.286	467.88
401.51	449.88
401.734	434.88
401.958	433.88
402.182	445.88
402.406	428.88
402.63	455.88
402.854	449.88
403.078	481.88
403.302	472.88
403.526	457.88
403.75	482.88
403.974	484.88
404.198	486.88
404.422	486.88
404.645	494.88
404.869	467.88
405.093	501.88
405.317	491.88
405.541	487.88
405.765	488.88
405.988	464.88
406.212	499.88
406.436	497.88
406.66	506.88
406.883	478.88
407.107	500.88
407.331	541.88
407.555	571.88
407.778	571.88
408.002	545.88
408.226	500.88
408.449	519.88
408.673	511.88
408.896	508.88
409.12	527.88
409.344	513.88
409.567	487.88
409.791	478.88
410.014	463.88
410.238	460.88
410.461	492.88
410.685	468.88
410.908	449.88
411.132	499.88
411.355	477.88
411.578	478.88
411.802	456.88
412.025	444.88
412.249	455.88
412.472	459.88
412.695	460.88
412.919	441.88
413.142	446.88
413.365	459.88
413.589	446.88
413.812	436.88
414.035	423.88
414.258	425.88
414.482	428.88
414.705	430.88
414.928	453.88
415.151	454.88
415.374	456.88
415.597	411.88
415.821	411.88
416.044	433.88
416.267	414.88
416.49	425.88
416.713	425.88
416.936	432.88
417.159	427.88
417.382	434.88
417.605	417.88
417.828	435.88
418.051	423.88
418.274	462.88
418.497	438.88
418.72	463.88
418.943	427.88
419.166	449.88
419.389	458.88
419.611	475.88
419.834	465.88
420.057	442.88
420.28	453.88
420.503	433.88
420.726	439.88
420.948	439.88
421.171	457.88
421.394	446.88
421.617	433.88
421.839	427.88
422.062	444.88
422.285	428.88
422.507	473.88
422.73	501.88
422.953	506.88
423.175	467.88
423.398	465.88
423.621	462.88
423.843	460.88
424.066	463.88
424.288	452.88
424.511	467.88
424.733	491.88
424.956	536.88
425.178	493.88
425.401	516.88
425.623	518.88
425.846	461.88
426.068	468.88
426.291	437.88
426.513	444.88
426.735	446.88
426.958	451.88
427.18	492.88
427.402	551.88
427.625	575.88
427.847	478.88
428.069	453.88
428.292	443.88
428.514	425.88
428.736	413.88
428.958	411.88
429.181	396.88
429.403	420.88
429.625	412.88
429.847	415.88
430.069	461.88
430.292	441.88
430.514	429.88
430.736	385.88
430.958	421.88
431.18	407.88
431.402	402.88
431.624	385.88
431.846	406.88
432.068	412.88
432.29	400.88
432.512	406.88
432.734	401.88
432.956	397.88
433.178	387.88
433.4	403.88
433.622	414.88
433.844	399.88
434.066	407.88
434.287	412.88
434.509	417.88
434.731	424.88
434.953	443.88
435.175	439.88
435.397	438.88
435.618	455.88
435.84	451.88
436.062	490.88
436.284	513.88
436.505	461.88
436.727	455.88
436.949	395.88
437.17	412.88
437.392	403.88
437.614	413.88
437.835	409.88
438.057	442.88
438.278	471.88
438.5	487.88
438.721	524.88
438.943	533.88
439.165	451.88
439.386	427.88
439.608	431.88
439.829	409.88
440.05	433.88
440.272	448.88
440.493	433.88
440.715	420.88
440.936	406.88
441.158	411.88
441.379	419.88
441.6	423.88
441.822	453.88
442.043	461.88
442.264	470.88
442.486	491.88
442.707	470.88
442.928	443.88
443.149	464.88
443.371	457.88
443.592	489.88
443.813	513.88
444.034	561.88
444.255	490.88
444.476	484.88
444.698	476.88
444.919	491.88
445.14	573.88
445.361	499.88
445.582	475.88
445.803	484.88
446.024	515.88
446.245	481.88
446.466	474.88
446.687	441.88
446.908	426.88
447.129	403.88
447.35	408.88
447.571	413.88
447.792	397.88
448.013	399.88
448.234	374.88
448.455	430.88
448.675	462.88
448.896	531.88
449.117	459.88
449.338	433.88
449.559	492.88
449.779	551.88
450	447.88
450.221	423.88
450.442	387.88
450.662	385.88
450.883	365.88
451.104	407.88
451.324	387.88
451.545	362.88
451.766	387.88
451.986	367.88
452.207	369.88
452.428	350.88
452.648	357.88
452.869	377.88
453.089	374.88
453.31	362.88
453.53	362.88
453.751	362.88
453.971	353.88
454.192	355.88
454.412	337.88
454.633	346.88
454.853	371.88
455.073	361.88
455.294	359.88
455.514	389.88
455.734	387.88
455.955	346.88
456.175	320.88
456.395	333.88
456.616	360.88
456.836	355.88
457.056	338.88
457.276	356.88
457.497	350.88
457.717	347.88
457.937	342.88
458.157	362.88
458.377	345.88
458.598	359.88
458.818	379.88
459.038	421.88
459.258	459.88
459.478	404.88
459.698	406.88
459.918	404.88
460.138	421.88
460.358	410.88
460.578	433.88
460.798	450.88
461.018	420.88
461.238	428.88
461.458	447.88
461.678	445.88
461.898	445.88
462.118	431.88
462.338	443.88
462.558	462.88
462.777	460.88
462.997	505.88
463.217	526.88
463.437	531.88
463.657	483.88
463.876	459.88
464.096	482.88
464.316	473.88
464.536	476.88
464.755	461.88
464.975	467.88
465.195	452.88
465.414	461.88
465.634	423.88
465.854	393.88
466.073	412.88
466.293	397.88
466.512	395.88
466.732	376.88
466.951	380.88
467.171	377.88
467.391	389.88
467.61	394.88
467.829	371.88
468.049	360.88
468.268	385.88
468.488	362.88
468.707	352.88
468.927	357.88
469.146	344.88
469.365	385.88
469.585	369.88
469.804	386.88
470.023	386.88
470.243	393.88
470.462	407.88
470.681	421.88
470.901	382.88
471.12	392.88
471.339	397.88
471.558	383.88
471.777	390.88
471.997	381.88
472.216	357.88
472.435	348.88
472.654	361.88
472.873	365.88
473.092	378.88
473.311	358.88
473.53	377.88
473.749	362.88
473.968	366.88
474.187	422.88
474.406	437.88
474.625	405.88
474.844	391.88
475.063	381.88
475.282	381.88
475.501	386.88
475.72	370.88
475.939	372.88
476.158	375.88
476.377	383.88
476.596	377.88
476.814	366.88
477.033	374.88
477.252	415.88
477.471	409.88
477.69	404.88
477.908	427.88
478.127	418.88
478.346	435.88
478.564	410.88
478.783	433.88
479.002	438.88
479.22	449.88
479.439	459.88
479.658	429.88
479.876	427.88
480.095	433.88
480.313	480.88
480.532	510.88
480.751	470.88
480.969	435.88
481.188	462.88
481.406	454.88
481.624	447.88
481.843	427.88
482.061	428.88
482.28	437.88
482.498	419.88
482.717	404.88
482.935	430.88
483.153	414.88
483.372	414.88
483.59	444.88
483.808	429.88
484.027	430.88
484.245	417.88
484.463	428.88
484.681	428.88
484.9	437.88
485.118	429.88
485.336	460.88
485.554	450.88
485.772	446.88
485.99	437.88
486.209	426.88
486.427	433.88
486.645	445.88
486.863	439.88
487.081	441.88
487.299	447.88
487.517	430.88
487.735	452.88
487.953	456.88
488.171	440.88
488.389	453.88
488.607	436.88
488.825	443.88
489.043	453.88
489.261	452.88
489.479	456.88
489.696	466.88
489.914	453.88
490.132	459.88
490.35	445.88
490.568	450.88
490.786	440.88
491.003	439.88
491.221	464.88
491.439	463.88
491.657	466.88
491.874	467.88
492.092	468.88
492.31	473.88
492.527	469.88
492.745	496.88
492.963	476.88
493.18	484.88
493.398	488.88
493.615	464.88
493.833	497.88
494.05	490.88
494.268	512.88
494.485	501.88
494.703	521.88
494.92	510.88
495.138	483.88
495.355	512.88
495.573	506.88
495.79	491.88
496.008	498.88
496.225	510.88
496.442	513.88
496.66	513.88
496.877	504.88
497.094	515.88
497.312	524.88
497.529	525.88
497.746	555.88
497.963	547.88
498.181	557.88
498.398	584.88
498.615	621.88
498.832	629.88
499.049	656.88
499.267	711.88
499.484	732.88
499.701	787.88
499.918	825.88
500.135	917.88
500.352	1024.88
500.569	1037.88
500.786	1004.88
501.003	997.88
501.22	922.88
501.437	852.88
501.654	792.88
501.871	725.88
502.088	707.88
