Data from 1984.PennyLincolnUp.Lamp.En5.5.200Scan.071819.P1_HRD10591_16-58-05-968.txt Node
Date: Thu Jul 18 16:58:05 EDT 2019
User: cochatt
Spectrometer: HR+D1059
Trigger mode: 1
Integration Time (sec): 1.000000E-1
Scans to average: 1
Electric dark correction enabled: true
Nonlinearity correction enabled: false
Boxcar width: 0
XAxis mode: Wavelengths
Number of Pixels in Spectrum: 2048
>>>>>Begin Spectral Data<<<<<
223.165	-0.75
223.4	-0.75
223.635	-0.75
223.869	-1.75
224.104	-9.75
224.338	-3.75
224.573	-14.75
224.808	-23.75
225.042	-7.75
225.277	-3.75
225.511	-4.75
225.746	-2.75
225.98	-2.75
226.215	-6.75
226.449	13.25
226.683	30.25
226.918	13.25
227.152	26.25
227.387	40.25
227.621	55.25
227.856	29.25
228.09	33.25
228.324	55.25
228.559	44.25
228.793	53.25
229.027	71.25
229.262	88.25
229.496	93.25
229.73	105.25
229.964	104.25
230.199	109.25
230.433	107.25
230.667	103.25
230.901	102.25
231.136	104.25
231.37	95.25
231.604	102.25
231.838	115.25
232.072	108.25
232.306	92.25
232.541	99.25
232.775	109.25
233.009	92.25
233.243	111.25
233.477	124.25
233.711	120.25
233.945	116.25
234.179	111.25
234.413	103.25
234.647	101.25
234.881	119.25
235.115	91.25
235.349	113.25
235.583	125.25
235.817	94.25
236.051	113.25
236.285	118.25
236.519	121.25
236.753	120.25
236.987	116.25
237.221	133.25
237.455	154.25
237.689	133.25
237.922	120.25
238.156	122.25
238.39	128.25
238.624	109.25
238.858	125.25
239.091	109.25
239.325	121.25
239.559	124.25
239.793	121.25
240.027	142.25
240.26	124.25
240.494	124.25
240.728	131.25
240.961	130.25
241.195	138.25
241.429	130.25
241.662	122.25
241.896	105.25
242.13	112.25
242.363	107.25
242.597	127.25
242.83	130.25
243.064	112.25
243.298	131.25
243.531	131.25
243.765	133.25
243.998	130.25
244.232	133.25
244.465	134.25
244.699	135.25
244.932	144.25
245.166	135.25
245.399	141.25
245.633	136.25
245.866	125.25
246.099	134.25
246.333	128.25
246.566	139.25
246.8	146.25
247.033	152.25
247.266	146.25
247.5	140.25
247.733	165.25
247.966	146.25
248.2	154.25
248.433	157.25
248.666	143.25
248.899	152.25
249.133	164.25
249.366	187.25
249.599	165.25
249.832	153.25
250.066	138.25
250.299	161.25
250.532	167.25
250.765	187.25
250.998	180.25
251.231	176.25
251.465	199.25
251.698	184.25
251.931	184.25
252.164	163.25
252.397	171.25
252.63	163.25
252.863	184.25
253.096	168.25
253.329	203.25
253.562	183.25
253.795	183.25
254.028	172.25
254.261	189.25
254.494	185.25
254.727	206.25
254.96	218.25
255.193	229.25
255.426	203.25
255.659	178.25
255.892	201.25
256.124	198.25
256.357	210.25
256.59	201.25
256.823	198.25
257.056	204.25
257.289	178.25
257.521	175.25
257.754	177.25
257.987	170.25
258.22	179.25
258.452	165.25
258.685	201.25
258.918	175.25
259.151	185.25
259.383	194.25
259.616	195.25
259.849	191.25
260.081	205.25
260.314	209.25
260.547	207.25
260.779	210.25
261.012	203.25
261.244	203.25
261.477	194.25
261.71	196.25
261.942	205.25
262.175	194.25
262.407	188.25
262.64	204.25
262.872	195.25
263.105	182.25
263.337	191.25
263.57	199.25
263.802	216.25
264.035	200.25
264.267	186.25
264.499	191.25
264.732	195.25
264.964	206.25
265.197	194.25
265.429	206.25
265.661	188.25
265.894	202.25
266.126	204.25
266.358	188.25
266.591	205.25
266.823	210.25
267.055	215.25
267.287	203.25
267.52	192.25
267.752	205.25
267.984	211.25
268.216	217.25
268.448	216.25
268.681	205.25
268.913	225.25
269.145	246.25
269.377	246.25
269.609	241.25
269.841	231.25
270.073	260.25
270.306	255.25
270.538	282.25
270.77	253.25
271.002	258.25
271.234	237.25
271.466	250.25
271.698	259.25
271.93	256.25
272.162	269.25
272.394	267.25
272.626	264.25
272.858	263.25
273.09	251.25
273.322	236.25
273.553	239.25
273.785	244.25
274.017	231.25
274.249	244.25
274.481	235.25
274.713	241.25
274.945	245.25
275.176	229.25
275.408	247.25
275.64	251.25
275.872	226.25
276.104	237.25
276.335	252.25
276.567	251.25
276.799	248.25
277.031	255.25
277.262	253.25
277.494	268.25
277.726	254.25
277.957	272.25
278.189	240.25
278.421	241.25
278.652	271.25
278.884	251.25
279.115	236.25
279.347	267.25
279.579	250.25
279.81	239.25
280.042	229.25
280.273	253.25
280.505	259.25
280.736	238.25
280.968	267.25
281.199	248.25
281.431	261.25
281.662	267.25
281.894	261.25
282.125	266.25
282.356	260.25
282.588	279.25
282.819	273.25
283.051	228.25
283.282	245.25
283.513	260.25
283.745	255.25
283.976	258.25
284.207	270.25
284.439	272.25
284.67	285.25
284.901	277.25
285.132	244.25
285.364	253.25
285.595	269.25
285.826	277.25
286.057	270.25
286.288	289.25
286.52	266.25
286.751	252.25
286.982	268.25
287.213	283.25
287.444	278.25
287.675	275.25
287.906	279.25
288.138	293.25
288.369	294.25
288.6	270.25
288.831	269.25
289.062	289.25
289.293	296.25
289.524	286.25
289.755	258.25
289.986	283.25
290.217	291.25
290.448	281.25
290.679	290.25
290.91	287.25
291.141	270.25
291.371	270.25
291.602	278.25
291.833	286.25
292.064	279.25
292.295	290.25
292.526	294.25
292.757	301.25
292.987	287.25
293.218	288.25
293.449	282.25
293.68	284.25
293.91	269.25
294.141	278.25
294.372	270.25
294.603	295.25
294.833	290.25
295.064	291.25
295.295	292.25
295.525	282.25
295.756	304.25
295.987	297.25
296.217	291.25
296.448	305.25
296.679	290.25
296.909	279.25
297.14	296.25
297.37	301.25
297.601	300.25
297.831	285.25
298.062	291.25
298.292	283.25
298.523	302.25
298.753	297.25
298.984	301.25
299.214	309.25
299.445	297.25
299.675	301.25
299.905	298.25
300.136	303.25
300.366	308.25
300.597	289.25
300.827	323.25
301.057	308.25
301.288	315.25
301.518	331.25
301.748	306.25
301.979	310.25
302.209	317.25
302.439	320.25
302.669	319.25
302.9	290.25
303.13	300.25
303.36	324.25
303.59	311.25
303.82	311.25
304.051	320.25
304.281	329.25
304.511	311.25
304.741	315.25
304.971	319.25
305.201	322.25
305.431	314.25
305.661	308.25
305.891	312.25
306.121	324.25
306.352	314.25
306.582	321.25
306.812	323.25
307.042	298.25
307.272	295.25
307.502	296.25
307.731	320.25
307.961	309.25
308.191	325.25
308.421	320.25
308.651	330.25
308.881	313.25
309.111	321.25
309.341	313.25
309.571	304.25
309.8	317.25
310.03	345.25
310.26	328.25
310.49	338.25
310.72	332.25
310.949	347.25
311.179	356.25
311.409	350.25
311.639	308.25
311.868	331.25
312.098	338.25
312.328	332.25
312.557	369.25
312.787	361.25
313.017	352.25
313.246	346.25
313.476	337.25
313.706	351.25
313.935	356.25
314.165	367.25
314.394	352.25
314.624	359.25
314.853	361.25
315.083	348.25
315.312	348.25
315.542	368.25
315.771	342.25
316.001	334.25
316.23	356.25
316.46	344.25
316.689	342.25
316.919	337.25
317.148	339.25
317.377	363.25
317.607	350.25
317.836	356.25
318.065	341.25
318.295	350.25
318.524	346.25
318.753	343.25
318.983	352.25
319.212	338.25
319.441	354.25
319.67	348.25
319.9	331.25
320.129	333.25
320.358	351.25
320.587	341.25
320.816	365.25
321.046	347.25
321.275	370.25
321.504	353.25
321.733	371.25
321.962	355.25
322.191	361.25
322.42	372.25
322.649	376.25
322.878	400.25
323.108	391.25
323.337	392.25
323.566	379.25
323.795	417.25
324.024	439.25
324.253	518.25
324.482	696.25
324.71	979.25
324.939	1340.25
325.168	1172.25
325.397	656.25
325.626	476.25
325.855	437.25
326.084	431.25
326.313	429.25
326.542	437.25
326.77	438.25
326.999	495.25
327.228	637.25
327.457	891.25
327.686	1059.25
327.914	773.25
328.143	550.25
328.372	478.25
328.6	456.25
328.829	435.25
329.058	455.25
329.287	452.25
329.515	456.25
329.744	422.25
329.972	437.25
330.201	447.25
330.43	487.25
330.658	491.25
330.887	448.25
331.115	475.25
331.344	429.25
331.572	424.25
331.801	434.25
332.03	415.25
332.258	413.25
332.486	428.25
332.715	427.25
332.943	461.25
333.172	451.25
333.4	446.25
333.629	459.25
333.857	457.25
334.085	504.25
334.314	493.25
334.542	535.25
334.771	505.25
334.999	462.25
335.227	469.25
335.455	432.25
335.684	451.25
335.912	409.25
336.14	418.25
336.369	425.25
336.597	434.25
336.825	437.25
337.053	419.25
337.281	403.25
337.51	407.25
337.738	402.25
337.966	392.25
338.194	405.25
338.422	405.25
338.65	398.25
338.878	389.25
339.106	384.25
339.334	397.25
339.562	394.25
339.79	383.25
340.018	368.25
340.246	371.25
340.474	389.25
340.702	384.25
340.93	384.25
341.158	390.25
341.386	385.25
341.614	398.25
341.842	379.25
342.07	370.25
342.298	396.25
342.526	377.25
342.754	365.25
342.981	372.25
343.209	387.25
343.437	394.25
343.665	417.25
343.893	438.25
344.12	429.25
344.348	420.25
344.576	403.25
344.804	415.25
345.031	387.25
345.259	410.25
345.487	378.25
345.714	380.25
345.942	385.25
346.17	385.25
346.397	385.25
346.625	376.25
346.853	384.25
347.08	385.25
347.308	373.25
347.535	371.25
347.763	358.25
347.99	387.25
348.218	376.25
348.445	358.25
348.673	385.25
348.9	361.25
349.128	342.25
349.355	353.25
349.583	346.25
349.81	365.25
350.037	346.25
350.265	346.25
350.492	345.25
350.72	351.25
350.947	348.25
351.174	367.25
351.402	357.25
351.629	358.25
351.856	351.25
352.083	370.25
352.311	367.25
352.538	356.25
352.765	397.25
352.992	370.25
353.22	359.25
353.447	359.25
353.674	328.25
353.901	358.25
354.128	360.25
354.355	340.25
354.583	347.25
354.81	354.25
355.037	338.25
355.264	332.25
355.491	347.25
355.718	352.25
355.945	350.25
356.172	366.25
356.399	333.25
356.626	346.25
356.853	351.25
357.08	348.25
357.307	346.25
357.534	347.25
357.761	351.25
357.988	351.25
358.215	377.25
358.441	345.25
358.668	350.25
358.895	346.25
359.122	356.25
359.349	360.25
359.576	347.25
359.802	383.25
360.029	377.25
360.256	387.25
360.483	395.25
360.709	359.25
360.936	363.25
361.163	374.25
361.39	363.25
361.616	367.25
361.843	359.25
362.07	345.25
362.296	362.25
362.523	367.25
362.749	375.25
362.976	367.25
363.203	335.25
363.429	331.25
363.656	341.25
363.882	329.25
364.109	342.25
364.335	353.25
364.562	352.25
364.788	344.25
365.015	346.25
365.241	337.25
365.468	381.25
365.694	346.25
365.92	361.25
366.147	339.25
366.373	345.25
366.599	331.25
366.826	349.25
367.052	337.25
367.278	345.25
367.505	333.25
367.731	337.25
367.957	339.25
368.184	348.25
368.41	331.25
368.636	356.25
368.862	345.25
369.089	348.25
369.315	371.25
369.541	351.25
369.767	375.25
369.993	315.25
370.219	378.25
370.445	340.25
370.672	333.25
370.898	367.25
371.124	354.25
371.35	341.25
371.576	365.25
371.802	352.25
372.028	362.25
372.254	355.25
372.48	357.25
372.706	370.25
372.932	373.25
373.158	379.25
373.384	362.25
373.61	351.25
373.835	351.25
374.061	352.25
374.287	360.25
374.513	360.25
374.739	370.25
374.965	388.25
375.191	394.25
375.416	377.25
375.642	378.25
375.868	383.25
376.094	372.25
376.319	357.25
376.545	359.25
376.771	344.25
376.997	355.25
377.222	364.25
377.448	355.25
377.674	356.25
377.899	353.25
378.125	353.25
378.35	365.25
378.576	349.25
378.802	332.25
379.027	353.25
379.253	355.25
379.478	369.25
379.704	340.25
379.929	354.25
380.155	364.25
380.38	347.25
380.606	344.25
380.831	342.25
381.057	352.25
381.282	359.25
381.507	359.25
381.733	346.25
381.958	355.25
382.184	371.25
382.409	357.25
382.634	373.25
382.86	363.25
383.085	371.25
383.31	379.25
383.535	385.25
383.761	364.25
383.986	387.25
384.211	377.25
384.436	386.25
384.662	391.25
384.887	396.25
385.112	393.25
385.337	420.25
385.562	382.25
385.787	397.25
386.013	396.25
386.238	417.25
386.463	395.25
386.688	401.25
386.913	385.25
387.138	403.25
387.363	396.25
387.588	398.25
387.813	409.25
388.038	387.25
388.263	393.25
388.488	395.25
388.713	394.25
388.938	402.25
389.163	390.25
389.387	414.25
389.612	413.25
389.837	403.25
390.062	398.25
390.287	393.25
390.512	400.25
390.736	389.25
390.961	398.25
391.186	398.25
391.411	397.25
391.636	411.25
391.86	410.25
392.085	436.25
392.31	426.25
392.534	415.25
392.759	423.25
392.984	397.25
393.208	416.25
393.433	395.25
393.658	419.25
393.882	426.25
394.107	379.25
394.331	435.25
394.556	399.25
394.78	415.25
395.005	407.25
395.229	415.25
395.454	429.25
395.678	424.25
395.903	443.25
396.127	454.25
396.352	443.25
396.576	424.25
396.801	415.25
397.025	409.25
397.249	410.25
397.474	418.25
397.698	440.25
397.922	435.25
398.147	451.25
398.371	440.25
398.595	447.25
398.82	471.25
399.044	487.25
399.268	534.25
399.492	572.25
399.717	602.25
399.941	643.25
400.165	615.25
400.389	604.25
400.613	557.25
400.837	492.25
401.062	505.25
401.286	475.25
401.51	471.25
401.734	484.25
401.958	469.25
402.182	480.25
402.406	486.25
402.63	491.25
402.854	493.25
403.078	500.25
403.302	491.25
403.526	488.25
403.75	516.25
403.974	513.25
404.198	546.25
404.422	503.25
404.645	513.25
404.869	524.25
405.093	531.25
405.317	534.25
405.541	553.25
405.765	529.25
405.988	501.25
406.212	525.25
406.436	523.25
406.66	540.25
406.883	535.25
407.107	551.25
407.331	600.25
407.555	635.25
407.778	633.25
408.002	608.25
408.226	546.25
408.449	545.25
408.673	520.25
408.896	571.25
409.12	543.25
409.344	546.25
409.567	530.25
409.791	514.25
410.014	496.25
410.238	493.25
410.461	479.25
410.685	487.25
410.908	518.25
411.132	513.25
411.355	527.25
411.578	511.25
411.802	511.25
412.025	479.25
412.249	476.25
412.472	514.25
412.695	517.25
412.919	525.25
413.142	493.25
413.365	483.25
413.589	488.25
413.812	479.25
414.035	471.25
414.258	467.25
414.482	483.25
414.705	475.25
414.928	459.25
415.151	456.25
415.374	465.25
415.597	453.25
415.821	465.25
416.044	451.25
416.267	447.25
416.49	453.25
416.713	458.25
416.936	448.25
417.159	456.25
417.382	461.25
417.605	452.25
417.828	469.25
418.051	481.25
418.274	455.25
418.497	464.25
418.72	491.25
418.943	456.25
419.166	491.25
419.389	512.25
419.611	523.25
419.834	500.25
420.057	487.25
420.28	480.25
420.503	499.25
420.726	482.25
420.948	484.25
421.171	515.25
421.394	495.25
421.617	493.25
421.839	473.25
422.062	472.25
422.285	480.25
422.507	511.25
422.73	564.25
422.953	532.25
423.175	513.25
423.398	497.25
423.621	495.25
423.843	499.25
424.066	498.25
424.288	511.25
424.511	513.25
424.733	556.25
424.956	600.25
425.178	551.25
425.401	549.25
425.623	561.25
425.846	523.25
426.068	491.25
426.291	465.25
426.513	471.25
426.735	472.25
426.958	488.25
427.18	525.25
427.402	631.25
427.625	672.25
427.847	608.25
428.069	524.25
428.292	499.25
428.514	465.25
428.736	453.25
428.958	452.25
429.181	436.25
429.403	431.25
429.625	447.25
429.847	461.25
430.069	475.25
430.292	480.25
430.514	454.25
430.736	416.25
430.958	435.25
431.18	434.25
431.402	416.25
431.624	426.25
431.846	424.25
432.068	442.25
432.29	439.25
432.512	424.25
432.734	426.25
432.956	441.25
433.178	426.25
433.4	435.25
433.622	415.25
433.844	409.25
434.066	448.25
434.287	422.25
434.509	423.25
434.731	442.25
434.953	454.25
435.175	460.25
435.397	504.25
435.618	490.25
435.84	486.25
436.062	537.25
436.284	593.25
436.505	499.25
436.727	461.25
436.949	453.25
437.17	444.25
437.392	433.25
437.614	428.25
437.835	457.25
438.057	492.25
438.278	557.25
438.5	555.25
438.721	601.25
438.943	595.25
439.165	496.25
439.386	451.25
439.608	476.25
439.829	474.25
440.05	476.25
440.272	476.25
440.493	480.25
440.715	460.25
440.936	455.25
441.158	468.25
441.379	480.25
441.6	454.25
441.822	460.25
442.043	532.25
442.264	534.25
442.486	572.25
442.707	516.25
442.928	499.25
443.149	482.25
443.371	477.25
443.592	532.25
443.813	546.25
444.034	622.25
444.255	535.25
444.476	500.25
444.698	525.25
444.919	517.25
445.14	608.25
445.361	547.25
445.582	502.25
445.803	538.25
446.024	581.25
446.245	573.25
446.466	531.25
446.687	497.25
446.908	457.25
447.129	444.25
447.35	440.25
447.571	444.25
447.792	412.25
448.013	442.25
448.234	436.25
448.455	443.25
448.675	538.25
448.896	569.25
449.117	535.25
449.338	508.25
449.559	562.25
449.779	627.25
450	507.25
450.221	437.25
450.442	427.25
450.662	410.25
450.883	402.25
451.104	419.25
451.324	404.25
451.545	411.25
451.766	406.25
451.986	411.25
452.207	383.25
452.428	392.25
452.648	397.25
452.869	383.25
453.089	381.25
453.31	393.25
453.53	374.25
453.751	381.25
453.971	388.25
454.192	387.25
454.412	401.25
454.633	379.25
454.853	371.25
455.073	387.25
455.294	389.25
455.514	425.25
455.734	401.25
455.955	382.25
456.175	373.25
456.395	371.25
456.616	360.25
456.836	374.25
457.056	363.25
457.276	356.25
457.497	374.25
457.717	375.25
457.937	374.25
458.157	383.25
458.377	374.25
458.598	403.25
458.818	419.25
459.038	468.25
459.258	476.25
459.478	450.25
459.698	439.25
459.918	419.25
460.138	439.25
460.358	446.25
460.578	451.25
460.798	453.25
461.018	458.25
461.238	450.25
461.458	466.25
461.678	465.25
461.898	477.25
462.118	463.25
462.338	466.25
462.558	485.25
462.777	491.25
462.997	517.25
463.217	571.25
463.437	563.25
463.657	538.25
463.876	529.25
464.096	525.25
464.316	488.25
464.536	505.25
464.755	512.25
464.975	492.25
465.195	501.25
465.414	517.25
465.634	450.25
465.854	444.25
466.073	447.25
466.293	408.25
466.512	433.25
466.732	404.25
466.951	420.25
467.171	401.25
467.391	404.25
467.61	404.25
467.829	403.25
468.049	418.25
468.268	404.25
468.488	385.25
468.707	388.25
468.927	404.25
469.146	382.25
469.365	399.25
469.585	395.25
469.804	410.25
470.023	407.25
470.243	396.25
470.462	421.25
470.681	420.25
470.901	421.25
471.12	420.25
471.339	410.25
471.558	426.25
471.777	415.25
471.997	412.25
472.216	415.25
472.435	434.25
472.654	423.25
472.873	397.25
473.092	425.25
473.311	393.25
473.53	393.25
473.749	393.25
473.968	426.25
474.187	477.25
474.406	486.25
474.625	434.25
474.844	409.25
475.063	418.25
475.282	399.25
475.501	395.25
475.72	404.25
475.939	425.25
476.158	393.25
476.377	409.25
476.596	409.25
476.814	424.25
477.033	425.25
477.252	451.25
477.471	434.25
477.69	433.25
477.908	450.25
478.127	451.25
478.346	461.25
478.564	464.25
478.783	445.25
479.002	467.25
479.22	449.25
479.439	487.25
479.658	490.25
479.876	503.25
480.095	514.25
480.313	519.25
480.532	513.25
480.751	525.25
480.969	518.25
481.188	544.25
481.406	545.25
481.624	501.25
481.843	482.25
482.061	473.25
482.28	453.25
482.498	486.25
482.717	461.25
482.935	428.25
483.153	460.25
483.372	455.25
483.59	470.25
483.808	462.25
484.027	479.25
484.245	468.25
484.463	461.25
484.681	474.25
484.9	449.25
485.118	468.25
485.336	466.25
485.554	480.25
485.772	480.25
485.99	455.25
486.209	482.25
486.427	462.25
486.645	481.25
486.863	498.25
487.081	479.25
487.299	483.25
487.517	499.25
487.735	497.25
487.953	483.25
488.171	465.25
488.389	488.25
488.607	495.25
488.825	481.25
489.043	478.25
489.261	483.25
489.479	488.25
489.696	479.25
489.914	498.25
490.132	514.25
490.35	499.25
490.568	503.25
490.786	506.25
491.003	511.25
491.221	515.25
491.439	508.25
491.657	531.25
491.874	544.25
492.092	531.25
492.31	520.25
492.527	515.25
492.745	523.25
492.963	532.25
493.18	542.25
493.398	534.25
493.615	520.25
493.833	555.25
494.05	529.25
494.268	548.25
494.485	539.25
494.703	565.25
494.92	547.25
495.138	556.25
495.355	561.25
495.573	564.25
495.79	570.25
496.008	563.25
496.225	543.25
496.442	533.25
496.66	552.25
496.877	564.25
497.094	573.25
497.312	570.25
497.529	595.25
497.746	609.25
497.963	633.25
498.181	625.25
498.398	632.25
498.615	637.25
498.832	697.25
499.049	722.25
499.267	748.25
499.484	776.25
499.701	858.25
499.918	901.25
500.135	979.25
500.352	1073.25
500.569	1071.25
500.786	1118.25
501.003	1054.25
501.22	992.25
501.437	917.25
501.654	867.25
501.871	809.25
502.088	747.25
