Data from 1984.PennyLincolnUp.Lamp.En5.5.200Scan.071819.P1_HRD10591_16-58-39-968.txt Node
Date: Thu Jul 18 16:58:39 EDT 2019
User: cochatt
Spectrometer: HR+D1059
Trigger mode: 1
Integration Time (sec): 1.000000E-1
Scans to average: 1
Electric dark correction enabled: true
Nonlinearity correction enabled: false
Boxcar width: 0
XAxis mode: Wavelengths
Number of Pixels in Spectrum: 2048
>>>>>Begin Spectral Data<<<<<
223.165	-21.88
223.4	-21.88
223.635	-21.88
223.869	-18.88
224.104	-8.88
224.338	-22.88
224.573	-7.88
224.808	4.12
225.042	-13.88
225.277	0.12
225.511	3.12
225.746	0.12
225.98	-0.88
226.215	16.12
226.449	2.12
226.683	27.12
226.918	19.12
227.152	23.12
227.387	23.12
227.621	26.12
227.856	29.12
228.09	46.12
228.324	65.12
228.559	52.12
228.793	63.12
229.027	82.12
229.262	100.12
229.496	109.12
229.73	110.12
229.964	127.12
230.199	122.12
230.433	94.12
230.667	106.12
230.901	101.12
231.136	103.12
231.37	95.12
231.604	105.12
231.838	104.12
232.072	100.12
232.306	113.12
232.541	119.12
232.775	104.12
233.009	111.12
233.243	104.12
233.477	114.12
233.711	115.12
233.945	111.12
234.179	105.12
234.413	121.12
234.647	114.12
234.881	99.12
235.115	121.12
235.349	107.12
235.583	119.12
235.817	109.12
236.051	115.12
236.285	103.12
236.519	117.12
236.753	103.12
236.987	124.12
237.221	132.12
237.455	182.12
237.689	141.12
237.922	117.12
238.156	126.12
238.39	122.12
238.624	124.12
238.858	131.12
239.091	115.12
239.325	109.12
239.559	117.12
239.793	111.12
240.027	119.12
240.26	120.12
240.494	128.12
240.728	115.12
240.961	136.12
241.195	130.12
241.429	123.12
241.662	120.12
241.896	104.12
242.13	124.12
242.363	125.12
242.597	121.12
242.83	138.12
243.064	142.12
243.298	136.12
243.531	134.12
243.765	124.12
243.998	128.12
244.232	135.12
244.465	123.12
244.699	125.12
244.932	135.12
245.166	144.12
245.399	143.12
245.633	126.12
245.866	150.12
246.099	148.12
246.333	147.12
246.566	129.12
246.8	138.12
247.033	155.12
247.266	141.12
247.5	139.12
247.733	152.12
247.966	150.12
248.2	144.12
248.433	161.12
248.666	153.12
248.899	161.12
249.133	164.12
249.366	181.12
249.599	164.12
249.832	164.12
250.066	163.12
250.299	164.12
250.532	179.12
250.765	177.12
250.998	196.12
251.231	185.12
251.465	181.12
251.698	174.12
251.931	180.12
252.164	182.12
252.397	169.12
252.63	183.12
252.863	177.12
253.096	190.12
253.329	189.12
253.562	188.12
253.795	181.12
254.028	170.12
254.261	204.12
254.494	219.12
254.727	213.12
254.96	235.12
255.193	225.12
255.426	192.12
255.659	199.12
255.892	214.12
256.124	227.12
256.357	225.12
256.59	200.12
256.823	217.12
257.056	195.12
257.289	175.12
257.521	191.12
257.754	207.12
257.987	199.12
258.22	186.12
258.452	171.12
258.685	176.12
258.918	193.12
259.151	196.12
259.383	190.12
259.616	194.12
259.849	195.12
260.081	214.12
260.314	203.12
260.547	217.12
260.779	220.12
261.012	204.12
261.244	205.12
261.477	209.12
261.71	176.12
261.942	196.12
262.175	199.12
262.407	195.12
262.64	189.12
262.872	203.12
263.105	193.12
263.337	200.12
263.57	201.12
263.802	210.12
264.035	211.12
264.267	196.12
264.499	189.12
264.732	202.12
264.964	205.12
265.197	195.12
265.429	202.12
265.661	209.12
265.894	219.12
266.126	191.12
266.358	198.12
266.591	190.12
266.823	209.12
267.055	203.12
267.287	218.12
267.52	221.12
267.752	220.12
267.984	220.12
268.216	226.12
268.448	224.12
268.681	219.12
268.913	231.12
269.145	243.12
269.377	247.12
269.609	233.12
269.841	228.12
270.073	226.12
270.306	258.12
270.538	272.12
270.77	270.12
271.002	269.12
271.234	255.12
271.466	239.12
271.698	247.12
271.93	260.12
272.162	278.12
272.394	261.12
272.626	255.12
272.858	247.12
273.09	249.12
273.322	232.12
273.553	248.12
273.785	251.12
274.017	229.12
274.249	245.12
274.481	241.12
274.713	250.12
274.945	239.12
275.176	243.12
275.408	259.12
275.64	243.12
275.872	260.12
276.104	258.12
276.335	248.12
276.567	253.12
276.799	256.12
277.031	269.12
277.262	265.12
277.494	265.12
277.726	277.12
277.957	260.12
278.189	244.12
278.421	247.12
278.652	261.12
278.884	267.12
279.115	263.12
279.347	258.12
279.579	233.12
279.81	251.12
280.042	256.12
280.273	255.12
280.505	258.12
280.736	261.12
280.968	257.12
281.199	261.12
281.431	260.12
281.662	257.12
281.894	263.12
282.125	260.12
282.356	275.12
282.588	282.12
282.819	291.12
283.051	257.12
283.282	240.12
283.513	273.12
283.745	261.12
283.976	262.12
284.207	269.12
284.439	273.12
284.67	267.12
284.901	276.12
285.132	263.12
285.364	273.12
285.595	273.12
285.826	249.12
286.057	267.12
286.288	256.12
286.52	268.12
286.751	283.12
286.982	278.12
287.213	277.12
287.444	272.12
287.675	280.12
287.906	268.12
288.138	279.12
288.369	284.12
288.6	287.12
288.831	275.12
289.062	274.12
289.293	285.12
289.524	273.12
289.755	283.12
289.986	281.12
290.217	285.12
290.448	304.12
290.679	278.12
290.91	295.12
291.141	289.12
291.371	279.12
291.602	290.12
291.833	274.12
292.064	276.12
292.295	281.12
292.526	286.12
292.757	293.12
292.987	277.12
293.218	278.12
293.449	278.12
293.68	268.12
293.91	275.12
294.141	279.12
294.372	280.12
294.603	296.12
294.833	274.12
295.064	291.12
295.295	319.12
295.525	272.12
295.756	295.12
295.987	293.12
296.217	314.12
296.448	308.12
296.679	301.12
296.909	297.12
297.14	290.12
297.37	304.12
297.601	295.12
297.831	301.12
298.062	304.12
298.292	287.12
298.523	295.12
298.753	302.12
298.984	283.12
299.214	292.12
299.445	295.12
299.675	297.12
299.905	300.12
300.136	305.12
300.366	299.12
300.597	320.12
300.827	298.12
301.057	309.12
301.288	311.12
301.518	316.12
301.748	309.12
301.979	318.12
302.209	312.12
302.439	313.12
302.669	325.12
302.9	338.12
303.13	332.12
303.36	317.12
303.59	330.12
303.82	320.12
304.051	333.12
304.281	343.12
304.511	339.12
304.741	307.12
304.971	316.12
305.201	310.12
305.431	330.12
305.661	322.12
305.891	319.12
306.121	323.12
306.352	309.12
306.582	324.12
306.812	296.12
307.042	327.12
307.272	323.12
307.502	327.12
307.731	321.12
307.961	304.12
308.191	310.12
308.421	324.12
308.651	329.12
308.881	319.12
309.111	336.12
309.341	340.12
309.571	324.12
309.8	343.12
310.03	335.12
310.26	334.12
310.49	346.12
310.72	357.12
310.949	351.12
311.179	339.12
311.409	343.12
311.639	347.12
311.868	353.12
312.098	341.12
312.328	348.12
312.557	349.12
312.787	357.12
313.017	357.12
313.246	364.12
313.476	353.12
313.706	341.12
313.935	351.12
314.165	359.12
314.394	341.12
314.624	361.12
314.853	374.12
315.083	344.12
315.312	369.12
315.542	351.12
315.771	343.12
316.001	345.12
316.23	348.12
316.46	324.12
316.689	347.12
316.919	347.12
317.148	349.12
317.377	350.12
317.607	357.12
317.836	348.12
318.065	351.12
318.295	352.12
318.524	360.12
318.753	342.12
318.983	362.12
319.212	339.12
319.441	353.12
319.67	358.12
319.9	363.12
320.129	343.12
320.358	350.12
320.587	354.12
320.816	362.12
321.046	370.12
321.275	377.12
321.504	365.12
321.733	340.12
321.962	364.12
322.191	374.12
322.42	397.12
322.649	399.12
322.878	389.12
323.108	391.12
323.337	404.12
323.566	438.12
323.795	428.12
324.024	480.12
324.253	531.12
324.482	701.12
324.71	1024.12
324.939	1391.12
325.168	1194.12
325.397	701.12
325.626	497.12
325.855	454.12
326.084	427.12
326.313	434.12
326.542	435.12
326.77	477.12
326.999	523.12
327.228	667.12
327.457	963.12
327.686	1129.12
327.914	760.12
328.143	569.12
328.372	506.12
328.6	475.12
328.829	470.12
329.058	493.12
329.287	474.12
329.515	466.12
329.744	447.12
329.972	480.12
330.201	496.12
330.43	533.12
330.658	517.12
330.887	523.12
331.115	461.12
331.344	450.12
331.572	433.12
331.801	448.12
332.03	459.12
332.258	465.12
332.486	441.12
332.715	440.12
332.943	465.12
333.172	453.12
333.4	478.12
333.629	466.12
333.857	514.12
334.085	527.12
334.314	557.12
334.542	616.12
334.771	601.12
334.999	555.12
335.227	472.12
335.455	446.12
335.684	443.12
335.912	435.12
336.14	433.12
336.369	428.12
336.597	424.12
336.825	444.12
337.053	432.12
337.281	425.12
337.51	421.12
337.738	398.12
337.966	413.12
338.194	401.12
338.422	420.12
338.65	404.12
338.878	425.12
339.106	390.12
339.334	400.12
339.562	405.12
339.79	392.12
340.018	388.12
340.246	410.12
340.474	393.12
340.702	402.12
340.93	395.12
341.158	399.12
341.386	389.12
341.614	400.12
341.842	395.12
342.07	391.12
342.298	378.12
342.526	385.12
342.754	380.12
342.981	372.12
343.209	394.12
343.437	387.12
343.665	423.12
343.893	442.12
344.12	433.12
344.348	441.12
344.576	413.12
344.804	408.12
345.031	408.12
345.259	398.12
345.487	400.12
345.714	376.12
345.942	380.12
346.17	371.12
346.397	371.12
346.625	399.12
346.853	362.12
347.08	375.12
347.308	364.12
347.535	386.12
347.763	372.12
347.99	363.12
348.218	381.12
348.445	382.12
348.673	380.12
348.9	368.12
349.128	366.12
349.355	368.12
349.583	367.12
349.81	366.12
350.037	359.12
350.265	352.12
350.492	357.12
350.72	377.12
350.947	355.12
351.174	357.12
351.402	383.12
351.629	361.12
351.856	370.12
352.083	360.12
352.311	353.12
352.538	387.12
352.765	365.12
352.992	368.12
353.22	368.12
353.447	369.12
353.674	353.12
353.901	337.12
354.128	365.12
354.355	335.12
354.583	356.12
354.81	339.12
355.037	368.12
355.264	367.12
355.491	345.12
355.718	359.12
355.945	332.12
356.172	343.12
356.399	351.12
356.626	358.12
356.853	362.12
357.08	347.12
357.307	330.12
357.534	355.12
357.761	344.12
357.988	343.12
358.215	374.12
358.441	364.12
358.668	354.12
358.895	362.12
359.122	360.12
359.349	361.12
359.576	352.12
359.802	376.12
360.029	379.12
360.256	384.12
360.483	379.12
360.709	351.12
360.936	365.12
361.163	378.12
361.39	355.12
361.616	362.12
361.843	360.12
362.07	356.12
362.296	355.12
362.523	355.12
362.749	361.12
362.976	351.12
363.203	356.12
363.429	362.12
363.656	339.12
363.882	344.12
364.109	344.12
364.335	353.12
364.562	347.12
364.788	349.12
365.015	350.12
365.241	374.12
365.468	364.12
365.694	353.12
365.92	353.12
366.147	345.12
366.373	352.12
366.599	333.12
366.826	354.12
367.052	363.12
367.278	345.12
367.505	332.12
367.731	348.12
367.957	339.12
368.184	349.12
368.41	359.12
368.636	371.12
368.862	369.12
369.089	359.12
369.315	349.12
369.541	360.12
369.767	368.12
369.993	359.12
370.219	353.12
370.445	362.12
370.672	343.12
370.898	344.12
371.124	360.12
371.35	368.12
371.576	363.12
371.802	363.12
372.028	356.12
372.254	358.12
372.48	348.12
372.706	381.12
372.932	396.12
373.158	380.12
373.384	351.12
373.61	349.12
373.835	358.12
374.061	360.12
374.287	341.12
374.513	372.12
374.739	389.12
374.965	388.12
375.191	389.12
375.416	388.12
375.642	373.12
375.868	360.12
376.094	359.12
376.319	361.12
376.545	355.12
376.771	339.12
376.997	360.12
377.222	359.12
377.448	359.12
377.674	357.12
377.899	341.12
378.125	346.12
378.35	355.12
378.576	364.12
378.802	340.12
379.027	377.12
379.253	362.12
379.478	347.12
379.704	359.12
379.929	349.12
380.155	353.12
380.38	342.12
380.606	347.12
380.831	367.12
381.057	353.12
381.282	360.12
381.507	351.12
381.733	369.12
381.958	363.12
382.184	377.12
382.409	373.12
382.634	373.12
382.86	357.12
383.085	369.12
383.31	386.12
383.535	365.12
383.761	387.12
383.986	394.12
384.211	386.12
384.436	373.12
384.662	397.12
384.887	392.12
385.112	418.12
385.337	396.12
385.562	410.12
385.787	388.12
386.013	419.12
386.238	407.12
386.463	407.12
386.688	397.12
386.913	384.12
387.138	401.12
387.363	410.12
387.588	405.12
387.813	412.12
388.038	410.12
388.263	387.12
388.488	418.12
388.713	418.12
388.938	405.12
389.163	388.12
389.387	373.12
389.612	407.12
389.837	415.12
390.062	391.12
390.287	392.12
390.512	397.12
390.736	385.12
390.961	398.12
391.186	415.12
391.411	403.12
391.636	431.12
391.86	427.12
392.085	447.12
392.31	431.12
392.534	419.12
392.759	412.12
392.984	404.12
393.208	422.12
393.433	396.12
393.658	399.12
393.882	433.12
394.107	426.12
394.331	418.12
394.556	412.12
394.78	434.12
395.005	425.12
395.229	433.12
395.454	432.12
395.678	427.12
395.903	470.12
396.127	422.12
396.352	433.12
396.576	407.12
396.801	411.12
397.025	429.12
397.249	431.12
397.474	440.12
397.698	432.12
397.922	447.12
398.147	447.12
398.371	442.12
398.595	435.12
398.82	464.12
399.044	515.12
399.268	536.12
399.492	587.12
399.717	626.12
399.941	619.12
400.165	617.12
400.389	568.12
400.613	539.12
400.837	508.12
401.062	504.12
401.286	477.12
401.51	483.12
401.734	473.12
401.958	470.12
402.182	469.12
402.406	480.12
402.63	504.12
402.854	500.12
403.078	483.12
403.302	497.12
403.526	493.12
403.75	508.12
403.974	518.12
404.198	534.12
404.422	518.12
404.645	520.12
404.869	514.12
405.093	553.12
405.317	594.12
405.541	595.12
405.765	587.12
405.988	537.12
406.212	531.12
406.436	517.12
406.66	549.12
406.883	541.12
407.107	569.12
407.331	608.12
407.555	655.12
407.778	612.12
408.002	599.12
408.226	578.12
408.449	559.12
408.673	535.12
408.896	541.12
409.12	578.12
409.344	551.12
409.567	513.12
409.791	511.12
410.014	499.12
410.238	498.12
410.461	518.12
410.685	519.12
410.908	489.12
411.132	513.12
411.355	532.12
411.578	515.12
411.802	501.12
412.025	510.12
412.249	529.12
412.472	542.12
412.695	561.12
412.919	565.12
413.142	524.12
413.365	501.12
413.589	499.12
413.812	482.12
414.035	476.12
414.258	487.12
414.482	503.12
414.705	472.12
414.928	470.12
415.151	468.12
415.374	464.12
415.597	476.12
415.821	458.12
416.044	487.12
416.267	453.12
416.49	466.12
416.713	439.12
416.936	475.12
417.159	459.12
417.382	457.12
417.605	468.12
417.828	475.12
418.051	493.12
418.274	469.12
418.497	454.12
418.72	461.12
418.943	501.12
419.166	506.12
419.389	537.12
419.611	505.12
419.834	485.12
420.057	518.12
420.28	501.12
420.503	504.12
420.726	485.12
420.948	480.12
421.171	501.12
421.394	517.12
421.617	495.12
421.839	474.12
422.062	480.12
422.285	498.12
422.507	530.12
422.73	555.12
422.953	544.12
423.175	504.12
423.398	527.12
423.621	483.12
423.843	524.12
424.066	531.12
424.288	521.12
424.511	531.12
424.733	563.12
424.956	584.12
425.178	556.12
425.401	563.12
425.623	576.12
425.846	497.12
426.068	505.12
426.291	497.12
426.513	464.12
426.735	483.12
426.958	503.12
427.18	530.12
427.402	627.12
427.625	650.12
427.847	615.12
428.069	579.12
428.292	517.12
428.514	464.12
428.736	435.12
428.958	450.12
429.181	449.12
429.403	452.12
429.625	431.12
429.847	468.12
430.069	511.12
430.292	495.12
430.514	449.12
430.736	441.12
430.958	423.12
431.18	425.12
431.402	430.12
431.624	427.12
431.846	433.12
432.068	419.12
432.29	447.12
432.512	422.12
432.734	423.12
432.956	452.12
433.178	437.12
433.4	440.12
433.622	440.12
433.844	446.12
434.066	428.12
434.287	439.12
434.509	463.12
434.731	449.12
434.953	465.12
435.175	464.12
435.397	505.12
435.618	475.12
435.84	492.12
436.062	538.12
436.284	567.12
436.505	498.12
436.727	456.12
436.949	454.12
437.17	419.12
437.392	449.12
437.614	431.12
437.835	450.12
438.057	493.12
438.278	563.12
438.5	556.12
438.721	594.12
438.943	593.12
439.165	515.12
439.386	479.12
439.608	447.12
439.829	461.12
440.05	467.12
440.272	504.12
440.493	477.12
440.715	441.12
440.936	468.12
441.158	444.12
441.379	472.12
441.6	466.12
441.822	493.12
442.043	511.12
442.264	584.12
442.486	568.12
442.707	508.12
442.928	496.12
443.149	481.12
443.371	507.12
443.592	521.12
443.813	587.12
444.034	622.12
444.255	550.12
444.476	495.12
444.698	527.12
444.919	518.12
445.14	624.12
445.361	569.12
445.582	515.12
445.803	545.12
446.024	569.12
446.245	589.12
446.466	535.12
446.687	501.12
446.908	465.12
447.129	444.12
447.35	431.12
447.571	433.12
447.792	443.12
448.013	432.12
448.234	434.12
448.455	455.12
448.675	534.12
448.896	598.12
449.117	529.12
449.338	485.12
449.559	565.12
449.779	609.12
450	514.12
450.221	449.12
450.442	417.12
450.662	418.12
450.883	423.12
451.104	437.12
451.324	408.12
451.545	410.12
451.766	408.12
451.986	396.12
452.207	394.12
452.428	381.12
452.648	384.12
452.869	403.12
453.089	407.12
453.31	404.12
453.53	403.12
453.751	408.12
453.971	431.12
454.192	405.12
454.412	398.12
454.633	395.12
454.853	380.12
455.073	381.12
455.294	395.12
455.514	447.12
455.734	433.12
455.955	403.12
456.175	372.12
456.395	376.12
456.616	390.12
456.836	383.12
457.056	389.12
457.276	365.12
457.497	363.12
457.717	376.12
457.937	385.12
458.157	362.12
458.377	397.12
458.598	404.12
458.818	414.12
459.038	462.12
459.258	487.12
459.478	469.12
459.698	428.12
459.918	442.12
460.138	438.12
460.358	459.12
460.578	468.12
460.798	479.12
461.018	463.12
461.238	456.12
461.458	465.12
461.678	463.12
461.898	459.12
462.118	464.12
462.338	503.12
462.558	499.12
462.777	493.12
462.997	546.12
463.217	553.12
463.437	548.12
463.657	536.12
463.876	521.12
464.096	496.12
464.316	506.12
464.536	513.12
464.755	488.12
464.975	501.12
465.195	509.12
465.414	537.12
465.634	473.12
465.854	458.12
466.073	410.12
466.293	403.12
466.512	417.12
466.732	410.12
466.951	393.12
467.171	422.12
467.391	401.12
467.61	418.12
467.829	407.12
468.049	403.12
468.268	422.12
468.488	407.12
468.707	406.12
468.927	403.12
469.146	389.12
469.365	385.12
469.585	406.12
469.804	412.12
470.023	412.12
470.243	420.12
470.462	433.12
470.681	439.12
470.901	427.12
471.12	434.12
471.339	419.12
471.558	433.12
471.777	396.12
471.997	410.12
472.216	447.12
472.435	465.12
472.654	462.12
472.873	409.12
473.092	415.12
473.311	424.12
473.53	416.12
473.749	416.12
473.968	423.12
474.187	466.12
474.406	490.12
474.625	414.12
474.844	415.12
475.063	394.12
475.282	409.12
475.501	421.12
475.72	401.12
475.939	404.12
476.158	415.12
476.377	418.12
476.596	412.12
476.814	423.12
477.033	418.12
477.252	436.12
477.471	429.12
477.69	434.12
477.908	458.12
478.127	455.12
478.346	443.12
478.564	464.12
478.783	470.12
479.002	476.12
479.22	475.12
479.439	491.12
479.658	486.12
479.876	525.12
480.095	495.12
480.313	528.12
480.532	544.12
480.751	529.12
480.969	521.12
481.188	595.12
481.406	627.12
481.624	561.12
481.843	536.12
482.061	503.12
482.28	499.12
482.498	470.12
482.717	465.12
482.935	480.12
483.153	495.12
483.372	467.12
483.59	458.12
483.808	441.12
484.027	453.12
484.245	474.12
484.463	469.12
484.681	468.12
484.9	481.12
485.118	459.12
485.336	480.12
485.554	461.12
485.772	495.12
485.99	475.12
486.209	496.12
486.427	491.12
486.645	481.12
486.863	495.12
487.081	499.12
487.299	509.12
487.517	485.12
487.735	472.12
487.953	495.12
488.171	498.12
488.389	487.12
488.607	515.12
488.825	495.12
489.043	484.12
489.261	496.12
489.479	490.12
489.696	501.12
489.914	528.12
490.132	518.12
490.35	512.12
490.568	533.12
490.786	525.12
491.003	549.12
491.221	555.12
491.439	547.12
491.657	552.12
491.874	554.12
492.092	546.12
492.31	538.12
492.527	557.12
492.745	583.12
492.963	585.12
493.18	577.12
493.398	573.12
493.615	575.12
493.833	577.12
494.05	573.12
494.268	551.12
494.485	586.12
494.703	566.12
494.92	572.12
495.138	573.12
495.355	555.12
495.573	583.12
495.79	577.12
496.008	552.12
496.225	546.12
496.442	551.12
496.66	568.12
496.877	567.12
497.094	576.12
497.312	581.12
497.529	609.12
497.746	592.12
497.963	611.12
498.181	632.12
498.398	635.12
498.615	673.12
498.832	695.12
499.049	747.12
499.267	756.12
499.484	793.12
499.701	844.12
499.918	892.12
500.135	987.12
500.352	1076.12
500.569	1091.12
500.786	1111.12
501.003	1059.12
501.22	980.12
501.437	919.12
501.654	863.12
501.871	827.12
502.088	776.12
