Data from 1984.PennyLincolnUp.Lamp.En5.5.200Scan.071819.P1_HRD10591_16-58-02-967.txt Node
Date: Thu Jul 18 16:58:02 EDT 2019
User: cochatt
Spectrometer: HR+D1059
Trigger mode: 1
Integration Time (sec): 1.000000E-1
Scans to average: 1
Electric dark correction enabled: true
Nonlinearity correction enabled: false
Boxcar width: 0
XAxis mode: Wavelengths
Number of Pixels in Spectrum: 2048
>>>>>Begin Spectral Data<<<<<
223.165	-4.44
223.4	-4.44
223.635	-4.44
223.869	-23.44
224.104	-20.44
224.338	-19.44
224.573	-20.44
224.808	-24.44
225.042	-5.44
225.277	-12.44
225.511	-4.44
225.746	8.56
225.98	13.56
226.215	9.56
226.449	18.56
226.683	21.56
226.918	26.56
227.152	36.56
227.387	34.56
227.621	37.56
227.856	32.56
228.09	70.56
228.324	45.56
228.559	43.56
228.793	60.56
229.027	83.56
229.262	91.56
229.496	92.56
229.73	128.56
229.964	123.56
230.199	114.56
230.433	99.56
230.667	108.56
230.901	96.56
231.136	100.56
231.37	97.56
231.604	101.56
231.838	85.56
232.072	97.56
232.306	123.56
232.541	122.56
232.775	104.56
233.009	101.56
233.243	97.56
233.477	96.56
233.711	104.56
233.945	115.56
234.179	102.56
234.413	111.56
234.647	113.56
234.881	98.56
235.115	117.56
235.349	116.56
235.583	114.56
235.817	138.56
236.051	119.56
236.285	113.56
236.519	114.56
236.753	124.56
236.987	128.56
237.221	137.56
237.455	162.56
237.689	141.56
237.922	107.56
238.156	117.56
238.39	109.56
238.624	102.56
238.858	119.56
239.091	121.56
239.325	133.56
239.559	116.56
239.793	130.56
240.027	117.56
240.26	128.56
240.494	127.56
240.728	127.56
240.961	116.56
241.195	109.56
241.429	125.56
241.662	124.56
241.896	116.56
242.13	116.56
242.363	122.56
242.597	118.56
242.83	115.56
243.064	112.56
243.298	129.56
243.531	120.56
243.765	135.56
243.998	122.56
244.232	123.56
244.465	127.56
244.699	129.56
244.932	128.56
245.166	137.56
245.399	127.56
245.633	122.56
245.866	138.56
246.099	152.56
246.333	141.56
246.566	147.56
246.8	132.56
247.033	131.56
247.266	135.56
247.5	137.56
247.733	147.56
247.966	138.56
248.2	145.56
248.433	151.56
248.666	167.56
248.899	165.56
249.133	151.56
249.366	159.56
249.599	159.56
249.832	141.56
250.066	157.56
250.299	163.56
250.532	153.56
250.765	179.56
250.998	177.56
251.231	181.56
251.465	171.56
251.698	166.56
251.931	164.56
252.164	148.56
252.397	169.56
252.63	187.56
252.863	165.56
253.096	180.56
253.329	181.56
253.562	175.56
253.795	166.56
254.028	181.56
254.261	177.56
254.494	182.56
254.727	192.56
254.96	205.56
255.193	205.56
255.426	189.56
255.659	181.56
255.892	200.56
256.124	200.56
256.357	179.56
256.59	193.56
256.823	196.56
257.056	176.56
257.289	187.56
257.521	191.56
257.754	185.56
257.987	176.56
258.22	172.56
258.452	181.56
258.685	179.56
258.918	181.56
259.151	197.56
259.383	191.56
259.616	184.56
259.849	183.56
260.081	198.56
260.314	200.56
260.547	201.56
260.779	207.56
261.012	186.56
261.244	186.56
261.477	181.56
261.71	176.56
261.942	212.56
262.175	189.56
262.407	205.56
262.64	192.56
262.872	184.56
263.105	187.56
263.337	192.56
263.57	191.56
263.802	179.56
264.035	197.56
264.267	188.56
264.499	180.56
264.732	197.56
264.964	188.56
265.197	188.56
265.429	197.56
265.661	191.56
265.894	194.56
266.126	198.56
266.358	191.56
266.591	199.56
266.823	219.56
267.055	187.56
267.287	190.56
267.52	194.56
267.752	197.56
267.984	207.56
268.216	194.56
268.448	198.56
268.681	194.56
268.913	196.56
269.145	229.56
269.377	232.56
269.609	224.56
269.841	227.56
270.073	228.56
270.306	226.56
270.538	260.56
270.77	256.56
271.002	238.56
271.234	236.56
271.466	239.56
271.698	243.56
271.93	257.56
272.162	262.56
272.394	244.56
272.626	235.56
272.858	232.56
273.09	237.56
273.322	240.56
273.553	218.56
273.785	234.56
274.017	223.56
274.249	233.56
274.481	233.56
274.713	214.56
274.945	253.56
275.176	240.56
275.408	262.56
275.64	223.56
275.872	223.56
276.104	221.56
276.335	242.56
276.567	262.56
276.799	246.56
277.031	244.56
277.262	253.56
277.494	256.56
277.726	248.56
277.957	256.56
278.189	244.56
278.421	241.56
278.652	232.56
278.884	248.56
279.115	236.56
279.347	257.56
279.579	241.56
279.81	232.56
280.042	253.56
280.273	246.56
280.505	238.56
280.736	241.56
280.968	243.56
281.199	247.56
281.431	233.56
281.662	251.56
281.894	245.56
282.125	252.56
282.356	276.56
282.588	281.56
282.819	266.56
283.051	261.56
283.282	256.56
283.513	241.56
283.745	230.56
283.976	247.56
284.207	239.56
284.439	258.56
284.67	250.56
284.901	250.56
285.132	241.56
285.364	257.56
285.595	238.56
285.826	249.56
286.057	273.56
286.288	258.56
286.52	247.56
286.751	257.56
286.982	267.56
287.213	268.56
287.444	266.56
287.675	279.56
287.906	275.56
288.138	269.56
288.369	261.56
288.6	270.56
288.831	280.56
289.062	265.56
289.293	270.56
289.524	271.56
289.755	258.56
289.986	276.56
290.217	277.56
290.448	290.56
290.679	269.56
290.91	284.56
291.141	265.56
291.371	269.56
291.602	269.56
291.833	286.56
292.064	257.56
292.295	269.56
292.526	256.56
292.757	287.56
292.987	270.56
293.218	277.56
293.449	269.56
293.68	268.56
293.91	282.56
294.141	280.56
294.372	282.56
294.603	276.56
294.833	265.56
295.064	279.56
295.295	264.56
295.525	278.56
295.756	282.56
295.987	278.56
296.217	278.56
296.448	292.56
296.679	304.56
296.909	265.56
297.14	283.56
297.37	288.56
297.601	279.56
297.831	283.56
298.062	284.56
298.292	267.56
298.523	301.56
298.753	287.56
298.984	314.56
299.214	295.56
299.445	298.56
299.675	292.56
299.905	288.56
300.136	270.56
300.366	294.56
300.597	311.56
300.827	306.56
301.057	309.56
301.288	308.56
301.518	315.56
301.748	301.56
301.979	306.56
302.209	319.56
302.439	306.56
302.669	326.56
302.9	306.56
303.13	300.56
303.36	294.56
303.59	315.56
303.82	317.56
304.051	315.56
304.281	291.56
304.511	303.56
304.741	308.56
304.971	299.56
305.201	298.56
305.431	315.56
305.661	309.56
305.891	303.56
306.121	295.56
306.352	307.56
306.582	306.56
306.812	302.56
307.042	316.56
307.272	323.56
307.502	307.56
307.731	324.56
307.961	292.56
308.191	292.56
308.421	305.56
308.651	308.56
308.881	331.56
309.111	297.56
309.341	311.56
309.571	307.56
309.8	318.56
310.03	331.56
310.26	297.56
310.49	311.56
310.72	332.56
310.949	338.56
311.179	329.56
311.409	321.56
311.639	323.56
311.868	320.56
312.098	340.56
312.328	324.56
312.557	347.56
312.787	333.56
313.017	343.56
313.246	346.56
313.476	351.56
313.706	329.56
313.935	348.56
314.165	343.56
314.394	347.56
314.624	355.56
314.853	316.56
315.083	332.56
315.312	330.56
315.542	340.56
315.771	322.56
316.001	320.56
316.23	331.56
316.46	346.56
316.689	333.56
316.919	342.56
317.148	331.56
317.377	335.56
317.607	336.56
317.836	338.56
318.065	330.56
318.295	330.56
318.524	313.56
318.753	323.56
318.983	324.56
319.212	339.56
319.441	334.56
319.67	343.56
319.9	318.56
320.129	324.56
320.358	348.56
320.587	324.56
320.816	346.56
321.046	352.56
321.275	363.56
321.504	358.56
321.733	332.56
321.962	353.56
322.191	347.56
322.42	368.56
322.649	363.56
322.878	367.56
323.108	364.56
323.337	379.56
323.566	375.56
323.795	395.56
324.024	428.56
324.253	497.56
324.482	645.56
324.71	923.56
324.939	1239.56
325.168	1107.56
325.397	632.56
325.626	481.56
325.855	425.56
326.084	408.56
326.313	387.56
326.542	422.56
326.77	433.56
326.999	488.56
327.228	596.56
327.457	856.56
327.686	992.56
327.914	708.56
328.143	515.56
328.372	466.56
328.6	457.56
328.829	412.56
329.058	433.56
329.287	416.56
329.515	447.56
329.744	419.56
329.972	400.56
330.201	414.56
330.43	419.56
330.658	453.56
330.887	459.56
331.115	437.56
331.344	413.56
331.572	388.56
331.801	413.56
332.03	415.56
332.258	423.56
332.486	420.56
332.715	405.56
332.943	418.56
333.172	432.56
333.4	447.56
333.629	460.56
333.857	452.56
334.085	449.56
334.314	427.56
334.542	509.56
334.771	452.56
334.999	475.56
335.227	422.56
335.455	441.56
335.684	402.56
335.912	407.56
336.14	396.56
336.369	425.56
336.597	404.56
336.825	385.56
337.053	393.56
337.281	412.56
337.51	406.56
337.738	393.56
337.966	399.56
338.194	405.56
338.422	383.56
338.65	388.56
338.878	388.56
339.106	384.56
339.334	387.56
339.562	370.56
339.79	370.56
340.018	373.56
340.246	369.56
340.474	365.56
340.702	370.56
340.93	385.56
341.158	385.56
341.386	369.56
341.614	353.56
341.842	371.56
342.07	391.56
342.298	364.56
342.526	363.56
342.754	345.56
342.981	369.56
343.209	350.56
343.437	391.56
343.665	404.56
343.893	407.56
344.12	428.56
344.348	425.56
344.576	391.56
344.804	387.56
345.031	395.56
345.259	363.56
345.487	387.56
345.714	369.56
345.942	368.56
346.17	351.56
346.397	357.56
346.625	348.56
346.853	362.56
347.08	357.56
347.308	360.56
347.535	344.56
347.763	359.56
347.99	352.56
348.218	354.56
348.445	367.56
348.673	371.56
348.9	364.56
349.128	352.56
349.355	333.56
349.583	341.56
349.81	352.56
350.037	337.56
350.265	369.56
350.492	369.56
350.72	351.56
350.947	354.56
351.174	351.56
351.402	347.56
351.629	338.56
351.856	349.56
352.083	371.56
352.311	352.56
352.538	333.56
352.765	348.56
352.992	355.56
353.22	348.56
353.447	343.56
353.674	331.56
353.901	338.56
354.128	356.56
354.355	333.56
354.583	332.56
354.81	341.56
355.037	327.56
355.264	329.56
355.491	312.56
355.718	329.56
355.945	325.56
356.172	324.56
356.399	337.56
356.626	325.56
356.853	337.56
357.08	320.56
357.307	332.56
357.534	339.56
357.761	317.56
357.988	340.56
358.215	327.56
358.441	325.56
358.668	328.56
358.895	320.56
359.122	340.56
359.349	338.56
359.576	359.56
359.802	346.56
360.029	379.56
360.256	356.56
360.483	340.56
360.709	334.56
360.936	339.56
361.163	332.56
361.39	347.56
361.616	339.56
361.843	337.56
362.07	337.56
362.296	342.56
362.523	355.56
362.749	342.56
362.976	336.56
363.203	333.56
363.429	333.56
363.656	311.56
363.882	369.56
364.109	357.56
364.335	346.56
364.562	319.56
364.788	327.56
365.015	354.56
365.241	333.56
365.468	335.56
365.694	330.56
365.92	331.56
366.147	330.56
366.373	339.56
366.599	327.56
366.826	335.56
367.052	351.56
367.278	338.56
367.505	339.56
367.731	304.56
367.957	320.56
368.184	322.56
368.41	327.56
368.636	330.56
368.862	345.56
369.089	357.56
369.315	333.56
369.541	344.56
369.767	353.56
369.993	332.56
370.219	330.56
370.445	336.56
370.672	344.56
370.898	344.56
371.124	343.56
371.35	357.56
371.576	344.56
371.802	348.56
372.028	346.56
372.254	315.56
372.48	347.56
372.706	338.56
372.932	356.56
373.158	347.56
373.384	359.56
373.61	341.56
373.835	357.56
374.061	346.56
374.287	340.56
374.513	358.56
374.739	351.56
374.965	354.56
375.191	360.56
375.416	355.56
375.642	367.56
375.868	349.56
376.094	358.56
376.319	322.56
376.545	345.56
376.771	342.56
376.997	333.56
377.222	340.56
377.448	354.56
377.674	360.56
377.899	346.56
378.125	337.56
378.35	341.56
378.576	337.56
378.802	333.56
379.027	319.56
379.253	324.56
379.478	336.56
379.704	331.56
379.929	331.56
380.155	347.56
380.38	359.56
380.606	337.56
380.831	332.56
381.057	339.56
381.282	337.56
381.507	348.56
381.733	349.56
381.958	343.56
382.184	360.56
382.409	346.56
382.634	349.56
382.86	368.56
383.085	343.56
383.31	355.56
383.535	364.56
383.761	355.56
383.986	360.56
384.211	400.56
384.436	375.56
384.662	388.56
384.887	379.56
385.112	380.56
385.337	368.56
385.562	373.56
385.787	385.56
386.013	392.56
386.238	381.56
386.463	385.56
386.688	388.56
386.913	375.56
387.138	387.56
387.363	383.56
387.588	403.56
387.813	396.56
388.038	386.56
388.263	378.56
388.488	392.56
388.713	385.56
388.938	375.56
389.163	373.56
389.387	391.56
389.612	384.56
389.837	387.56
390.062	375.56
390.287	376.56
390.512	377.56
390.736	384.56
390.961	396.56
391.186	408.56
391.411	421.56
391.636	388.56
391.86	408.56
392.085	428.56
392.31	406.56
392.534	429.56
392.759	405.56
392.984	381.56
393.208	386.56
393.433	386.56
393.658	398.56
393.882	404.56
394.107	394.56
394.331	377.56
394.556	376.56
394.78	410.56
395.005	417.56
395.229	400.56
395.454	408.56
395.678	435.56
395.903	421.56
396.127	428.56
396.352	412.56
396.576	396.56
396.801	389.56
397.025	414.56
397.249	410.56
397.474	427.56
397.698	413.56
397.922	442.56
398.147	436.56
398.371	449.56
398.595	456.56
398.82	445.56
399.044	468.56
399.268	528.56
399.492	540.56
399.717	589.56
399.941	622.56
400.165	595.56
400.389	574.56
400.613	542.56
400.837	497.56
401.062	485.56
401.286	452.56
401.51	480.56
401.734	456.56
401.958	444.56
402.182	485.56
402.406	481.56
402.63	481.56
402.854	488.56
403.078	485.56
403.302	497.56
403.526	502.56
403.75	483.56
403.974	517.56
404.198	473.56
404.422	498.56
404.645	485.56
404.869	500.56
405.093	505.56
405.317	523.56
405.541	545.56
405.765	501.56
405.988	503.56
406.212	481.56
406.436	484.56
406.66	516.56
406.883	515.56
407.107	546.56
407.331	547.56
407.555	610.56
407.778	596.56
408.002	567.56
408.226	509.56
408.449	535.56
408.673	519.56
408.896	527.56
409.12	547.56
409.344	521.56
409.567	484.56
409.791	483.56
410.014	472.56
410.238	461.56
410.461	484.56
410.685	484.56
410.908	500.56
411.132	512.56
411.355	505.56
411.578	508.56
411.802	495.56
412.025	466.56
412.249	460.56
412.472	488.56
412.695	507.56
412.919	500.56
413.142	466.56
413.365	450.56
413.589	449.56
413.812	443.56
414.035	449.56
414.258	431.56
414.482	475.56
414.705	468.56
414.928	455.56
415.151	455.56
415.374	459.56
415.597	440.56
415.821	432.56
416.044	444.56
416.267	450.56
416.49	446.56
416.713	451.56
416.936	439.56
417.159	448.56
417.382	445.56
417.605	467.56
417.828	438.56
418.051	453.56
418.274	467.56
418.497	434.56
418.72	436.56
418.943	432.56
419.166	459.56
419.389	506.56
419.611	476.56
419.834	476.56
420.057	452.56
420.28	467.56
420.503	457.56
420.726	456.56
420.948	472.56
421.171	477.56
421.394	480.56
421.617	456.56
421.839	471.56
422.062	458.56
422.285	457.56
422.507	485.56
422.73	526.56
422.953	531.56
423.175	481.56
423.398	485.56
423.621	467.56
423.843	463.56
424.066	495.56
424.288	497.56
424.511	497.56
424.733	510.56
424.956	552.56
425.178	528.56
425.401	510.56
425.623	552.56
425.846	479.56
426.068	466.56
426.291	456.56
426.513	465.56
426.735	454.56
426.958	500.56
427.18	514.56
427.402	598.56
427.625	659.56
427.847	573.56
428.069	500.56
428.292	486.56
428.514	441.56
428.736	420.56
428.958	411.56
429.181	433.56
429.403	420.56
429.625	405.56
429.847	443.56
430.069	455.56
430.292	468.56
430.514	411.56
430.736	438.56
430.958	400.56
431.18	403.56
431.402	408.56
431.624	407.56
431.846	397.56
432.068	403.56
432.29	411.56
432.512	419.56
432.734	421.56
432.956	396.56
433.178	413.56
433.4	424.56
433.622	401.56
433.844	415.56
434.066	423.56
434.287	405.56
434.509	422.56
434.731	450.56
434.953	455.56
435.175	457.56
435.397	436.56
435.618	462.56
435.84	498.56
436.062	516.56
436.284	534.56
436.505	482.56
436.727	428.56
436.949	428.56
437.17	416.56
437.392	434.56
437.614	425.56
437.835	420.56
438.057	477.56
438.278	523.56
438.5	528.56
438.721	563.56
438.943	581.56
439.165	483.56
439.386	441.56
439.608	453.56
439.829	433.56
440.05	457.56
440.272	473.56
440.493	469.56
440.715	450.56
440.936	428.56
441.158	450.56
441.379	453.56
441.6	434.56
441.822	476.56
442.043	491.56
442.264	510.56
442.486	539.56
442.707	499.56
442.928	442.56
443.149	457.56
443.371	477.56
443.592	522.56
443.813	556.56
444.034	563.56
444.255	556.56
444.476	507.56
444.698	505.56
444.919	521.56
445.14	588.56
445.361	509.56
445.582	478.56
445.803	505.56
446.024	557.56
446.245	565.56
446.466	519.56
446.687	471.56
446.908	459.56
447.129	425.56
447.35	405.56
447.571	411.56
447.792	398.56
448.013	401.56
448.234	418.56
448.455	438.56
448.675	487.56
448.896	561.56
449.117	482.56
449.338	479.56
449.559	529.56
449.779	591.56
450	492.56
450.221	437.56
450.442	413.56
450.662	377.56
450.883	405.56
451.104	398.56
451.324	414.56
451.545	391.56
451.766	377.56
451.986	378.56
452.207	384.56
452.428	391.56
452.648	389.56
452.869	358.56
453.089	351.56
453.31	379.56
453.53	395.56
453.751	376.56
453.971	372.56
454.192	403.56
454.412	361.56
454.633	374.56
454.853	365.56
455.073	367.56
455.294	386.56
455.514	424.56
455.734	395.56
455.955	387.56
456.175	350.56
456.395	357.56
456.616	361.56
456.836	369.56
457.056	346.56
457.276	334.56
457.497	348.56
457.717	373.56
457.937	370.56
458.157	376.56
458.377	368.56
458.598	367.56
458.818	397.56
459.038	436.56
459.258	447.56
459.478	441.56
459.698	422.56
459.918	424.56
460.138	434.56
460.358	457.56
460.578	447.56
460.798	422.56
461.018	446.56
461.238	437.56
461.458	451.56
461.678	440.56
461.898	447.56
462.118	463.56
462.338	483.56
462.558	473.56
462.777	499.56
462.997	497.56
463.217	531.56
463.437	530.56
463.657	520.56
463.876	480.56
464.096	501.56
464.316	489.56
464.536	508.56
464.755	499.56
464.975	503.56
465.195	504.56
465.414	479.56
465.634	465.56
465.854	434.56
466.073	419.56
466.293	399.56
466.512	415.56
466.732	394.56
466.951	391.56
467.171	404.56
467.391	408.56
467.61	417.56
467.829	396.56
468.049	392.56
468.268	404.56
468.488	386.56
468.707	389.56
468.927	372.56
469.146	377.56
469.365	392.56
469.585	386.56
469.804	369.56
470.023	399.56
470.243	404.56
470.462	417.56
470.681	434.56
470.901	423.56
471.12	415.56
471.339	374.56
471.558	392.56
471.777	398.56
471.997	388.56
472.216	399.56
472.435	390.56
472.654	401.56
472.873	383.56
473.092	388.56
473.311	385.56
473.53	379.56
473.749	380.56
473.968	400.56
474.187	441.56
474.406	459.56
474.625	401.56
474.844	392.56
475.063	378.56
475.282	378.56
475.501	370.56
475.72	378.56
475.939	402.56
476.158	393.56
476.377	393.56
476.596	386.56
476.814	385.56
477.033	397.56
477.252	409.56
477.471	413.56
477.69	424.56
477.908	418.56
478.127	438.56
478.346	442.56
478.564	445.56
478.783	448.56
479.002	458.56
479.22	470.56
479.439	471.56
479.658	450.56
479.876	480.56
480.095	443.56
480.313	502.56
480.532	493.56
480.751	500.56
480.969	473.56
481.188	506.56
481.406	507.56
481.624	485.56
481.843	472.56
482.061	449.56
482.28	465.56
482.498	443.56
482.717	442.56
482.935	437.56
483.153	441.56
483.372	432.56
483.59	447.56
483.808	425.56
484.027	425.56
484.245	443.56
484.463	457.56
484.681	461.56
484.9	447.56
485.118	451.56
485.336	464.56
485.554	461.56
485.772	449.56
485.99	482.56
486.209	455.56
486.427	461.56
486.645	446.56
486.863	465.56
487.081	501.56
487.299	469.56
487.517	469.56
487.735	459.56
487.953	457.56
488.171	450.56
488.389	451.56
488.607	465.56
488.825	462.56
489.043	467.56
489.261	473.56
489.479	466.56
489.696	474.56
489.914	482.56
490.132	474.56
490.35	484.56
490.568	489.56
490.786	475.56
491.003	478.56
491.221	482.56
491.439	512.56
491.657	507.56
491.874	486.56
492.092	498.56
492.31	525.56
492.527	507.56
492.745	508.56
492.963	514.56
493.18	522.56
493.398	518.56
493.615	523.56
493.833	516.56
494.05	518.56
494.268	565.56
494.485	539.56
494.703	528.56
494.92	519.56
495.138	540.56
495.355	537.56
495.573	529.56
495.79	546.56
496.008	512.56
496.225	550.56
496.442	550.56
496.66	549.56
496.877	522.56
497.094	535.56
497.312	564.56
497.529	541.56
497.746	570.56
497.963	577.56
498.181	579.56
498.398	596.56
498.615	623.56
498.832	669.56
499.049	694.56
499.267	751.56
499.484	765.56
499.701	837.56
499.918	852.56
500.135	953.56
500.352	1000.56
500.569	1052.56
500.786	1055.56
501.003	1035.56
501.22	964.56
501.437	874.56
501.654	844.56
501.871	799.56
502.088	734.56
