Data from 1984.PennyLincolnUp.Lamp.En5.5.200Scan.071819.P1_HRD10591_16-58-26-967.txt Node
Date: Thu Jul 18 16:58:26 EDT 2019
User: cochatt
Spectrometer: HR+D1059
Trigger mode: 1
Integration Time (sec): 1.000000E-1
Scans to average: 1
Electric dark correction enabled: true
Nonlinearity correction enabled: false
Boxcar width: 0
XAxis mode: Wavelengths
Number of Pixels in Spectrum: 2048
>>>>>Begin Spectral Data<<<<<
223.165	-7.75
223.4	-7.75
223.635	-7.75
223.869	-9.75
224.104	-19.75
224.338	-7.75
224.573	-21.75
224.808	5.25
225.042	-14.75
225.277	-10.75
225.511	-1.75
225.746	0.25
225.98	-3.75
226.215	2.25
226.449	19.25
226.683	32.25
226.918	22.25
227.152	16.25
227.387	39.25
227.621	40.25
227.856	51.25
228.09	40.25
228.324	57.25
228.559	52.25
228.793	64.25
229.027	96.25
229.262	78.25
229.496	103.25
229.73	111.25
229.964	115.25
230.199	121.25
230.433	128.25
230.667	103.25
230.901	113.25
231.136	114.25
231.37	89.25
231.604	98.25
231.838	101.25
232.072	109.25
232.306	119.25
232.541	122.25
232.775	93.25
233.009	98.25
233.243	117.25
233.477	116.25
233.711	116.25
233.945	120.25
234.179	108.25
234.413	107.25
234.647	122.25
234.881	120.25
235.115	104.25
235.349	117.25
235.583	124.25
235.817	120.25
236.051	120.25
236.285	133.25
236.519	119.25
236.753	109.25
236.987	132.25
237.221	152.25
237.455	191.25
237.689	164.25
237.922	138.25
238.156	126.25
238.39	111.25
238.624	105.25
238.858	107.25
239.091	135.25
239.325	122.25
239.559	134.25
239.793	125.25
240.027	111.25
240.26	140.25
240.494	138.25
240.728	125.25
240.961	142.25
241.195	135.25
241.429	127.25
241.662	118.25
241.896	128.25
242.13	129.25
242.363	130.25
242.597	127.25
242.83	122.25
243.064	109.25
243.298	136.25
243.531	142.25
243.765	136.25
243.998	133.25
244.232	138.25
244.465	132.25
244.699	138.25
244.932	141.25
245.166	137.25
245.399	138.25
245.633	133.25
245.866	139.25
246.099	138.25
246.333	133.25
246.566	144.25
246.8	126.25
247.033	144.25
247.266	142.25
247.5	157.25
247.733	137.25
247.966	140.25
248.2	134.25
248.433	154.25
248.666	138.25
248.899	173.25
249.133	154.25
249.366	174.25
249.599	170.25
249.832	169.25
250.066	167.25
250.299	168.25
250.532	187.25
250.765	192.25
250.998	201.25
251.231	192.25
251.465	172.25
251.698	174.25
251.931	171.25
252.164	170.25
252.397	171.25
252.63	180.25
252.863	183.25
253.096	172.25
253.329	203.25
253.562	206.25
253.795	176.25
254.028	175.25
254.261	180.25
254.494	190.25
254.727	196.25
254.96	217.25
255.193	224.25
255.426	206.25
255.659	226.25
255.892	208.25
256.124	228.25
256.357	244.25
256.59	204.25
256.823	198.25
257.056	188.25
257.289	181.25
257.521	194.25
257.754	172.25
257.987	177.25
258.22	200.25
258.452	200.25
258.685	198.25
258.918	192.25
259.151	198.25
259.383	192.25
259.616	200.25
259.849	176.25
260.081	201.25
260.314	228.25
260.547	210.25
260.779	223.25
261.012	202.25
261.244	192.25
261.477	206.25
261.71	200.25
261.942	183.25
262.175	213.25
262.407	206.25
262.64	204.25
262.872	203.25
263.105	207.25
263.337	207.25
263.57	209.25
263.802	197.25
264.035	192.25
264.267	188.25
264.499	211.25
264.732	210.25
264.964	192.25
265.197	190.25
265.429	220.25
265.661	206.25
265.894	210.25
266.126	194.25
266.358	217.25
266.591	206.25
266.823	227.25
267.055	200.25
267.287	213.25
267.52	203.25
267.752	207.25
267.984	208.25
268.216	214.25
268.448	220.25
268.681	212.25
268.913	215.25
269.145	218.25
269.377	249.25
269.609	248.25
269.841	242.25
270.073	239.25
270.306	249.25
270.538	249.25
270.77	248.25
271.002	248.25
271.234	245.25
271.466	240.25
271.698	264.25
271.93	276.25
272.162	258.25
272.394	262.25
272.626	268.25
272.858	247.25
273.09	240.25
273.322	262.25
273.553	264.25
273.785	236.25
274.017	244.25
274.249	224.25
274.481	248.25
274.713	244.25
274.945	248.25
275.176	227.25
275.408	228.25
275.64	238.25
275.872	245.25
276.104	251.25
276.335	244.25
276.567	253.25
276.799	244.25
277.031	269.25
277.262	253.25
277.494	269.25
277.726	280.25
277.957	268.25
278.189	244.25
278.421	248.25
278.652	259.25
278.884	260.25
279.115	249.25
279.347	251.25
279.579	269.25
279.81	277.25
280.042	259.25
280.273	235.25
280.505	265.25
280.736	267.25
280.968	241.25
281.199	261.25
281.431	246.25
281.662	275.25
281.894	268.25
282.125	253.25
282.356	269.25
282.588	265.25
282.819	272.25
283.051	271.25
283.282	265.25
283.513	269.25
283.745	268.25
283.976	256.25
284.207	273.25
284.439	281.25
284.67	270.25
284.901	284.25
285.132	245.25
285.364	271.25
285.595	262.25
285.826	283.25
286.057	270.25
286.288	260.25
286.52	273.25
286.751	280.25
286.982	285.25
287.213	294.25
287.444	304.25
287.675	278.25
287.906	282.25
288.138	296.25
288.369	282.25
288.6	281.25
288.831	310.25
289.062	282.25
289.293	282.25
289.524	280.25
289.755	288.25
289.986	295.25
290.217	285.25
290.448	285.25
290.679	287.25
290.91	286.25
291.141	286.25
291.371	275.25
291.602	284.25
291.833	297.25
292.064	302.25
292.295	283.25
292.526	278.25
292.757	275.25
292.987	305.25
293.218	291.25
293.449	281.25
293.68	286.25
293.91	276.25
294.141	286.25
294.372	289.25
294.603	306.25
294.833	295.25
295.064	292.25
295.295	278.25
295.525	293.25
295.756	303.25
295.987	289.25
296.217	303.25
296.448	302.25
296.679	321.25
296.909	323.25
297.14	291.25
297.37	315.25
297.601	307.25
297.831	313.25
298.062	312.25
298.292	294.25
298.523	305.25
298.753	276.25
298.984	301.25
299.214	292.25
299.445	294.25
299.675	298.25
299.905	292.25
300.136	308.25
300.366	293.25
300.597	294.25
300.827	304.25
301.057	302.25
301.288	304.25
301.518	327.25
301.748	329.25
301.979	304.25
302.209	308.25
302.439	320.25
302.669	299.25
302.9	329.25
303.13	329.25
303.36	315.25
303.59	325.25
303.82	328.25
304.051	321.25
304.281	318.25
304.511	317.25
304.741	318.25
304.971	317.25
305.201	332.25
305.431	328.25
305.661	319.25
305.891	310.25
306.121	320.25
306.352	316.25
306.582	321.25
306.812	322.25
307.042	316.25
307.272	303.25
307.502	316.25
307.731	320.25
307.961	311.25
308.191	313.25
308.421	312.25
308.651	318.25
308.881	320.25
309.111	329.25
309.341	330.25
309.571	326.25
309.8	323.25
310.03	333.25
310.26	345.25
310.49	344.25
310.72	344.25
310.949	358.25
311.179	356.25
311.409	345.25
311.639	350.25
311.868	357.25
312.098	343.25
312.328	356.25
312.557	358.25
312.787	358.25
313.017	372.25
313.246	359.25
313.476	356.25
313.706	356.25
313.935	337.25
314.165	356.25
314.394	341.25
314.624	363.25
314.853	365.25
315.083	354.25
315.312	345.25
315.542	338.25
315.771	338.25
316.001	340.25
316.23	335.25
316.46	332.25
316.689	341.25
316.919	344.25
317.148	360.25
317.377	369.25
317.607	355.25
317.836	370.25
318.065	328.25
318.295	342.25
318.524	344.25
318.753	360.25
318.983	361.25
319.212	337.25
319.441	342.25
319.67	354.25
319.9	352.25
320.129	361.25
320.358	367.25
320.587	354.25
320.816	358.25
321.046	364.25
321.275	357.25
321.504	373.25
321.733	374.25
321.962	370.25
322.191	366.25
322.42	390.25
322.649	402.25
322.878	384.25
323.108	376.25
323.337	421.25
323.566	417.25
323.795	425.25
324.024	471.25
324.253	537.25
324.482	709.25
324.71	1021.25
324.939	1396.25
325.168	1201.25
325.397	694.25
325.626	526.25
325.855	453.25
326.084	400.25
326.313	428.25
326.542	454.25
326.77	472.25
326.999	531.25
327.228	698.25
327.457	924.25
327.686	1103.25
327.914	766.25
328.143	547.25
328.372	522.25
328.6	495.25
328.829	474.25
329.058	479.25
329.287	464.25
329.515	458.25
329.744	440.25
329.972	451.25
330.201	488.25
330.43	529.25
330.658	507.25
330.887	497.25
331.115	466.25
331.344	427.25
331.572	426.25
331.801	433.25
332.03	453.25
332.258	444.25
332.486	442.25
332.715	452.25
332.943	438.25
333.172	445.25
333.4	457.25
333.629	481.25
333.857	487.25
334.085	500.25
334.314	527.25
334.542	567.25
334.771	575.25
334.999	493.25
335.227	472.25
335.455	448.25
335.684	424.25
335.912	427.25
336.14	433.25
336.369	422.25
336.597	440.25
336.825	430.25
337.053	417.25
337.281	417.25
337.51	421.25
337.738	427.25
337.966	429.25
338.194	410.25
338.422	410.25
338.65	408.25
338.878	396.25
339.106	397.25
339.334	405.25
339.562	385.25
339.79	393.25
340.018	403.25
340.246	385.25
340.474	400.25
340.702	388.25
340.93	398.25
341.158	399.25
341.386	407.25
341.614	398.25
341.842	396.25
342.07	390.25
342.298	392.25
342.526	385.25
342.754	375.25
342.981	378.25
343.209	388.25
343.437	390.25
343.665	396.25
343.893	428.25
344.12	435.25
344.348	440.25
344.576	416.25
344.804	411.25
345.031	416.25
345.259	405.25
345.487	394.25
345.714	403.25
345.942	386.25
346.17	383.25
346.397	377.25
346.625	390.25
346.853	383.25
347.08	367.25
347.308	374.25
347.535	360.25
347.763	365.25
347.99	381.25
348.218	392.25
348.445	390.25
348.673	380.25
348.9	384.25
349.128	378.25
349.355	359.25
349.583	372.25
349.81	367.25
350.037	368.25
350.265	372.25
350.492	375.25
350.72	356.25
350.947	381.25
351.174	386.25
351.402	363.25
351.629	357.25
351.856	366.25
352.083	390.25
352.311	372.25
352.538	369.25
352.765	378.25
352.992	378.25
353.22	372.25
353.447	366.25
353.674	352.25
353.901	356.25
354.128	345.25
354.355	337.25
354.583	343.25
354.81	341.25
355.037	351.25
355.264	358.25
355.491	343.25
355.718	336.25
355.945	365.25
356.172	366.25
356.399	346.25
356.626	350.25
356.853	364.25
357.08	346.25
357.307	352.25
357.534	344.25
357.761	338.25
357.988	358.25
358.215	369.25
358.441	341.25
358.668	365.25
358.895	354.25
359.122	349.25
359.349	348.25
359.576	357.25
359.802	388.25
360.029	390.25
360.256	393.25
360.483	356.25
360.709	373.25
360.936	369.25
361.163	363.25
361.39	378.25
361.616	372.25
361.843	372.25
362.07	358.25
362.296	377.25
362.523	369.25
362.749	365.25
362.976	343.25
363.203	353.25
363.429	346.25
363.656	356.25
363.882	355.25
364.109	365.25
364.335	360.25
364.562	343.25
364.788	357.25
365.015	361.25
365.241	356.25
365.468	378.25
365.694	349.25
365.92	345.25
366.147	346.25
366.373	341.25
366.599	348.25
366.826	339.25
367.052	360.25
367.278	369.25
367.505	356.25
367.731	356.25
367.957	357.25
368.184	350.25
368.41	367.25
368.636	363.25
368.862	364.25
369.089	377.25
369.315	354.25
369.541	346.25
369.767	372.25
369.993	361.25
370.219	342.25
370.445	352.25
370.672	343.25
370.898	357.25
371.124	360.25
371.35	368.25
371.576	374.25
371.802	342.25
372.028	352.25
372.254	365.25
372.48	353.25
372.706	369.25
372.932	363.25
373.158	388.25
373.384	391.25
373.61	380.25
373.835	376.25
374.061	360.25
374.287	374.25
374.513	383.25
374.739	373.25
374.965	401.25
375.191	392.25
375.416	382.25
375.642	374.25
375.868	376.25
376.094	367.25
376.319	368.25
376.545	347.25
376.771	336.25
376.997	354.25
377.222	357.25
377.448	366.25
377.674	365.25
377.899	355.25
378.125	352.25
378.35	364.25
378.576	353.25
378.802	343.25
379.027	368.25
379.253	350.25
379.478	342.25
379.704	349.25
379.929	362.25
380.155	351.25
380.38	380.25
380.606	352.25
380.831	358.25
381.057	378.25
381.282	354.25
381.507	359.25
381.733	380.25
381.958	356.25
382.184	356.25
382.409	359.25
382.634	386.25
382.86	364.25
383.085	376.25
383.31	388.25
383.535	399.25
383.761	383.25
383.986	377.25
384.211	393.25
384.436	410.25
384.662	384.25
384.887	395.25
385.112	408.25
385.337	402.25
385.562	400.25
385.787	417.25
386.013	425.25
386.238	406.25
386.463	420.25
386.688	409.25
386.913	400.25
387.138	416.25
387.363	392.25
387.588	397.25
387.813	411.25
388.038	380.25
388.263	393.25
388.488	416.25
388.713	402.25
388.938	401.25
389.163	409.25
389.387	413.25
389.612	396.25
389.837	416.25
390.062	398.25
390.287	397.25
390.512	403.25
390.736	404.25
390.961	398.25
391.186	419.25
391.411	399.25
391.636	438.25
391.86	438.25
392.085	422.25
392.31	444.25
392.534	446.25
392.759	425.25
392.984	400.25
393.208	408.25
393.433	421.25
393.658	399.25
393.882	388.25
394.107	403.25
394.331	412.25
394.556	409.25
394.78	408.25
395.005	407.25
395.229	399.25
395.454	426.25
395.678	439.25
395.903	427.25
396.127	457.25
396.352	442.25
396.576	424.25
396.801	410.25
397.025	421.25
397.249	425.25
397.474	409.25
397.698	430.25
397.922	448.25
398.147	461.25
398.371	473.25
398.595	459.25
398.82	464.25
399.044	483.25
399.268	533.25
399.492	576.25
399.717	614.25
399.941	639.25
400.165	608.25
400.389	564.25
400.613	547.25
400.837	505.25
401.062	512.25
401.286	490.25
401.51	516.25
401.734	466.25
401.958	470.25
402.182	480.25
402.406	506.25
402.63	488.25
402.854	472.25
403.078	486.25
403.302	497.25
403.526	495.25
403.75	505.25
403.974	522.25
404.198	529.25
404.422	527.25
404.645	523.25
404.869	497.25
405.093	541.25
405.317	564.25
405.541	562.25
405.765	548.25
405.988	538.25
406.212	535.25
406.436	540.25
406.66	540.25
406.883	566.25
407.107	556.25
407.331	604.25
407.555	634.25
407.778	611.25
408.002	613.25
408.226	548.25
408.449	550.25
408.673	553.25
408.896	556.25
409.12	566.25
409.344	558.25
409.567	523.25
409.791	512.25
410.014	500.25
410.238	508.25
410.461	494.25
410.685	485.25
410.908	521.25
411.132	523.25
411.355	526.25
411.578	523.25
411.802	496.25
412.025	510.25
412.249	501.25
412.472	522.25
412.695	543.25
412.919	537.25
413.142	505.25
413.365	495.25
413.589	487.25
413.812	475.25
414.035	470.25
414.258	471.25
414.482	475.25
414.705	473.25
414.928	468.25
415.151	461.25
415.374	475.25
415.597	462.25
415.821	465.25
416.044	446.25
416.267	466.25
416.49	459.25
416.713	456.25
416.936	457.25
417.159	461.25
417.382	472.25
417.605	475.25
417.828	472.25
418.051	470.25
418.274	473.25
418.497	466.25
418.72	493.25
418.943	471.25
419.166	494.25
419.389	492.25
419.611	497.25
419.834	505.25
420.057	505.25
420.28	514.25
420.503	488.25
420.726	504.25
420.948	492.25
421.171	495.25
421.394	526.25
421.617	497.25
421.839	488.25
422.062	488.25
422.285	490.25
422.507	516.25
422.73	569.25
422.953	554.25
423.175	520.25
423.398	480.25
423.621	497.25
423.843	497.25
424.066	529.25
424.288	511.25
424.511	514.25
424.733	553.25
424.956	568.25
425.178	566.25
425.401	550.25
425.623	591.25
425.846	504.25
426.068	510.25
426.291	489.25
426.513	476.25
426.735	486.25
426.958	508.25
427.18	545.25
427.402	644.25
427.625	672.25
427.847	605.25
428.069	568.25
428.292	512.25
428.514	457.25
428.736	444.25
428.958	456.25
429.181	461.25
429.403	449.25
429.625	432.25
429.847	480.25
430.069	512.25
430.292	475.25
430.514	461.25
430.736	424.25
430.958	458.25
431.18	435.25
431.402	451.25
431.624	424.25
431.846	423.25
432.068	460.25
432.29	434.25
432.512	433.25
432.734	426.25
432.956	441.25
433.178	436.25
433.4	438.25
433.622	431.25
433.844	444.25
434.066	436.25
434.287	432.25
434.509	427.25
434.731	449.25
434.953	481.25
435.175	462.25
435.397	494.25
435.618	455.25
435.84	502.25
436.062	542.25
436.284	558.25
436.505	510.25
436.727	467.25
436.949	447.25
437.17	425.25
437.392	458.25
437.614	448.25
437.835	472.25
438.057	506.25
438.278	571.25
438.5	547.25
438.721	610.25
438.943	589.25
439.165	491.25
439.386	461.25
439.608	450.25
439.829	443.25
440.05	458.25
440.272	526.25
440.493	507.25
440.715	472.25
440.936	454.25
441.158	473.25
441.379	456.25
441.6	475.25
441.822	503.25
442.043	515.25
442.264	544.25
442.486	559.25
442.707	524.25
442.928	486.25
443.149	487.25
443.371	500.25
443.592	545.25
443.813	598.25
444.034	613.25
444.255	552.25
444.476	525.25
444.698	539.25
444.919	545.25
445.14	630.25
445.361	574.25
445.582	518.25
445.803	532.25
446.024	574.25
446.245	577.25
446.466	546.25
446.687	478.25
446.908	456.25
447.129	426.25
447.35	432.25
447.571	446.25
447.792	440.25
448.013	438.25
448.234	451.25
448.455	442.25
448.675	542.25
448.896	601.25
449.117	519.25
449.338	492.25
449.559	556.25
449.779	603.25
450	516.25
450.221	446.25
450.442	438.25
450.662	440.25
450.883	418.25
451.104	416.25
451.324	413.25
451.545	417.25
451.766	404.25
451.986	410.25
452.207	400.25
452.428	415.25
452.648	392.25
452.869	374.25
453.089	393.25
453.31	392.25
453.53	409.25
453.751	389.25
453.971	392.25
454.192	378.25
454.412	398.25
454.633	378.25
454.853	379.25
455.073	392.25
455.294	395.25
455.514	428.25
455.734	416.25
455.955	388.25
456.175	353.25
456.395	356.25
456.616	366.25
456.836	390.25
457.056	364.25
457.276	362.25
457.497	374.25
457.717	374.25
457.937	392.25
458.157	402.25
458.377	378.25
458.598	402.25
458.818	432.25
459.038	471.25
459.258	477.25
459.478	439.25
459.698	422.25
459.918	441.25
460.138	468.25
460.358	478.25
460.578	458.25
460.798	469.25
461.018	470.25
461.238	426.25
461.458	470.25
461.678	452.25
461.898	452.25
462.118	448.25
462.338	488.25
462.558	495.25
462.777	522.25
462.997	535.25
463.217	574.25
463.437	574.25
463.657	535.25
463.876	523.25
464.096	525.25
464.316	500.25
464.536	512.25
464.755	505.25
464.975	496.25
465.195	504.25
465.414	518.25
465.634	474.25
465.854	452.25
466.073	434.25
466.293	416.25
466.512	420.25
466.732	414.25
466.951	391.25
467.171	409.25
467.391	416.25
467.61	400.25
467.829	417.25
468.049	412.25
468.268	408.25
468.488	396.25
468.707	403.25
468.927	400.25
469.146	392.25
469.365	380.25
469.585	380.25
469.804	408.25
470.023	415.25
470.243	407.25
470.462	416.25
470.681	465.25
470.901	426.25
471.12	422.25
471.339	433.25
471.558	423.25
471.777	402.25
471.997	400.25
472.216	434.25
472.435	472.25
472.654	453.25
472.873	413.25
473.092	401.25
473.311	392.25
473.53	410.25
473.749	400.25
473.968	430.25
474.187	468.25
474.406	497.25
474.625	426.25
474.844	399.25
475.063	400.25
475.282	402.25
475.501	422.25
475.72	408.25
475.939	400.25
476.158	408.25
476.377	407.25
476.596	393.25
476.814	427.25
477.033	416.25
477.252	436.25
477.471	424.25
477.69	451.25
477.908	456.25
478.127	475.25
478.346	461.25
478.564	485.25
478.783	469.25
479.002	472.25
479.22	480.25
479.439	481.25
479.658	463.25
479.876	497.25
480.095	484.25
480.313	520.25
480.532	525.25
480.751	538.25
480.969	537.25
481.188	574.25
481.406	603.25
481.624	537.25
481.843	470.25
482.061	482.25
482.28	482.25
482.498	481.25
482.717	476.25
482.935	459.25
483.153	453.25
483.372	478.25
483.59	459.25
483.808	474.25
484.027	470.25
484.245	472.25
484.463	454.25
484.681	464.25
484.9	457.25
485.118	492.25
485.336	476.25
485.554	489.25
485.772	499.25
485.99	478.25
486.209	489.25
486.427	486.25
486.645	480.25
486.863	470.25
487.081	492.25
487.299	481.25
487.517	493.25
487.735	470.25
487.953	481.25
488.171	506.25
488.389	469.25
488.607	486.25
488.825	471.25
489.043	484.25
489.261	500.25
489.479	501.25
489.696	497.25
489.914	482.25
490.132	495.25
490.35	509.25
490.568	513.25
490.786	512.25
491.003	525.25
491.221	521.25
491.439	529.25
491.657	546.25
491.874	544.25
492.092	548.25
492.31	547.25
492.527	558.25
492.745	576.25
492.963	577.25
493.18	561.25
493.398	562.25
493.615	564.25
493.833	551.25
494.05	568.25
494.268	558.25
494.485	559.25
494.703	570.25
494.92	551.25
495.138	534.25
495.355	557.25
495.573	567.25
495.79	552.25
496.008	596.25
496.225	542.25
496.442	557.25
496.66	584.25
496.877	550.25
497.094	561.25
497.312	577.25
497.529	604.25
497.746	583.25
497.963	621.25
498.181	654.25
498.398	634.25
498.615	666.25
498.832	687.25
499.049	721.25
499.267	751.25
499.484	763.25
499.701	866.25
499.918	908.25
500.135	966.25
500.352	1072.25
500.569	1118.25
500.786	1088.25
501.003	1068.25
501.22	979.25
501.437	906.25
501.654	864.25
501.871	831.25
502.088	776.25
