Data from 1984.PennyLincolnUp.Lamp.En5.5.200Scan.071819.P1_HRD10591_16-59-32-968.txt Node
Date: Thu Jul 18 16:59:32 EDT 2019
User: cochatt
Spectrometer: HR+D1059
Trigger mode: 1
Integration Time (sec): 1.000000E-1
Scans to average: 1
Electric dark correction enabled: true
Nonlinearity correction enabled: false
Boxcar width: 0
XAxis mode: Wavelengths
Number of Pixels in Spectrum: 2048
>>>>>Begin Spectral Data<<<<<
223.165	-24.31
223.4	-24.31
223.635	-24.31
223.869	-12.31
224.104	-22.31
224.338	-10.31
224.573	-22.31
224.808	-20.31
225.042	1.69
225.277	1.69
225.511	1.69
225.746	8.69
225.98	17.69
226.215	-2.31
226.449	1.69
226.683	21.69
226.918	29.69
227.152	29.69
227.387	30.69
227.621	40.69
227.856	40.69
228.09	47.69
228.324	39.69
228.559	61.69
228.793	66.69
229.027	93.69
229.262	77.69
229.496	81.69
229.73	110.69
229.964	118.69
230.199	116.69
230.433	92.69
230.667	109.69
230.901	104.69
231.136	110.69
231.37	110.69
231.604	115.69
231.838	125.69
232.072	118.69
232.306	113.69
232.541	101.69
232.775	114.69
233.009	101.69
233.243	109.69
233.477	126.69
233.711	109.69
233.945	113.69
234.179	105.69
234.413	110.69
234.647	121.69
234.881	115.69
235.115	103.69
235.349	118.69
235.583	117.69
235.817	96.69
236.051	125.69
236.285	110.69
236.519	115.69
236.753	135.69
236.987	114.69
237.221	155.69
237.455	163.69
237.689	152.69
237.922	134.69
238.156	124.69
238.39	126.69
238.624	115.69
238.858	130.69
239.091	111.69
239.325	115.69
239.559	120.69
239.793	122.69
240.027	121.69
240.26	129.69
240.494	137.69
240.728	129.69
240.961	131.69
241.195	137.69
241.429	126.69
241.662	119.69
241.896	133.69
242.13	131.69
242.363	125.69
242.597	127.69
242.83	127.69
243.064	128.69
243.298	127.69
243.531	114.69
243.765	135.69
243.998	129.69
244.232	138.69
244.465	141.69
244.699	145.69
244.932	151.69
245.166	148.69
245.399	139.69
245.633	139.69
245.866	146.69
246.099	144.69
246.333	148.69
246.566	140.69
246.8	155.69
247.033	151.69
247.266	143.69
247.5	136.69
247.733	141.69
247.966	162.69
248.2	155.69
248.433	160.69
248.666	145.69
248.899	180.69
249.133	177.69
249.366	168.69
249.599	171.69
249.832	151.69
250.066	177.69
250.299	180.69
250.532	188.69
250.765	208.69
250.998	199.69
251.231	193.69
251.465	195.69
251.698	157.69
251.931	169.69
252.164	161.69
252.397	178.69
252.63	182.69
252.863	182.69
253.096	187.69
253.329	195.69
253.562	181.69
253.795	171.69
254.028	183.69
254.261	181.69
254.494	183.69
254.727	196.69
254.96	211.69
255.193	216.69
255.426	213.69
255.659	206.69
255.892	228.69
256.124	250.69
256.357	271.69
256.59	236.69
256.823	216.69
257.056	214.69
257.289	186.69
257.521	196.69
257.754	181.69
257.987	198.69
258.22	169.69
258.452	183.69
258.685	185.69
258.918	182.69
259.151	201.69
259.383	199.69
259.616	180.69
259.849	202.69
260.081	197.69
260.314	210.69
260.547	221.69
260.779	210.69
261.012	201.69
261.244	175.69
261.477	189.69
261.71	195.69
261.942	191.69
262.175	191.69
262.407	202.69
262.64	189.69
262.872	211.69
263.105	200.69
263.337	199.69
263.57	201.69
263.802	203.69
264.035	190.69
264.267	196.69
264.499	195.69
264.732	199.69
264.964	194.69
265.197	206.69
265.429	200.69
265.661	207.69
265.894	192.69
266.126	215.69
266.358	200.69
266.591	189.69
266.823	211.69
267.055	204.69
267.287	217.69
267.52	207.69
267.752	203.69
267.984	218.69
268.216	212.69
268.448	205.69
268.681	209.69
268.913	226.69
269.145	214.69
269.377	208.69
269.609	230.69
269.841	241.69
270.073	235.69
270.306	236.69
270.538	265.69
270.77	247.69
271.002	259.69
271.234	263.69
271.466	242.69
271.698	264.69
271.93	254.69
272.162	283.69
272.394	269.69
272.626	257.69
272.858	236.69
273.09	241.69
273.322	252.69
273.553	234.69
273.785	232.69
274.017	233.69
274.249	245.69
274.481	230.69
274.713	261.69
274.945	258.69
275.176	267.69
275.408	261.69
275.64	262.69
275.872	247.69
276.104	250.69
276.335	261.69
276.567	230.69
276.799	254.69
277.031	279.69
277.262	276.69
277.494	278.69
277.726	264.69
277.957	267.69
278.189	245.69
278.421	246.69
278.652	245.69
278.884	251.69
279.115	252.69
279.347	233.69
279.579	257.69
279.81	246.69
280.042	257.69
280.273	257.69
280.505	263.69
280.736	274.69
280.968	246.69
281.199	248.69
281.431	263.69
281.662	244.69
281.894	266.69
282.125	283.69
282.356	266.69
282.588	263.69
282.819	275.69
283.051	273.69
283.282	273.69
283.513	266.69
283.745	270.69
283.976	265.69
284.207	265.69
284.439	267.69
284.67	263.69
284.901	280.69
285.132	257.69
285.364	276.69
285.595	260.69
285.826	271.69
286.057	281.69
286.288	282.69
286.52	265.69
286.751	271.69
286.982	260.69
287.213	270.69
287.444	274.69
287.675	277.69
287.906	275.69
288.138	287.69
288.369	292.69
288.6	291.69
288.831	278.69
289.062	291.69
289.293	301.69
289.524	283.69
289.755	285.69
289.986	283.69
290.217	272.69
290.448	282.69
290.679	262.69
290.91	284.69
291.141	288.69
291.371	263.69
291.602	280.69
291.833	277.69
292.064	287.69
292.295	281.69
292.526	285.69
292.757	285.69
292.987	288.69
293.218	272.69
293.449	280.69
293.68	273.69
293.91	277.69
294.141	281.69
294.372	274.69
294.603	281.69
294.833	266.69
295.064	277.69
295.295	292.69
295.525	274.69
295.756	289.69
295.987	290.69
296.217	305.69
296.448	308.69
296.679	296.69
296.909	279.69
297.14	296.69
297.37	309.69
297.601	320.69
297.831	296.69
298.062	305.69
298.292	289.69
298.523	303.69
298.753	298.69
298.984	291.69
299.214	305.69
299.445	321.69
299.675	278.69
299.905	301.69
300.136	305.69
300.366	313.69
300.597	320.69
300.827	322.69
301.057	308.69
301.288	324.69
301.518	322.69
301.748	331.69
301.979	320.69
302.209	330.69
302.439	315.69
302.669	325.69
302.9	309.69
303.13	322.69
303.36	316.69
303.59	334.69
303.82	342.69
304.051	328.69
304.281	321.69
304.511	334.69
304.741	315.69
304.971	317.69
305.201	331.69
305.431	301.69
305.661	310.69
305.891	322.69
306.121	322.69
306.352	333.69
306.582	350.69
306.812	307.69
307.042	315.69
307.272	316.69
307.502	324.69
307.731	320.69
307.961	317.69
308.191	318.69
308.421	317.69
308.651	333.69
308.881	313.69
309.111	329.69
309.341	314.69
309.571	314.69
309.8	345.69
310.03	326.69
310.26	330.69
310.49	322.69
310.72	343.69
310.949	350.69
311.179	343.69
311.409	337.69
311.639	326.69
311.868	344.69
312.098	341.69
312.328	361.69
312.557	334.69
312.787	358.69
313.017	370.69
313.246	356.69
313.476	347.69
313.706	340.69
313.935	358.69
314.165	340.69
314.394	346.69
314.624	367.69
314.853	355.69
315.083	337.69
315.312	345.69
315.542	339.69
315.771	334.69
316.001	342.69
316.23	352.69
316.46	341.69
316.689	357.69
316.919	365.69
317.148	348.69
317.377	349.69
317.607	350.69
317.836	348.69
318.065	330.69
318.295	342.69
318.524	346.69
318.753	338.69
318.983	351.69
319.212	343.69
319.441	350.69
319.67	359.69
319.9	369.69
320.129	341.69
320.358	370.69
320.587	347.69
320.816	367.69
321.046	361.69
321.275	359.69
321.504	370.69
321.733	371.69
321.962	374.69
322.191	386.69
322.42	376.69
322.649	388.69
322.878	366.69
323.108	391.69
323.337	396.69
323.566	393.69
323.795	428.69
324.024	453.69
324.253	535.69
324.482	697.69
324.71	997.69
324.939	1415.69
325.168	1165.69
325.397	676.69
325.626	501.69
325.855	473.69
326.084	445.69
326.313	435.69
326.542	435.69
326.77	459.69
326.999	534.69
327.228	643.69
327.457	923.69
327.686	1093.69
327.914	777.69
328.143	596.69
328.372	553.69
328.6	528.69
328.829	490.69
329.058	495.69
329.287	482.69
329.515	469.69
329.744	474.69
329.972	497.69
330.201	563.69
330.43	613.69
330.658	557.69
330.887	517.69
331.115	504.69
331.344	466.69
331.572	429.69
331.801	437.69
332.03	440.69
332.258	437.69
332.486	438.69
332.715	453.69
332.943	445.69
333.172	485.69
333.4	489.69
333.629	500.69
333.857	496.69
334.085	561.69
334.314	612.69
334.542	676.69
334.771	685.69
334.999	587.69
335.227	506.69
335.455	486.69
335.684	451.69
335.912	453.69
336.14	419.69
336.369	435.69
336.597	438.69
336.825	426.69
337.053	436.69
337.281	437.69
337.51	420.69
337.738	421.69
337.966	395.69
338.194	433.69
338.422	409.69
338.65	405.69
338.878	407.69
339.106	394.69
339.334	383.69
339.562	412.69
339.79	407.69
340.018	399.69
340.246	382.69
340.474	398.69
340.702	388.69
340.93	396.69
341.158	368.69
341.386	380.69
341.614	382.69
341.842	389.69
342.07	393.69
342.298	393.69
342.526	381.69
342.754	382.69
342.981	378.69
343.209	379.69
343.437	378.69
343.665	399.69
343.893	438.69
344.12	428.69
344.348	436.69
344.576	418.69
344.804	407.69
345.031	417.69
345.259	402.69
345.487	382.69
345.714	382.69
345.942	391.69
346.17	373.69
346.397	377.69
346.625	380.69
346.853	362.69
347.08	379.69
347.308	379.69
347.535	382.69
347.763	371.69
347.99	382.69
348.218	371.69
348.445	371.69
348.673	354.69
348.9	385.69
349.128	375.69
349.355	358.69
349.583	372.69
349.81	371.69
350.037	355.69
350.265	352.69
350.492	359.69
350.72	356.69
350.947	373.69
351.174	372.69
351.402	373.69
351.629	359.69
351.856	345.69
352.083	357.69
352.311	381.69
352.538	387.69
352.765	365.69
352.992	358.69
353.22	357.69
353.447	350.69
353.674	362.69
353.901	368.69
354.128	338.69
354.355	354.69
354.583	363.69
354.81	370.69
355.037	353.69
355.264	342.69
355.491	342.69
355.718	341.69
355.945	343.69
356.172	370.69
356.399	367.69
356.626	363.69
356.853	350.69
357.08	369.69
357.307	348.69
357.534	337.69
357.761	354.69
357.988	351.69
358.215	368.69
358.441	357.69
358.668	343.69
358.895	350.69
359.122	360.69
359.349	362.69
359.576	367.69
359.802	372.69
360.029	375.69
360.256	386.69
360.483	371.69
360.709	374.69
360.936	391.69
361.163	355.69
361.39	369.69
361.616	367.69
361.843	377.69
362.07	354.69
362.296	357.69
362.523	353.69
362.749	346.69
362.976	367.69
363.203	362.69
363.429	351.69
363.656	346.69
363.882	338.69
364.109	350.69
364.335	347.69
364.562	339.69
364.788	380.69
365.015	360.69
365.241	343.69
365.468	348.69
365.694	361.69
365.92	345.69
366.147	356.69
366.373	349.69
366.599	342.69
366.826	344.69
367.052	346.69
367.278	335.69
367.505	361.69
367.731	351.69
367.957	345.69
368.184	375.69
368.41	347.69
368.636	371.69
368.862	371.69
369.089	364.69
369.315	355.69
369.541	362.69
369.767	352.69
369.993	346.69
370.219	360.69
370.445	344.69
370.672	366.69
370.898	369.69
371.124	360.69
371.35	349.69
371.576	346.69
371.802	377.69
372.028	348.69
372.254	365.69
372.48	347.69
372.706	361.69
372.932	373.69
373.158	371.69
373.384	355.69
373.61	373.69
373.835	356.69
374.061	350.69
374.287	366.69
374.513	364.69
374.739	361.69
374.965	385.69
375.191	389.69
375.416	393.69
375.642	370.69
375.868	360.69
376.094	341.69
376.319	364.69
376.545	354.69
376.771	357.69
376.997	355.69
377.222	342.69
377.448	355.69
377.674	374.69
377.899	361.69
378.125	359.69
378.35	346.69
378.576	341.69
378.802	359.69
379.027	348.69
379.253	363.69
379.478	346.69
379.704	350.69
379.929	350.69
380.155	341.69
380.38	342.69
380.606	356.69
380.831	365.69
381.057	346.69
381.282	353.69
381.507	361.69
381.733	369.69
381.958	351.69
382.184	359.69
382.409	364.69
382.634	355.69
382.86	349.69
383.085	373.69
383.31	377.69
383.535	380.69
383.761	388.69
383.986	384.69
384.211	376.69
384.436	364.69
384.662	414.69
384.887	401.69
385.112	417.69
385.337	387.69
385.562	388.69
385.787	405.69
386.013	414.69
386.238	407.69
386.463	401.69
386.688	395.69
386.913	385.69
387.138	389.69
387.363	388.69
387.588	425.69
387.813	402.69
388.038	419.69
388.263	391.69
388.488	413.69
388.713	397.69
388.938	395.69
389.163	415.69
389.387	399.69
389.612	402.69
389.837	394.69
390.062	391.69
390.287	372.69
390.512	389.69
390.736	394.69
390.961	411.69
391.186	418.69
391.411	405.69
391.636	409.69
391.86	427.69
392.085	442.69
392.31	441.69
392.534	419.69
392.759	424.69
392.984	413.69
393.208	430.69
393.433	398.69
393.658	394.69
393.882	405.69
394.107	401.69
394.331	418.69
394.556	395.69
394.78	421.69
395.005	398.69
395.229	410.69
395.454	430.69
395.678	445.69
395.903	435.69
396.127	437.69
396.352	419.69
396.576	422.69
396.801	427.69
397.025	422.69
397.249	428.69
397.474	439.69
397.698	444.69
397.922	452.69
398.147	450.69
398.371	462.69
398.595	467.69
398.82	470.69
399.044	499.69
399.268	526.69
399.492	565.69
399.717	605.69
399.941	618.69
400.165	587.69
400.389	590.69
400.613	541.69
400.837	518.69
401.062	492.69
401.286	494.69
401.51	476.69
401.734	467.69
401.958	468.69
402.182	481.69
402.406	483.69
402.63	502.69
402.854	472.69
403.078	485.69
403.302	517.69
403.526	502.69
403.75	497.69
403.974	510.69
404.198	527.69
404.422	532.69
404.645	514.69
404.869	538.69
405.093	549.69
405.317	601.69
405.541	607.69
405.765	579.69
405.988	549.69
406.212	542.69
406.436	532.69
406.66	558.69
406.883	539.69
407.107	558.69
407.331	603.69
407.555	620.69
407.778	617.69
408.002	589.69
408.226	582.69
408.449	549.69
408.673	551.69
408.896	557.69
409.12	583.69
409.344	526.69
409.567	532.69
409.791	502.69
410.014	498.69
410.238	493.69
410.461	477.69
410.685	493.69
410.908	526.69
411.132	503.69
411.355	559.69
411.578	506.69
411.802	508.69
412.025	485.69
412.249	519.69
412.472	541.69
412.695	582.69
412.919	589.69
413.142	535.69
413.365	502.69
413.589	518.69
413.812	468.69
414.035	476.69
414.258	475.69
414.482	465.69
414.705	467.69
414.928	483.69
415.151	478.69
415.374	455.69
415.597	462.69
415.821	463.69
416.044	479.69
416.267	476.69
416.49	471.69
416.713	448.69
416.936	451.69
417.159	468.69
417.382	462.69
417.605	457.69
417.828	489.69
418.051	467.69
418.274	483.69
418.497	462.69
418.72	473.69
418.943	470.69
419.166	469.69
419.389	505.69
419.611	517.69
419.834	479.69
420.057	531.69
420.28	499.69
420.503	486.69
420.726	504.69
420.948	509.69
421.171	515.69
421.394	526.69
421.617	499.69
421.839	511.69
422.062	482.69
422.285	488.69
422.507	507.69
422.73	545.69
422.953	534.69
423.175	510.69
423.398	506.69
423.621	469.69
423.843	507.69
424.066	494.69
424.288	506.69
424.511	514.69
424.733	533.69
424.956	597.69
425.178	563.69
425.401	545.69
425.623	564.69
425.846	514.69
426.068	501.69
426.291	485.69
426.513	476.69
426.735	483.69
426.958	521.69
427.18	539.69
427.402	620.69
427.625	671.69
427.847	610.69
428.069	552.69
428.292	515.69
428.514	473.69
428.736	474.69
428.958	464.69
429.181	442.69
429.403	425.69
429.625	458.69
429.847	467.69
430.069	497.69
430.292	486.69
430.514	466.69
430.736	449.69
430.958	431.69
431.18	413.69
431.402	421.69
431.624	429.69
431.846	423.69
432.068	423.69
432.29	440.69
432.512	433.69
432.734	444.69
432.956	420.69
433.178	449.69
433.4	433.69
433.622	444.69
433.844	429.69
434.066	420.69
434.287	428.69
434.509	429.69
434.731	443.69
434.953	455.69
435.175	486.69
435.397	470.69
435.618	513.69
435.84	507.69
436.062	525.69
436.284	573.69
436.505	486.69
436.727	456.69
436.949	458.69
437.17	428.69
437.392	449.69
437.614	438.69
437.835	450.69
438.057	494.69
438.278	592.69
438.5	549.69
438.721	592.69
438.943	586.69
439.165	492.69
439.386	445.69
439.608	460.69
439.829	441.69
440.05	476.69
440.272	510.69
440.493	448.69
440.715	457.69
440.936	451.69
441.158	457.69
441.379	457.69
441.6	487.69
441.822	486.69
442.043	499.69
442.264	537.69
442.486	566.69
442.707	504.69
442.928	488.69
443.149	482.69
443.371	502.69
443.592	517.69
443.813	578.69
444.034	625.69
444.255	542.69
444.476	534.69
444.698	524.69
444.919	529.69
445.14	611.69
445.361	531.69
445.582	505.69
445.803	516.69
446.024	572.69
446.245	595.69
446.466	540.69
446.687	480.69
446.908	450.69
447.129	458.69
447.35	433.69
447.571	411.69
447.792	427.69
448.013	395.69
448.234	448.69
448.455	458.69
448.675	529.69
448.896	561.69
449.117	523.69
449.338	487.69
449.559	555.69
449.779	627.69
450	482.69
450.221	429.69
450.442	416.69
450.662	422.69
450.883	419.69
451.104	423.69
451.324	428.69
451.545	415.69
451.766	400.69
451.986	396.69
452.207	423.69
452.428	403.69
452.648	384.69
452.869	379.69
453.089	386.69
453.31	401.69
453.53	420.69
453.751	374.69
453.971	384.69
454.192	389.69
454.412	379.69
454.633	399.69
454.853	410.69
455.073	397.69
455.294	398.69
455.514	421.69
455.734	410.69
455.955	382.69
456.175	369.69
456.395	354.69
456.616	358.69
456.836	378.69
457.056	357.69
457.276	376.69
457.497	365.69
457.717	381.69
457.937	389.69
458.157	385.69
458.377	370.69
458.598	386.69
458.818	453.69
459.038	472.69
459.258	482.69
459.478	458.69
459.698	425.69
459.918	423.69
460.138	445.69
460.358	451.69
460.578	450.69
460.798	461.69
461.018	486.69
461.238	452.69
461.458	452.69
461.678	466.69
461.898	467.69
462.118	471.69
462.338	505.69
462.558	482.69
462.777	505.69
462.997	516.69
463.217	553.69
463.437	551.69
463.657	519.69
463.876	498.69
464.096	506.69
464.316	502.69
464.536	517.69
464.755	511.69
464.975	493.69
465.195	504.69
465.414	498.69
465.634	471.69
465.854	449.69
466.073	445.69
466.293	431.69
466.512	408.69
466.732	409.69
466.951	406.69
467.171	403.69
467.391	418.69
467.61	412.69
467.829	410.69
468.049	435.69
468.268	442.69
468.488	429.69
468.707	415.69
468.927	397.69
469.146	402.69
469.365	413.69
469.585	414.69
469.804	402.69
470.023	416.69
470.243	423.69
470.462	426.69
470.681	441.69
470.901	447.69
471.12	422.69
471.339	417.69
471.558	402.69
471.777	407.69
471.997	413.69
472.216	434.69
472.435	505.69
472.654	477.69
472.873	436.69
473.092	414.69
473.311	405.69
473.53	418.69
473.749	421.69
473.968	422.69
474.187	465.69
474.406	482.69
474.625	419.69
474.844	408.69
475.063	423.69
475.282	412.69
475.501	412.69
475.72	403.69
475.939	404.69
476.158	427.69
476.377	422.69
476.596	409.69
476.814	437.69
477.033	421.69
477.252	430.69
477.471	432.69
477.69	430.69
477.908	442.69
478.127	458.69
478.346	449.69
478.564	476.69
478.783	456.69
479.002	457.69
479.22	470.69
479.439	481.69
479.658	475.69
479.876	495.69
480.095	494.69
480.313	537.69
480.532	533.69
480.751	527.69
480.969	523.69
481.188	648.69
481.406	725.69
481.624	613.69
481.843	526.69
482.061	536.69
482.28	499.69
482.498	484.69
482.717	483.69
482.935	452.69
483.153	478.69
483.372	475.69
483.59	466.69
483.808	475.69
484.027	474.69
484.245	475.69
484.463	451.69
484.681	463.69
484.9	453.69
485.118	465.69
485.336	470.69
485.554	500.69
485.772	472.69
485.99	474.69
486.209	499.69
486.427	487.69
486.645	494.69
486.863	487.69
487.081	516.69
487.299	506.69
487.517	513.69
487.735	505.69
487.953	491.69
488.171	496.69
488.389	475.69
488.607	485.69
488.825	492.69
489.043	474.69
489.261	494.69
489.479	495.69
489.696	521.69
489.914	538.69
490.132	521.69
490.35	514.69
490.568	519.69
490.786	519.69
491.003	530.69
491.221	541.69
491.439	557.69
491.657	553.69
491.874	570.69
492.092	546.69
492.31	554.69
492.527	572.69
492.745	617.69
492.963	592.69
493.18	588.69
493.398	579.69
493.615	572.69
493.833	553.69
494.05	570.69
494.268	574.69
494.485	573.69
494.703	565.69
494.92	586.69
495.138	573.69
495.355	571.69
495.573	569.69
495.79	571.69
496.008	594.69
496.225	559.69
496.442	571.69
496.66	587.69
496.877	583.69
497.094	587.69
497.312	586.69
497.529	600.69
497.746	599.69
497.963	636.69
498.181	631.69
498.398	645.69
498.615	671.69
498.832	691.69
499.049	707.69
499.267	751.69
499.484	804.69
499.701	846.69
499.918	910.69
500.135	973.69
500.352	1047.69
500.569	1081.69
500.786	1121.69
501.003	1089.69
501.22	1005.69
501.437	907.69
501.654	871.69
501.871	819.69
502.088	791.69
