Data from 1984.PennyLincolnUp.Lamp.En5.5.200Scan.071819.P1_HRD10591_16-59-25-968.txt Node
Date: Thu Jul 18 16:59:25 EDT 2019
User: cochatt
Spectrometer: HR+D1059
Trigger mode: 1
Integration Time (sec): 1.000000E-1
Scans to average: 1
Electric dark correction enabled: true
Nonlinearity correction enabled: false
Boxcar width: 0
XAxis mode: Wavelengths
Number of Pixels in Spectrum: 2048
>>>>>Begin Spectral Data<<<<<
223.165	-10.88
223.4	-10.88
223.635	-10.88
223.869	-19.88
224.104	-18.88
224.338	-13.88
224.573	-13.88
224.808	-7.88
225.042	-4.88
225.277	-19.88
225.511	-0.88
225.746	7.12
225.98	8.12
226.215	13.12
226.449	21.12
226.683	19.12
226.918	17.12
227.152	25.12
227.387	43.12
227.621	38.12
227.856	45.12
228.09	48.12
228.324	39.12
228.559	63.12
228.793	83.12
229.027	96.12
229.262	87.12
229.496	96.12
229.73	101.12
229.964	119.12
230.199	115.12
230.433	109.12
230.667	104.12
230.901	108.12
231.136	90.12
231.37	113.12
231.604	122.12
231.838	117.12
232.072	106.12
232.306	112.12
232.541	113.12
232.775	111.12
233.009	114.12
233.243	111.12
233.477	117.12
233.711	119.12
233.945	107.12
234.179	122.12
234.413	125.12
234.647	132.12
234.881	113.12
235.115	104.12
235.349	101.12
235.583	126.12
235.817	96.12
236.051	131.12
236.285	123.12
236.519	112.12
236.753	127.12
236.987	133.12
237.221	170.12
237.455	169.12
237.689	137.12
237.922	129.12
238.156	127.12
238.39	130.12
238.624	121.12
238.858	126.12
239.091	125.12
239.325	112.12
239.559	131.12
239.793	141.12
240.027	127.12
240.26	147.12
240.494	122.12
240.728	133.12
240.961	145.12
241.195	149.12
241.429	129.12
241.662	119.12
241.896	130.12
242.13	129.12
242.363	133.12
242.597	117.12
242.83	134.12
243.064	136.12
243.298	125.12
243.531	125.12
243.765	140.12
243.998	146.12
244.232	131.12
244.465	145.12
244.699	130.12
244.932	140.12
245.166	141.12
245.399	128.12
245.633	148.12
245.866	141.12
246.099	129.12
246.333	141.12
246.566	153.12
246.8	153.12
247.033	133.12
247.266	151.12
247.5	151.12
247.733	173.12
247.966	165.12
248.2	163.12
248.433	145.12
248.666	157.12
248.899	183.12
249.133	165.12
249.366	177.12
249.599	173.12
249.832	160.12
250.066	183.12
250.299	194.12
250.532	201.12
250.765	210.12
250.998	191.12
251.231	194.12
251.465	176.12
251.698	189.12
251.931	185.12
252.164	174.12
252.397	169.12
252.63	182.12
252.863	179.12
253.096	181.12
253.329	193.12
253.562	201.12
253.795	198.12
254.028	189.12
254.261	185.12
254.494	193.12
254.727	226.12
254.96	230.12
255.193	224.12
255.426	198.12
255.659	201.12
255.892	222.12
256.124	245.12
256.357	278.12
256.59	210.12
256.823	225.12
257.056	210.12
257.289	193.12
257.521	205.12
257.754	206.12
257.987	208.12
258.22	204.12
258.452	182.12
258.685	178.12
258.918	190.12
259.151	184.12
259.383	197.12
259.616	194.12
259.849	198.12
260.081	202.12
260.314	208.12
260.547	212.12
260.779	217.12
261.012	217.12
261.244	191.12
261.477	212.12
261.71	192.12
261.942	201.12
262.175	201.12
262.407	207.12
262.64	184.12
262.872	205.12
263.105	208.12
263.337	208.12
263.57	212.12
263.802	210.12
264.035	209.12
264.267	199.12
264.499	207.12
264.732	203.12
264.964	233.12
265.197	203.12
265.429	216.12
265.661	207.12
265.894	197.12
266.126	210.12
266.358	210.12
266.591	198.12
266.823	215.12
267.055	201.12
267.287	221.12
267.52	218.12
267.752	209.12
267.984	223.12
268.216	226.12
268.448	215.12
268.681	217.12
268.913	208.12
269.145	234.12
269.377	234.12
269.609	241.12
269.841	243.12
270.073	254.12
270.306	241.12
270.538	273.12
270.77	255.12
271.002	246.12
271.234	238.12
271.466	245.12
271.698	265.12
271.93	252.12
272.162	268.12
272.394	269.12
272.626	257.12
272.858	251.12
273.09	262.12
273.322	259.12
273.553	264.12
273.785	263.12
274.017	231.12
274.249	238.12
274.481	249.12
274.713	245.12
274.945	254.12
275.176	233.12
275.408	259.12
275.64	253.12
275.872	249.12
276.104	242.12
276.335	257.12
276.567	241.12
276.799	271.12
277.031	289.12
277.262	282.12
277.494	300.12
277.726	275.12
277.957	258.12
278.189	257.12
278.421	257.12
278.652	283.12
278.884	281.12
279.115	241.12
279.347	253.12
279.579	257.12
279.81	273.12
280.042	256.12
280.273	256.12
280.505	257.12
280.736	265.12
280.968	264.12
281.199	264.12
281.431	271.12
281.662	273.12
281.894	263.12
282.125	261.12
282.356	267.12
282.588	286.12
282.819	310.12
283.051	270.12
283.282	288.12
283.513	276.12
283.745	275.12
283.976	279.12
284.207	289.12
284.439	269.12
284.67	273.12
284.901	279.12
285.132	277.12
285.364	283.12
285.595	287.12
285.826	283.12
286.057	279.12
286.288	276.12
286.52	285.12
286.751	263.12
286.982	288.12
287.213	281.12
287.444	292.12
287.675	287.12
287.906	273.12
288.138	297.12
288.369	302.12
288.6	299.12
288.831	297.12
289.062	294.12
289.293	297.12
289.524	290.12
289.755	283.12
289.986	296.12
290.217	272.12
290.448	268.12
290.679	281.12
290.91	289.12
291.141	293.12
291.371	285.12
291.602	267.12
291.833	281.12
292.064	293.12
292.295	287.12
292.526	286.12
292.757	274.12
292.987	296.12
293.218	286.12
293.449	293.12
293.68	300.12
293.91	285.12
294.141	293.12
294.372	288.12
294.603	289.12
294.833	283.12
295.064	294.12
295.295	279.12
295.525	274.12
295.756	292.12
295.987	323.12
296.217	316.12
296.448	295.12
296.679	304.12
296.909	305.12
297.14	291.12
297.37	298.12
297.601	297.12
297.831	291.12
298.062	327.12
298.292	296.12
298.523	326.12
298.753	308.12
298.984	297.12
299.214	311.12
299.445	325.12
299.675	313.12
299.905	310.12
300.136	305.12
300.366	312.12
300.597	301.12
300.827	315.12
301.057	334.12
301.288	322.12
301.518	350.12
301.748	312.12
301.979	303.12
302.209	323.12
302.439	338.12
302.669	325.12
302.9	330.12
303.13	335.12
303.36	327.12
303.59	338.12
303.82	343.12
304.051	330.12
304.281	318.12
304.511	323.12
304.741	316.12
304.971	302.12
305.201	315.12
305.431	308.12
305.661	325.12
305.891	327.12
306.121	305.12
306.352	334.12
306.582	335.12
306.812	322.12
307.042	312.12
307.272	327.12
307.502	314.12
307.731	311.12
307.961	316.12
308.191	346.12
308.421	325.12
308.651	330.12
308.881	333.12
309.111	343.12
309.341	333.12
309.571	352.12
309.8	331.12
310.03	331.12
310.26	344.12
310.49	342.12
310.72	337.12
310.949	340.12
311.179	359.12
311.409	351.12
311.639	357.12
311.868	358.12
312.098	350.12
312.328	335.12
312.557	361.12
312.787	368.12
313.017	370.12
313.246	353.12
313.476	354.12
313.706	357.12
313.935	386.12
314.165	370.12
314.394	351.12
314.624	363.12
314.853	364.12
315.083	365.12
315.312	371.12
315.542	354.12
315.771	350.12
316.001	364.12
316.23	354.12
316.46	365.12
316.689	363.12
316.919	345.12
317.148	354.12
317.377	364.12
317.607	368.12
317.836	352.12
318.065	348.12
318.295	341.12
318.524	355.12
318.753	339.12
318.983	365.12
319.212	360.12
319.441	339.12
319.67	377.12
319.9	368.12
320.129	351.12
320.358	365.12
320.587	360.12
320.816	359.12
321.046	391.12
321.275	374.12
321.504	360.12
321.733	382.12
321.962	369.12
322.191	383.12
322.42	377.12
322.649	369.12
322.878	391.12
323.108	411.12
323.337	429.12
323.566	416.12
323.795	425.12
324.024	448.12
324.253	524.12
324.482	715.12
324.71	1039.12
324.939	1454.12
325.168	1297.12
325.397	684.12
325.626	546.12
325.855	479.12
326.084	470.12
326.313	437.12
326.542	439.12
326.77	474.12
326.999	533.12
327.228	669.12
327.457	981.12
327.686	1162.12
327.914	775.12
328.143	606.12
328.372	562.12
328.6	534.12
328.829	496.12
329.058	492.12
329.287	489.12
329.515	496.12
329.744	479.12
329.972	531.12
330.201	567.12
330.43	596.12
330.658	593.12
330.887	520.12
331.115	532.12
331.344	490.12
331.572	452.12
331.801	445.12
332.03	469.12
332.258	487.12
332.486	446.12
332.715	472.12
332.943	476.12
333.172	479.12
333.4	494.12
333.629	519.12
333.857	528.12
334.085	556.12
334.314	606.12
334.542	667.12
334.771	682.12
334.999	572.12
335.227	507.12
335.455	477.12
335.684	481.12
335.912	458.12
336.14	451.12
336.369	437.12
336.597	473.12
336.825	446.12
337.053	455.12
337.281	446.12
337.51	437.12
337.738	408.12
337.966	417.12
338.194	422.12
338.422	419.12
338.65	425.12
338.878	410.12
339.106	427.12
339.334	422.12
339.562	397.12
339.79	411.12
340.018	387.12
340.246	404.12
340.474	403.12
340.702	405.12
340.93	417.12
341.158	391.12
341.386	395.12
341.614	403.12
341.842	408.12
342.07	386.12
342.298	404.12
342.526	398.12
342.754	395.12
342.981	380.12
343.209	393.12
343.437	421.12
343.665	409.12
343.893	417.12
344.12	427.12
344.348	441.12
344.576	438.12
344.804	426.12
345.031	405.12
345.259	409.12
345.487	382.12
345.714	402.12
345.942	387.12
346.17	381.12
346.397	394.12
346.625	370.12
346.853	377.12
347.08	378.12
347.308	384.12
347.535	376.12
347.763	395.12
347.99	383.12
348.218	378.12
348.445	406.12
348.673	391.12
348.9	399.12
349.128	375.12
349.355	353.12
349.583	374.12
349.81	362.12
350.037	370.12
350.265	362.12
350.492	366.12
350.72	359.12
350.947	370.12
351.174	368.12
351.402	390.12
351.629	386.12
351.856	375.12
352.083	385.12
352.311	392.12
352.538	375.12
352.765	369.12
352.992	387.12
353.22	381.12
353.447	379.12
353.674	360.12
353.901	347.12
354.128	367.12
354.355	341.12
354.583	352.12
354.81	375.12
355.037	372.12
355.264	352.12
355.491	341.12
355.718	353.12
355.945	353.12
356.172	349.12
356.399	364.12
356.626	354.12
356.853	356.12
357.08	370.12
357.307	348.12
357.534	351.12
357.761	363.12
357.988	359.12
358.215	355.12
358.441	352.12
358.668	374.12
358.895	362.12
359.122	373.12
359.349	351.12
359.576	365.12
359.802	395.12
360.029	376.12
360.256	401.12
360.483	396.12
360.709	371.12
360.936	383.12
361.163	378.12
361.39	369.12
361.616	351.12
361.843	374.12
362.07	381.12
362.296	368.12
362.523	354.12
362.749	349.12
362.976	357.12
363.203	370.12
363.429	347.12
363.656	373.12
363.882	343.12
364.109	373.12
364.335	359.12
364.562	354.12
364.788	356.12
365.015	360.12
365.241	364.12
365.468	348.12
365.694	366.12
365.92	374.12
366.147	359.12
366.373	353.12
366.599	359.12
366.826	345.12
367.052	357.12
367.278	344.12
367.505	355.12
367.731	350.12
367.957	353.12
368.184	375.12
368.41	360.12
368.636	372.12
368.862	359.12
369.089	362.12
369.315	360.12
369.541	371.12
369.767	353.12
369.993	361.12
370.219	378.12
370.445	375.12
370.672	380.12
370.898	370.12
371.124	373.12
371.35	347.12
371.576	362.12
371.802	356.12
372.028	364.12
372.254	374.12
372.48	365.12
372.706	385.12
372.932	373.12
373.158	373.12
373.384	388.12
373.61	375.12
373.835	392.12
374.061	375.12
374.287	358.12
374.513	382.12
374.739	367.12
374.965	373.12
375.191	390.12
375.416	384.12
375.642	373.12
375.868	394.12
376.094	368.12
376.319	359.12
376.545	359.12
376.771	386.12
376.997	380.12
377.222	375.12
377.448	362.12
377.674	359.12
377.899	375.12
378.125	357.12
378.35	354.12
378.576	366.12
378.802	363.12
379.027	356.12
379.253	368.12
379.478	350.12
379.704	353.12
379.929	369.12
380.155	334.12
380.38	366.12
380.606	358.12
380.831	351.12
381.057	353.12
381.282	359.12
381.507	361.12
381.733	353.12
381.958	364.12
382.184	356.12
382.409	372.12
382.634	381.12
382.86	379.12
383.085	383.12
383.31	402.12
383.535	385.12
383.761	380.12
383.986	391.12
384.211	385.12
384.436	402.12
384.662	378.12
384.887	404.12
385.112	421.12
385.337	397.12
385.562	417.12
385.787	408.12
386.013	399.12
386.238	433.12
386.463	420.12
386.688	421.12
386.913	419.12
387.138	399.12
387.363	400.12
387.588	401.12
387.813	427.12
388.038	399.12
388.263	429.12
388.488	414.12
388.713	391.12
388.938	420.12
389.163	409.12
389.387	410.12
389.612	412.12
389.837	405.12
390.062	403.12
390.287	401.12
390.512	385.12
390.736	403.12
390.961	406.12
391.186	415.12
391.411	417.12
391.636	427.12
391.86	447.12
392.085	462.12
392.31	438.12
392.534	433.12
392.759	425.12
392.984	417.12
393.208	419.12
393.433	418.12
393.658	417.12
393.882	417.12
394.107	419.12
394.331	394.12
394.556	406.12
394.78	411.12
395.005	424.12
395.229	429.12
395.454	408.12
395.678	434.12
395.903	431.12
396.127	432.12
396.352	447.12
396.576	431.12
396.801	425.12
397.025	439.12
397.249	445.12
397.474	459.12
397.698	453.12
397.922	466.12
398.147	471.12
398.371	472.12
398.595	479.12
398.82	490.12
399.044	510.12
399.268	541.12
399.492	604.12
399.717	624.12
399.941	647.12
400.165	623.12
400.389	616.12
400.613	556.12
400.837	514.12
401.062	494.12
401.286	495.12
401.51	488.12
401.734	494.12
401.958	506.12
402.182	487.12
402.406	517.12
402.63	509.12
402.854	505.12
403.078	524.12
403.302	517.12
403.526	536.12
403.75	531.12
403.974	534.12
404.198	513.12
404.422	530.12
404.645	540.12
404.869	541.12
405.093	579.12
405.317	606.12
405.541	656.12
405.765	573.12
405.988	527.12
406.212	552.12
406.436	561.12
406.66	552.12
406.883	567.12
407.107	577.12
407.331	602.12
407.555	649.12
407.778	661.12
408.002	612.12
408.226	578.12
408.449	554.12
408.673	553.12
408.896	567.12
409.12	575.12
409.344	539.12
409.567	528.12
409.791	515.12
410.014	505.12
410.238	501.12
410.461	510.12
410.685	514.12
410.908	521.12
411.132	547.12
411.355	551.12
411.578	542.12
411.802	500.12
412.025	513.12
412.249	539.12
412.472	561.12
412.695	599.12
412.919	586.12
413.142	543.12
413.365	517.12
413.589	530.12
413.812	485.12
414.035	485.12
414.258	488.12
414.482	491.12
414.705	489.12
414.928	471.12
415.151	482.12
415.374	478.12
415.597	466.12
415.821	491.12
416.044	471.12
416.267	456.12
416.49	462.12
416.713	479.12
416.936	468.12
417.159	469.12
417.382	444.12
417.605	477.12
417.828	495.12
418.051	488.12
418.274	492.12
418.497	488.12
418.72	501.12
418.943	469.12
419.166	527.12
419.389	517.12
419.611	534.12
419.834	509.12
420.057	507.12
420.28	507.12
420.503	536.12
420.726	499.12
420.948	505.12
421.171	533.12
421.394	527.12
421.617	498.12
421.839	477.12
422.062	498.12
422.285	489.12
422.507	509.12
422.73	558.12
422.953	576.12
423.175	513.12
423.398	521.12
423.621	528.12
423.843	534.12
424.066	535.12
424.288	507.12
424.511	527.12
424.733	566.12
424.956	609.12
425.178	555.12
425.401	539.12
425.623	552.12
425.846	528.12
426.068	501.12
426.291	494.12
426.513	479.12
426.735	495.12
426.958	492.12
427.18	565.12
427.402	624.12
427.625	688.12
427.847	607.12
428.069	576.12
428.292	519.12
428.514	465.12
428.736	475.12
428.958	471.12
429.181	445.12
429.403	451.12
429.625	469.12
429.847	481.12
430.069	521.12
430.292	478.12
430.514	466.12
430.736	457.12
430.958	455.12
431.18	447.12
431.402	449.12
431.624	430.12
431.846	435.12
432.068	422.12
432.29	439.12
432.512	444.12
432.734	445.12
432.956	447.12
433.178	449.12
433.4	445.12
433.622	450.12
433.844	448.12
434.066	435.12
434.287	428.12
434.509	453.12
434.731	463.12
434.953	468.12
435.175	493.12
435.397	498.12
435.618	493.12
435.84	505.12
436.062	571.12
436.284	583.12
436.505	534.12
436.727	484.12
436.949	452.12
437.17	429.12
437.392	435.12
437.614	462.12
437.835	449.12
438.057	529.12
438.278	565.12
438.5	576.12
438.721	631.12
438.943	630.12
439.165	491.12
439.386	469.12
439.608	475.12
439.829	478.12
440.05	486.12
440.272	502.12
440.493	482.12
440.715	463.12
440.936	470.12
441.158	473.12
441.379	472.12
441.6	481.12
441.822	507.12
442.043	529.12
442.264	569.12
442.486	576.12
442.707	500.12
442.928	513.12
443.149	497.12
443.371	534.12
443.592	506.12
443.813	614.12
444.034	638.12
444.255	545.12
444.476	504.12
444.698	532.12
444.919	541.12
445.14	633.12
445.361	581.12
445.582	540.12
445.803	559.12
446.024	608.12
446.245	605.12
446.466	568.12
446.687	520.12
446.908	458.12
447.129	448.12
447.35	462.12
447.571	433.12
447.792	429.12
448.013	442.12
448.234	421.12
448.455	477.12
448.675	553.12
448.896	615.12
449.117	532.12
449.338	489.12
449.559	558.12
449.779	656.12
450	537.12
450.221	465.12
450.442	441.12
450.662	427.12
450.883	429.12
451.104	435.12
451.324	428.12
451.545	441.12
451.766	403.12
451.986	408.12
452.207	405.12
452.428	399.12
452.648	416.12
452.869	391.12
453.089	413.12
453.31	406.12
453.53	409.12
453.751	399.12
453.971	397.12
454.192	414.12
454.412	417.12
454.633	409.12
454.853	405.12
455.073	385.12
455.294	404.12
455.514	446.12
455.734	430.12
455.955	397.12
456.175	385.12
456.395	376.12
456.616	377.12
456.836	369.12
457.056	376.12
457.276	339.12
457.497	389.12
457.717	384.12
457.937	387.12
458.157	396.12
458.377	386.12
458.598	421.12
458.818	441.12
459.038	490.12
459.258	489.12
459.478	473.12
459.698	429.12
459.918	429.12
460.138	470.12
460.358	478.12
460.578	489.12
460.798	478.12
461.018	504.12
461.238	478.12
461.458	465.12
461.678	485.12
461.898	482.12
462.118	498.12
462.338	498.12
462.558	507.12
462.777	502.12
462.997	546.12
463.217	587.12
463.437	535.12
463.657	540.12
463.876	530.12
464.096	533.12
464.316	517.12
464.536	516.12
464.755	526.12
464.975	527.12
465.195	510.12
465.414	532.12
465.634	480.12
465.854	437.12
466.073	449.12
466.293	433.12
466.512	415.12
466.732	429.12
466.951	415.12
467.171	421.12
467.391	418.12
467.61	416.12
467.829	447.12
468.049	448.12
468.268	437.12
468.488	434.12
468.707	423.12
468.927	429.12
469.146	394.12
469.365	418.12
469.585	419.12
469.804	425.12
470.023	416.12
470.243	425.12
470.462	426.12
470.681	457.12
470.901	434.12
471.12	440.12
471.339	427.12
471.558	431.12
471.777	417.12
471.997	415.12
472.216	447.12
472.435	523.12
472.654	502.12
472.873	460.12
473.092	448.12
473.311	419.12
473.53	424.12
473.749	429.12
473.968	443.12
474.187	523.12
474.406	486.12
474.625	433.12
474.844	441.12
475.063	416.12
475.282	419.12
475.501	419.12
475.72	424.12
475.939	429.12
476.158	422.12
476.377	415.12
476.596	417.12
476.814	434.12
477.033	435.12
477.252	427.12
477.471	440.12
477.69	466.12
477.908	442.12
478.127	457.12
478.346	475.12
478.564	479.12
478.783	474.12
479.002	477.12
479.22	497.12
479.439	502.12
479.658	487.12
479.876	502.12
480.095	521.12
480.313	529.12
480.532	540.12
480.751	534.12
480.969	542.12
481.188	654.12
481.406	732.12
481.624	626.12
481.843	523.12
482.061	505.12
482.28	492.12
482.498	494.12
482.717	513.12
482.935	494.12
483.153	477.12
483.372	478.12
483.59	481.12
483.808	474.12
484.027	459.12
484.245	473.12
484.463	466.12
484.681	513.12
484.9	475.12
485.118	486.12
485.336	495.12
485.554	498.12
485.772	484.12
485.99	494.12
486.209	513.12
486.427	519.12
486.645	517.12
486.863	506.12
487.081	501.12
487.299	506.12
487.517	503.12
487.735	485.12
487.953	518.12
488.171	520.12
488.389	509.12
488.607	474.12
488.825	511.12
489.043	488.12
489.261	509.12
489.479	521.12
489.696	486.12
489.914	493.12
490.132	513.12
490.35	518.12
490.568	525.12
490.786	517.12
491.003	558.12
491.221	578.12
491.439	567.12
491.657	571.12
491.874	582.12
492.092	555.12
492.31	579.12
492.527	585.12
492.745	595.12
492.963	595.12
493.18	606.12
493.398	589.12
493.615	586.12
493.833	610.12
494.05	617.12
494.268	604.12
494.485	621.12
494.703	595.12
494.92	607.12
495.138	580.12
495.355	583.12
495.573	595.12
495.79	606.12
496.008	591.12
496.225	593.12
496.442	597.12
496.66	575.12
496.877	570.12
497.094	583.12
497.312	602.12
497.529	618.12
497.746	641.12
497.963	630.12
498.181	641.12
498.398	667.12
498.615	664.12
498.832	705.12
499.049	742.12
499.267	766.12
499.484	824.12
499.701	849.12
499.918	935.12
500.135	1001.12
500.352	1063.12
500.569	1136.12
500.786	1121.12
501.003	1107.12
501.22	1020.12
501.437	943.12
501.654	906.12
501.871	832.12
