Data from 1984.PennyLincolnUp.Lamp.En5.5.200Scan.071819.P1_HRD10591_16-59-54-969.txt Node
Date: Thu Jul 18 16:59:54 EDT 2019
User: cochatt
Spectrometer: HR+D1059
Trigger mode: 1
Integration Time (sec): 1.000000E-1
Scans to average: 1
Electric dark correction enabled: true
Nonlinearity correction enabled: false
Boxcar width: 0
XAxis mode: Wavelengths
Number of Pixels in Spectrum: 2048
>>>>>Begin Spectral Data<<<<<
223.165	-14.25
223.4	-14.25
223.635	-14.25
223.869	-13.25
224.104	-20.25
224.338	-11.25
224.573	-17.25
224.808	-18.25
225.042	-4.25
225.277	2.75
225.511	-12.25
225.746	8.75
225.98	19.75
226.215	14.75
226.449	0.75
226.683	21.75
226.918	18.75
227.152	23.75
227.387	35.75
227.621	45.75
227.856	38.75
228.09	42.75
228.324	47.75
228.559	59.75
228.793	68.75
229.027	83.75
229.262	93.75
229.496	105.75
229.73	103.75
229.964	111.75
230.199	108.75
230.433	102.75
230.667	101.75
230.901	97.75
231.136	100.75
231.37	110.75
231.604	91.75
231.838	115.75
232.072	118.75
232.306	106.75
232.541	102.75
232.775	111.75
233.009	137.75
233.243	105.75
233.477	116.75
233.711	114.75
233.945	121.75
234.179	121.75
234.413	102.75
234.647	116.75
234.881	117.75
235.115	110.75
235.349	105.75
235.583	111.75
235.817	116.75
236.051	111.75
236.285	128.75
236.519	115.75
236.753	114.75
236.987	129.75
237.221	151.75
237.455	159.75
237.689	163.75
237.922	120.75
238.156	119.75
238.39	120.75
238.624	107.75
238.858	118.75
239.091	114.75
239.325	102.75
239.559	110.75
239.793	115.75
240.027	114.75
240.26	111.75
240.494	140.75
240.728	131.75
240.961	145.75
241.195	131.75
241.429	131.75
241.662	127.75
241.896	141.75
242.13	140.75
242.363	132.75
242.597	135.75
242.83	139.75
243.064	121.75
243.298	127.75
243.531	129.75
243.765	126.75
243.998	128.75
244.232	141.75
244.465	136.75
244.699	150.75
244.932	137.75
245.166	135.75
245.399	147.75
245.633	142.75
245.866	119.75
246.099	145.75
246.333	130.75
246.566	127.75
246.8	130.75
247.033	131.75
247.266	147.75
247.5	149.75
247.733	150.75
247.966	153.75
248.2	169.75
248.433	159.75
248.666	170.75
248.899	156.75
249.133	169.75
249.366	185.75
249.599	167.75
249.832	186.75
250.066	164.75
250.299	178.75
250.532	206.75
250.765	202.75
250.998	211.75
251.231	214.75
251.465	189.75
251.698	160.75
251.931	175.75
252.164	171.75
252.397	172.75
252.63	195.75
252.863	194.75
253.096	178.75
253.329	197.75
253.562	178.75
253.795	201.75
254.028	186.75
254.261	193.75
254.494	208.75
254.727	206.75
254.96	233.75
255.193	214.75
255.426	214.75
255.659	215.75
255.892	259.75
256.124	262.75
256.357	288.75
256.59	253.75
256.823	219.75
257.056	203.75
257.289	206.75
257.521	203.75
257.754	195.75
257.987	190.75
258.22	200.75
258.452	196.75
258.685	188.75
258.918	174.75
259.151	179.75
259.383	200.75
259.616	210.75
259.849	198.75
260.081	203.75
260.314	200.75
260.547	218.75
260.779	216.75
261.012	206.75
261.244	211.75
261.477	216.75
261.71	209.75
261.942	214.75
262.175	210.75
262.407	208.75
262.64	211.75
262.872	189.75
263.105	204.75
263.337	208.75
263.57	194.75
263.802	198.75
264.035	203.75
264.267	202.75
264.499	198.75
264.732	189.75
264.964	202.75
265.197	202.75
265.429	197.75
265.661	203.75
265.894	206.75
266.126	214.75
266.358	222.75
266.591	198.75
266.823	204.75
267.055	201.75
267.287	216.75
267.52	213.75
267.752	212.75
267.984	232.75
268.216	199.75
268.448	230.75
268.681	219.75
268.913	226.75
269.145	216.75
269.377	227.75
269.609	234.75
269.841	243.75
270.073	252.75
270.306	260.75
270.538	254.75
270.77	278.75
271.002	263.75
271.234	259.75
271.466	246.75
271.698	275.75
271.93	271.75
272.162	265.75
272.394	263.75
272.626	249.75
272.858	251.75
273.09	244.75
273.322	251.75
273.553	251.75
273.785	239.75
274.017	251.75
274.249	256.75
274.481	252.75
274.713	268.75
274.945	265.75
275.176	264.75
275.408	250.75
275.64	229.75
275.872	243.75
276.104	239.75
276.335	260.75
276.567	246.75
276.799	245.75
277.031	261.75
277.262	261.75
277.494	280.75
277.726	280.75
277.957	271.75
278.189	260.75
278.421	254.75
278.652	248.75
278.884	253.75
279.115	253.75
279.347	269.75
279.579	266.75
279.81	250.75
280.042	267.75
280.273	265.75
280.505	266.75
280.736	238.75
280.968	251.75
281.199	270.75
281.431	259.75
281.662	272.75
281.894	274.75
282.125	252.75
282.356	261.75
282.588	298.75
282.819	293.75
283.051	286.75
283.282	266.75
283.513	273.75
283.745	282.75
283.976	247.75
284.207	264.75
284.439	262.75
284.67	263.75
284.901	265.75
285.132	271.75
285.364	282.75
285.595	276.75
285.826	275.75
286.057	283.75
286.288	284.75
286.52	267.75
286.751	287.75
286.982	262.75
287.213	276.75
287.444	285.75
287.675	285.75
287.906	291.75
288.138	289.75
288.369	309.75
288.6	292.75
288.831	293.75
289.062	294.75
289.293	308.75
289.524	280.75
289.755	283.75
289.986	285.75
290.217	275.75
290.448	277.75
290.679	276.75
290.91	284.75
291.141	298.75
291.371	283.75
291.602	290.75
291.833	303.75
292.064	272.75
292.295	279.75
292.526	283.75
292.757	304.75
292.987	293.75
293.218	293.75
293.449	291.75
293.68	288.75
293.91	284.75
294.141	284.75
294.372	309.75
294.603	272.75
294.833	297.75
295.064	296.75
295.295	292.75
295.525	286.75
295.756	304.75
295.987	272.75
296.217	316.75
296.448	314.75
296.679	310.75
296.909	288.75
297.14	278.75
297.37	310.75
297.601	308.75
297.831	304.75
298.062	311.75
298.292	309.75
298.523	297.75
298.753	298.75
298.984	304.75
299.214	297.75
299.445	302.75
299.675	297.75
299.905	307.75
300.136	305.75
300.366	307.75
300.597	321.75
300.827	320.75
301.057	326.75
301.288	298.75
301.518	314.75
301.748	331.75
301.979	298.75
302.209	302.75
302.439	307.75
302.669	322.75
302.9	303.75
303.13	327.75
303.36	326.75
303.59	330.75
303.82	344.75
304.051	323.75
304.281	337.75
304.511	332.75
304.741	299.75
304.971	317.75
305.201	326.75
305.431	323.75
305.661	344.75
305.891	321.75
306.121	303.75
306.352	341.75
306.582	322.75
306.812	314.75
307.042	322.75
307.272	328.75
307.502	301.75
307.731	331.75
307.961	334.75
308.191	326.75
308.421	310.75
308.651	324.75
308.881	326.75
309.111	311.75
309.341	319.75
309.571	332.75
309.8	328.75
310.03	336.75
310.26	343.75
310.49	342.75
310.72	351.75
310.949	354.75
311.179	343.75
311.409	331.75
311.639	346.75
311.868	330.75
312.098	360.75
312.328	349.75
312.557	370.75
312.787	377.75
313.017	353.75
313.246	346.75
313.476	351.75
313.706	338.75
313.935	364.75
314.165	362.75
314.394	374.75
314.624	378.75
314.853	351.75
315.083	351.75
315.312	359.75
315.542	363.75
315.771	358.75
316.001	350.75
316.23	347.75
316.46	336.75
316.689	363.75
316.919	338.75
317.148	338.75
317.377	370.75
317.607	345.75
317.836	350.75
318.065	341.75
318.295	354.75
318.524	348.75
318.753	360.75
318.983	350.75
319.212	347.75
319.441	358.75
319.67	375.75
319.9	343.75
320.129	354.75
320.358	370.75
320.587	360.75
320.816	349.75
321.046	368.75
321.275	360.75
321.504	380.75
321.733	365.75
321.962	363.75
322.191	372.75
322.42	382.75
322.649	408.75
322.878	382.75
323.108	394.75
323.337	404.75
323.566	407.75
323.795	457.75
324.024	462.75
324.253	532.75
324.482	718.75
324.71	1024.75
324.939	1421.75
325.168	1251.75
325.397	680.75
325.626	510.75
325.855	440.75
326.084	458.75
326.313	434.75
326.542	427.75
326.77	489.75
326.999	531.75
327.228	672.75
327.457	954.75
327.686	1104.75
327.914	794.75
328.143	604.75
328.372	558.75
328.6	536.75
328.829	486.75
329.058	518.75
329.287	484.75
329.515	479.75
329.744	480.75
329.972	528.75
330.201	599.75
330.43	640.75
330.658	595.75
330.887	546.75
331.115	527.75
331.344	479.75
331.572	450.75
331.801	476.75
332.03	464.75
332.258	468.75
332.486	446.75
332.715	475.75
332.943	474.75
333.172	456.75
333.4	480.75
333.629	517.75
333.857	532.75
334.085	582.75
334.314	642.75
334.542	696.75
334.771	736.75
334.999	606.75
335.227	523.75
335.455	478.75
335.684	459.75
335.912	444.75
336.14	460.75
336.369	449.75
336.597	450.75
336.825	434.75
337.053	430.75
337.281	444.75
337.51	422.75
337.738	429.75
337.966	424.75
338.194	420.75
338.422	424.75
338.65	428.75
338.878	415.75
339.106	420.75
339.334	420.75
339.562	376.75
339.79	396.75
340.018	384.75
340.246	399.75
340.474	399.75
340.702	407.75
340.93	380.75
341.158	392.75
341.386	386.75
341.614	385.75
341.842	406.75
342.07	380.75
342.298	380.75
342.526	376.75
342.754	395.75
342.981	386.75
343.209	389.75
343.437	380.75
343.665	407.75
343.893	421.75
344.12	422.75
344.348	424.75
344.576	408.75
344.804	399.75
345.031	414.75
345.259	401.75
345.487	403.75
345.714	369.75
345.942	390.75
346.17	382.75
346.397	368.75
346.625	386.75
346.853	386.75
347.08	357.75
347.308	372.75
347.535	371.75
347.763	375.75
347.99	375.75
348.218	372.75
348.445	368.75
348.673	354.75
348.9	374.75
349.128	373.75
349.355	348.75
349.583	368.75
349.81	378.75
350.037	378.75
350.265	366.75
350.492	348.75
350.72	342.75
350.947	370.75
351.174	377.75
351.402	398.75
351.629	376.75
351.856	373.75
352.083	380.75
352.311	372.75
352.538	380.75
352.765	377.75
352.992	367.75
353.22	372.75
353.447	366.75
353.674	364.75
353.901	362.75
354.128	360.75
354.355	338.75
354.583	367.75
354.81	362.75
355.037	338.75
355.264	353.75
355.491	371.75
355.718	328.75
355.945	356.75
356.172	358.75
356.399	358.75
356.626	352.75
356.853	371.75
357.08	336.75
357.307	353.75
357.534	361.75
357.761	344.75
357.988	357.75
358.215	343.75
358.441	370.75
358.668	358.75
358.895	360.75
359.122	364.75
359.349	364.75
359.576	381.75
359.802	400.75
360.029	390.75
360.256	384.75
360.483	378.75
360.709	360.75
360.936	365.75
361.163	355.75
361.39	367.75
361.616	365.75
361.843	354.75
362.07	361.75
362.296	353.75
362.523	346.75
362.749	349.75
362.976	364.75
363.203	376.75
363.429	361.75
363.656	353.75
363.882	356.75
364.109	372.75
364.335	348.75
364.562	364.75
364.788	351.75
365.015	359.75
365.241	338.75
365.468	358.75
365.694	368.75
365.92	338.75
366.147	344.75
366.373	363.75
366.599	341.75
366.826	342.75
367.052	344.75
367.278	325.75
367.505	349.75
367.731	362.75
367.957	358.75
368.184	352.75
368.41	355.75
368.636	356.75
368.862	372.75
369.089	363.75
369.315	365.75
369.541	354.75
369.767	356.75
369.993	350.75
370.219	350.75
370.445	353.75
370.672	350.75
370.898	358.75
371.124	361.75
371.35	354.75
371.576	365.75
371.802	347.75
372.028	347.75
372.254	359.75
372.48	342.75
372.706	350.75
372.932	363.75
373.158	345.75
373.384	363.75
373.61	356.75
373.835	374.75
374.061	351.75
374.287	361.75
374.513	375.75
374.739	374.75
374.965	368.75
375.191	378.75
375.416	379.75
375.642	375.75
375.868	381.75
376.094	375.75
376.319	374.75
376.545	360.75
376.771	370.75
376.997	358.75
377.222	360.75
377.448	361.75
377.674	363.75
377.899	351.75
378.125	364.75
378.35	345.75
378.576	341.75
378.802	363.75
379.027	378.75
379.253	371.75
379.478	353.75
379.704	349.75
379.929	363.75
380.155	357.75
380.38	373.75
380.606	354.75
380.831	361.75
381.057	346.75
381.282	376.75
381.507	366.75
381.733	363.75
381.958	365.75
382.184	351.75
382.409	361.75
382.634	367.75
382.86	357.75
383.085	374.75
383.31	377.75
383.535	384.75
383.761	383.75
383.986	374.75
384.211	386.75
384.436	372.75
384.662	400.75
384.887	404.75
385.112	400.75
385.337	421.75
385.562	410.75
385.787	386.75
386.013	422.75
386.238	400.75
386.463	406.75
386.688	387.75
386.913	376.75
387.138	388.75
387.363	393.75
387.588	390.75
387.813	403.75
388.038	399.75
388.263	391.75
388.488	422.75
388.713	392.75
388.938	384.75
389.163	406.75
389.387	422.75
389.612	413.75
389.837	387.75
390.062	395.75
390.287	389.75
390.512	403.75
390.736	408.75
390.961	418.75
391.186	404.75
391.411	422.75
391.636	434.75
391.86	415.75
392.085	421.75
392.31	435.75
392.534	427.75
392.759	417.75
392.984	400.75
393.208	420.75
393.433	399.75
393.658	398.75
393.882	410.75
394.107	426.75
394.331	414.75
394.556	397.75
394.78	401.75
395.005	418.75
395.229	409.75
395.454	435.75
395.678	426.75
395.903	447.75
396.127	431.75
396.352	416.75
396.576	424.75
396.801	428.75
397.025	417.75
397.249	428.75
397.474	429.75
397.698	431.75
397.922	444.75
398.147	443.75
398.371	456.75
398.595	445.75
398.82	453.75
399.044	500.75
399.268	533.75
399.492	552.75
399.717	613.75
399.941	625.75
400.165	603.75
400.389	562.75
400.613	538.75
400.837	491.75
401.062	475.75
401.286	505.75
401.51	478.75
401.734	483.75
401.958	505.75
402.182	487.75
402.406	470.75
402.63	485.75
402.854	488.75
403.078	499.75
403.302	480.75
403.526	511.75
403.75	516.75
403.974	513.75
404.198	528.75
404.422	527.75
404.645	528.75
404.869	531.75
405.093	542.75
405.317	604.75
405.541	603.75
405.765	585.75
405.988	537.75
406.212	528.75
406.436	548.75
406.66	538.75
406.883	530.75
407.107	563.75
407.331	583.75
407.555	628.75
407.778	620.75
408.002	602.75
408.226	580.75
408.449	550.75
408.673	533.75
408.896	553.75
409.12	552.75
409.344	548.75
409.567	505.75
409.791	509.75
410.014	503.75
410.238	495.75
410.461	501.75
410.685	506.75
410.908	507.75
411.132	516.75
411.355	518.75
411.578	527.75
411.802	493.75
412.025	501.75
412.249	528.75
412.472	547.75
412.695	597.75
412.919	580.75
413.142	544.75
413.365	525.75
413.589	530.75
413.812	487.75
414.035	468.75
414.258	476.75
414.482	490.75
414.705	489.75
414.928	485.75
415.151	475.75
415.374	472.75
415.597	481.75
415.821	460.75
416.044	468.75
416.267	472.75
416.49	454.75
416.713	479.75
416.936	454.75
417.159	458.75
417.382	470.75
417.605	448.75
417.828	492.75
418.051	468.75
418.274	492.75
418.497	452.75
418.72	456.75
418.943	478.75
419.166	478.75
419.389	536.75
419.611	506.75
419.834	485.75
420.057	521.75
420.28	527.75
420.503	533.75
420.726	532.75
420.948	491.75
421.171	507.75
421.394	524.75
421.617	481.75
421.839	486.75
422.062	472.75
422.285	505.75
422.507	522.75
422.73	560.75
422.953	547.75
423.175	514.75
423.398	497.75
423.621	485.75
423.843	504.75
424.066	528.75
424.288	512.75
424.511	505.75
424.733	542.75
424.956	592.75
425.178	563.75
425.401	523.75
425.623	569.75
425.846	504.75
426.068	498.75
426.291	479.75
426.513	466.75
426.735	457.75
426.958	527.75
427.18	546.75
427.402	629.75
427.625	704.75
427.847	590.75
428.069	568.75
428.292	529.75
428.514	485.75
428.736	440.75
428.958	439.75
429.181	448.75
429.403	443.75
429.625	450.75
429.847	464.75
430.069	495.75
430.292	507.75
430.514	436.75
430.736	434.75
430.958	459.75
431.18	426.75
431.402	413.75
431.624	423.75
431.846	454.75
432.068	431.75
432.29	446.75
432.512	438.75
432.734	440.75
432.956	444.75
433.178	427.75
433.4	442.75
433.622	453.75
433.844	427.75
434.066	440.75
434.287	439.75
434.509	446.75
434.731	460.75
434.953	466.75
435.175	472.75
435.397	466.75
435.618	487.75
435.84	506.75
436.062	552.75
436.284	562.75
436.505	508.75
436.727	471.75
436.949	447.75
437.17	441.75
437.392	427.75
437.614	464.75
437.835	446.75
438.057	480.75
438.278	554.75
438.5	564.75
438.721	608.75
438.943	596.75
439.165	498.75
439.386	452.75
439.608	460.75
439.829	471.75
440.05	460.75
440.272	503.75
440.493	500.75
440.715	462.75
440.936	450.75
441.158	458.75
441.379	455.75
441.6	468.75
441.822	477.75
442.043	503.75
442.264	555.75
442.486	548.75
442.707	503.75
442.928	494.75
443.149	493.75
443.371	480.75
443.592	551.75
443.813	599.75
444.034	610.75
444.255	548.75
444.476	529.75
444.698	537.75
444.919	534.75
445.14	600.75
445.361	537.75
445.582	522.75
445.803	527.75
446.024	608.75
446.245	587.75
446.466	551.75
446.687	494.75
446.908	466.75
447.129	436.75
447.35	438.75
447.571	447.75
447.792	420.75
448.013	427.75
448.234	436.75
448.455	479.75
448.675	518.75
448.896	591.75
449.117	517.75
449.338	488.75
449.559	554.75
449.779	632.75
450	528.75
450.221	454.75
450.442	419.75
450.662	420.75
450.883	415.75
451.104	400.75
451.324	439.75
451.545	415.75
451.766	387.75
451.986	385.75
452.207	403.75
452.428	399.75
452.648	374.75
452.869	399.75
453.089	396.75
453.31	399.75
453.53	398.75
453.751	393.75
453.971	376.75
454.192	391.75
454.412	401.75
454.633	378.75
454.853	359.75
455.073	378.75
455.294	400.75
455.514	441.75
455.734	422.75
455.955	377.75
456.175	367.75
456.395	381.75
456.616	385.75
456.836	370.75
457.056	389.75
457.276	352.75
457.497	360.75
457.717	375.75
457.937	380.75
458.157	391.75
458.377	375.75
458.598	393.75
458.818	420.75
459.038	480.75
459.258	499.75
459.478	450.75
459.698	435.75
459.918	442.75
460.138	443.75
460.358	463.75
460.578	469.75
460.798	470.75
461.018	465.75
461.238	468.75
461.458	458.75
461.678	454.75
461.898	461.75
462.118	488.75
462.338	488.75
462.558	477.75
462.777	514.75
462.997	532.75
463.217	557.75
463.437	570.75
463.657	517.75
463.876	524.75
464.096	509.75
464.316	517.75
464.536	523.75
464.755	512.75
464.975	482.75
465.195	503.75
465.414	498.75
465.634	473.75
465.854	429.75
466.073	425.75
466.293	434.75
466.512	412.75
466.732	394.75
466.951	411.75
467.171	406.75
467.391	399.75
467.61	425.75
467.829	425.75
468.049	417.75
468.268	432.75
468.488	427.75
468.707	400.75
468.927	399.75
469.146	394.75
469.365	404.75
469.585	414.75
469.804	410.75
470.023	401.75
470.243	413.75
470.462	420.75
470.681	437.75
470.901	421.75
471.12	435.75
471.339	419.75
471.558	415.75
471.777	422.75
471.997	442.75
472.216	464.75
472.435	538.75
472.654	492.75
472.873	465.75
473.092	419.75
473.311	438.75
473.53	427.75
473.749	435.75
473.968	441.75
474.187	473.75
474.406	483.75
474.625	438.75
474.844	408.75
475.063	400.75
475.282	409.75
475.501	418.75
475.72	427.75
475.939	416.75
476.158	426.75
476.377	422.75
476.596	423.75
476.814	434.75
477.033	439.75
477.252	444.75
477.471	453.75
477.69	442.75
477.908	453.75
478.127	454.75
478.346	459.75
478.564	463.75
478.783	468.75
479.002	487.75
479.22	474.75
479.439	498.75
479.658	496.75
479.876	485.75
480.095	519.75
480.313	514.75
480.532	531.75
480.751	551.75
480.969	573.75
481.188	655.75
481.406	774.75
481.624	629.75
481.843	567.75
482.061	521.75
482.28	517.75
482.498	512.75
482.717	502.75
482.935	479.75
483.153	460.75
483.372	476.75
483.59	467.75
483.808	467.75
484.027	480.75
484.245	471.75
484.463	447.75
484.681	469.75
484.9	462.75
485.118	471.75
485.336	478.75
485.554	484.75
485.772	490.75
485.99	493.75
486.209	463.75
486.427	519.75
486.645	498.75
486.863	488.75
487.081	484.75
487.299	489.75
487.517	503.75
487.735	501.75
487.953	493.75
488.171	478.75
488.389	499.75
488.607	498.75
488.825	498.75
489.043	502.75
489.261	478.75
489.479	500.75
489.696	525.75
489.914	495.75
490.132	510.75
490.35	516.75
490.568	533.75
490.786	556.75
491.003	545.75
491.221	549.75
491.439	574.75
491.657	563.75
491.874	583.75
492.092	599.75
492.31	595.75
492.527	587.75
492.745	619.75
492.963	574.75
493.18	611.75
493.398	610.75
493.615	606.75
493.833	591.75
494.05	601.75
494.268	576.75
494.485	588.75
494.703	580.75
494.92	599.75
495.138	603.75
495.355	588.75
495.573	583.75
495.79	588.75
496.008	607.75
496.225	579.75
496.442	571.75
496.66	588.75
496.877	586.75
497.094	604.75
497.312	618.75
497.529	595.75
497.746	647.75
497.963	604.75
498.181	638.75
498.398	652.75
498.615	677.75
498.832	696.75
499.049	720.75
499.267	763.75
499.484	803.75
499.701	844.75
499.918	890.75
500.135	971.75
500.352	1058.75
500.569	1106.75
500.786	1112.75
501.003	1074.75
501.22	982.75
501.437	922.75
501.654	882.75
501.871	799.75
