Data from 1984.PennyLincolnUp.Lamp.En5.5.200Scan.071819.P1_HRD10591_17-00-00-969.txt Node
Date: Thu Jul 18 17:00:00 EDT 2019
User: cochatt
Spectrometer: HR+D1059
Trigger mode: 1
Integration Time (sec): 1.000000E-1
Scans to average: 1
Electric dark correction enabled: true
Nonlinearity correction enabled: false
Boxcar width: 0
XAxis mode: Wavelengths
Number of Pixels in Spectrum: 2048
>>>>>Begin Spectral Data<<<<<
223.165	-4.5
223.4	-4.5
223.635	-4.5
223.869	-19.5
224.104	-24.5
224.338	-2.5
224.573	-11.5
224.808	-6.5
225.042	-5.5
225.277	-0.5
225.511	-9.5
225.746	-0.5
225.98	2.5
226.215	8.5
226.449	14.5
226.683	19.5
226.918	20.5
227.152	19.5
227.387	24.5
227.621	29.5
227.856	42.5
228.09	28.5
228.324	44.5
228.559	60.5
228.793	62.5
229.027	85.5
229.262	99.5
229.496	93.5
229.73	106.5
229.964	123.5
230.199	93.5
230.433	98.5
230.667	100.5
230.901	88.5
231.136	96.5
231.37	98.5
231.604	100.5
231.838	108.5
232.072	109.5
232.306	93.5
232.541	95.5
232.775	112.5
233.009	99.5
233.243	98.5
233.477	102.5
233.711	98.5
233.945	93.5
234.179	99.5
234.413	102.5
234.647	119.5
234.881	108.5
235.115	93.5
235.349	100.5
235.583	105.5
235.817	99.5
236.051	112.5
236.285	128.5
236.519	116.5
236.753	123.5
236.987	124.5
237.221	133.5
237.455	172.5
237.689	155.5
237.922	146.5
238.156	113.5
238.39	113.5
238.624	120.5
238.858	109.5
239.091	102.5
239.325	123.5
239.559	108.5
239.793	124.5
240.027	108.5
240.26	127.5
240.494	140.5
240.728	131.5
240.961	139.5
241.195	118.5
241.429	120.5
241.662	120.5
241.896	133.5
242.13	124.5
242.363	123.5
242.597	133.5
242.83	128.5
243.064	134.5
243.298	133.5
243.531	141.5
243.765	118.5
243.998	126.5
244.232	140.5
244.465	125.5
244.699	145.5
244.932	137.5
245.166	129.5
245.399	134.5
245.633	139.5
245.866	136.5
246.099	135.5
246.333	139.5
246.566	146.5
246.8	144.5
247.033	154.5
247.266	152.5
247.5	141.5
247.733	144.5
247.966	147.5
248.2	138.5
248.433	134.5
248.666	146.5
248.899	158.5
249.133	157.5
249.366	171.5
249.599	174.5
249.832	166.5
250.066	164.5
250.299	173.5
250.532	203.5
250.765	219.5
250.998	204.5
251.231	201.5
251.465	179.5
251.698	176.5
251.931	197.5
252.164	173.5
252.397	167.5
252.63	164.5
252.863	178.5
253.096	182.5
253.329	166.5
253.562	204.5
253.795	182.5
254.028	193.5
254.261	180.5
254.494	185.5
254.727	202.5
254.96	225.5
255.193	208.5
255.426	218.5
255.659	214.5
255.892	232.5
256.124	254.5
256.357	298.5
256.59	237.5
256.823	229.5
257.056	222.5
257.289	208.5
257.521	193.5
257.754	188.5
257.987	198.5
258.22	180.5
258.452	191.5
258.685	180.5
258.918	180.5
259.151	183.5
259.383	190.5
259.616	210.5
259.849	214.5
260.081	197.5
260.314	201.5
260.547	195.5
260.779	205.5
261.012	204.5
261.244	207.5
261.477	200.5
261.71	189.5
261.942	198.5
262.175	210.5
262.407	198.5
262.64	204.5
262.872	187.5
263.105	192.5
263.337	202.5
263.57	192.5
263.802	180.5
264.035	200.5
264.267	203.5
264.499	192.5
264.732	200.5
264.964	195.5
265.197	185.5
265.429	193.5
265.661	195.5
265.894	180.5
266.126	207.5
266.358	206.5
266.591	211.5
266.823	216.5
267.055	206.5
267.287	199.5
267.52	222.5
267.752	205.5
267.984	213.5
268.216	211.5
268.448	216.5
268.681	203.5
268.913	220.5
269.145	241.5
269.377	236.5
269.609	221.5
269.841	212.5
270.073	226.5
270.306	248.5
270.538	260.5
270.77	248.5
271.002	238.5
271.234	258.5
271.466	255.5
271.698	261.5
271.93	264.5
272.162	266.5
272.394	244.5
272.626	266.5
272.858	248.5
273.09	256.5
273.322	234.5
273.553	237.5
273.785	243.5
274.017	227.5
274.249	233.5
274.481	238.5
274.713	236.5
274.945	227.5
275.176	249.5
275.408	234.5
275.64	245.5
275.872	235.5
276.104	253.5
276.335	235.5
276.567	244.5
276.799	269.5
277.031	270.5
277.262	275.5
277.494	266.5
277.726	273.5
277.957	258.5
278.189	256.5
278.421	257.5
278.652	266.5
278.884	226.5
279.115	240.5
279.347	271.5
279.579	248.5
279.81	238.5
280.042	254.5
280.273	267.5
280.505	254.5
280.736	258.5
280.968	285.5
281.199	251.5
281.431	266.5
281.662	262.5
281.894	272.5
282.125	258.5
282.356	275.5
282.588	276.5
282.819	269.5
283.051	263.5
283.282	254.5
283.513	274.5
283.745	266.5
283.976	276.5
284.207	241.5
284.439	259.5
284.67	274.5
284.901	279.5
285.132	268.5
285.364	259.5
285.595	254.5
285.826	271.5
286.057	257.5
286.288	267.5
286.52	280.5
286.751	283.5
286.982	280.5
287.213	278.5
287.444	260.5
287.675	265.5
287.906	274.5
288.138	290.5
288.369	292.5
288.6	280.5
288.831	290.5
289.062	288.5
289.293	289.5
289.524	279.5
289.755	276.5
289.986	282.5
290.217	258.5
290.448	288.5
290.679	252.5
290.91	290.5
291.141	282.5
291.371	273.5
291.602	271.5
291.833	264.5
292.064	274.5
292.295	269.5
292.526	264.5
292.757	283.5
292.987	267.5
293.218	283.5
293.449	276.5
293.68	267.5
293.91	283.5
294.141	299.5
294.372	288.5
294.603	281.5
294.833	300.5
295.064	297.5
295.295	301.5
295.525	284.5
295.756	277.5
295.987	301.5
296.217	300.5
296.448	297.5
296.679	288.5
296.909	278.5
297.14	284.5
297.37	293.5
297.601	288.5
297.831	282.5
298.062	298.5
298.292	296.5
298.523	302.5
298.753	300.5
298.984	293.5
299.214	300.5
299.445	315.5
299.675	300.5
299.905	306.5
300.136	292.5
300.366	292.5
300.597	310.5
300.827	320.5
301.057	307.5
301.288	320.5
301.518	317.5
301.748	309.5
301.979	331.5
302.209	322.5
302.439	330.5
302.669	323.5
302.9	318.5
303.13	313.5
303.36	314.5
303.59	323.5
303.82	328.5
304.051	323.5
304.281	320.5
304.511	310.5
304.741	321.5
304.971	306.5
305.201	311.5
305.431	304.5
305.661	316.5
305.891	334.5
306.121	324.5
306.352	317.5
306.582	314.5
306.812	320.5
307.042	325.5
307.272	332.5
307.502	306.5
307.731	332.5
307.961	320.5
308.191	315.5
308.421	310.5
308.651	325.5
308.881	314.5
309.111	321.5
309.341	320.5
309.571	326.5
309.8	356.5
310.03	341.5
310.26	342.5
310.49	340.5
310.72	333.5
310.949	362.5
311.179	359.5
311.409	350.5
311.639	340.5
311.868	352.5
312.098	333.5
312.328	349.5
312.557	371.5
312.787	330.5
313.017	359.5
313.246	352.5
313.476	315.5
313.706	346.5
313.935	354.5
314.165	332.5
314.394	375.5
314.624	354.5
314.853	354.5
315.083	370.5
315.312	341.5
315.542	340.5
315.771	331.5
316.001	353.5
316.23	345.5
316.46	328.5
316.689	348.5
316.919	357.5
317.148	368.5
317.377	358.5
317.607	336.5
317.836	332.5
318.065	343.5
318.295	359.5
318.524	342.5
318.753	364.5
318.983	337.5
319.212	352.5
319.441	336.5
319.67	356.5
319.9	336.5
320.129	340.5
320.358	353.5
320.587	362.5
320.816	366.5
321.046	355.5
321.275	364.5
321.504	358.5
321.733	357.5
321.962	369.5
322.191	384.5
322.42	378.5
322.649	378.5
322.878	404.5
323.108	399.5
323.337	414.5
323.566	425.5
323.795	430.5
324.024	455.5
324.253	516.5
324.482	728.5
324.71	1030.5
324.939	1419.5
325.168	1224.5
325.397	673.5
325.626	528.5
325.855	456.5
326.084	446.5
326.313	459.5
326.542	444.5
326.77	476.5
326.999	534.5
327.228	680.5
327.457	954.5
327.686	1138.5
327.914	812.5
328.143	598.5
328.372	572.5
328.6	542.5
328.829	500.5
329.058	460.5
329.287	483.5
329.515	468.5
329.744	493.5
329.972	525.5
330.201	619.5
330.43	644.5
330.658	604.5
330.887	547.5
331.115	534.5
331.344	465.5
331.572	466.5
331.801	427.5
332.03	458.5
332.258	462.5
332.486	440.5
332.715	444.5
332.943	450.5
333.172	478.5
333.4	476.5
333.629	535.5
333.857	549.5
334.085	570.5
334.314	635.5
334.542	737.5
334.771	740.5
334.999	610.5
335.227	530.5
335.455	504.5
335.684	475.5
335.912	461.5
336.14	445.5
336.369	442.5
336.597	455.5
336.825	448.5
337.053	429.5
337.281	426.5
337.51	416.5
337.738	410.5
337.966	422.5
338.194	421.5
338.422	423.5
338.65	410.5
338.878	422.5
339.106	401.5
339.334	418.5
339.562	389.5
339.79	398.5
340.018	400.5
340.246	391.5
340.474	413.5
340.702	402.5
340.93	381.5
341.158	398.5
341.386	404.5
341.614	390.5
341.842	402.5
342.07	382.5
342.298	375.5
342.526	386.5
342.754	360.5
342.981	380.5
343.209	379.5
343.437	379.5
343.665	404.5
343.893	440.5
344.12	432.5
344.348	432.5
344.576	427.5
344.804	405.5
345.031	384.5
345.259	395.5
345.487	386.5
345.714	377.5
345.942	381.5
346.17	409.5
346.397	375.5
346.625	374.5
346.853	365.5
347.08	363.5
347.308	376.5
347.535	380.5
347.763	370.5
347.99	382.5
348.218	394.5
348.445	378.5
348.673	378.5
348.9	366.5
349.128	390.5
349.355	349.5
349.583	376.5
349.81	358.5
350.037	376.5
350.265	373.5
350.492	376.5
350.72	355.5
350.947	344.5
351.174	371.5
351.402	370.5
351.629	356.5
351.856	363.5
352.083	361.5
352.311	370.5
352.538	361.5
352.765	371.5
352.992	376.5
353.22	352.5
353.447	362.5
353.674	364.5
353.901	356.5
354.128	349.5
354.355	320.5
354.583	338.5
354.81	354.5
355.037	353.5
355.264	339.5
355.491	359.5
355.718	346.5
355.945	333.5
356.172	342.5
356.399	377.5
356.626	358.5
356.853	348.5
357.08	362.5
357.307	356.5
357.534	332.5
357.761	376.5
357.988	373.5
358.215	356.5
358.441	358.5
358.668	342.5
358.895	342.5
359.122	361.5
359.349	354.5
359.576	365.5
359.802	377.5
360.029	382.5
360.256	404.5
360.483	386.5
360.709	372.5
360.936	366.5
361.163	352.5
361.39	342.5
361.616	373.5
361.843	358.5
362.07	355.5
362.296	367.5
362.523	355.5
362.749	347.5
362.976	352.5
363.203	356.5
363.429	365.5
363.656	359.5
363.882	344.5
364.109	364.5
364.335	342.5
364.562	337.5
364.788	331.5
365.015	349.5
365.241	347.5
365.468	373.5
365.694	348.5
365.92	324.5
366.147	349.5
366.373	349.5
366.599	323.5
366.826	356.5
367.052	342.5
367.278	347.5
367.505	338.5
367.731	358.5
367.957	360.5
368.184	343.5
368.41	357.5
368.636	342.5
368.862	357.5
369.089	351.5
369.315	354.5
369.541	348.5
369.767	334.5
369.993	354.5
370.219	361.5
370.445	360.5
370.672	354.5
370.898	350.5
371.124	357.5
371.35	357.5
371.576	362.5
371.802	365.5
372.028	362.5
372.254	355.5
372.48	372.5
372.706	355.5
372.932	359.5
373.158	372.5
373.384	366.5
373.61	370.5
373.835	384.5
374.061	355.5
374.287	362.5
374.513	353.5
374.739	369.5
374.965	376.5
375.191	390.5
375.416	376.5
375.642	371.5
375.868	344.5
376.094	359.5
376.319	356.5
376.545	361.5
376.771	355.5
376.997	345.5
377.222	354.5
377.448	352.5
377.674	363.5
377.899	354.5
378.125	352.5
378.35	341.5
378.576	332.5
378.802	340.5
379.027	350.5
379.253	369.5
379.478	340.5
379.704	361.5
379.929	350.5
380.155	356.5
380.38	352.5
380.606	353.5
380.831	372.5
381.057	362.5
381.282	362.5
381.507	370.5
381.733	368.5
381.958	360.5
382.184	368.5
382.409	358.5
382.634	370.5
382.86	376.5
383.085	368.5
383.31	379.5
383.535	377.5
383.761	368.5
383.986	387.5
384.211	404.5
384.436	386.5
384.662	378.5
384.887	398.5
385.112	400.5
385.337	395.5
385.562	396.5
385.787	419.5
386.013	411.5
386.238	417.5
386.463	407.5
386.688	411.5
386.913	422.5
387.138	400.5
387.363	418.5
387.588	417.5
387.813	395.5
388.038	418.5
388.263	404.5
388.488	397.5
388.713	376.5
388.938	387.5
389.163	397.5
389.387	384.5
389.612	383.5
389.837	385.5
390.062	400.5
390.287	390.5
390.512	396.5
390.736	396.5
390.961	408.5
391.186	418.5
391.411	404.5
391.636	416.5
391.86	440.5
392.085	430.5
392.31	420.5
392.534	402.5
392.759	419.5
392.984	411.5
393.208	409.5
393.433	397.5
393.658	393.5
393.882	409.5
394.107	389.5
394.331	426.5
394.556	401.5
394.78	422.5
395.005	409.5
395.229	422.5
395.454	428.5
395.678	431.5
395.903	417.5
396.127	460.5
396.352	428.5
396.576	416.5
396.801	415.5
397.025	411.5
397.249	427.5
397.474	440.5
397.698	435.5
397.922	429.5
398.147	440.5
398.371	452.5
398.595	454.5
398.82	473.5
399.044	476.5
399.268	522.5
399.492	568.5
399.717	615.5
399.941	658.5
400.165	610.5
400.389	582.5
400.613	540.5
400.837	510.5
401.062	480.5
401.286	477.5
401.51	477.5
401.734	470.5
401.958	454.5
402.182	493.5
402.406	481.5
402.63	482.5
402.854	492.5
403.078	467.5
403.302	500.5
403.526	519.5
403.75	515.5
403.974	518.5
404.198	528.5
404.422	513.5
404.645	545.5
404.869	523.5
405.093	566.5
405.317	606.5
405.541	629.5
405.765	576.5
405.988	540.5
406.212	546.5
406.436	564.5
406.66	535.5
406.883	521.5
407.107	578.5
407.331	572.5
407.555	636.5
407.778	629.5
408.002	571.5
408.226	567.5
408.449	542.5
408.673	538.5
408.896	544.5
409.12	561.5
409.344	555.5
409.567	516.5
409.791	519.5
410.014	510.5
410.238	514.5
410.461	496.5
410.685	497.5
410.908	503.5
411.132	535.5
411.355	537.5
411.578	512.5
411.802	512.5
412.025	505.5
412.249	528.5
412.472	552.5
412.695	585.5
412.919	594.5
413.142	538.5
413.365	508.5
413.589	516.5
413.812	475.5
414.035	468.5
414.258	462.5
414.482	475.5
414.705	490.5
414.928	483.5
415.151	470.5
415.374	477.5
415.597	457.5
415.821	467.5
416.044	469.5
416.267	469.5
416.49	464.5
416.713	466.5
416.936	471.5
417.159	456.5
417.382	474.5
417.605	472.5
417.828	467.5
418.051	489.5
418.274	478.5
418.497	462.5
418.72	473.5
418.943	450.5
419.166	497.5
419.389	524.5
419.611	532.5
419.834	513.5
420.057	490.5
420.28	520.5
420.503	503.5
420.726	488.5
420.948	508.5
421.171	518.5
421.394	516.5
421.617	498.5
421.839	478.5
422.062	486.5
422.285	479.5
422.507	501.5
422.73	553.5
422.953	532.5
423.175	492.5
423.398	496.5
423.621	493.5
423.843	491.5
424.066	498.5
424.288	497.5
424.511	483.5
424.733	536.5
424.956	579.5
425.178	561.5
425.401	562.5
425.623	569.5
425.846	530.5
426.068	487.5
426.291	473.5
426.513	459.5
426.735	470.5
426.958	505.5
427.18	540.5
427.402	612.5
427.625	674.5
427.847	602.5
428.069	554.5
428.292	534.5
428.514	469.5
428.736	456.5
428.958	436.5
429.181	446.5
429.403	437.5
429.625	449.5
429.847	450.5
430.069	479.5
430.292	504.5
430.514	444.5
430.736	447.5
430.958	436.5
431.18	442.5
431.402	421.5
431.624	427.5
431.846	425.5
432.068	438.5
432.29	422.5
432.512	426.5
432.734	402.5
432.956	428.5
433.178	451.5
433.4	438.5
433.622	428.5
433.844	438.5
434.066	416.5
434.287	416.5
434.509	437.5
434.731	462.5
434.953	460.5
435.175	465.5
435.397	482.5
435.618	488.5
435.84	473.5
436.062	534.5
436.284	562.5
436.505	492.5
436.727	468.5
436.949	454.5
437.17	434.5
437.392	435.5
437.614	423.5
437.835	445.5
438.057	503.5
438.278	538.5
438.5	556.5
438.721	609.5
438.943	589.5
439.165	470.5
439.386	465.5
439.608	445.5
439.829	469.5
440.05	488.5
440.272	493.5
440.493	483.5
440.715	466.5
440.936	463.5
441.158	436.5
441.379	445.5
441.6	466.5
441.822	481.5
442.043	473.5
442.264	554.5
442.486	561.5
442.707	510.5
442.928	487.5
443.149	476.5
443.371	496.5
443.592	539.5
443.813	577.5
444.034	608.5
444.255	523.5
444.476	524.5
444.698	525.5
444.919	515.5
445.14	646.5
445.361	569.5
445.582	522.5
445.803	531.5
446.024	587.5
446.245	574.5
446.466	553.5
446.687	466.5
446.908	448.5
447.129	457.5
447.35	439.5
447.571	445.5
447.792	410.5
448.013	429.5
448.234	438.5
448.455	456.5
448.675	541.5
448.896	613.5
449.117	529.5
449.338	496.5
449.559	572.5
449.779	615.5
450	491.5
450.221	453.5
450.442	438.5
450.662	419.5
450.883	412.5
451.104	419.5
451.324	412.5
451.545	409.5
451.766	396.5
451.986	387.5
452.207	396.5
452.428	395.5
452.648	395.5
452.869	386.5
453.089	380.5
453.31	405.5
453.53	389.5
453.751	389.5
453.971	394.5
454.192	408.5
454.412	404.5
454.633	387.5
454.853	385.5
455.073	374.5
455.294	393.5
455.514	406.5
455.734	441.5
455.955	382.5
456.175	370.5
456.395	379.5
456.616	374.5
456.836	386.5
457.056	366.5
457.276	382.5
457.497	377.5
457.717	369.5
457.937	373.5
458.157	379.5
458.377	389.5
458.598	394.5
458.818	444.5
459.038	468.5
459.258	496.5
459.478	459.5
459.698	434.5
459.918	443.5
460.138	442.5
460.358	455.5
460.578	448.5
460.798	471.5
461.018	471.5
461.238	474.5
461.458	454.5
461.678	466.5
461.898	469.5
462.118	451.5
462.338	482.5
462.558	469.5
462.777	511.5
462.997	516.5
463.217	581.5
463.437	559.5
463.657	518.5
463.876	538.5
464.096	511.5
464.316	515.5
464.536	507.5
464.755	517.5
464.975	494.5
465.195	487.5
465.414	534.5
465.634	472.5
465.854	459.5
466.073	436.5
466.293	417.5
466.512	421.5
466.732	407.5
466.951	412.5
467.171	415.5
467.391	408.5
467.61	406.5
467.829	430.5
468.049	421.5
468.268	437.5
468.488	420.5
468.707	409.5
468.927	404.5
469.146	393.5
469.365	426.5
469.585	411.5
469.804	419.5
470.023	426.5
470.243	413.5
470.462	427.5
470.681	432.5
470.901	432.5
471.12	388.5
471.339	410.5
471.558	419.5
471.777	412.5
471.997	400.5
472.216	448.5
472.435	524.5
472.654	502.5
472.873	448.5
473.092	442.5
473.311	430.5
473.53	402.5
473.749	420.5
473.968	438.5
474.187	493.5
474.406	484.5
474.625	417.5
474.844	414.5
475.063	420.5
475.282	407.5
475.501	400.5
475.72	418.5
475.939	407.5
476.158	418.5
476.377	416.5
476.596	410.5
476.814	436.5
477.033	417.5
477.252	416.5
477.471	440.5
477.69	437.5
477.908	452.5
478.127	462.5
478.346	453.5
478.564	475.5
478.783	472.5
479.002	464.5
479.22	476.5
479.439	466.5
479.658	485.5
479.876	497.5
480.095	492.5
480.313	543.5
480.532	536.5
480.751	544.5
480.969	540.5
481.188	680.5
481.406	748.5
481.624	649.5
481.843	567.5
482.061	513.5
482.28	478.5
482.498	498.5
482.717	496.5
482.935	475.5
483.153	497.5
483.372	472.5
483.59	466.5
483.808	445.5
484.027	466.5
484.245	468.5
484.463	454.5
484.681	478.5
484.9	486.5
485.118	490.5
485.336	493.5
485.554	500.5
485.772	482.5
485.99	469.5
486.209	473.5
486.427	489.5
486.645	508.5
486.863	497.5
487.081	519.5
487.299	493.5
487.517	487.5
487.735	493.5
487.953	488.5
488.171	525.5
488.389	494.5
488.607	488.5
488.825	488.5
489.043	484.5
489.261	497.5
489.479	489.5
489.696	506.5
489.914	517.5
490.132	514.5
490.35	538.5
490.568	545.5
490.786	548.5
491.003	551.5
491.221	572.5
491.439	548.5
491.657	563.5
491.874	581.5
492.092	582.5
492.31	589.5
492.527	577.5
492.745	593.5
492.963	610.5
493.18	577.5
493.398	597.5
493.615	603.5
493.833	594.5
494.05	597.5
494.268	587.5
494.485	573.5
494.703	580.5
494.92	584.5
495.138	598.5
495.355	565.5
495.573	569.5
495.79	557.5
496.008	568.5
496.225	562.5
496.442	562.5
496.66	572.5
496.877	589.5
497.094	570.5
497.312	601.5
497.529	582.5
497.746	613.5
497.963	612.5
498.181	630.5
498.398	660.5
498.615	674.5
498.832	678.5
499.049	739.5
499.267	750.5
499.484	800.5
499.701	827.5
499.918	873.5
500.135	968.5
500.352	1022.5
500.569	1080.5
500.786	1101.5
501.003	1073.5
501.22	981.5
501.437	902.5
501.654	860.5
501.871	832.5
502.088	775.5
502.305	737.5
502.522	710.5
502.739	667.5
502.956	634.5
503.172	659.5
503.389	619.5
503.606	612.5
503.823	602.5
504.04	593.5
504.256	585.5
504.473	607.5
504.69	613.5
504.907	602.5
505.123	560.5
505.34	563.5
505.557	533.5
505.773	550.5
505.99	540.5
506.207	515.5
506.423	509.5
506.64	502.5
506.856	507.5
507.073	476.5
507.289	496.5
507.506	506.5
507.722	519.5
507.939	526.5
508.155	491.5
508.372	481.5
508.588	480.5
508.805	484.5
509.021	488.5
509.238	485.5
509.454	485.5
509.67	468.5
509.887	483.5
510.103	488.5
510.319	501.5
510.536	526.5
510.752	804.5
510.968	671.5
511.184	493.5
511.401	461.5
511.617	470.5
511.833	500.5
512.049	517.5
512.265	499.5
512.481	488.5
512.698	482.5
512.914	474.5
513.13	477.5
513.346	468.5
513.562	477.5
513.778	482.5
513.994	484.5
514.21	483.5
514.426	468.5
514.642	491.5
514.858	513.5
515.074	531.5
515.29	580.5
515.506	796.5
515.721	696.5
515.937	541.5
516.153	506.5
516.369	506.5
516.585	506.5
516.801	507.5
517.016	507.5
517.232	534.5
517.448	550.5
517.664	536.5
517.879	542.5
518.095	561.5
518.311	560.5
518.527	521.5
518.742	530.5
518.958	526.5
519.173	524.5
519.389	473.5
519.605	486.5
519.82	494.5
520.036	493.5
