Data from 1984.PennyLincolnUp.Lamp.En5.5.200Scan.071819.P1_HRD10591_16-59-22-968.txt Node
Date: Thu Jul 18 16:59:22 EDT 2019
User: cochatt
Spectrometer: HR+D1059
Trigger mode: 1
Integration Time (sec): 1.000000E-1
Scans to average: 1
Electric dark correction enabled: true
Nonlinearity correction enabled: false
Boxcar width: 0
XAxis mode: Wavelengths
Number of Pixels in Spectrum: 2048
>>>>>Begin Spectral Data<<<<<
223.165	-15.38
223.4	-15.38
223.635	-15.38
223.869	-27.38
224.104	-14.38
224.338	-15.38
224.573	-14.38
224.808	-12.38
225.042	-23.38
225.277	-10.38
225.511	13.62
225.746	8.62
225.98	9.62
226.215	16.62
226.449	11.62
226.683	14.62
226.918	30.62
227.152	27.62
227.387	40.62
227.621	50.62
227.856	32.62
228.09	52.62
228.324	55.62
228.559	54.62
228.793	75.62
229.027	82.62
229.262	99.62
229.496	94.62
229.73	110.62
229.964	114.62
230.199	120.62
230.433	100.62
230.667	105.62
230.901	107.62
231.136	100.62
231.37	93.62
231.604	110.62
231.838	105.62
232.072	104.62
232.306	120.62
232.541	106.62
232.775	100.62
233.009	106.62
233.243	107.62
233.477	94.62
233.711	117.62
233.945	113.62
234.179	116.62
234.413	109.62
234.647	110.62
234.881	120.62
235.115	112.62
235.349	113.62
235.583	97.62
235.817	122.62
236.051	116.62
236.285	124.62
236.519	123.62
236.753	114.62
236.987	130.62
237.221	138.62
237.455	165.62
237.689	147.62
237.922	116.62
238.156	125.62
238.39	128.62
238.624	113.62
238.858	105.62
239.091	123.62
239.325	107.62
239.559	124.62
239.793	128.62
240.027	128.62
240.26	127.62
240.494	124.62
240.728	112.62
240.961	132.62
241.195	135.62
241.429	126.62
241.662	124.62
241.896	130.62
242.13	140.62
242.363	124.62
242.597	109.62
242.83	132.62
243.064	124.62
243.298	136.62
243.531	132.62
243.765	120.62
243.998	127.62
244.232	131.62
244.465	143.62
244.699	138.62
244.932	134.62
245.166	143.62
245.399	126.62
245.633	131.62
245.866	150.62
246.099	145.62
246.333	149.62
246.566	127.62
246.8	135.62
247.033	139.62
247.266	128.62
247.5	132.62
247.733	146.62
247.966	156.62
248.2	174.62
248.433	167.62
248.666	149.62
248.899	158.62
249.133	169.62
249.366	195.62
249.599	164.62
249.832	173.62
250.066	155.62
250.299	166.62
250.532	185.62
250.765	212.62
250.998	193.62
251.231	176.62
251.465	173.62
251.698	170.62
251.931	157.62
252.164	181.62
252.397	178.62
252.63	170.62
252.863	172.62
253.096	181.62
253.329	169.62
253.562	200.62
253.795	197.62
254.028	191.62
254.261	168.62
254.494	187.62
254.727	218.62
254.96	222.62
255.193	217.62
255.426	204.62
255.659	205.62
255.892	231.62
256.124	266.62
256.357	274.62
256.59	229.62
256.823	207.62
257.056	202.62
257.289	180.62
257.521	177.62
257.754	200.62
257.987	201.62
258.22	186.62
258.452	178.62
258.685	183.62
258.918	192.62
259.151	172.62
259.383	186.62
259.616	202.62
259.849	194.62
260.081	208.62
260.314	221.62
260.547	219.62
260.779	192.62
261.012	201.62
261.244	185.62
261.477	198.62
261.71	196.62
261.942	187.62
262.175	204.62
262.407	213.62
262.64	201.62
262.872	204.62
263.105	201.62
263.337	199.62
263.57	184.62
263.802	196.62
264.035	198.62
264.267	205.62
264.499	213.62
264.732	202.62
264.964	184.62
265.197	189.62
265.429	190.62
265.661	191.62
265.894	189.62
266.126	190.62
266.358	213.62
266.591	195.62
266.823	206.62
267.055	219.62
267.287	211.62
267.52	190.62
267.752	222.62
267.984	197.62
268.216	224.62
268.448	223.62
268.681	217.62
268.913	221.62
269.145	248.62
269.377	230.62
269.609	241.62
269.841	233.62
270.073	225.62
270.306	236.62
270.538	242.62
270.77	248.62
271.002	245.62
271.234	250.62
271.466	264.62
271.698	268.62
271.93	260.62
272.162	258.62
272.394	260.62
272.626	259.62
272.858	260.62
273.09	223.62
273.322	230.62
273.553	243.62
273.785	240.62
274.017	241.62
274.249	233.62
274.481	218.62
274.713	250.62
274.945	251.62
275.176	233.62
275.408	226.62
275.64	249.62
275.872	235.62
276.104	244.62
276.335	238.62
276.567	246.62
276.799	250.62
277.031	258.62
277.262	291.62
277.494	266.62
277.726	270.62
277.957	281.62
278.189	248.62
278.421	254.62
278.652	244.62
278.884	244.62
279.115	244.62
279.347	234.62
279.579	246.62
279.81	256.62
280.042	253.62
280.273	249.62
280.505	244.62
280.736	253.62
280.968	253.62
281.199	258.62
281.431	262.62
281.662	263.62
281.894	238.62
282.125	265.62
282.356	272.62
282.588	271.62
282.819	270.62
283.051	282.62
283.282	267.62
283.513	266.62
283.745	264.62
283.976	254.62
284.207	280.62
284.439	251.62
284.67	269.62
284.901	257.62
285.132	254.62
285.364	274.62
285.595	254.62
285.826	261.62
286.057	269.62
286.288	261.62
286.52	279.62
286.751	268.62
286.982	283.62
287.213	281.62
287.444	265.62
287.675	277.62
287.906	279.62
288.138	288.62
288.369	273.62
288.6	271.62
288.831	275.62
289.062	285.62
289.293	297.62
289.524	294.62
289.755	291.62
289.986	267.62
290.217	285.62
290.448	294.62
290.679	284.62
290.91	295.62
291.141	278.62
291.371	273.62
291.602	298.62
291.833	288.62
292.064	280.62
292.295	294.62
292.526	278.62
292.757	298.62
292.987	293.62
293.218	266.62
293.449	287.62
293.68	271.62
293.91	269.62
294.141	279.62
294.372	280.62
294.603	294.62
294.833	296.62
295.064	289.62
295.295	275.62
295.525	268.62
295.756	296.62
295.987	300.62
296.217	291.62
296.448	326.62
296.679	281.62
296.909	294.62
297.14	284.62
297.37	291.62
297.601	290.62
297.831	294.62
298.062	297.62
298.292	288.62
298.523	292.62
298.753	284.62
298.984	294.62
299.214	313.62
299.445	281.62
299.675	296.62
299.905	307.62
300.136	304.62
300.366	304.62
300.597	305.62
300.827	310.62
301.057	300.62
301.288	325.62
301.518	344.62
301.748	308.62
301.979	304.62
302.209	332.62
302.439	321.62
302.669	334.62
302.9	309.62
303.13	308.62
303.36	298.62
303.59	318.62
303.82	320.62
304.051	329.62
304.281	305.62
304.511	316.62
304.741	307.62
304.971	332.62
305.201	317.62
305.431	310.62
305.661	329.62
305.891	310.62
306.121	321.62
306.352	298.62
306.582	325.62
306.812	293.62
307.042	309.62
307.272	308.62
307.502	325.62
307.731	310.62
307.961	329.62
308.191	306.62
308.421	304.62
308.651	305.62
308.881	318.62
309.111	311.62
309.341	300.62
309.571	338.62
309.8	340.62
310.03	316.62
310.26	329.62
310.49	338.62
310.72	332.62
310.949	329.62
311.179	356.62
311.409	315.62
311.639	341.62
311.868	332.62
312.098	324.62
312.328	356.62
312.557	356.62
312.787	364.62
313.017	353.62
313.246	350.62
313.476	336.62
313.706	332.62
313.935	355.62
314.165	362.62
314.394	366.62
314.624	347.62
314.853	348.62
315.083	362.62
315.312	342.62
315.542	343.62
315.771	344.62
316.001	335.62
316.23	338.62
316.46	338.62
316.689	352.62
316.919	345.62
317.148	349.62
317.377	348.62
317.607	341.62
317.836	333.62
318.065	340.62
318.295	346.62
318.524	333.62
318.753	322.62
318.983	340.62
319.212	354.62
319.441	347.62
319.67	364.62
319.9	342.62
320.129	345.62
320.358	333.62
320.587	358.62
320.816	347.62
321.046	339.62
321.275	365.62
321.504	372.62
321.733	363.62
321.962	364.62
322.191	349.62
322.42	374.62
322.649	372.62
322.878	358.62
323.108	394.62
323.337	396.62
323.566	398.62
323.795	448.62
324.024	473.62
324.253	516.62
324.482	672.62
324.71	987.62
324.939	1378.62
325.168	1177.62
325.397	678.62
325.626	508.62
325.855	459.62
326.084	432.62
326.313	434.62
326.542	443.62
326.77	465.62
326.999	522.62
327.228	668.62
327.457	919.62
327.686	1086.62
327.914	761.62
328.143	571.62
328.372	527.62
328.6	498.62
328.829	471.62
329.058	474.62
329.287	447.62
329.515	461.62
329.744	463.62
329.972	500.62
330.201	531.62
330.43	561.62
330.658	556.62
330.887	504.62
331.115	489.62
331.344	456.62
331.572	443.62
331.801	445.62
332.03	433.62
332.258	445.62
332.486	444.62
332.715	431.62
332.943	453.62
333.172	445.62
333.4	480.62
333.629	487.62
333.857	502.62
334.085	545.62
334.314	566.62
334.542	648.62
334.771	615.62
334.999	547.62
335.227	476.62
335.455	466.62
335.684	444.62
335.912	434.62
336.14	442.62
336.369	438.62
336.597	435.62
336.825	442.62
337.053	427.62
337.281	406.62
337.51	400.62
337.738	413.62
337.966	409.62
338.194	388.62
338.422	407.62
338.65	390.62
338.878	404.62
339.106	388.62
339.334	405.62
339.562	408.62
339.79	401.62
340.018	383.62
340.246	385.62
340.474	391.62
340.702	391.62
340.93	403.62
341.158	393.62
341.386	371.62
341.614	377.62
341.842	383.62
342.07	370.62
342.298	380.62
342.526	396.62
342.754	377.62
342.981	363.62
343.209	379.62
343.437	396.62
343.665	411.62
343.893	409.62
344.12	434.62
344.348	432.62
344.576	426.62
344.804	396.62
345.031	413.62
345.259	405.62
345.487	399.62
345.714	395.62
345.942	394.62
346.17	394.62
346.397	380.62
346.625	389.62
346.853	377.62
347.08	359.62
347.308	366.62
347.535	382.62
347.763	400.62
347.99	366.62
348.218	384.62
348.445	382.62
348.673	354.62
348.9	362.62
349.128	371.62
349.355	370.62
349.583	368.62
349.81	371.62
350.037	354.62
350.265	366.62
350.492	353.62
350.72	345.62
350.947	357.62
351.174	375.62
351.402	356.62
351.629	354.62
351.856	352.62
352.083	370.62
352.311	352.62
352.538	351.62
352.765	353.62
352.992	350.62
353.22	358.62
353.447	336.62
353.674	361.62
353.901	365.62
354.128	356.62
354.355	346.62
354.583	353.62
354.81	340.62
355.037	350.62
355.264	332.62
355.491	346.62
355.718	338.62
355.945	360.62
356.172	357.62
356.399	325.62
356.626	345.62
356.853	359.62
357.08	350.62
357.307	356.62
357.534	345.62
357.761	348.62
357.988	356.62
358.215	349.62
358.441	344.62
358.668	339.62
358.895	349.62
359.122	361.62
359.349	371.62
359.576	344.62
359.802	348.62
360.029	369.62
360.256	372.62
360.483	366.62
360.709	346.62
360.936	344.62
361.163	340.62
361.39	364.62
361.616	351.62
361.843	359.62
362.07	354.62
362.296	340.62
362.523	341.62
362.749	361.62
362.976	345.62
363.203	351.62
363.429	348.62
363.656	346.62
363.882	358.62
364.109	353.62
364.335	353.62
364.562	362.62
364.788	334.62
365.015	354.62
365.241	356.62
365.468	324.62
365.694	349.62
365.92	371.62
366.147	354.62
366.373	350.62
366.599	360.62
366.826	371.62
367.052	342.62
367.278	351.62
367.505	352.62
367.731	360.62
367.957	349.62
368.184	359.62
368.41	344.62
368.636	363.62
368.862	359.62
369.089	362.62
369.315	334.62
369.541	333.62
369.767	358.62
369.993	347.62
370.219	333.62
370.445	352.62
370.672	350.62
370.898	366.62
371.124	360.62
371.35	341.62
371.576	348.62
371.802	352.62
372.028	338.62
372.254	345.62
372.48	374.62
372.706	356.62
372.932	375.62
373.158	374.62
373.384	350.62
373.61	370.62
373.835	358.62
374.061	360.62
374.287	355.62
374.513	361.62
374.739	353.62
374.965	365.62
375.191	375.62
375.416	379.62
375.642	354.62
375.868	370.62
376.094	369.62
376.319	338.62
376.545	366.62
376.771	362.62
376.997	345.62
377.222	368.62
377.448	347.62
377.674	351.62
377.899	357.62
378.125	352.62
378.35	359.62
378.576	361.62
378.802	362.62
379.027	356.62
379.253	345.62
379.478	357.62
379.704	348.62
379.929	348.62
380.155	344.62
380.38	353.62
380.606	346.62
380.831	358.62
381.057	356.62
381.282	356.62
381.507	360.62
381.733	337.62
381.958	343.62
382.184	350.62
382.409	357.62
382.634	365.62
382.86	358.62
383.085	359.62
383.31	385.62
383.535	361.62
383.761	368.62
383.986	371.62
384.211	376.62
384.436	373.62
384.662	379.62
384.887	397.62
385.112	381.62
385.337	375.62
385.562	404.62
385.787	397.62
386.013	415.62
386.238	409.62
386.463	406.62
386.688	405.62
386.913	392.62
387.138	400.62
387.363	393.62
387.588	390.62
387.813	416.62
388.038	371.62
388.263	394.62
388.488	394.62
388.713	399.62
388.938	394.62
389.163	392.62
389.387	391.62
389.612	391.62
389.837	399.62
390.062	398.62
390.287	386.62
390.512	385.62
390.736	399.62
390.961	414.62
391.186	419.62
391.411	395.62
391.636	407.62
391.86	413.62
392.085	408.62
392.31	428.62
392.534	418.62
392.759	418.62
392.984	411.62
393.208	406.62
393.433	405.62
393.658	399.62
393.882	421.62
394.107	418.62
394.331	418.62
394.556	395.62
394.78	417.62
395.005	445.62
395.229	386.62
395.454	437.62
395.678	402.62
395.903	422.62
396.127	435.62
396.352	428.62
396.576	429.62
396.801	403.62
397.025	404.62
397.249	420.62
397.474	442.62
397.698	432.62
397.922	447.62
398.147	451.62
398.371	457.62
398.595	463.62
398.82	473.62
399.044	482.62
399.268	530.62
399.492	573.62
399.717	616.62
399.941	635.62
400.165	624.62
400.389	591.62
400.613	525.62
400.837	511.62
401.062	466.62
401.286	475.62
401.51	465.62
401.734	468.62
401.958	488.62
402.182	481.62
402.406	476.62
402.63	477.62
402.854	487.62
403.078	485.62
403.302	499.62
403.526	499.62
403.75	537.62
403.974	504.62
404.198	526.62
404.422	525.62
404.645	531.62
404.869	527.62
405.093	546.62
405.317	596.62
405.541	640.62
405.765	570.62
405.988	523.62
406.212	530.62
406.436	521.62
406.66	557.62
406.883	557.62
407.107	574.62
407.331	593.62
407.555	643.62
407.778	632.62
408.002	604.62
408.226	548.62
408.449	534.62
408.673	527.62
408.896	544.62
409.12	558.62
409.344	544.62
409.567	499.62
409.791	508.62
410.014	476.62
410.238	475.62
410.461	515.62
410.685	514.62
410.908	484.62
411.132	498.62
411.355	520.62
411.578	513.62
411.802	499.62
412.025	489.62
412.249	494.62
412.472	541.62
412.695	604.62
412.919	588.62
413.142	513.62
413.365	489.62
413.589	492.62
413.812	468.62
414.035	458.62
414.258	446.62
414.482	469.62
414.705	477.62
414.928	452.62
415.151	460.62
415.374	475.62
415.597	466.62
415.821	447.62
416.044	444.62
416.267	474.62
416.49	465.62
416.713	447.62
416.936	480.62
417.159	460.62
417.382	463.62
417.605	486.62
417.828	469.62
418.051	481.62
418.274	472.62
418.497	475.62
418.72	462.62
418.943	466.62
419.166	504.62
419.389	529.62
419.611	518.62
419.834	494.62
420.057	493.62
420.28	488.62
420.503	532.62
420.726	500.62
420.948	503.62
421.171	492.62
421.394	513.62
421.617	486.62
421.839	487.62
422.062	474.62
422.285	471.62
422.507	530.62
422.73	557.62
422.953	544.62
423.175	498.62
423.398	481.62
423.621	489.62
423.843	500.62
424.066	514.62
424.288	491.62
424.511	514.62
424.733	536.62
424.956	576.62
425.178	551.62
425.401	562.62
425.623	553.62
425.846	512.62
426.068	496.62
426.291	488.62
426.513	474.62
426.735	500.62
426.958	489.62
427.18	533.62
427.402	615.62
427.625	671.62
427.847	576.62
428.069	550.62
428.292	524.62
428.514	475.62
428.736	469.62
428.958	474.62
429.181	449.62
429.403	446.62
429.625	454.62
429.847	445.62
430.069	490.62
430.292	470.62
430.514	453.62
430.736	426.62
430.958	440.62
431.18	448.62
431.402	411.62
431.624	427.62
431.846	409.62
432.068	415.62
432.29	410.62
432.512	434.62
432.734	437.62
432.956	419.62
433.178	437.62
433.4	425.62
433.622	424.62
433.844	418.62
434.066	429.62
434.287	430.62
434.509	418.62
434.731	453.62
434.953	470.62
435.175	466.62
435.397	480.62
435.618	457.62
435.84	480.62
436.062	522.62
436.284	572.62
436.505	496.62
436.727	453.62
436.949	436.62
437.17	436.62
437.392	422.62
437.614	445.62
437.835	455.62
438.057	523.62
438.278	556.62
438.5	541.62
438.721	586.62
438.943	589.62
439.165	470.62
439.386	457.62
439.608	481.62
439.829	476.62
440.05	473.62
440.272	505.62
440.493	465.62
440.715	452.62
440.936	462.62
441.158	470.62
441.379	462.62
441.6	470.62
441.822	459.62
442.043	493.62
442.264	546.62
442.486	558.62
442.707	493.62
442.928	474.62
443.149	473.62
443.371	484.62
443.592	525.62
443.813	552.62
444.034	596.62
444.255	538.62
444.476	505.62
444.698	520.62
444.919	534.62
445.14	605.62
445.361	553.62
445.582	524.62
445.803	510.62
446.024	582.62
446.245	591.62
446.466	530.62
446.687	482.62
446.908	473.62
447.129	467.62
447.35	440.62
447.571	434.62
447.792	436.62
448.013	428.62
448.234	424.62
448.455	453.62
448.675	501.62
448.896	553.62
449.117	500.62
449.338	511.62
449.559	564.62
449.779	596.62
450	511.62
450.221	462.62
450.442	437.62
450.662	413.62
450.883	394.62
451.104	423.62
451.324	388.62
451.545	398.62
451.766	410.62
451.986	390.62
452.207	396.62
452.428	395.62
452.648	392.62
452.869	392.62
453.089	396.62
453.31	381.62
453.53	370.62
453.751	379.62
453.971	385.62
454.192	371.62
454.412	372.62
454.633	369.62
454.853	377.62
455.073	376.62
455.294	410.62
455.514	436.62
455.734	417.62
455.955	394.62
456.175	369.62
456.395	361.62
456.616	376.62
456.836	390.62
457.056	376.62
457.276	371.62
457.497	386.62
457.717	368.62
457.937	390.62
458.157	385.62
458.377	386.62
458.598	393.62
458.818	431.62
459.038	437.62
459.258	484.62
459.478	431.62
459.698	426.62
459.918	428.62
460.138	442.62
460.358	468.62
460.578	474.62
460.798	462.62
461.018	468.62
461.238	469.62
461.458	454.62
461.678	474.62
461.898	466.62
462.118	450.62
462.338	456.62
462.558	477.62
462.777	488.62
462.997	522.62
463.217	539.62
463.437	546.62
463.657	516.62
463.876	521.62
464.096	484.62
464.316	499.62
464.536	520.62
464.755	514.62
464.975	509.62
465.195	496.62
465.414	497.62
465.634	474.62
465.854	450.62
466.073	428.62
466.293	412.62
466.512	415.62
466.732	407.62
466.951	421.62
467.171	389.62
467.391	394.62
467.61	406.62
467.829	433.62
468.049	445.62
468.268	427.62
468.488	419.62
468.707	397.62
468.927	401.62
469.146	398.62
469.365	425.62
469.585	393.62
469.804	435.62
470.023	420.62
470.243	412.62
470.462	438.62
470.681	416.62
470.901	412.62
471.12	417.62
471.339	412.62
471.558	409.62
471.777	405.62
471.997	413.62
472.216	422.62
472.435	476.62
472.654	460.62
472.873	433.62
473.092	403.62
473.311	432.62
473.53	402.62
473.749	386.62
473.968	420.62
474.187	508.62
474.406	501.62
474.625	432.62
474.844	396.62
475.063	395.62
475.282	384.62
475.501	394.62
475.72	403.62
475.939	400.62
476.158	399.62
476.377	386.62
476.596	396.62
476.814	417.62
477.033	436.62
477.252	402.62
477.471	412.62
477.69	435.62
477.908	453.62
478.127	446.62
478.346	462.62
478.564	461.62
478.783	469.62
479.002	498.62
479.22	496.62
479.439	480.62
479.658	479.62
479.876	484.62
480.095	478.62
480.313	524.62
480.532	518.62
480.751	519.62
480.969	544.62
481.188	626.62
481.406	682.62
481.624	568.62
481.843	540.62
482.061	499.62
482.28	486.62
482.498	487.62
482.717	466.62
482.935	469.62
483.153	457.62
483.372	472.62
483.59	487.62
483.808	458.62
484.027	460.62
484.245	452.62
484.463	473.62
484.681	489.62
484.9	491.62
485.118	461.62
485.336	465.62
485.554	473.62
485.772	470.62
485.99	489.62
486.209	481.62
486.427	498.62
486.645	492.62
486.863	501.62
487.081	482.62
487.299	504.62
487.517	461.62
487.735	472.62
487.953	484.62
488.171	494.62
488.389	501.62
488.607	485.62
488.825	509.62
489.043	494.62
489.261	480.62
489.479	508.62
489.696	492.62
489.914	516.62
490.132	502.62
490.35	501.62
490.568	527.62
490.786	512.62
491.003	516.62
491.221	545.62
491.439	553.62
491.657	559.62
491.874	569.62
492.092	562.62
492.31	590.62
492.527	586.62
492.745	568.62
492.963	595.62
493.18	574.62
493.398	588.62
493.615	583.62
493.833	577.62
494.05	583.62
494.268	561.62
494.485	547.62
494.703	562.62
494.92	566.62
495.138	570.62
495.355	549.62
495.573	566.62
495.79	566.62
496.008	551.62
496.225	581.62
496.442	545.62
496.66	585.62
496.877	584.62
497.094	557.62
497.312	596.62
497.529	584.62
497.746	604.62
497.963	620.62
498.181	637.62
498.398	648.62
498.615	664.62
498.832	686.62
499.049	692.62
499.267	722.62
499.484	796.62
499.701	845.62
499.918	905.62
500.135	936.62
500.352	1041.62
500.569	1096.62
500.786	1115.62
501.003	1039.62
501.22	973.62
501.437	939.62
501.654	858.62
501.871	797.62
