Data from 1984.PennyLincolnUp.Lamp.En5.5.200Scan.071819.P1_HRD10591_16-58-21-967.txt Node
Date: Thu Jul 18 16:58:21 EDT 2019
User: cochatt
Spectrometer: HR+D1059
Trigger mode: 1
Integration Time (sec): 1.000000E-1
Scans to average: 1
Electric dark correction enabled: true
Nonlinearity correction enabled: false
Boxcar width: 0
XAxis mode: Wavelengths
Number of Pixels in Spectrum: 2048
>>>>>Begin Spectral Data<<<<<
223.165	-11.25
223.4	-11.25
223.635	-11.25
223.869	-37.25
224.104	-18.25
224.338	-21.25
224.573	-5.25
224.808	-14.25
225.042	0.75
225.277	-5.25
225.511	-16.25
225.746	4.75
225.98	-2.25
226.215	12.75
226.449	17.75
226.683	30.75
226.918	22.75
227.152	41.75
227.387	27.75
227.621	38.75
227.856	40.75
228.09	45.75
228.324	64.75
228.559	63.75
228.793	78.75
229.027	105.75
229.262	107.75
229.496	112.75
229.73	130.75
229.964	132.75
230.199	105.75
230.433	110.75
230.667	100.75
230.901	106.75
231.136	107.75
231.37	96.75
231.604	108.75
231.838	109.75
232.072	103.75
232.306	122.75
232.541	103.75
232.775	90.75
233.009	100.75
233.243	120.75
233.477	124.75
233.711	104.75
233.945	108.75
234.179	108.75
234.413	111.75
234.647	108.75
234.881	118.75
235.115	94.75
235.349	118.75
235.583	114.75
235.817	116.75
236.051	123.75
236.285	119.75
236.519	118.75
236.753	117.75
236.987	121.75
237.221	140.75
237.455	165.75
237.689	142.75
237.922	136.75
238.156	123.75
238.39	125.75
238.624	127.75
238.858	106.75
239.091	112.75
239.325	115.75
239.559	120.75
239.793	125.75
240.027	122.75
240.26	124.75
240.494	130.75
240.728	121.75
240.961	130.75
241.195	120.75
241.429	108.75
241.662	127.75
241.896	129.75
242.13	144.75
242.363	130.75
242.597	128.75
242.83	138.75
243.064	126.75
243.298	135.75
243.531	126.75
243.765	129.75
243.998	135.75
244.232	136.75
244.465	124.75
244.699	140.75
244.932	142.75
245.166	150.75
245.399	130.75
245.633	135.75
245.866	143.75
246.099	121.75
246.333	143.75
246.566	150.75
246.8	122.75
247.033	156.75
247.266	137.75
247.5	151.75
247.733	159.75
247.966	142.75
248.2	140.75
248.433	158.75
248.666	152.75
248.899	161.75
249.133	174.75
249.366	173.75
249.599	164.75
249.832	173.75
250.066	150.75
250.299	185.75
250.532	187.75
250.765	180.75
250.998	193.75
251.231	199.75
251.465	195.75
251.698	183.75
251.931	178.75
252.164	160.75
252.397	159.75
252.63	171.75
252.863	173.75
253.096	174.75
253.329	186.75
253.562	194.75
253.795	186.75
254.028	183.75
254.261	186.75
254.494	184.75
254.727	214.75
254.96	209.75
255.193	221.75
255.426	216.75
255.659	193.75
255.892	208.75
256.124	220.75
256.357	230.75
256.59	207.75
256.823	191.75
257.056	198.75
257.289	191.75
257.521	172.75
257.754	185.75
257.987	186.75
258.22	191.75
258.452	184.75
258.685	201.75
258.918	173.75
259.151	190.75
259.383	193.75
259.616	213.75
259.849	198.75
260.081	202.75
260.314	223.75
260.547	204.75
260.779	199.75
261.012	213.75
261.244	213.75
261.477	212.75
261.71	179.75
261.942	197.75
262.175	200.75
262.407	205.75
262.64	190.75
262.872	194.75
263.105	188.75
263.337	194.75
263.57	186.75
263.802	210.75
264.035	190.75
264.267	204.75
264.499	195.75
264.732	188.75
264.964	197.75
265.197	197.75
265.429	212.75
265.661	193.75
265.894	186.75
266.126	202.75
266.358	210.75
266.591	217.75
266.823	205.75
267.055	229.75
267.287	212.75
267.52	199.75
267.752	220.75
267.984	220.75
268.216	215.75
268.448	217.75
268.681	223.75
268.913	214.75
269.145	227.75
269.377	232.75
269.609	221.75
269.841	254.75
270.073	233.75
270.306	251.75
270.538	245.75
270.77	256.75
271.002	255.75
271.234	247.75
271.466	244.75
271.698	263.75
271.93	252.75
272.162	258.75
272.394	270.75
272.626	257.75
272.858	243.75
273.09	245.75
273.322	235.75
273.553	234.75
273.785	235.75
274.017	229.75
274.249	238.75
274.481	244.75
274.713	246.75
274.945	260.75
275.176	261.75
275.408	239.75
275.64	244.75
275.872	244.75
276.104	229.75
276.335	236.75
276.567	255.75
276.799	257.75
277.031	264.75
277.262	287.75
277.494	270.75
277.726	270.75
277.957	279.75
278.189	243.75
278.421	261.75
278.652	246.75
278.884	244.75
279.115	251.75
279.347	252.75
279.579	253.75
279.81	258.75
280.042	248.75
280.273	242.75
280.505	269.75
280.736	253.75
280.968	254.75
281.199	268.75
281.431	248.75
281.662	263.75
281.894	265.75
282.125	264.75
282.356	280.75
282.588	265.75
282.819	290.75
283.051	262.75
283.282	267.75
283.513	249.75
283.745	266.75
283.976	259.75
284.207	286.75
284.439	266.75
284.67	268.75
284.901	280.75
285.132	268.75
285.364	272.75
285.595	275.75
285.826	290.75
286.057	280.75
286.288	268.75
286.52	280.75
286.751	267.75
286.982	281.75
287.213	274.75
287.444	293.75
287.675	285.75
287.906	287.75
288.138	279.75
288.369	309.75
288.6	292.75
288.831	290.75
289.062	299.75
289.293	295.75
289.524	280.75
289.755	290.75
289.986	287.75
290.217	285.75
290.448	280.75
290.679	285.75
290.91	280.75
291.141	279.75
291.371	292.75
291.602	276.75
291.833	280.75
292.064	278.75
292.295	273.75
292.526	273.75
292.757	278.75
292.987	278.75
293.218	284.75
293.449	284.75
293.68	270.75
293.91	279.75
294.141	307.75
294.372	284.75
294.603	280.75
294.833	283.75
295.064	292.75
295.295	298.75
295.525	267.75
295.756	287.75
295.987	298.75
296.217	316.75
296.448	314.75
296.679	292.75
296.909	297.75
297.14	308.75
297.37	306.75
297.601	294.75
297.831	310.75
298.062	298.75
298.292	298.75
298.523	297.75
298.753	282.75
298.984	285.75
299.214	287.75
299.445	306.75
299.675	303.75
299.905	313.75
300.136	308.75
300.366	303.75
300.597	306.75
300.827	312.75
301.057	322.75
301.288	330.75
301.518	316.75
301.748	332.75
301.979	319.75
302.209	326.75
302.439	323.75
302.669	303.75
302.9	317.75
303.13	307.75
303.36	317.75
303.59	330.75
303.82	339.75
304.051	306.75
304.281	308.75
304.511	317.75
304.741	309.75
304.971	333.75
305.201	314.75
305.431	311.75
305.661	322.75
305.891	319.75
306.121	313.75
306.352	324.75
306.582	311.75
306.812	301.75
307.042	316.75
307.272	333.75
307.502	321.75
307.731	316.75
307.961	325.75
308.191	302.75
308.421	297.75
308.651	310.75
308.881	309.75
309.111	312.75
309.341	327.75
309.571	324.75
309.8	358.75
310.03	346.75
310.26	338.75
310.49	363.75
310.72	352.75
310.949	352.75
311.179	329.75
311.409	342.75
311.639	336.75
311.868	335.75
312.098	362.75
312.328	353.75
312.557	338.75
312.787	353.75
313.017	354.75
313.246	368.75
313.476	338.75
313.706	341.75
313.935	362.75
314.165	363.75
314.394	364.75
314.624	351.75
314.853	340.75
315.083	332.75
315.312	345.75
315.542	339.75
315.771	336.75
316.001	330.75
316.23	354.75
316.46	323.75
316.689	338.75
316.919	351.75
317.148	348.75
317.377	346.75
317.607	343.75
317.836	359.75
318.065	335.75
318.295	347.75
318.524	358.75
318.753	347.75
318.983	357.75
319.212	342.75
319.441	334.75
319.67	360.75
319.9	370.75
320.129	354.75
320.358	352.75
320.587	356.75
320.816	344.75
321.046	358.75
321.275	362.75
321.504	370.75
321.733	365.75
321.962	357.75
322.191	376.75
322.42	358.75
322.649	382.75
322.878	397.75
323.108	402.75
323.337	424.75
323.566	401.75
323.795	442.75
324.024	440.75
324.253	527.75
324.482	742.75
324.71	1012.75
324.939	1387.75
325.168	1190.75
325.397	698.75
325.626	511.75
325.855	431.75
326.084	438.75
326.313	432.75
326.542	418.75
326.77	460.75
326.999	514.75
327.228	675.75
327.457	931.75
327.686	1100.75
327.914	762.75
328.143	576.75
328.372	504.75
328.6	475.75
328.829	467.75
329.058	451.75
329.287	479.75
329.515	481.75
329.744	453.75
329.972	455.75
330.201	481.75
330.43	536.75
330.658	538.75
330.887	508.75
331.115	492.75
331.344	437.75
331.572	437.75
331.801	422.75
332.03	448.75
332.258	430.75
332.486	427.75
332.715	425.75
332.943	445.75
333.172	461.75
333.4	460.75
333.629	476.75
333.857	492.75
334.085	520.75
334.314	518.75
334.542	557.75
334.771	568.75
334.999	512.75
335.227	470.75
335.455	455.75
335.684	436.75
335.912	448.75
336.14	429.75
336.369	414.75
336.597	413.75
336.825	426.75
337.053	407.75
337.281	402.75
337.51	425.75
337.738	403.75
337.966	404.75
338.194	413.75
338.422	392.75
338.65	403.75
338.878	392.75
339.106	394.75
339.334	403.75
339.562	406.75
339.79	398.75
340.018	383.75
340.246	374.75
340.474	376.75
340.702	375.75
340.93	399.75
341.158	395.75
341.386	383.75
341.614	388.75
341.842	389.75
342.07	390.75
342.298	376.75
342.526	397.75
342.754	373.75
342.981	381.75
343.209	378.75
343.437	393.75
343.665	407.75
343.893	424.75
344.12	440.75
344.348	420.75
344.576	414.75
344.804	408.75
345.031	398.75
345.259	407.75
345.487	398.75
345.714	381.75
345.942	362.75
346.17	364.75
346.397	368.75
346.625	367.75
346.853	364.75
347.08	360.75
347.308	360.75
347.535	364.75
347.763	358.75
347.99	374.75
348.218	354.75
348.445	386.75
348.673	358.75
348.9	361.75
349.128	364.75
349.355	365.75
349.583	370.75
349.81	370.75
350.037	383.75
350.265	359.75
350.492	354.75
350.72	370.75
350.947	371.75
351.174	375.75
351.402	377.75
351.629	378.75
351.856	353.75
352.083	372.75
352.311	370.75
352.538	372.75
352.765	358.75
352.992	367.75
353.22	348.75
353.447	359.75
353.674	379.75
353.901	380.75
354.128	370.75
354.355	354.75
354.583	354.75
354.81	344.75
355.037	374.75
355.264	341.75
355.491	348.75
355.718	346.75
355.945	359.75
356.172	364.75
356.399	359.75
356.626	349.75
356.853	355.75
357.08	339.75
357.307	331.75
357.534	335.75
357.761	350.75
357.988	324.75
358.215	354.75
358.441	366.75
358.668	351.75
358.895	356.75
359.122	341.75
359.349	323.75
359.576	350.75
359.802	375.75
360.029	360.75
360.256	386.75
360.483	383.75
360.709	385.75
360.936	364.75
361.163	373.75
361.39	346.75
361.616	367.75
361.843	339.75
362.07	364.75
362.296	368.75
362.523	365.75
362.749	359.75
362.976	363.75
363.203	348.75
363.429	359.75
363.656	374.75
363.882	357.75
364.109	349.75
364.335	325.75
364.562	351.75
364.788	344.75
365.015	362.75
365.241	361.75
365.468	343.75
365.694	345.75
365.92	350.75
366.147	345.75
366.373	370.75
366.599	345.75
366.826	340.75
367.052	340.75
367.278	363.75
367.505	342.75
367.731	360.75
367.957	346.75
368.184	351.75
368.41	356.75
368.636	351.75
368.862	345.75
369.089	375.75
369.315	361.75
369.541	345.75
369.767	351.75
369.993	350.75
370.219	363.75
370.445	350.75
370.672	359.75
370.898	351.75
371.124	352.75
371.35	367.75
371.576	378.75
371.802	357.75
372.028	352.75
372.254	367.75
372.48	346.75
372.706	371.75
372.932	365.75
373.158	360.75
373.384	369.75
373.61	374.75
373.835	354.75
374.061	340.75
374.287	376.75
374.513	357.75
374.739	365.75
374.965	367.75
375.191	373.75
375.416	378.75
375.642	366.75
375.868	377.75
376.094	381.75
376.319	355.75
376.545	348.75
376.771	351.75
376.997	371.75
377.222	361.75
377.448	378.75
377.674	372.75
377.899	354.75
378.125	360.75
378.35	357.75
378.576	357.75
378.802	346.75
379.027	365.75
379.253	390.75
379.478	354.75
379.704	322.75
379.929	339.75
380.155	332.75
380.38	356.75
380.606	351.75
380.831	357.75
381.057	377.75
381.282	356.75
381.507	354.75
381.733	343.75
381.958	363.75
382.184	368.75
382.409	363.75
382.634	375.75
382.86	365.75
383.085	365.75
383.31	386.75
383.535	380.75
383.761	365.75
383.986	382.75
384.211	386.75
384.436	363.75
384.662	406.75
384.887	401.75
385.112	379.75
385.337	406.75
385.562	391.75
385.787	383.75
386.013	400.75
386.238	407.75
386.463	371.75
386.688	415.75
386.913	399.75
387.138	416.75
387.363	389.75
387.588	408.75
387.813	393.75
388.038	379.75
388.263	392.75
388.488	401.75
388.713	417.75
388.938	407.75
389.163	399.75
389.387	416.75
389.612	390.75
389.837	394.75
390.062	405.75
390.287	394.75
390.512	378.75
390.736	399.75
390.961	412.75
391.186	412.75
391.411	425.75
391.636	426.75
391.86	444.75
392.085	450.75
392.31	438.75
392.534	401.75
392.759	427.75
392.984	415.75
393.208	406.75
393.433	408.75
393.658	429.75
393.882	413.75
394.107	413.75
394.331	411.75
394.556	418.75
394.78	413.75
395.005	397.75
395.229	417.75
395.454	431.75
395.678	441.75
395.903	443.75
396.127	439.75
396.352	440.75
396.576	416.75
396.801	406.75
397.025	419.75
397.249	420.75
397.474	439.75
397.698	435.75
397.922	438.75
398.147	452.75
398.371	459.75
398.595	453.75
398.82	472.75
399.044	473.75
399.268	525.75
399.492	568.75
399.717	632.75
399.941	646.75
400.165	631.75
400.389	598.75
400.613	559.75
400.837	516.75
401.062	501.75
401.286	472.75
401.51	472.75
401.734	480.75
401.958	483.75
402.182	501.75
402.406	502.75
402.63	480.75
402.854	506.75
403.078	515.75
403.302	502.75
403.526	542.75
403.75	517.75
403.974	491.75
404.198	521.75
404.422	566.75
404.645	517.75
404.869	522.75
405.093	547.75
405.317	587.75
405.541	582.75
405.765	551.75
405.988	529.75
406.212	532.75
406.436	526.75
406.66	539.75
406.883	536.75
407.107	571.75
407.331	590.75
407.555	633.75
407.778	652.75
408.002	615.75
408.226	550.75
408.449	584.75
408.673	536.75
408.896	563.75
409.12	571.75
409.344	555.75
409.567	535.75
409.791	502.75
410.014	520.75
410.238	492.75
410.461	488.75
410.685	496.75
410.908	496.75
411.132	502.75
411.355	536.75
411.578	498.75
411.802	485.75
412.025	480.75
412.249	495.75
412.472	513.75
412.695	556.75
412.919	520.75
413.142	495.75
413.365	486.75
413.589	512.75
413.812	476.75
414.035	465.75
414.258	466.75
414.482	475.75
414.705	472.75
414.928	466.75
415.151	478.75
415.374	455.75
415.597	478.75
415.821	454.75
416.044	463.75
416.267	461.75
416.49	447.75
416.713	456.75
416.936	438.75
417.159	462.75
417.382	460.75
417.605	445.75
417.828	463.75
418.051	478.75
418.274	474.75
418.497	452.75
418.72	450.75
418.943	458.75
419.166	493.75
419.389	507.75
419.611	517.75
419.834	513.75
420.057	490.75
420.28	491.75
420.503	487.75
420.726	486.75
420.948	506.75
421.171	520.75
421.394	516.75
421.617	496.75
421.839	489.75
422.062	463.75
422.285	490.75
422.507	512.75
422.73	560.75
422.953	518.75
423.175	493.75
423.398	462.75
423.621	483.75
423.843	477.75
424.066	500.75
424.288	516.75
424.511	506.75
424.733	528.75
424.956	559.75
425.178	567.75
425.401	580.75
425.623	586.75
425.846	512.75
426.068	480.75
426.291	472.75
426.513	484.75
426.735	500.75
426.958	506.75
427.18	556.75
427.402	602.75
427.625	664.75
427.847	602.75
428.069	548.75
428.292	496.75
428.514	450.75
428.736	447.75
428.958	447.75
429.181	442.75
429.403	445.75
429.625	464.75
429.847	466.75
430.069	486.75
430.292	490.75
430.514	463.75
430.736	442.75
430.958	437.75
431.18	418.75
431.402	426.75
431.624	428.75
431.846	440.75
432.068	426.75
432.29	424.75
432.512	415.75
432.734	426.75
432.956	422.75
433.178	448.75
433.4	462.75
433.622	442.75
433.844	434.75
434.066	435.75
434.287	444.75
434.509	466.75
434.731	455.75
434.953	449.75
435.175	479.75
435.397	483.75
435.618	489.75
435.84	488.75
436.062	549.75
436.284	587.75
436.505	506.75
436.727	455.75
436.949	461.75
437.17	439.75
437.392	442.75
437.614	435.75
437.835	468.75
438.057	515.75
438.278	532.75
438.5	559.75
438.721	599.75
438.943	586.75
439.165	503.75
439.386	440.75
439.608	461.75
439.829	473.75
440.05	472.75
440.272	511.75
440.493	484.75
440.715	456.75
440.936	482.75
441.158	455.75
441.379	462.75
441.6	464.75
441.822	484.75
442.043	505.75
442.264	552.75
442.486	586.75
442.707	503.75
442.928	492.75
443.149	484.75
443.371	507.75
443.592	559.75
443.813	567.75
444.034	622.75
444.255	544.75
444.476	500.75
444.698	509.75
444.919	545.75
445.14	605.75
445.361	548.75
445.582	521.75
445.803	528.75
446.024	577.75
446.245	593.75
446.466	544.75
446.687	480.75
446.908	460.75
447.129	460.75
447.35	443.75
447.571	419.75
447.792	426.75
448.013	435.75
448.234	431.75
448.455	424.75
448.675	527.75
448.896	587.75
449.117	514.75
449.338	489.75
449.559	580.75
449.779	619.75
450	499.75
450.221	439.75
450.442	406.75
450.662	424.75
450.883	401.75
451.104	438.75
451.324	399.75
451.545	400.75
451.766	396.75
451.986	407.75
452.207	380.75
452.428	405.75
452.648	384.75
452.869	378.75
453.089	424.75
453.31	386.75
453.53	367.75
453.751	394.75
453.971	389.75
454.192	383.75
454.412	385.75
454.633	388.75
454.853	380.75
455.073	367.75
455.294	382.75
455.514	424.75
455.734	426.75
455.955	395.75
456.175	380.75
456.395	411.75
456.616	367.75
456.836	366.75
457.056	374.75
457.276	362.75
457.497	388.75
457.717	360.75
457.937	366.75
458.157	371.75
458.377	376.75
458.598	394.75
458.818	442.75
459.038	465.75
459.258	474.75
459.478	452.75
459.698	448.75
459.918	447.75
460.138	439.75
460.358	457.75
460.578	436.75
460.798	485.75
461.018	460.75
461.238	456.75
461.458	474.75
461.678	454.75
461.898	446.75
462.118	454.75
462.338	479.75
462.558	471.75
462.777	497.75
462.997	522.75
463.217	543.75
463.437	554.75
463.657	538.75
463.876	527.75
464.096	527.75
464.316	519.75
464.536	527.75
464.755	540.75
464.975	500.75
465.195	480.75
465.414	518.75
465.634	466.75
465.854	455.75
466.073	448.75
466.293	438.75
466.512	400.75
466.732	423.75
466.951	411.75
467.171	416.75
467.391	416.75
467.61	409.75
467.829	442.75
468.049	424.75
468.268	401.75
468.488	404.75
468.707	394.75
468.927	408.75
469.146	389.75
469.365	400.75
469.585	390.75
469.804	400.75
470.023	405.75
470.243	388.75
470.462	406.75
470.681	418.75
470.901	437.75
471.12	420.75
471.339	423.75
471.558	419.75
471.777	412.75
471.997	418.75
472.216	421.75
472.435	470.75
472.654	452.75
472.873	418.75
473.092	404.75
473.311	426.75
473.53	412.75
473.749	422.75
473.968	410.75
474.187	445.75
474.406	482.75
474.625	428.75
474.844	408.75
475.063	391.75
475.282	404.75
475.501	407.75
475.72	428.75
475.939	420.75
476.158	422.75
476.377	397.75
476.596	408.75
476.814	416.75
477.033	415.75
477.252	441.75
477.471	421.75
477.69	438.75
477.908	451.75
478.127	434.75
478.346	440.75
478.564	465.75
478.783	467.75
479.002	474.75
479.22	483.75
479.439	456.75
479.658	474.75
479.876	492.75
480.095	502.75
480.313	520.75
480.532	529.75
480.751	510.75
480.969	520.75
481.188	563.75
481.406	604.75
481.624	547.75
481.843	515.75
482.061	491.75
482.28	479.75
482.498	466.75
482.717	455.75
482.935	461.75
483.153	466.75
483.372	450.75
483.59	462.75
483.808	468.75
484.027	463.75
484.245	458.75
484.463	483.75
484.681	485.75
484.9	477.75
485.118	453.75
485.336	482.75
485.554	470.75
485.772	483.75
485.99	478.75
486.209	469.75
486.427	491.75
486.645	499.75
486.863	493.75
487.081	495.75
487.299	489.75
487.517	475.75
487.735	478.75
487.953	485.75
488.171	496.75
488.389	480.75
488.607	490.75
488.825	475.75
489.043	500.75
489.261	495.75
489.479	498.75
489.696	482.75
489.914	512.75
490.132	499.75
490.35	485.75
490.568	510.75
490.786	495.75
491.003	523.75
491.221	540.75
491.439	517.75
491.657	530.75
491.874	553.75
492.092	542.75
492.31	563.75
492.527	546.75
492.745	568.75
492.963	573.75
493.18	571.75
493.398	572.75
493.615	580.75
493.833	539.75
494.05	552.75
494.268	564.75
494.485	554.75
494.703	564.75
494.92	552.75
495.138	570.75
495.355	576.75
495.573	572.75
495.79	541.75
496.008	563.75
496.225	550.75
496.442	542.75
496.66	570.75
496.877	572.75
497.094	560.75
497.312	591.75
497.529	599.75
497.746	583.75
497.963	632.75
498.181	629.75
498.398	637.75
498.615	685.75
498.832	697.75
499.049	732.75
499.267	738.75
499.484	804.75
499.701	848.75
499.918	892.75
500.135	954.75
500.352	1054.75
500.569	1103.75
500.786	1092.75
501.003	1047.75
501.22	1005.75
501.437	923.75
501.654	859.75
501.871	831.75
