Data from 1984.PennyLincolnUp.Lamp.En5.5.200Scan.071819.P1_HRD10591_16-59-36-968.txt Node
Date: Thu Jul 18 16:59:36 EDT 2019
User: cochatt
Spectrometer: HR+D1059
Trigger mode: 1
Integration Time (sec): 1.000000E-1
Scans to average: 1
Electric dark correction enabled: true
Nonlinearity correction enabled: false
Boxcar width: 0
XAxis mode: Wavelengths
Number of Pixels in Spectrum: 2048
>>>>>Begin Spectral Data<<<<<
223.165	-21.31
223.4	-21.31
223.635	-21.31
223.869	-16.31
224.104	-24.31
224.338	-11.31
224.573	-15.31
224.808	-3.31
225.042	-5.31
225.277	-7.31
225.511	13.69
225.746	6.69
225.98	1.69
226.215	9.69
226.449	18.69
226.683	18.69
226.918	9.69
227.152	25.69
227.387	28.69
227.621	32.69
227.856	40.69
228.09	33.69
228.324	38.69
228.559	62.69
228.793	58.69
229.027	91.69
229.262	97.69
229.496	99.69
229.73	105.69
229.964	119.69
230.199	110.69
230.433	100.69
230.667	98.69
230.901	106.69
231.136	107.69
231.37	96.69
231.604	104.69
231.838	113.69
232.072	99.69
232.306	107.69
232.541	90.69
232.775	100.69
233.009	98.69
233.243	97.69
233.477	94.69
233.711	110.69
233.945	106.69
234.179	99.69
234.413	106.69
234.647	112.69
234.881	102.69
235.115	116.69
235.349	106.69
235.583	105.69
235.817	115.69
236.051	119.69
236.285	90.69
236.519	106.69
236.753	107.69
236.987	123.69
237.221	136.69
237.455	170.69
237.689	154.69
237.922	116.69
238.156	125.69
238.39	126.69
238.624	112.69
238.858	109.69
239.091	113.69
239.325	109.69
239.559	117.69
239.793	128.69
240.027	116.69
240.26	117.69
240.494	134.69
240.728	138.69
240.961	128.69
241.195	119.69
241.429	121.69
241.662	132.69
241.896	128.69
242.13	116.69
242.363	125.69
242.597	127.69
242.83	133.69
243.064	129.69
243.298	127.69
243.531	114.69
243.765	122.69
243.998	127.69
244.232	139.69
244.465	138.69
244.699	125.69
244.932	121.69
245.166	140.69
245.399	152.69
245.633	127.69
245.866	138.69
246.099	124.69
246.333	127.69
246.566	128.69
246.8	136.69
247.033	141.69
247.266	126.69
247.5	141.69
247.733	149.69
247.966	155.69
248.2	159.69
248.433	163.69
248.666	158.69
248.899	164.69
249.133	185.69
249.366	180.69
249.599	158.69
249.832	146.69
250.066	166.69
250.299	179.69
250.532	198.69
250.765	202.69
250.998	192.69
251.231	191.69
251.465	203.69
251.698	180.69
251.931	169.69
252.164	166.69
252.397	169.69
252.63	180.69
252.863	168.69
253.096	177.69
253.329	180.69
253.562	190.69
253.795	190.69
254.028	178.69
254.261	175.69
254.494	194.69
254.727	209.69
254.96	207.69
255.193	226.69
255.426	209.69
255.659	218.69
255.892	242.69
256.124	257.69
256.357	274.69
256.59	266.69
256.823	214.69
257.056	210.69
257.289	209.69
257.521	196.69
257.754	199.69
257.987	197.69
258.22	182.69
258.452	195.69
258.685	200.69
258.918	180.69
259.151	197.69
259.383	198.69
259.616	190.69
259.849	196.69
260.081	202.69
260.314	225.69
260.547	211.69
260.779	209.69
261.012	195.69
261.244	208.69
261.477	200.69
261.71	194.69
261.942	189.69
262.175	214.69
262.407	215.69
262.64	203.69
262.872	215.69
263.105	199.69
263.337	186.69
263.57	190.69
263.802	192.69
264.035	189.69
264.267	200.69
264.499	177.69
264.732	221.69
264.964	188.69
265.197	204.69
265.429	212.69
265.661	196.69
265.894	187.69
266.126	203.69
266.358	210.69
266.591	203.69
266.823	191.69
267.055	221.69
267.287	203.69
267.52	194.69
267.752	208.69
267.984	202.69
268.216	196.69
268.448	212.69
268.681	232.69
268.913	229.69
269.145	238.69
269.377	252.69
269.609	238.69
269.841	241.69
270.073	222.69
270.306	243.69
270.538	249.69
270.77	254.69
271.002	270.69
271.234	238.69
271.466	260.69
271.698	267.69
271.93	266.69
272.162	279.69
272.394	274.69
272.626	249.69
272.858	242.69
273.09	229.69
273.322	234.69
273.553	227.69
273.785	234.69
274.017	250.69
274.249	250.69
274.481	254.69
274.713	235.69
274.945	227.69
275.176	239.69
275.408	253.69
275.64	243.69
275.872	257.69
276.104	242.69
276.335	246.69
276.567	259.69
276.799	262.69
277.031	276.69
277.262	289.69
277.494	307.69
277.726	274.69
277.957	263.69
278.189	258.69
278.421	280.69
278.652	258.69
278.884	250.69
279.115	243.69
279.347	246.69
279.579	262.69
279.81	246.69
280.042	246.69
280.273	263.69
280.505	262.69
280.736	270.69
280.968	264.69
281.199	270.69
281.431	242.69
281.662	260.69
281.894	257.69
282.125	267.69
282.356	272.69
282.588	279.69
282.819	287.69
283.051	259.69
283.282	254.69
283.513	276.69
283.745	254.69
283.976	268.69
284.207	257.69
284.439	268.69
284.67	263.69
284.901	278.69
285.132	291.69
285.364	276.69
285.595	263.69
285.826	279.69
286.057	300.69
286.288	285.69
286.52	280.69
286.751	279.69
286.982	281.69
287.213	278.69
287.444	276.69
287.675	273.69
287.906	267.69
288.138	280.69
288.369	292.69
288.6	290.69
288.831	288.69
289.062	293.69
289.293	288.69
289.524	273.69
289.755	284.69
289.986	285.69
290.217	284.69
290.448	298.69
290.679	279.69
290.91	272.69
291.141	292.69
291.371	278.69
291.602	301.69
291.833	265.69
292.064	304.69
292.295	289.69
292.526	286.69
292.757	297.69
292.987	307.69
293.218	280.69
293.449	299.69
293.68	285.69
293.91	308.69
294.141	266.69
294.372	279.69
294.603	294.69
294.833	304.69
295.064	286.69
295.295	289.69
295.525	288.69
295.756	287.69
295.987	298.69
296.217	314.69
296.448	328.69
296.679	311.69
296.909	298.69
297.14	292.69
297.37	289.69
297.601	291.69
297.831	302.69
298.062	295.69
298.292	299.69
298.523	321.69
298.753	298.69
298.984	304.69
299.214	309.69
299.445	300.69
299.675	283.69
299.905	326.69
300.136	302.69
300.366	297.69
300.597	315.69
300.827	325.69
301.057	318.69
301.288	304.69
301.518	335.69
301.748	331.69
301.979	330.69
302.209	329.69
302.439	339.69
302.669	320.69
302.9	316.69
303.13	324.69
303.36	320.69
303.59	320.69
303.82	331.69
304.051	307.69
304.281	321.69
304.511	317.69
304.741	302.69
304.971	310.69
305.201	318.69
305.431	317.69
305.661	319.69
305.891	339.69
306.121	318.69
306.352	336.69
306.582	325.69
306.812	320.69
307.042	329.69
307.272	332.69
307.502	329.69
307.731	329.69
307.961	331.69
308.191	318.69
308.421	306.69
308.651	334.69
308.881	305.69
309.111	333.69
309.341	332.69
309.571	336.69
309.8	347.69
310.03	356.69
310.26	346.69
310.49	355.69
310.72	351.69
310.949	347.69
311.179	352.69
311.409	343.69
311.639	364.69
311.868	350.69
312.098	336.69
312.328	357.69
312.557	355.69
312.787	375.69
313.017	372.69
313.246	361.69
313.476	348.69
313.706	348.69
313.935	347.69
314.165	360.69
314.394	370.69
314.624	356.69
314.853	368.69
315.083	334.69
315.312	356.69
315.542	355.69
315.771	338.69
316.001	361.69
316.23	354.69
316.46	366.69
316.689	377.69
316.919	356.69
317.148	354.69
317.377	368.69
317.607	346.69
317.836	350.69
318.065	348.69
318.295	354.69
318.524	358.69
318.753	344.69
318.983	346.69
319.212	372.69
319.441	360.69
319.67	354.69
319.9	359.69
320.129	375.69
320.358	344.69
320.587	350.69
320.816	366.69
321.046	375.69
321.275	359.69
321.504	350.69
321.733	367.69
321.962	375.69
322.191	389.69
322.42	379.69
322.649	389.69
322.878	411.69
323.108	385.69
323.337	414.69
323.566	436.69
323.795	440.69
324.024	468.69
324.253	545.69
324.482	746.69
324.71	1064.69
324.939	1460.69
325.168	1302.69
325.397	699.69
325.626	517.69
325.855	468.69
326.084	448.69
326.313	437.69
326.542	428.69
326.77	464.69
326.999	536.69
327.228	701.69
327.457	990.69
327.686	1168.69
327.914	815.69
328.143	632.69
328.372	564.69
328.6	526.69
328.829	492.69
329.058	527.69
329.287	504.69
329.515	499.69
329.744	515.69
329.972	534.69
330.201	598.69
330.43	634.69
330.658	614.69
330.887	555.69
331.115	528.69
331.344	489.69
331.572	454.69
331.801	467.69
332.03	475.69
332.258	459.69
332.486	453.69
332.715	471.69
332.943	466.69
333.172	484.69
333.4	494.69
333.629	512.69
333.857	523.69
334.085	573.69
334.314	629.69
334.542	736.69
334.771	778.69
334.999	610.69
335.227	560.69
335.455	468.69
335.684	466.69
335.912	449.69
336.14	450.69
336.369	451.69
336.597	443.69
336.825	444.69
337.053	457.69
337.281	422.69
337.51	422.69
337.738	430.69
337.966	419.69
338.194	420.69
338.422	409.69
338.65	410.69
338.878	387.69
339.106	411.69
339.334	404.69
339.562	392.69
339.79	405.69
340.018	400.69
340.246	402.69
340.474	414.69
340.702	382.69
340.93	372.69
341.158	374.69
341.386	386.69
341.614	395.69
341.842	398.69
342.07	390.69
342.298	376.69
342.526	379.69
342.754	383.69
342.981	372.69
343.209	384.69
343.437	396.69
343.665	399.69
343.893	423.69
344.12	434.69
344.348	430.69
344.576	422.69
344.804	422.69
345.031	392.69
345.259	392.69
345.487	397.69
345.714	377.69
345.942	381.69
346.17	373.69
346.397	387.69
346.625	372.69
346.853	388.69
347.08	381.69
347.308	368.69
347.535	368.69
347.763	374.69
347.99	369.69
348.218	378.69
348.445	379.69
348.673	379.69
348.9	376.69
349.128	380.69
349.355	352.69
349.583	374.69
349.81	358.69
350.037	359.69
350.265	359.69
350.492	342.69
350.72	364.69
350.947	384.69
351.174	372.69
351.402	375.69
351.629	367.69
351.856	397.69
352.083	368.69
352.311	379.69
352.538	372.69
352.765	372.69
352.992	391.69
353.22	377.69
353.447	368.69
353.674	366.69
353.901	363.69
354.128	372.69
354.355	354.69
354.583	338.69
354.81	367.69
355.037	352.69
355.264	351.69
355.491	361.69
355.718	362.69
355.945	364.69
356.172	347.69
356.399	357.69
356.626	330.69
356.853	359.69
357.08	344.69
357.307	345.69
357.534	349.69
357.761	346.69
357.988	358.69
358.215	355.69
358.441	339.69
358.668	352.69
358.895	368.69
359.122	350.69
359.349	357.69
359.576	365.69
359.802	376.69
360.029	396.69
360.256	401.69
360.483	385.69
360.709	378.69
360.936	370.69
361.163	357.69
361.39	359.69
361.616	376.69
361.843	356.69
362.07	360.69
362.296	364.69
362.523	353.69
362.749	359.69
362.976	339.69
363.203	363.69
363.429	358.69
363.656	347.69
363.882	369.69
364.109	366.69
364.335	337.69
364.562	337.69
364.788	367.69
365.015	355.69
365.241	366.69
365.468	366.69
365.694	357.69
365.92	360.69
366.147	363.69
366.373	354.69
366.599	356.69
366.826	354.69
367.052	343.69
367.278	358.69
367.505	342.69
367.731	368.69
367.957	340.69
368.184	360.69
368.41	343.69
368.636	366.69
368.862	347.69
369.089	353.69
369.315	356.69
369.541	369.69
369.767	354.69
369.993	351.69
370.219	342.69
370.445	363.69
370.672	368.69
370.898	368.69
371.124	361.69
371.35	382.69
371.576	371.69
371.802	339.69
372.028	370.69
372.254	361.69
372.48	382.69
372.706	384.69
372.932	362.69
373.158	364.69
373.384	351.69
373.61	352.69
373.835	353.69
374.061	366.69
374.287	370.69
374.513	389.69
374.739	369.69
374.965	359.69
375.191	390.69
375.416	384.69
375.642	369.69
375.868	370.69
376.094	387.69
376.319	382.69
376.545	352.69
376.771	370.69
376.997	368.69
377.222	375.69
377.448	369.69
377.674	363.69
377.899	342.69
378.125	369.69
378.35	350.69
378.576	352.69
378.802	373.69
379.027	356.69
379.253	358.69
379.478	356.69
379.704	364.69
379.929	342.69
380.155	340.69
380.38	357.69
380.606	366.69
380.831	362.69
381.057	356.69
381.282	351.69
381.507	334.69
381.733	354.69
381.958	358.69
382.184	376.69
382.409	358.69
382.634	374.69
382.86	352.69
383.085	364.69
383.31	386.69
383.535	375.69
383.761	384.69
383.986	394.69
384.211	369.69
384.436	402.69
384.662	415.69
384.887	403.69
385.112	402.69
385.337	410.69
385.562	411.69
385.787	394.69
386.013	431.69
386.238	408.69
386.463	407.69
386.688	410.69
386.913	409.69
387.138	401.69
387.363	408.69
387.588	405.69
387.813	411.69
388.038	399.69
388.263	410.69
388.488	402.69
388.713	422.69
388.938	409.69
389.163	376.69
389.387	414.69
389.612	397.69
389.837	396.69
390.062	391.69
390.287	394.69
390.512	396.69
390.736	403.69
390.961	415.69
391.186	414.69
391.411	431.69
391.636	416.69
391.86	434.69
392.085	437.69
392.31	424.69
392.534	428.69
392.759	414.69
392.984	405.69
393.208	412.69
393.433	400.69
393.658	419.69
393.882	420.69
394.107	434.69
394.331	430.69
394.556	424.69
394.78	421.69
395.005	430.69
395.229	418.69
395.454	437.69
395.678	446.69
395.903	458.69
396.127	435.69
396.352	437.69
396.576	434.69
396.801	424.69
397.025	406.69
397.249	449.69
397.474	441.69
397.698	443.69
397.922	453.69
398.147	453.69
398.371	459.69
398.595	473.69
398.82	483.69
399.044	491.69
399.268	535.69
399.492	579.69
399.717	619.69
399.941	637.69
400.165	634.69
400.389	598.69
400.613	554.69
400.837	520.69
401.062	499.69
401.286	498.69
401.51	486.69
401.734	481.69
401.958	494.69
402.182	496.69
402.406	497.69
402.63	512.69
402.854	500.69
403.078	518.69
403.302	506.69
403.526	526.69
403.75	511.69
403.974	527.69
404.198	522.69
404.422	531.69
404.645	553.69
404.869	538.69
405.093	586.69
405.317	618.69
405.541	622.69
405.765	596.69
405.988	544.69
406.212	544.69
406.436	538.69
406.66	552.69
406.883	553.69
407.107	562.69
407.331	579.69
407.555	623.69
407.778	666.69
408.002	615.69
408.226	569.69
408.449	539.69
408.673	561.69
408.896	542.69
409.12	546.69
409.344	554.69
409.567	520.69
409.791	503.69
410.014	520.69
410.238	503.69
410.461	500.69
410.685	496.69
410.908	519.69
411.132	515.69
411.355	535.69
411.578	526.69
411.802	514.69
412.025	513.69
412.249	513.69
412.472	548.69
412.695	606.69
412.919	602.69
413.142	534.69
413.365	495.69
413.589	532.69
413.812	497.69
414.035	482.69
414.258	470.69
414.482	496.69
414.705	481.69
414.928	496.69
415.151	496.69
415.374	479.69
415.597	470.69
415.821	495.69
416.044	460.69
416.267	479.69
416.49	455.69
416.713	472.69
416.936	445.69
417.159	444.69
417.382	456.69
417.605	483.69
417.828	476.69
418.051	483.69
418.274	493.69
418.497	489.69
418.72	482.69
418.943	461.69
419.166	488.69
419.389	517.69
419.611	526.69
419.834	523.69
420.057	510.69
420.28	534.69
420.503	547.69
420.726	505.69
420.948	517.69
421.171	521.69
421.394	536.69
421.617	486.69
421.839	483.69
422.062	483.69
422.285	485.69
422.507	539.69
422.73	551.69
422.953	565.69
423.175	516.69
423.398	530.69
423.621	502.69
423.843	516.69
424.066	518.69
424.288	491.69
424.511	533.69
424.733	546.69
424.956	611.69
425.178	550.69
425.401	575.69
425.623	564.69
425.846	515.69
426.068	474.69
426.291	487.69
426.513	462.69
426.735	483.69
426.958	515.69
427.18	543.69
427.402	650.69
427.625	692.69
427.847	654.69
428.069	580.69
428.292	530.69
428.514	479.69
428.736	474.69
428.958	445.69
429.181	459.69
429.403	450.69
429.625	449.69
429.847	458.69
430.069	497.69
430.292	516.69
430.514	454.69
430.736	455.69
430.958	447.69
431.18	428.69
431.402	434.69
431.624	437.69
431.846	424.69
432.068	446.69
432.29	467.69
432.512	426.69
432.734	434.69
432.956	418.69
433.178	451.69
433.4	441.69
433.622	442.69
433.844	421.69
434.066	430.69
434.287	442.69
434.509	447.69
434.731	466.69
434.953	486.69
435.175	474.69
435.397	488.69
435.618	494.69
435.84	521.69
436.062	563.69
436.284	588.69
436.505	483.69
436.727	479.69
436.949	439.69
437.17	420.69
437.392	441.69
437.614	450.69
437.835	459.69
438.057	520.69
438.278	570.69
438.5	565.69
438.721	630.69
438.943	613.69
439.165	510.69
439.386	487.69
439.608	481.69
439.829	460.69
440.05	471.69
440.272	512.69
440.493	494.69
440.715	449.69
440.936	464.69
441.158	456.69
441.379	487.69
441.6	470.69
441.822	502.69
442.043	504.69
442.264	545.69
442.486	561.69
442.707	511.69
442.928	495.69
443.149	500.69
443.371	499.69
443.592	534.69
443.813	581.69
444.034	625.69
444.255	548.69
444.476	546.69
444.698	559.69
444.919	538.69
445.14	609.69
445.361	559.69
445.582	539.69
445.803	560.69
446.024	588.69
446.245	624.69
446.466	566.69
446.687	482.69
446.908	465.69
447.129	453.69
447.35	433.69
447.571	427.69
447.792	421.69
448.013	424.69
448.234	448.69
448.455	457.69
448.675	525.69
448.896	594.69
449.117	522.69
449.338	522.69
449.559	562.69
449.779	604.69
450	522.69
450.221	441.69
450.442	435.69
450.662	420.69
450.883	410.69
451.104	432.69
451.324	422.69
451.545	419.69
451.766	398.69
451.986	398.69
452.207	378.69
452.428	395.69
452.648	400.69
452.869	386.69
453.089	394.69
453.31	405.69
453.53	424.69
453.751	400.69
453.971	379.69
454.192	397.69
454.412	396.69
454.633	400.69
454.853	378.69
455.073	395.69
455.294	411.69
455.514	422.69
455.734	442.69
455.955	391.69
456.175	366.69
456.395	363.69
456.616	371.69
456.836	358.69
457.056	368.69
457.276	374.69
457.497	374.69
457.717	386.69
457.937	368.69
458.157	374.69
458.377	371.69
458.598	409.69
458.818	437.69
459.038	485.69
459.258	502.69
459.478	486.69
459.698	427.69
459.918	432.69
460.138	456.69
460.358	469.69
460.578	470.69
460.798	476.69
461.018	489.69
461.238	466.69
461.458	454.69
461.678	466.69
461.898	467.69
462.118	466.69
462.338	492.69
462.558	498.69
462.777	511.69
462.997	532.69
463.217	550.69
463.437	558.69
463.657	535.69
463.876	527.69
464.096	524.69
464.316	518.69
464.536	512.69
464.755	500.69
464.975	491.69
465.195	510.69
465.414	506.69
465.634	496.69
465.854	454.69
466.073	451.69
466.293	439.69
466.512	418.69
466.732	417.69
466.951	419.69
467.171	423.69
467.391	416.69
467.61	442.69
467.829	425.69
468.049	428.69
468.268	467.69
468.488	430.69
468.707	414.69
468.927	417.69
469.146	434.69
469.365	396.69
469.585	400.69
469.804	406.69
470.023	414.69
470.243	417.69
470.462	426.69
470.681	423.69
470.901	432.69
471.12	403.69
471.339	414.69
471.558	419.69
471.777	436.69
471.997	434.69
472.216	474.69
472.435	521.69
472.654	507.69
472.873	447.69
473.092	449.69
473.311	409.69
473.53	421.69
473.749	411.69
473.968	442.69
474.187	489.69
474.406	494.69
474.625	439.69
474.844	409.69
475.063	424.69
475.282	435.69
475.501	426.69
475.72	415.69
475.939	403.69
476.158	412.69
476.377	414.69
476.596	432.69
476.814	418.69
477.033	430.69
477.252	426.69
477.471	428.69
477.69	452.69
477.908	460.69
478.127	463.69
478.346	444.69
478.564	465.69
478.783	454.69
479.002	480.69
479.22	486.69
479.439	494.69
479.658	504.69
479.876	512.69
480.095	494.69
480.313	533.69
480.532	523.69
480.751	532.69
480.969	576.69
481.188	679.69
481.406	778.69
481.624	641.69
481.843	555.69
482.061	520.69
482.28	498.69
482.498	481.69
482.717	477.69
482.935	483.69
483.153	473.69
483.372	498.69
483.59	474.69
483.808	481.69
484.027	458.69
484.245	474.69
484.463	463.69
484.681	485.69
484.9	502.69
485.118	490.69
485.336	484.69
485.554	490.69
485.772	486.69
485.99	510.69
486.209	476.69
486.427	487.69
486.645	483.69
486.863	490.69
487.081	515.69
487.299	522.69
487.517	523.69
487.735	487.69
487.953	509.69
488.171	505.69
488.389	500.69
488.607	520.69
488.825	495.69
489.043	503.69
489.261	507.69
489.479	499.69
489.696	535.69
489.914	504.69
490.132	539.69
490.35	541.69
490.568	530.69
490.786	550.69
491.003	536.69
491.221	554.69
491.439	564.69
491.657	582.69
491.874	592.69
492.092	594.69
492.31	608.69
492.527	578.69
492.745	591.69
492.963	619.69
493.18	608.69
493.398	594.69
493.615	597.69
493.833	594.69
494.05	587.69
494.268	587.69
494.485	571.69
494.703	613.69
494.92	572.69
495.138	576.69
495.355	580.69
495.573	595.69
495.79	583.69
496.008	578.69
496.225	583.69
496.442	594.69
496.66	598.69
496.877	582.69
497.094	579.69
497.312	602.69
497.529	628.69
497.746	614.69
497.963	629.69
498.181	649.69
498.398	647.69
498.615	690.69
498.832	696.69
499.049	712.69
499.267	752.69
499.484	818.69
499.701	868.69
499.918	919.69
500.135	976.69
500.352	1102.69
500.569	1091.69
500.786	1129.69
501.003	1093.69
501.22	999.69
501.437	921.69
501.654	890.69
501.871	823.69
502.088	770.69
