Data from 1984.PennyLincolnUp.Lamp.En5.5.200Scan.071819.P1_HRD10591_16-58-44-969.txt Node
Date: Thu Jul 18 16:58:44 EDT 2019
User: cochatt
Spectrometer: HR+D1059
Trigger mode: 1
Integration Time (sec): 1.000000E-1
Scans to average: 1
Electric dark correction enabled: true
Nonlinearity correction enabled: false
Boxcar width: 0
XAxis mode: Wavelengths
Number of Pixels in Spectrum: 2048
>>>>>Begin Spectral Data<<<<<
223.165	-26.56
223.4	-26.56
223.635	-26.56
223.869	-21.56
224.104	-22.56
224.338	-9.56
224.573	-8.56
224.808	-23.56
225.042	-18.56
225.277	-10.56
225.511	-3.56
225.746	4.44
225.98	17.44
226.215	16.44
226.449	23.44
226.683	19.44
226.918	34.44
227.152	29.44
227.387	35.44
227.621	35.44
227.856	42.44
228.09	56.44
228.324	46.44
228.559	47.44
228.793	76.44
229.027	83.44
229.262	67.44
229.496	106.44
229.73	104.44
229.964	130.44
230.199	127.44
230.433	111.44
230.667	115.44
230.901	107.44
231.136	105.44
231.37	99.44
231.604	104.44
231.838	112.44
232.072	115.44
232.306	127.44
232.541	104.44
232.775	101.44
233.009	118.44
233.243	101.44
233.477	98.44
233.711	105.44
233.945	113.44
234.179	116.44
234.413	127.44
234.647	109.44
234.881	111.44
235.115	111.44
235.349	109.44
235.583	99.44
235.817	107.44
236.051	125.44
236.285	108.44
236.519	123.44
236.753	126.44
236.987	126.44
237.221	135.44
237.455	177.44
237.689	135.44
237.922	131.44
238.156	124.44
238.39	116.44
238.624	113.44
238.858	97.44
239.091	121.44
239.325	117.44
239.559	117.44
239.793	115.44
240.027	120.44
240.26	123.44
240.494	135.44
240.728	122.44
240.961	126.44
241.195	140.44
241.429	128.44
241.662	132.44
241.896	117.44
242.13	123.44
242.363	131.44
242.597	135.44
242.83	140.44
243.064	130.44
243.298	130.44
243.531	128.44
243.765	124.44
243.998	106.44
244.232	133.44
244.465	139.44
244.699	130.44
244.932	117.44
245.166	122.44
245.399	140.44
245.633	143.44
245.866	149.44
246.099	162.44
246.333	155.44
246.566	158.44
246.8	135.44
247.033	143.44
247.266	156.44
247.5	147.44
247.733	154.44
247.966	164.44
248.2	160.44
248.433	163.44
248.666	158.44
248.899	167.44
249.133	166.44
249.366	165.44
249.599	174.44
249.832	166.44
250.066	187.44
250.299	169.44
250.532	181.44
250.765	187.44
250.998	196.44
251.231	196.44
251.465	187.44
251.698	195.44
251.931	171.44
252.164	184.44
252.397	166.44
252.63	192.44
252.863	174.44
253.096	191.44
253.329	198.44
253.562	198.44
253.795	189.44
254.028	181.44
254.261	186.44
254.494	190.44
254.727	202.44
254.96	214.44
255.193	208.44
255.426	202.44
255.659	199.44
255.892	214.44
256.124	221.44
256.357	240.44
256.59	213.44
256.823	216.44
257.056	215.44
257.289	208.44
257.521	184.44
257.754	197.44
257.987	196.44
258.22	188.44
258.452	180.44
258.685	179.44
258.918	182.44
259.151	186.44
259.383	193.44
259.616	193.44
259.849	189.44
260.081	200.44
260.314	214.44
260.547	212.44
260.779	212.44
261.012	199.44
261.244	200.44
261.477	199.44
261.71	196.44
261.942	206.44
262.175	207.44
262.407	230.44
262.64	186.44
262.872	201.44
263.105	203.44
263.337	199.44
263.57	209.44
263.802	203.44
264.035	189.44
264.267	206.44
264.499	211.44
264.732	197.44
264.964	197.44
265.197	209.44
265.429	186.44
265.661	196.44
265.894	216.44
266.126	212.44
266.358	206.44
266.591	191.44
266.823	200.44
267.055	213.44
267.287	209.44
267.52	214.44
267.752	231.44
267.984	212.44
268.216	216.44
268.448	212.44
268.681	220.44
268.913	224.44
269.145	242.44
269.377	217.44
269.609	242.44
269.841	254.44
270.073	243.44
270.306	253.44
270.538	257.44
270.77	256.44
271.002	246.44
271.234	261.44
271.466	261.44
271.698	271.44
271.93	262.44
272.162	284.44
272.394	280.44
272.626	247.44
272.858	251.44
273.09	263.44
273.322	229.44
273.553	246.44
273.785	245.44
274.017	263.44
274.249	250.44
274.481	244.44
274.713	233.44
274.945	255.44
275.176	247.44
275.408	244.44
275.64	242.44
275.872	247.44
276.104	238.44
276.335	238.44
276.567	256.44
276.799	268.44
277.031	275.44
277.262	273.44
277.494	281.44
277.726	279.44
277.957	266.44
278.189	267.44
278.421	264.44
278.652	248.44
278.884	260.44
279.115	263.44
279.347	264.44
279.579	270.44
279.81	271.44
280.042	251.44
280.273	250.44
280.505	254.44
280.736	283.44
280.968	253.44
281.199	259.44
281.431	246.44
281.662	259.44
281.894	269.44
282.125	268.44
282.356	278.44
282.588	278.44
282.819	291.44
283.051	275.44
283.282	272.44
283.513	285.44
283.745	269.44
283.976	281.44
284.207	282.44
284.439	273.44
284.67	255.44
284.901	284.44
285.132	297.44
285.364	277.44
285.595	267.44
285.826	248.44
286.057	261.44
286.288	267.44
286.52	275.44
286.751	290.44
286.982	280.44
287.213	292.44
287.444	283.44
287.675	293.44
287.906	281.44
288.138	284.44
288.369	296.44
288.6	295.44
288.831	290.44
289.062	273.44
289.293	281.44
289.524	301.44
289.755	273.44
289.986	311.44
290.217	295.44
290.448	288.44
290.679	263.44
290.91	279.44
291.141	285.44
291.371	284.44
291.602	278.44
291.833	285.44
292.064	278.44
292.295	277.44
292.526	278.44
292.757	289.44
292.987	290.44
293.218	285.44
293.449	283.44
293.68	307.44
293.91	299.44
294.141	291.44
294.372	276.44
294.603	296.44
294.833	292.44
295.064	301.44
295.295	295.44
295.525	289.44
295.756	294.44
295.987	289.44
296.217	299.44
296.448	313.44
296.679	296.44
296.909	299.44
297.14	298.44
297.37	294.44
297.601	300.44
297.831	305.44
298.062	311.44
298.292	292.44
298.523	313.44
298.753	309.44
298.984	313.44
299.214	322.44
299.445	320.44
299.675	305.44
299.905	303.44
300.136	292.44
300.366	310.44
300.597	304.44
300.827	322.44
301.057	330.44
301.288	320.44
301.518	316.44
301.748	317.44
301.979	329.44
302.209	318.44
302.439	307.44
302.669	310.44
302.9	315.44
303.13	324.44
303.36	317.44
303.59	325.44
303.82	321.44
304.051	324.44
304.281	340.44
304.511	313.44
304.741	317.44
304.971	332.44
305.201	327.44
305.431	341.44
305.661	326.44
305.891	315.44
306.121	317.44
306.352	324.44
306.582	315.44
306.812	311.44
307.042	318.44
307.272	317.44
307.502	324.44
307.731	327.44
307.961	311.44
308.191	320.44
308.421	324.44
308.651	323.44
308.881	322.44
309.111	337.44
309.341	322.44
309.571	337.44
309.8	314.44
310.03	318.44
310.26	357.44
310.49	347.44
310.72	353.44
310.949	363.44
311.179	355.44
311.409	343.44
311.639	349.44
311.868	341.44
312.098	335.44
312.328	350.44
312.557	350.44
312.787	364.44
313.017	367.44
313.246	374.44
313.476	363.44
313.706	351.44
313.935	342.44
314.165	352.44
314.394	355.44
314.624	341.44
314.853	366.44
315.083	358.44
315.312	354.44
315.542	369.44
315.771	347.44
316.001	360.44
316.23	359.44
316.46	364.44
316.689	360.44
316.919	349.44
317.148	369.44
317.377	343.44
317.607	342.44
317.836	363.44
318.065	363.44
318.295	352.44
318.524	342.44
318.753	350.44
318.983	344.44
319.212	365.44
319.441	384.44
319.67	362.44
319.9	354.44
320.129	358.44
320.358	356.44
320.587	348.44
320.816	359.44
321.046	361.44
321.275	359.44
321.504	363.44
321.733	369.44
321.962	371.44
322.191	387.44
322.42	374.44
322.649	389.44
322.878	398.44
323.108	407.44
323.337	425.44
323.566	443.44
323.795	426.44
324.024	452.44
324.253	540.44
324.482	720.44
324.71	1041.44
324.939	1406.44
325.168	1250.44
325.397	667.44
325.626	505.44
325.855	459.44
326.084	463.44
326.313	421.44
326.542	448.44
326.77	457.44
326.999	526.44
327.228	670.44
327.457	953.44
327.686	1087.44
327.914	771.44
328.143	564.44
328.372	525.44
328.6	501.44
328.829	453.44
329.058	468.44
329.287	476.44
329.515	461.44
329.744	457.44
329.972	468.44
330.201	503.44
330.43	543.44
330.658	530.44
330.887	511.44
331.115	486.44
331.344	463.44
331.572	446.44
331.801	459.44
332.03	447.44
332.258	428.44
332.486	443.44
332.715	452.44
332.943	449.44
333.172	448.44
333.4	477.44
333.629	496.44
333.857	486.44
334.085	524.44
334.314	571.44
334.542	618.44
334.771	593.44
334.999	519.44
335.227	478.44
335.455	459.44
335.684	459.44
335.912	458.44
336.14	458.44
336.369	459.44
336.597	443.44
336.825	430.44
337.053	424.44
337.281	432.44
337.51	429.44
337.738	431.44
337.966	424.44
338.194	423.44
338.422	427.44
338.65	416.44
338.878	399.44
339.106	406.44
339.334	397.44
339.562	387.44
339.79	406.44
340.018	385.44
340.246	383.44
340.474	400.44
340.702	378.44
340.93	396.44
341.158	388.44
341.386	399.44
341.614	387.44
341.842	398.44
342.07	382.44
342.298	411.44
342.526	394.44
342.754	386.44
342.981	374.44
343.209	387.44
343.437	407.44
343.665	431.44
343.893	437.44
344.12	455.44
344.348	433.44
344.576	422.44
344.804	398.44
345.031	417.44
345.259	411.44
345.487	394.44
345.714	364.44
345.942	401.44
346.17	387.44
346.397	376.44
346.625	380.44
346.853	367.44
347.08	373.44
347.308	377.44
347.535	392.44
347.763	365.44
347.99	352.44
348.218	385.44
348.445	364.44
348.673	377.44
348.9	399.44
349.128	369.44
349.355	379.44
349.583	358.44
349.81	356.44
350.037	355.44
350.265	366.44
350.492	367.44
350.72	371.44
350.947	377.44
351.174	381.44
351.402	384.44
351.629	377.44
351.856	363.44
352.083	389.44
352.311	380.44
352.538	387.44
352.765	383.44
352.992	383.44
353.22	371.44
353.447	371.44
353.674	369.44
353.901	361.44
354.128	365.44
354.355	344.44
354.583	363.44
354.81	362.44
355.037	378.44
355.264	376.44
355.491	345.44
355.718	351.44
355.945	353.44
356.172	360.44
356.399	333.44
356.626	364.44
356.853	361.44
357.08	355.44
357.307	350.44
357.534	359.44
357.761	340.44
357.988	358.44
358.215	366.44
358.441	380.44
358.668	363.44
358.895	349.44
359.122	362.44
359.349	375.44
359.576	371.44
359.802	393.44
360.029	386.44
360.256	392.44
360.483	381.44
360.709	376.44
360.936	357.44
361.163	359.44
361.39	375.44
361.616	369.44
361.843	366.44
362.07	384.44
362.296	366.44
362.523	370.44
362.749	355.44
362.976	351.44
363.203	360.44
363.429	357.44
363.656	349.44
363.882	347.44
364.109	376.44
364.335	363.44
364.562	363.44
364.788	343.44
365.015	356.44
365.241	356.44
365.468	346.44
365.694	369.44
365.92	373.44
366.147	353.44
366.373	356.44
366.599	349.44
366.826	337.44
367.052	369.44
367.278	367.44
367.505	377.44
367.731	349.44
367.957	369.44
368.184	361.44
368.41	349.44
368.636	363.44
368.862	358.44
369.089	363.44
369.315	343.44
369.541	355.44
369.767	351.44
369.993	347.44
370.219	354.44
370.445	364.44
370.672	353.44
370.898	356.44
371.124	337.44
371.35	369.44
371.576	366.44
371.802	376.44
372.028	357.44
372.254	368.44
372.48	373.44
372.706	380.44
372.932	384.44
373.158	387.44
373.384	376.44
373.61	364.44
373.835	360.44
374.061	380.44
374.287	363.44
374.513	375.44
374.739	387.44
374.965	378.44
375.191	382.44
375.416	385.44
375.642	389.44
375.868	380.44
376.094	393.44
376.319	352.44
376.545	353.44
376.771	340.44
376.997	372.44
377.222	364.44
377.448	371.44
377.674	361.44
377.899	355.44
378.125	360.44
378.35	353.44
378.576	338.44
378.802	349.44
379.027	351.44
379.253	366.44
379.478	374.44
379.704	367.44
379.929	355.44
380.155	349.44
380.38	356.44
380.606	378.44
380.831	357.44
381.057	362.44
381.282	364.44
381.507	363.44
381.733	375.44
381.958	359.44
382.184	375.44
382.409	381.44
382.634	366.44
382.86	390.44
383.085	373.44
383.31	379.44
383.535	382.44
383.761	411.44
383.986	388.44
384.211	390.44
384.436	397.44
384.662	405.44
384.887	423.44
385.112	408.44
385.337	407.44
385.562	409.44
385.787	393.44
386.013	430.44
386.238	391.44
386.463	419.44
386.688	425.44
386.913	430.44
387.138	421.44
387.363	404.44
387.588	391.44
387.813	393.44
388.038	409.44
388.263	397.44
388.488	407.44
388.713	407.44
388.938	385.44
389.163	402.44
389.387	403.44
389.612	393.44
389.837	403.44
390.062	400.44
390.287	399.44
390.512	406.44
390.736	406.44
390.961	422.44
391.186	410.44
391.411	425.44
391.636	436.44
391.86	433.44
392.085	438.44
392.31	436.44
392.534	436.44
392.759	429.44
392.984	430.44
393.208	431.44
393.433	430.44
393.658	401.44
393.882	408.44
394.107	410.44
394.331	421.44
394.556	428.44
394.78	405.44
395.005	427.44
395.229	402.44
395.454	440.44
395.678	440.44
395.903	424.44
396.127	456.44
396.352	454.44
396.576	413.44
396.801	415.44
397.025	428.44
397.249	451.44
397.474	427.44
397.698	457.44
397.922	461.44
398.147	461.44
398.371	461.44
398.595	475.44
398.82	488.44
399.044	499.44
399.268	538.44
399.492	599.44
399.717	645.44
399.941	640.44
400.165	643.44
400.389	589.44
400.613	529.44
400.837	504.44
401.062	502.44
401.286	494.44
401.51	509.44
401.734	494.44
401.958	477.44
402.182	456.44
402.406	493.44
402.63	521.44
402.854	529.44
403.078	505.44
403.302	535.44
403.526	516.44
403.75	543.44
403.974	517.44
404.198	533.44
404.422	534.44
404.645	529.44
404.869	533.44
405.093	555.44
405.317	559.44
405.541	605.44
405.765	544.44
405.988	536.44
406.212	536.44
406.436	543.44
406.66	552.44
406.883	531.44
407.107	578.44
407.331	601.44
407.555	616.44
407.778	652.44
408.002	617.44
408.226	572.44
408.449	540.44
408.673	554.44
408.896	533.44
409.12	565.44
409.344	557.44
409.567	533.44
409.791	527.44
410.014	520.44
410.238	514.44
410.461	526.44
410.685	506.44
410.908	516.44
411.132	517.44
411.355	542.44
411.578	545.44
411.802	513.44
412.025	514.44
412.249	521.44
412.472	528.44
412.695	559.44
412.919	550.44
413.142	515.44
413.365	509.44
413.589	489.44
413.812	481.44
414.035	482.44
414.258	471.44
414.482	476.44
414.705	477.44
414.928	488.44
415.151	454.44
415.374	482.44
415.597	484.44
415.821	455.44
416.044	465.44
416.267	460.44
416.49	478.44
416.713	458.44
416.936	479.44
417.159	477.44
417.382	479.44
417.605	475.44
417.828	482.44
418.051	496.44
418.274	483.44
418.497	461.44
418.72	473.44
418.943	472.44
419.166	491.44
419.389	518.44
419.611	520.44
419.834	492.44
420.057	502.44
420.28	516.44
420.503	494.44
420.726	517.44
420.948	473.44
421.171	525.44
421.394	558.44
421.617	502.44
421.839	473.44
422.062	491.44
422.285	491.44
422.507	514.44
422.73	555.44
422.953	551.44
423.175	511.44
423.398	487.44
423.621	499.44
423.843	509.44
424.066	523.44
424.288	522.44
424.511	515.44
424.733	565.44
424.956	588.44
425.178	577.44
425.401	563.44
425.623	554.44
425.846	535.44
426.068	515.44
426.291	463.44
426.513	500.44
426.735	490.44
426.958	530.44
427.18	569.44
427.402	640.44
427.625	659.44
427.847	604.44
428.069	556.44
428.292	533.44
428.514	467.44
428.736	457.44
428.958	451.44
429.181	449.44
429.403	436.44
429.625	455.44
429.847	472.44
430.069	517.44
430.292	517.44
430.514	455.44
430.736	427.44
430.958	455.44
431.18	439.44
431.402	432.44
431.624	427.44
431.846	419.44
432.068	443.44
432.29	443.44
432.512	443.44
432.734	460.44
432.956	448.44
433.178	468.44
433.4	446.44
433.622	439.44
433.844	432.44
434.066	439.44
434.287	421.44
434.509	464.44
434.731	465.44
434.953	494.44
435.175	475.44
435.397	489.44
435.618	471.44
435.84	514.44
436.062	543.44
436.284	571.44
436.505	504.44
436.727	472.44
436.949	449.44
437.17	437.44
437.392	441.44
437.614	465.44
437.835	459.44
438.057	515.44
438.278	563.44
438.5	576.44
438.721	611.44
438.943	603.44
439.165	508.44
439.386	482.44
439.608	460.44
439.829	461.44
440.05	496.44
440.272	524.44
440.493	472.44
440.715	469.44
440.936	459.44
441.158	453.44
441.379	454.44
441.6	487.44
441.822	489.44
442.043	494.44
442.264	552.44
442.486	571.44
442.707	513.44
442.928	471.44
443.149	486.44
443.371	519.44
443.592	533.44
443.813	614.44
444.034	631.44
444.255	557.44
444.476	503.44
444.698	540.44
444.919	536.44
445.14	639.44
445.361	569.44
445.582	539.44
445.803	536.44
446.024	580.44
446.245	572.44
446.466	539.44
446.687	496.44
446.908	466.44
447.129	452.44
447.35	429.44
447.571	440.44
447.792	432.44
448.013	453.44
448.234	436.44
448.455	476.44
448.675	533.44
448.896	587.44
449.117	533.44
449.338	495.44
449.559	559.44
449.779	595.44
450	525.44
450.221	438.44
450.442	428.44
450.662	441.44
450.883	428.44
451.104	430.44
451.324	437.44
451.545	419.44
451.766	421.44
451.986	410.44
452.207	397.44
452.428	411.44
452.648	399.44
452.869	401.44
453.089	412.44
453.31	391.44
453.53	401.44
453.751	396.44
453.971	394.44
454.192	403.44
454.412	411.44
454.633	395.44
454.853	374.44
455.073	381.44
455.294	397.44
455.514	458.44
455.734	422.44
455.955	420.44
456.175	376.44
456.395	388.44
456.616	375.44
456.836	364.44
457.056	368.44
457.276	351.44
457.497	398.44
457.717	379.44
457.937	386.44
458.157	401.44
458.377	385.44
458.598	399.44
458.818	424.44
459.038	477.44
459.258	492.44
459.478	451.44
459.698	450.44
459.918	454.44
460.138	444.44
460.358	466.44
460.578	473.44
460.798	468.44
461.018	481.44
461.238	469.44
461.458	447.44
461.678	460.44
461.898	479.44
462.118	477.44
462.338	488.44
462.558	500.44
462.777	506.44
462.997	537.44
463.217	566.44
463.437	561.44
463.657	541.44
463.876	542.44
464.096	505.44
464.316	528.44
464.536	544.44
464.755	507.44
464.975	514.44
465.195	505.44
465.414	512.44
465.634	474.44
465.854	457.44
466.073	427.44
466.293	426.44
466.512	422.44
466.732	403.44
466.951	417.44
467.171	407.44
467.391	407.44
467.61	411.44
467.829	436.44
468.049	439.44
468.268	419.44
468.488	405.44
468.707	395.44
468.927	390.44
469.146	395.44
469.365	397.44
469.585	405.44
469.804	410.44
470.023	413.44
470.243	413.44
470.462	424.44
470.681	433.44
470.901	424.44
471.12	409.44
471.339	438.44
471.558	419.44
471.777	436.44
471.997	435.44
472.216	419.44
472.435	484.44
472.654	455.44
472.873	430.44
473.092	417.44
473.311	421.44
473.53	412.44
473.749	420.44
473.968	413.44
474.187	474.44
474.406	480.44
474.625	448.44
474.844	404.44
475.063	407.44
475.282	405.44
475.501	407.44
475.72	429.44
475.939	407.44
476.158	410.44
476.377	422.44
476.596	412.44
476.814	430.44
477.033	443.44
477.252	419.44
477.471	445.44
477.69	415.44
477.908	425.44
478.127	445.44
478.346	451.44
478.564	518.44
478.783	468.44
479.002	493.44
479.22	469.44
479.439	460.44
479.658	502.44
479.876	493.44
480.095	523.44
480.313	524.44
480.532	529.44
480.751	502.44
480.969	527.44
481.188	600.44
481.406	652.44
481.624	554.44
481.843	513.44
482.061	513.44
482.28	503.44
482.498	467.44
482.717	466.44
482.935	465.44
483.153	453.44
483.372	472.44
483.59	447.44
483.808	491.44
484.027	472.44
484.245	472.44
484.463	456.44
484.681	489.44
484.9	482.44
485.118	463.44
485.336	472.44
485.554	478.44
485.772	478.44
485.99	496.44
486.209	479.44
486.427	481.44
486.645	501.44
486.863	500.44
487.081	492.44
487.299	497.44
487.517	519.44
487.735	503.44
487.953	472.44
488.171	489.44
488.389	494.44
488.607	499.44
488.825	511.44
489.043	493.44
489.261	492.44
489.479	483.44
489.696	512.44
489.914	488.44
490.132	528.44
490.35	505.44
490.568	510.44
490.786	517.44
491.003	541.44
491.221	523.44
491.439	558.44
491.657	533.44
491.874	551.44
492.092	569.44
492.31	572.44
492.527	585.44
492.745	591.44
492.963	588.44
493.18	589.44
493.398	573.44
493.615	584.44
493.833	579.44
494.05	597.44
494.268	548.44
494.485	568.44
494.703	544.44
494.92	555.44
495.138	555.44
495.355	554.44
495.573	577.44
495.79	560.44
496.008	548.44
496.225	578.44
496.442	573.44
496.66	562.44
496.877	577.44
497.094	585.44
497.312	594.44
497.529	580.44
497.746	612.44
497.963	624.44
498.181	647.44
498.398	683.44
498.615	675.44
498.832	720.44
499.049	723.44
499.267	741.44
499.484	800.44
499.701	875.44
499.918	937.44
500.135	974.44
500.352	1051.44
500.569	1072.44
500.786	1121.44
501.003	1066.44
501.22	990.44
501.437	920.44
501.654	869.44
501.871	795.44
