Data from 1984.PennyLincolnUp.Lamp.En5.5.200Scan.071819.P1_HRD10591_16-57-28-967.txt Node
Date: Thu Jul 18 16:57:28 EDT 2019
User: cochatt
Spectrometer: HR+D1059
Trigger mode: 1
Integration Time (sec): 1.000000E-1
Scans to average: 1
Electric dark correction enabled: true
Nonlinearity correction enabled: false
Boxcar width: 0
XAxis mode: Wavelengths
Number of Pixels in Spectrum: 2048
>>>>>Begin Spectral Data<<<<<
223.165	-13.31
223.4	-13.31
223.635	-13.31
223.869	-7.31
224.104	-21.31
224.338	-17.31
224.573	-16.31
224.808	-36.31
225.042	-11.31
225.277	-11.31
225.511	6.69
225.746	4.69
225.98	0.69
226.215	5.69
226.449	21.69
226.683	30.69
226.918	19.69
227.152	44.69
227.387	42.69
227.621	44.69
227.856	26.69
228.09	50.69
228.324	51.69
228.559	48.69
228.793	69.69
229.027	85.69
229.262	98.69
229.496	87.69
229.73	104.69
229.964	103.69
230.199	100.69
230.433	106.69
230.667	106.69
230.901	95.69
231.136	95.69
231.37	108.69
231.604	100.69
231.838	100.69
232.072	118.69
232.306	110.69
232.541	100.69
232.775	113.69
233.009	100.69
233.243	105.69
233.477	115.69
233.711	116.69
233.945	118.69
234.179	117.69
234.413	118.69
234.647	110.69
234.881	98.69
235.115	94.69
235.349	114.69
235.583	104.69
235.817	113.69
236.051	105.69
236.285	97.69
236.519	105.69
236.753	115.69
236.987	118.69
237.221	122.69
237.455	153.69
237.689	150.69
237.922	109.69
238.156	122.69
238.39	114.69
238.624	115.69
238.858	109.69
239.091	99.69
239.325	118.69
239.559	106.69
239.793	124.69
240.027	119.69
240.26	112.69
240.494	132.69
240.728	118.69
240.961	114.69
241.195	124.69
241.429	120.69
241.662	116.69
241.896	129.69
242.13	122.69
242.363	118.69
242.597	108.69
242.83	120.69
243.064	117.69
243.298	118.69
243.531	112.69
243.765	109.69
243.998	123.69
244.232	130.69
244.465	134.69
244.699	131.69
244.932	128.69
245.166	119.69
245.399	124.69
245.633	125.69
245.866	139.69
246.099	133.69
246.333	114.69
246.566	134.69
246.8	133.69
247.033	149.69
247.266	132.69
247.5	142.69
247.733	150.69
247.966	150.69
248.2	157.69
248.433	147.69
248.666	144.69
248.899	156.69
249.133	161.69
249.366	170.69
249.599	161.69
249.832	157.69
250.066	166.69
250.299	160.69
250.532	146.69
250.765	152.69
250.998	160.69
251.231	148.69
251.465	165.69
251.698	169.69
251.931	164.69
252.164	174.69
252.397	154.69
252.63	163.69
252.863	180.69
253.096	170.69
253.329	172.69
253.562	180.69
253.795	182.69
254.028	170.69
254.261	167.69
254.494	160.69
254.727	197.69
254.96	186.69
255.193	196.69
255.426	198.69
255.659	188.69
255.892	185.69
256.124	166.69
256.357	167.69
256.59	195.69
256.823	162.69
257.056	165.69
257.289	173.69
257.521	169.69
257.754	179.69
257.987	184.69
258.22	176.69
258.452	163.69
258.685	173.69
258.918	174.69
259.151	190.69
259.383	182.69
259.616	196.69
259.849	189.69
260.081	194.69
260.314	194.69
260.547	200.69
260.779	206.69
261.012	194.69
261.244	194.69
261.477	200.69
261.71	182.69
261.942	190.69
262.175	201.69
262.407	182.69
262.64	193.69
262.872	177.69
263.105	187.69
263.337	173.69
263.57	178.69
263.802	182.69
264.035	189.69
264.267	189.69
264.499	185.69
264.732	199.69
264.964	194.69
265.197	183.69
265.429	191.69
265.661	207.69
265.894	199.69
266.126	184.69
266.358	187.69
266.591	184.69
266.823	196.69
267.055	182.69
267.287	195.69
267.52	194.69
267.752	193.69
267.984	203.69
268.216	212.69
268.448	207.69
268.681	214.69
268.913	207.69
269.145	218.69
269.377	220.69
269.609	237.69
269.841	208.69
270.073	223.69
270.306	239.69
270.538	236.69
270.77	259.69
271.002	242.69
271.234	243.69
271.466	243.69
271.698	232.69
271.93	227.69
272.162	250.69
272.394	230.69
272.626	243.69
272.858	233.69
273.09	223.69
273.322	236.69
273.553	223.69
273.785	220.69
274.017	230.69
274.249	202.69
274.481	220.69
274.713	230.69
274.945	227.69
275.176	229.69
275.408	209.69
275.64	237.69
275.872	227.69
276.104	236.69
276.335	244.69
276.567	227.69
276.799	239.69
277.031	251.69
277.262	242.69
277.494	246.69
277.726	253.69
277.957	240.69
278.189	243.69
278.421	246.69
278.652	230.69
278.884	243.69
279.115	241.69
279.347	244.69
279.579	240.69
279.81	232.69
280.042	234.69
280.273	258.69
280.505	238.69
280.736	214.69
280.968	238.69
281.199	266.69
281.431	256.69
281.662	244.69
281.894	235.69
282.125	238.69
282.356	267.69
282.588	265.69
282.819	266.69
283.051	256.69
283.282	253.69
283.513	252.69
283.745	259.69
283.976	252.69
284.207	269.69
284.439	246.69
284.67	265.69
284.901	258.69
285.132	250.69
285.364	257.69
285.595	242.69
285.826	252.69
286.057	267.69
286.288	262.69
286.52	261.69
286.751	262.69
286.982	241.69
287.213	261.69
287.444	269.69
287.675	250.69
287.906	271.69
288.138	257.69
288.369	276.69
288.6	278.69
288.831	276.69
289.062	277.69
289.293	264.69
289.524	260.69
289.755	276.69
289.986	269.69
290.217	260.69
290.448	264.69
290.679	265.69
290.91	259.69
291.141	256.69
291.371	267.69
291.602	268.69
291.833	276.69
292.064	285.69
292.295	268.69
292.526	265.69
292.757	264.69
292.987	278.69
293.218	264.69
293.449	270.69
293.68	280.69
293.91	259.69
294.141	278.69
294.372	284.69
294.603	274.69
294.833	290.69
295.064	266.69
295.295	275.69
295.525	280.69
295.756	291.69
295.987	271.69
296.217	295.69
296.448	288.69
296.679	288.69
296.909	279.69
297.14	297.69
297.37	295.69
297.601	277.69
297.831	283.69
298.062	291.69
298.292	269.69
298.523	285.69
298.753	292.69
298.984	296.69
299.214	279.69
299.445	283.69
299.675	277.69
299.905	295.69
300.136	286.69
300.366	297.69
300.597	282.69
300.827	293.69
301.057	295.69
301.288	302.69
301.518	301.69
301.748	304.69
301.979	304.69
302.209	312.69
302.439	314.69
302.669	303.69
302.9	276.69
303.13	290.69
303.36	302.69
303.59	290.69
303.82	314.69
304.051	299.69
304.281	316.69
304.511	315.69
304.741	306.69
304.971	283.69
305.201	295.69
305.431	296.69
305.661	296.69
305.891	303.69
306.121	301.69
306.352	287.69
306.582	294.69
306.812	280.69
307.042	298.69
307.272	296.69
307.502	279.69
307.731	296.69
307.961	326.69
308.191	293.69
308.421	315.69
308.651	307.69
308.881	290.69
309.111	299.69
309.341	302.69
309.571	309.69
309.8	306.69
310.03	314.69
310.26	330.69
310.49	317.69
310.72	302.69
310.949	331.69
311.179	335.69
311.409	324.69
311.639	302.69
311.868	327.69
312.098	340.69
312.328	318.69
312.557	317.69
312.787	342.69
313.017	338.69
313.246	332.69
313.476	304.69
313.706	318.69
313.935	318.69
314.165	318.69
314.394	338.69
314.624	351.69
314.853	335.69
315.083	320.69
315.312	327.69
315.542	321.69
315.771	331.69
316.001	326.69
316.23	325.69
316.46	333.69
316.689	313.69
316.919	320.69
317.148	336.69
317.377	326.69
317.607	324.69
317.836	344.69
318.065	320.69
318.295	306.69
318.524	322.69
318.753	325.69
318.983	315.69
319.212	333.69
319.441	321.69
319.67	328.69
319.9	341.69
320.129	345.69
320.358	322.69
320.587	320.69
320.816	322.69
321.046	329.69
321.275	331.69
321.504	318.69
321.733	330.69
321.962	328.69
322.191	344.69
322.42	336.69
322.649	350.69
322.878	358.69
323.108	337.69
323.337	351.69
323.566	355.69
323.795	390.69
324.024	390.69
324.253	403.69
324.482	539.69
324.71	762.69
324.939	1012.69
325.168	878.69
325.397	522.69
325.626	398.69
325.855	409.69
326.084	366.69
326.313	370.69
326.542	368.69
326.77	396.69
326.999	434.69
327.228	538.69
327.457	717.69
327.686	790.69
327.914	574.69
328.143	442.69
328.372	395.69
328.6	375.69
328.829	419.69
329.058	413.69
329.287	403.69
329.515	390.69
329.744	375.69
329.972	377.69
330.201	390.69
330.43	381.69
330.658	396.69
330.887	393.69
331.115	393.69
331.344	383.69
331.572	392.69
331.801	378.69
332.03	384.69
332.258	387.69
332.486	400.69
332.715	396.69
332.943	408.69
333.172	388.69
333.4	424.69
333.629	410.69
333.857	431.69
334.085	424.69
334.314	410.69
334.542	418.69
334.771	442.69
334.999	420.69
335.227	401.69
335.455	388.69
335.684	400.69
335.912	388.69
336.14	394.69
336.369	402.69
336.597	406.69
336.825	393.69
337.053	386.69
337.281	395.69
337.51	380.69
337.738	399.69
337.966	392.69
338.194	387.69
338.422	385.69
338.65	384.69
338.878	357.69
339.106	353.69
339.334	361.69
339.562	374.69
339.79	372.69
340.018	371.69
340.246	354.69
340.474	356.69
340.702	347.69
340.93	365.69
341.158	384.69
341.386	377.69
341.614	370.69
341.842	347.69
342.07	357.69
342.298	358.69
342.526	354.69
342.754	339.69
342.981	343.69
343.209	356.69
343.437	387.69
343.665	376.69
343.893	390.69
344.12	414.69
344.348	415.69
344.576	375.69
344.804	398.69
345.031	364.69
345.259	360.69
345.487	370.69
345.714	358.69
345.942	361.69
346.17	344.69
346.397	360.69
346.625	340.69
346.853	335.69
347.08	340.69
347.308	346.69
347.535	345.69
347.763	344.69
347.99	345.69
348.218	356.69
348.445	344.69
348.673	340.69
348.9	331.69
349.128	348.69
349.355	349.69
349.583	340.69
349.81	331.69
350.037	332.69
350.265	308.69
350.492	339.69
350.72	336.69
350.947	362.69
351.174	339.69
351.402	331.69
351.629	335.69
351.856	329.69
352.083	333.69
352.311	344.69
352.538	340.69
352.765	355.69
352.992	334.69
353.22	329.69
353.447	352.69
353.674	326.69
353.901	346.69
354.128	355.69
354.355	331.69
354.583	331.69
354.81	333.69
355.037	333.69
355.264	328.69
355.491	335.69
355.718	316.69
355.945	329.69
356.172	343.69
356.399	340.69
356.626	326.69
356.853	352.69
357.08	325.69
357.307	341.69
357.534	343.69
357.761	328.69
357.988	332.69
358.215	334.69
358.441	330.69
358.668	336.69
358.895	328.69
359.122	326.69
359.349	338.69
359.576	342.69
359.802	333.69
360.029	345.69
360.256	360.69
360.483	337.69
360.709	331.69
360.936	336.69
361.163	334.69
361.39	333.69
361.616	336.69
361.843	349.69
362.07	328.69
362.296	341.69
362.523	328.69
362.749	345.69
362.976	333.69
363.203	331.69
363.429	319.69
363.656	342.69
363.882	348.69
364.109	331.69
364.335	349.69
364.562	317.69
364.788	326.69
365.015	349.69
365.241	351.69
365.468	335.69
365.694	334.69
365.92	318.69
366.147	344.69
366.373	327.69
366.599	330.69
366.826	322.69
367.052	317.69
367.278	334.69
367.505	341.69
367.731	336.69
367.957	327.69
368.184	324.69
368.41	332.69
368.636	322.69
368.862	347.69
369.089	332.69
369.315	319.69
369.541	348.69
369.767	323.69
369.993	329.69
370.219	339.69
370.445	331.69
370.672	337.69
370.898	341.69
371.124	346.69
371.35	341.69
371.576	346.69
371.802	361.69
372.028	361.69
372.254	334.69
372.48	353.69
372.706	364.69
372.932	340.69
373.158	346.69
373.384	361.69
373.61	342.69
373.835	324.69
374.061	334.69
374.287	351.69
374.513	339.69
374.739	360.69
374.965	348.69
375.191	354.69
375.416	371.69
375.642	354.69
375.868	355.69
376.094	343.69
376.319	344.69
376.545	338.69
376.771	350.69
376.997	350.69
377.222	346.69
377.448	335.69
377.674	321.69
377.899	348.69
378.125	335.69
378.35	342.69
378.576	331.69
378.802	355.69
379.027	340.69
379.253	339.69
379.478	319.69
379.704	322.69
379.929	335.69
380.155	328.69
380.38	335.69
380.606	353.69
380.831	355.69
381.057	349.69
381.282	317.69
381.507	338.69
381.733	336.69
381.958	343.69
382.184	335.69
382.409	326.69
382.634	353.69
382.86	356.69
383.085	373.69
383.31	373.69
383.535	352.69
383.761	356.69
383.986	364.69
384.211	391.69
384.436	372.69
384.662	375.69
384.887	375.69
385.112	393.69
385.337	382.69
385.562	388.69
385.787	385.69
386.013	392.69
386.238	390.69
386.463	388.69
386.688	375.69
386.913	382.69
387.138	395.69
387.363	400.69
387.588	391.69
387.813	376.69
388.038	398.69
388.263	397.69
388.488	392.69
388.713	406.69
388.938	392.69
389.163	386.69
389.387	391.69
389.612	370.69
389.837	400.69
390.062	382.69
390.287	372.69
390.512	368.69
390.736	372.69
390.961	388.69
391.186	395.69
391.411	399.69
391.636	394.69
391.86	424.69
392.085	422.69
392.31	430.69
392.534	389.69
392.759	420.69
392.984	391.69
393.208	400.69
393.433	415.69
393.658	395.69
393.882	411.69
394.107	399.69
394.331	394.69
394.556	404.69
394.78	400.69
395.005	400.69
395.229	401.69
395.454	406.69
395.678	407.69
395.903	423.69
396.127	442.69
396.352	408.69
396.576	413.69
396.801	383.69
397.025	400.69
397.249	421.69
397.474	415.69
397.698	420.69
397.922	420.69
398.147	443.69
398.371	429.69
398.595	446.69
398.82	457.69
399.044	470.69
399.268	479.69
399.492	549.69
399.717	584.69
399.941	580.69
400.165	582.69
400.389	560.69
400.613	517.69
400.837	496.69
401.062	432.69
401.286	442.69
401.51	450.69
401.734	434.69
401.958	453.69
402.182	457.69
402.406	454.69
402.63	451.69
402.854	454.69
403.078	475.69
403.302	484.69
403.526	487.69
403.75	462.69
403.974	486.69
404.198	459.69
404.422	475.69
404.645	486.69
404.869	473.69
405.093	482.69
405.317	479.69
405.541	499.69
405.765	483.69
405.988	460.69
406.212	474.69
406.436	499.69
406.66	503.69
406.883	519.69
407.107	520.69
407.331	551.69
407.555	591.69
407.778	588.69
408.002	557.69
408.226	530.69
408.449	518.69
408.673	520.69
408.896	521.69
409.12	524.69
409.344	500.69
409.567	475.69
409.791	496.69
410.014	465.69
410.238	460.69
410.461	443.69
410.685	466.69
410.908	477.69
411.132	475.69
411.355	486.69
411.578	483.69
411.802	453.69
412.025	455.69
412.249	443.69
412.472	483.69
412.695	467.69
412.919	448.69
413.142	455.69
413.365	444.69
413.589	458.69
413.812	416.69
414.035	421.69
414.258	434.69
414.482	440.69
414.705	436.69
414.928	422.69
415.151	463.69
415.374	446.69
415.597	446.69
415.821	451.69
416.044	416.69
416.267	436.69
416.49	447.69
416.713	432.69
416.936	450.69
417.159	428.69
417.382	428.69
417.605	420.69
417.828	447.69
418.051	443.69
418.274	423.69
418.497	452.69
418.72	450.69
418.943	456.69
419.166	477.69
419.389	498.69
419.611	479.69
419.834	460.69
420.057	448.69
420.28	439.69
420.503	427.69
420.726	448.69
420.948	439.69
421.171	456.69
421.394	469.69
421.617	452.69
421.839	454.69
422.062	462.69
422.285	438.69
422.507	472.69
422.73	506.69
422.953	512.69
423.175	489.69
423.398	475.69
423.621	483.69
423.843	479.69
424.066	485.69
424.288	457.69
424.511	475.69
424.733	502.69
424.956	542.69
425.178	511.69
425.401	512.69
425.623	528.69
425.846	465.69
426.068	442.69
426.291	445.69
426.513	431.69
426.735	447.69
426.958	452.69
427.18	523.69
427.402	577.69
427.625	616.69
427.847	526.69
428.069	462.69
428.292	445.69
428.514	422.69
428.736	421.69
428.958	423.69
429.181	408.69
429.403	394.69
429.625	399.69
429.847	426.69
430.069	457.69
430.292	454.69
430.514	416.69
430.736	395.69
430.958	394.69
431.18	397.69
431.402	399.69
431.624	389.69
431.846	409.69
432.068	417.69
432.29	413.69
432.512	413.69
432.734	419.69
432.956	400.69
433.178	416.69
433.4	407.69
433.622	418.69
433.844	414.69
434.066	431.69
434.287	403.69
434.509	434.69
434.731	441.69
434.953	416.69
435.175	462.69
435.397	452.69
435.618	454.69
435.84	454.69
436.062	476.69
436.284	540.69
436.505	455.69
436.727	436.69
436.949	414.69
437.17	423.69
437.392	429.69
437.614	418.69
437.835	417.69
438.057	463.69
438.278	484.69
438.5	530.69
438.721	556.69
438.943	534.69
439.165	454.69
439.386	437.69
439.608	441.69
439.829	445.69
440.05	438.69
440.272	469.69
440.493	436.69
440.715	423.69
440.936	431.69
441.158	424.69
441.379	439.69
441.6	449.69
441.822	449.69
442.043	479.69
442.264	507.69
442.486	505.69
442.707	470.69
442.928	458.69
443.149	461.69
443.371	462.69
443.592	477.69
443.813	544.69
444.034	592.69
444.255	517.69
444.476	494.69
444.698	515.69
444.919	506.69
445.14	603.69
445.361	539.69
445.582	491.69
445.803	464.69
446.024	520.69
446.245	529.69
446.466	481.69
446.687	468.69
446.908	436.69
447.129	416.69
447.35	420.69
447.571	412.69
447.792	396.69
448.013	386.69
448.234	410.69
448.455	419.69
448.675	474.69
448.896	544.69
449.117	475.69
449.338	459.69
449.559	494.69
449.779	559.69
450	451.69
450.221	404.69
450.442	395.69
450.662	375.69
450.883	416.69
451.104	408.69
451.324	383.69
451.545	385.69
451.766	381.69
451.986	354.69
452.207	368.69
452.428	349.69
452.648	368.69
452.869	365.69
453.089	374.69
453.31	376.69
453.53	374.69
453.751	380.69
453.971	384.69
454.192	358.69
454.412	353.69
454.633	365.69
454.853	344.69
455.073	358.69
455.294	370.69
455.514	412.69
455.734	388.69
455.955	364.69
456.175	351.69
456.395	347.69
456.616	352.69
456.836	360.69
457.056	352.69
457.276	354.69
457.497	360.69
457.717	355.69
457.937	385.69
458.157	364.69
458.377	351.69
458.598	380.69
458.818	398.69
459.038	449.69
459.258	451.69
459.478	413.69
459.698	402.69
459.918	424.69
460.138	414.69
460.358	446.69
460.578	448.69
460.798	451.69
461.018	442.69
461.238	447.69
461.458	442.69
461.678	429.69
461.898	436.69
462.118	430.69
462.338	448.69
462.558	476.69
462.777	453.69
462.997	498.69
463.217	544.69
463.437	523.69
463.657	516.69
463.876	502.69
464.096	496.69
464.316	476.69
464.536	486.69
464.755	481.69
464.975	469.69
465.195	479.69
465.414	459.69
465.634	441.69
465.854	421.69
466.073	400.69
466.293	370.69
466.512	371.69
466.732	403.69
466.951	397.69
467.171	382.69
467.391	373.69
467.61	382.69
467.829	396.69
468.049	391.69
468.268	358.69
468.488	377.69
468.707	374.69
468.927	374.69
469.146	348.69
469.365	352.69
469.585	374.69
469.804	387.69
470.023	371.69
470.243	392.69
470.462	429.69
470.681	398.69
470.901	401.69
471.12	402.69
471.339	395.69
471.558	360.69
471.777	388.69
471.997	387.69
472.216	388.69
472.435	372.69
472.654	358.69
472.873	364.69
473.092	388.69
473.311	353.69
473.53	376.69
473.749	386.69
473.968	389.69
474.187	427.69
474.406	429.69
474.625	407.69
474.844	366.69
475.063	370.69
475.282	376.69
475.501	383.69
475.72	387.69
475.939	380.69
476.158	394.69
476.377	397.69
476.596	375.69
476.814	380.69
477.033	398.69
477.252	408.69
477.471	393.69
477.69	436.69
477.908	410.69
478.127	416.69
478.346	407.69
478.564	448.69
478.783	419.69
479.002	440.69
479.22	444.69
479.439	450.69
479.658	458.69
479.876	459.69
480.095	452.69
480.313	486.69
480.532	504.69
480.751	476.69
480.969	461.69
481.188	460.69
481.406	452.69
481.624	447.69
481.843	421.69
482.061	412.69
482.28	428.69
482.498	422.69
482.717	429.69
482.935	436.69
483.153	432.69
483.372	412.69
483.59	427.69
483.808	434.69
484.027	410.69
484.245	441.69
484.463	441.69
484.681	440.69
484.9	463.69
485.118	442.69
485.336	431.69
485.554	434.69
485.772	454.69
485.99	438.69
486.209	456.69
486.427	456.69
486.645	435.69
486.863	471.69
487.081	468.69
487.299	439.69
487.517	451.69
487.735	454.69
487.953	462.69
488.171	452.69
488.389	443.69
488.607	455.69
488.825	468.69
489.043	440.69
489.261	452.69
489.479	465.69
489.696	462.69
489.914	445.69
490.132	465.69
490.35	468.69
490.568	467.69
490.786	465.69
491.003	457.69
491.221	489.69
491.439	468.69
491.657	474.69
491.874	501.69
492.092	476.69
492.31	502.69
492.527	494.69
492.745	498.69
492.963	502.69
493.18	503.69
493.398	500.69
493.615	491.69
493.833	497.69
494.05	507.69
494.268	511.69
494.485	494.69
494.703	507.69
494.92	516.69
495.138	516.69
495.355	507.69
495.573	515.69
495.79	533.69
496.008	527.69
496.225	520.69
496.442	532.69
496.66	510.69
496.877	527.69
497.094	528.69
497.312	531.69
497.529	534.69
497.746	542.69
497.963	575.69
498.181	580.69
498.398	603.69
498.615	644.69
498.832	658.69
499.049	667.69
499.267	716.69
499.484	766.69
499.701	770.69
499.918	863.69
500.135	906.69
500.352	1004.69
500.569	1048.69
500.786	1016.69
501.003	972.69
501.22	912.69
501.437	871.69
501.654	820.69
501.871	781.69
502.088	712.69
