Data from 1984.PennyLincolnUp.Lamp.En5.5.200Scan.071819.P1_HRD10591_16-58-41-970.txt Node
Date: Thu Jul 18 16:58:41 EDT 2019
User: cochatt
Spectrometer: HR+D1059
Trigger mode: 1
Integration Time (sec): 1.000000E-1
Scans to average: 1
Electric dark correction enabled: true
Nonlinearity correction enabled: false
Boxcar width: 0
XAxis mode: Wavelengths
Number of Pixels in Spectrum: 2048
>>>>>Begin Spectral Data<<<<<
223.165	-16.06
223.4	-16.06
223.635	-16.06
223.869	-15.06
224.104	-18.06
224.338	-17.06
224.573	-18.06
224.808	-9.06
225.042	3.94
225.277	-18.06
225.511	-11.06
225.746	3.94
225.98	17.94
226.215	11.94
226.449	4.94
226.683	2.94
226.918	36.94
227.152	39.94
227.387	48.94
227.621	20.94
227.856	63.94
228.09	51.94
228.324	57.94
228.559	54.94
228.793	54.94
229.027	93.94
229.262	78.94
229.496	109.94
229.73	126.94
229.964	122.94
230.199	127.94
230.433	93.94
230.667	108.94
230.901	115.94
231.136	97.94
231.37	109.94
231.604	106.94
231.838	101.94
232.072	113.94
232.306	109.94
232.541	112.94
232.775	139.94
233.009	109.94
233.243	115.94
233.477	105.94
233.711	123.94
233.945	128.94
234.179	127.94
234.413	139.94
234.647	112.94
234.881	107.94
235.115	118.94
235.349	92.94
235.583	128.94
235.817	122.94
236.051	116.94
236.285	113.94
236.519	121.94
236.753	129.94
236.987	144.94
237.221	139.94
237.455	154.94
237.689	149.94
237.922	124.94
238.156	112.94
238.39	111.94
238.624	108.94
238.858	119.94
239.091	112.94
239.325	125.94
239.559	126.94
239.793	121.94
240.027	125.94
240.26	144.94
240.494	131.94
240.728	133.94
240.961	136.94
241.195	130.94
241.429	138.94
241.662	128.94
241.896	125.94
242.13	135.94
242.363	133.94
242.597	138.94
242.83	136.94
243.064	128.94
243.298	132.94
243.531	143.94
243.765	131.94
243.998	127.94
244.232	129.94
244.465	125.94
244.699	135.94
244.932	139.94
245.166	143.94
245.399	144.94
245.633	135.94
245.866	139.94
246.099	134.94
246.333	140.94
246.566	145.94
246.8	145.94
247.033	140.94
247.266	144.94
247.5	155.94
247.733	153.94
247.966	145.94
248.2	152.94
248.433	146.94
248.666	153.94
248.899	157.94
249.133	166.94
249.366	167.94
249.599	183.94
249.832	167.94
250.066	176.94
250.299	167.94
250.532	186.94
250.765	177.94
250.998	206.94
251.231	188.94
251.465	191.94
251.698	171.94
251.931	171.94
252.164	161.94
252.397	184.94
252.63	180.94
252.863	201.94
253.096	190.94
253.329	173.94
253.562	195.94
253.795	203.94
254.028	179.94
254.261	195.94
254.494	199.94
254.727	195.94
254.96	219.94
255.193	221.94
255.426	219.94
255.659	192.94
255.892	208.94
256.124	230.94
256.357	248.94
256.59	208.94
256.823	183.94
257.056	205.94
257.289	199.94
257.521	195.94
257.754	199.94
257.987	185.94
258.22	183.94
258.452	177.94
258.685	183.94
258.918	184.94
259.151	201.94
259.383	182.94
259.616	192.94
259.849	188.94
260.081	188.94
260.314	216.94
260.547	228.94
260.779	206.94
261.012	202.94
261.244	209.94
261.477	215.94
261.71	210.94
261.942	196.94
262.175	195.94
262.407	198.94
262.64	197.94
262.872	197.94
263.105	211.94
263.337	191.94
263.57	179.94
263.802	200.94
264.035	203.94
264.267	213.94
264.499	205.94
264.732	210.94
264.964	215.94
265.197	212.94
265.429	204.94
265.661	197.94
265.894	184.94
266.126	205.94
266.358	207.94
266.591	211.94
266.823	212.94
267.055	222.94
267.287	210.94
267.52	218.94
267.752	199.94
267.984	227.94
268.216	214.94
268.448	208.94
268.681	220.94
268.913	235.94
269.145	224.94
269.377	231.94
269.609	231.94
269.841	224.94
270.073	236.94
270.306	261.94
270.538	260.94
270.77	246.94
271.002	244.94
271.234	267.94
271.466	257.94
271.698	263.94
271.93	248.94
272.162	268.94
272.394	271.94
272.626	249.94
272.858	262.94
273.09	257.94
273.322	238.94
273.553	235.94
273.785	235.94
274.017	239.94
274.249	235.94
274.481	242.94
274.713	234.94
274.945	235.94
275.176	235.94
275.408	243.94
275.64	245.94
275.872	259.94
276.104	247.94
276.335	264.94
276.567	251.94
276.799	262.94
277.031	256.94
277.262	282.94
277.494	264.94
277.726	262.94
277.957	239.94
278.189	252.94
278.421	249.94
278.652	240.94
278.884	240.94
279.115	260.94
279.347	249.94
279.579	251.94
279.81	262.94
280.042	255.94
280.273	259.94
280.505	238.94
280.736	263.94
280.968	249.94
281.199	262.94
281.431	247.94
281.662	258.94
281.894	264.94
282.125	244.94
282.356	279.94
282.588	278.94
282.819	282.94
283.051	267.94
283.282	264.94
283.513	291.94
283.745	251.94
283.976	264.94
284.207	263.94
284.439	268.94
284.67	259.94
284.901	286.94
285.132	275.94
285.364	270.94
285.595	284.94
285.826	279.94
286.057	265.94
286.288	260.94
286.52	276.94
286.751	268.94
286.982	278.94
287.213	280.94
287.444	277.94
287.675	283.94
287.906	284.94
288.138	296.94
288.369	284.94
288.6	269.94
288.831	280.94
289.062	281.94
289.293	270.94
289.524	271.94
289.755	286.94
289.986	280.94
290.217	277.94
290.448	271.94
290.679	271.94
290.91	273.94
291.141	292.94
291.371	272.94
291.602	269.94
291.833	268.94
292.064	281.94
292.295	295.94
292.526	274.94
292.757	283.94
292.987	297.94
293.218	284.94
293.449	295.94
293.68	295.94
293.91	283.94
294.141	277.94
294.372	276.94
294.603	289.94
294.833	286.94
295.064	291.94
295.295	267.94
295.525	288.94
295.756	287.94
295.987	289.94
296.217	303.94
296.448	309.94
296.679	309.94
296.909	293.94
297.14	290.94
297.37	280.94
297.601	284.94
297.831	286.94
298.062	299.94
298.292	310.94
298.523	294.94
298.753	292.94
298.984	303.94
299.214	301.94
299.445	306.94
299.675	301.94
299.905	303.94
300.136	317.94
300.366	289.94
300.597	304.94
300.827	311.94
301.057	323.94
301.288	334.94
301.518	324.94
301.748	325.94
301.979	333.94
302.209	338.94
302.439	328.94
302.669	320.94
302.9	314.94
303.13	323.94
303.36	323.94
303.59	319.94
303.82	329.94
304.051	337.94
304.281	319.94
304.511	294.94
304.741	303.94
304.971	324.94
305.201	308.94
305.431	326.94
305.661	330.94
305.891	313.94
306.121	303.94
306.352	314.94
306.582	307.94
306.812	329.94
307.042	335.94
307.272	296.94
307.502	304.94
307.731	315.94
307.961	316.94
308.191	316.94
308.421	319.94
308.651	328.94
308.881	328.94
309.111	334.94
309.341	333.94
309.571	333.94
309.8	314.94
310.03	356.94
310.26	332.94
310.49	333.94
310.72	344.94
310.949	350.94
311.179	366.94
311.409	337.94
311.639	330.94
311.868	323.94
312.098	356.94
312.328	356.94
312.557	352.94
312.787	361.94
313.017	345.94
313.246	342.94
313.476	342.94
313.706	327.94
313.935	347.94
314.165	358.94
314.394	342.94
314.624	359.94
314.853	359.94
315.083	356.94
315.312	338.94
315.542	340.94
315.771	348.94
316.001	340.94
316.23	353.94
316.46	346.94
316.689	355.94
316.919	351.94
317.148	344.94
317.377	345.94
317.607	345.94
317.836	356.94
318.065	349.94
318.295	328.94
318.524	363.94
318.753	352.94
318.983	365.94
319.212	354.94
319.441	356.94
319.67	365.94
319.9	350.94
320.129	340.94
320.358	363.94
320.587	358.94
320.816	353.94
321.046	375.94
321.275	355.94
321.504	355.94
321.733	347.94
321.962	342.94
322.191	353.94
322.42	364.94
322.649	381.94
322.878	383.94
323.108	393.94
323.337	411.94
323.566	397.94
323.795	428.94
324.024	460.94
324.253	526.94
324.482	682.94
324.71	1013.94
324.939	1348.94
325.168	1179.94
325.397	665.94
325.626	502.94
325.855	457.94
326.084	432.94
326.313	445.94
326.542	451.94
326.77	463.94
326.999	487.94
327.228	655.94
327.457	905.94
327.686	1082.94
327.914	759.94
328.143	559.94
328.372	500.94
328.6	500.94
328.829	466.94
329.058	462.94
329.287	469.94
329.515	437.94
329.744	438.94
329.972	469.94
330.201	506.94
330.43	517.94
330.658	520.94
330.887	499.94
331.115	493.94
331.344	462.94
331.572	436.94
331.801	443.94
332.03	442.94
332.258	432.94
332.486	444.94
332.715	423.94
332.943	466.94
333.172	485.94
333.4	464.94
333.629	465.94
333.857	496.94
334.085	528.94
334.314	559.94
334.542	580.94
334.771	621.94
334.999	528.94
335.227	476.94
335.455	452.94
335.684	440.94
335.912	446.94
336.14	439.94
336.369	422.94
336.597	427.94
336.825	419.94
337.053	432.94
337.281	409.94
337.51	401.94
337.738	407.94
337.966	412.94
338.194	410.94
338.422	406.94
338.65	411.94
338.878	410.94
339.106	391.94
339.334	401.94
339.562	406.94
339.79	407.94
340.018	372.94
340.246	393.94
340.474	396.94
340.702	401.94
340.93	400.94
341.158	392.94
341.386	395.94
341.614	385.94
341.842	369.94
342.07	385.94
342.298	372.94
342.526	387.94
342.754	379.94
342.981	392.94
343.209	392.94
343.437	416.94
343.665	399.94
343.893	424.94
344.12	437.94
344.348	420.94
344.576	409.94
344.804	417.94
345.031	404.94
345.259	392.94
345.487	386.94
345.714	382.94
345.942	382.94
346.17	376.94
346.397	377.94
346.625	355.94
346.853	377.94
347.08	373.94
347.308	380.94
347.535	387.94
347.763	379.94
347.99	375.94
348.218	382.94
348.445	389.94
348.673	378.94
348.9	370.94
349.128	352.94
349.355	371.94
349.583	357.94
349.81	376.94
350.037	353.94
350.265	375.94
350.492	373.94
350.72	356.94
350.947	366.94
351.174	390.94
351.402	384.94
351.629	382.94
351.856	353.94
352.083	347.94
352.311	368.94
352.538	371.94
352.765	378.94
352.992	337.94
353.22	371.94
353.447	354.94
353.674	368.94
353.901	344.94
354.128	352.94
354.355	354.94
354.583	344.94
354.81	352.94
355.037	333.94
355.264	361.94
355.491	345.94
355.718	349.94
355.945	361.94
356.172	345.94
356.399	332.94
356.626	332.94
356.853	378.94
357.08	337.94
357.307	349.94
357.534	343.94
357.761	347.94
357.988	336.94
358.215	339.94
358.441	371.94
358.668	347.94
358.895	344.94
359.122	365.94
359.349	370.94
359.576	349.94
359.802	352.94
360.029	401.94
360.256	388.94
360.483	397.94
360.709	370.94
360.936	355.94
361.163	371.94
361.39	368.94
361.616	375.94
361.843	347.94
362.07	364.94
362.296	363.94
362.523	350.94
362.749	363.94
362.976	372.94
363.203	343.94
363.429	369.94
363.656	373.94
363.882	364.94
364.109	351.94
364.335	355.94
364.562	342.94
364.788	348.94
365.015	352.94
365.241	352.94
365.468	347.94
365.694	349.94
365.92	342.94
366.147	335.94
366.373	355.94
366.599	365.94
366.826	356.94
367.052	344.94
367.278	369.94
367.505	357.94
367.731	376.94
367.957	352.94
368.184	356.94
368.41	342.94
368.636	361.94
368.862	375.94
369.089	374.94
369.315	341.94
369.541	360.94
369.767	364.94
369.993	361.94
370.219	342.94
370.445	363.94
370.672	349.94
370.898	345.94
371.124	368.94
371.35	371.94
371.576	343.94
371.802	365.94
372.028	364.94
372.254	352.94
372.48	358.94
372.706	376.94
372.932	377.94
373.158	372.94
373.384	363.94
373.61	388.94
373.835	350.94
374.061	351.94
374.287	358.94
374.513	367.94
374.739	354.94
374.965	374.94
375.191	389.94
375.416	377.94
375.642	357.94
375.868	377.94
376.094	351.94
376.319	359.94
376.545	352.94
376.771	364.94
376.997	350.94
377.222	341.94
377.448	369.94
377.674	353.94
377.899	366.94
378.125	363.94
378.35	345.94
378.576	352.94
378.802	353.94
379.027	339.94
379.253	358.94
379.478	343.94
379.704	352.94
379.929	348.94
380.155	352.94
380.38	354.94
380.606	368.94
380.831	363.94
381.057	362.94
381.282	356.94
381.507	357.94
381.733	369.94
381.958	356.94
382.184	365.94
382.409	381.94
382.634	365.94
382.86	361.94
383.085	363.94
383.31	381.94
383.535	374.94
383.761	381.94
383.986	379.94
384.211	368.94
384.436	385.94
384.662	397.94
384.887	379.94
385.112	387.94
385.337	412.94
385.562	408.94
385.787	405.94
386.013	417.94
386.238	396.94
386.463	395.94
386.688	398.94
386.913	411.94
387.138	419.94
387.363	409.94
387.588	410.94
387.813	389.94
388.038	404.94
388.263	403.94
388.488	395.94
388.713	406.94
388.938	400.94
389.163	398.94
389.387	418.94
389.612	399.94
389.837	419.94
390.062	401.94
390.287	381.94
390.512	405.94
390.736	399.94
390.961	412.94
391.186	407.94
391.411	407.94
391.636	418.94
391.86	438.94
392.085	425.94
392.31	430.94
392.534	404.94
392.759	400.94
392.984	415.94
393.208	432.94
393.433	416.94
393.658	412.94
393.882	415.94
394.107	420.94
394.331	425.94
394.556	425.94
394.78	412.94
395.005	420.94
395.229	432.94
395.454	427.94
395.678	428.94
395.903	446.94
396.127	437.94
396.352	427.94
396.576	419.94
396.801	420.94
397.025	413.94
397.249	408.94
397.474	453.94
397.698	440.94
397.922	435.94
398.147	462.94
398.371	464.94
398.595	463.94
398.82	475.94
399.044	499.94
399.268	510.94
399.492	579.94
399.717	619.94
399.941	651.94
400.165	609.94
400.389	598.94
400.613	543.94
400.837	513.94
401.062	454.94
401.286	473.94
401.51	492.94
401.734	471.94
401.958	471.94
402.182	483.94
402.406	475.94
402.63	492.94
402.854	484.94
403.078	495.94
403.302	501.94
403.526	494.94
403.75	537.94
403.974	533.94
404.198	543.94
404.422	534.94
404.645	525.94
404.869	507.94
405.093	570.94
405.317	587.94
405.541	605.94
405.765	567.94
405.988	529.94
406.212	541.94
406.436	538.94
406.66	550.94
406.883	548.94
407.107	586.94
407.331	613.94
407.555	599.94
407.778	627.94
408.002	594.94
408.226	563.94
408.449	533.94
408.673	532.94
408.896	551.94
409.12	587.94
409.344	555.94
409.567	504.94
409.791	513.94
410.014	485.94
410.238	493.94
410.461	483.94
410.685	512.94
410.908	507.94
411.132	533.94
411.355	517.94
411.578	515.94
411.802	505.94
412.025	480.94
412.249	497.94
412.472	540.94
412.695	559.94
412.919	548.94
413.142	512.94
413.365	506.94
413.589	518.94
413.812	457.94
414.035	466.94
414.258	467.94
414.482	470.94
414.705	464.94
414.928	467.94
415.151	464.94
415.374	469.94
415.597	471.94
415.821	482.94
416.044	480.94
416.267	471.94
416.49	461.94
416.713	468.94
416.936	465.94
417.159	443.94
417.382	472.94
417.605	463.94
417.828	477.94
418.051	484.94
418.274	470.94
418.497	434.94
418.72	461.94
418.943	462.94
419.166	481.94
419.389	526.94
419.611	502.94
419.834	494.94
420.057	500.94
420.28	497.94
420.503	500.94
420.726	510.94
420.948	504.94
421.171	503.94
421.394	545.94
421.617	480.94
421.839	485.94
422.062	483.94
422.285	468.94
422.507	523.94
422.73	559.94
422.953	549.94
423.175	500.94
423.398	484.94
423.621	526.94
423.843	496.94
424.066	511.94
424.288	499.94
424.511	508.94
424.733	540.94
424.956	551.94
425.178	563.94
425.401	565.94
425.623	570.94
425.846	511.94
426.068	502.94
426.291	488.94
426.513	478.94
426.735	480.94
426.958	505.94
427.18	556.94
427.402	610.94
427.625	672.94
427.847	600.94
428.069	547.94
428.292	527.94
428.514	491.94
428.736	449.94
428.958	453.94
429.181	451.94
429.403	446.94
429.625	457.94
429.847	477.94
430.069	494.94
430.292	479.94
430.514	453.94
430.736	444.94
430.958	439.94
431.18	419.94
431.402	405.94
431.624	420.94
431.846	414.94
432.068	438.94
432.29	429.94
432.512	446.94
432.734	444.94
432.956	433.94
433.178	437.94
433.4	452.94
433.622	435.94
433.844	427.94
434.066	436.94
434.287	428.94
434.509	450.94
434.731	451.94
434.953	456.94
435.175	466.94
435.397	481.94
435.618	468.94
435.84	468.94
436.062	527.94
436.284	575.94
436.505	509.94
436.727	486.94
436.949	450.94
437.17	462.94
437.392	433.94
437.614	438.94
437.835	476.94
438.057	511.94
438.278	558.94
438.5	546.94
438.721	579.94
438.943	593.94
439.165	494.94
439.386	461.94
439.608	450.94
439.829	455.94
440.05	465.94
440.272	497.94
440.493	486.94
440.715	458.94
440.936	481.94
441.158	446.94
441.379	462.94
441.6	464.94
441.822	480.94
442.043	516.94
442.264	563.94
442.486	557.94
442.707	515.94
442.928	473.94
443.149	502.94
443.371	501.94
443.592	512.94
443.813	567.94
444.034	623.94
444.255	541.94
444.476	493.94
444.698	500.94
444.919	518.94
445.14	629.94
445.361	568.94
445.582	543.94
445.803	543.94
446.024	575.94
446.245	606.94
446.466	528.94
446.687	465.94
446.908	463.94
447.129	423.94
447.35	432.94
447.571	441.94
447.792	402.94
448.013	437.94
448.234	437.94
448.455	485.94
448.675	527.94
448.896	584.94
449.117	504.94
449.338	493.94
449.559	542.94
449.779	616.94
450	522.94
450.221	442.94
450.442	416.94
450.662	417.94
450.883	418.94
451.104	427.94
451.324	426.94
451.545	414.94
451.766	410.94
451.986	399.94
452.207	389.94
452.428	395.94
452.648	399.94
452.869	385.94
453.089	383.94
453.31	391.94
453.53	386.94
453.751	391.94
453.971	389.94
454.192	389.94
454.412	368.94
454.633	384.94
454.853	381.94
455.073	381.94
455.294	408.94
455.514	407.94
455.734	410.94
455.955	382.94
456.175	382.94
456.395	351.94
456.616	381.94
456.836	355.94
457.056	375.94
457.276	363.94
457.497	375.94
457.717	377.94
457.937	386.94
458.157	406.94
458.377	392.94
458.598	416.94
458.818	411.94
459.038	471.94
459.258	484.94
459.478	459.94
459.698	417.94
459.918	423.94
460.138	446.94
460.358	431.94
460.578	487.94
460.798	471.94
461.018	455.94
461.238	470.94
461.458	468.94
461.678	484.94
461.898	483.94
462.118	466.94
462.338	492.94
462.558	477.94
462.777	483.94
462.997	527.94
463.217	565.94
463.437	565.94
463.657	539.94
463.876	505.94
464.096	522.94
464.316	485.94
464.536	527.94
464.755	492.94
464.975	495.94
465.195	513.94
465.414	495.94
465.634	475.94
465.854	436.94
466.073	427.94
466.293	430.94
466.512	426.94
466.732	425.94
466.951	432.94
467.171	412.94
467.391	401.94
467.61	420.94
467.829	419.94
468.049	413.94
468.268	408.94
468.488	425.94
468.707	400.94
468.927	419.94
469.146	396.94
469.365	398.94
469.585	393.94
469.804	421.94
470.023	429.94
470.243	414.94
470.462	426.94
470.681	435.94
470.901	431.94
471.12	407.94
471.339	415.94
471.558	399.94
471.777	416.94
471.997	420.94
472.216	418.94
472.435	454.94
472.654	449.94
472.873	412.94
473.092	410.94
473.311	417.94
473.53	381.94
473.749	419.94
473.968	418.94
474.187	479.94
474.406	505.94
474.625	417.94
474.844	398.94
475.063	413.94
475.282	405.94
475.501	407.94
475.72	400.94
475.939	400.94
476.158	430.94
476.377	408.94
476.596	414.94
476.814	417.94
477.033	422.94
477.252	443.94
477.471	448.94
477.69	451.94
477.908	432.94
478.127	450.94
478.346	447.94
478.564	484.94
478.783	468.94
479.002	483.94
479.22	483.94
479.439	483.94
479.658	480.94
479.876	463.94
480.095	490.94
480.313	519.94
480.532	526.94
480.751	514.94
480.969	514.94
481.188	592.94
481.406	619.94
481.624	559.94
481.843	524.94
482.061	515.94
482.28	473.94
482.498	471.94
482.717	476.94
482.935	475.94
483.153	465.94
483.372	471.94
483.59	472.94
483.808	456.94
484.027	459.94
484.245	466.94
484.463	443.94
484.681	454.94
484.9	446.94
485.118	486.94
485.336	485.94
485.554	471.94
485.772	485.94
485.99	479.94
486.209	489.94
486.427	481.94
486.645	485.94
486.863	501.94
487.081	497.94
487.299	487.94
487.517	470.94
487.735	486.94
487.953	471.94
488.171	505.94
488.389	505.94
488.607	472.94
488.825	489.94
489.043	495.94
489.261	487.94
489.479	488.94
489.696	493.94
489.914	476.94
490.132	500.94
490.35	490.94
490.568	500.94
490.786	513.94
491.003	513.94
491.221	535.94
491.439	556.94
491.657	544.94
491.874	544.94
492.092	561.94
492.31	533.94
492.527	557.94
492.745	550.94
492.963	558.94
493.18	596.94
493.398	570.94
493.615	560.94
493.833	583.94
494.05	585.94
494.268	574.94
494.485	569.94
494.703	582.94
494.92	548.94
495.138	553.94
495.355	583.94
495.573	554.94
495.79	568.94
496.008	550.94
496.225	568.94
496.442	572.94
496.66	577.94
496.877	567.94
497.094	559.94
497.312	583.94
497.529	571.94
497.746	604.94
497.963	610.94
498.181	627.94
498.398	645.94
498.615	681.94
498.832	705.94
499.049	710.94
499.267	755.94
499.484	802.94
499.701	826.94
499.918	870.94
500.135	992.94
500.352	1078.94
500.569	1081.94
500.786	1105.94
501.003	1060.94
501.22	997.94
501.437	924.94
501.654	839.94
501.871	796.94
