Data from 1984.PennyLincolnUp.Lamp.En5.5.200Scan.071819.P1_HRD10591_16-57-40-967.txt Node
Date: Thu Jul 18 16:57:40 EDT 2019
User: cochatt
Spectrometer: HR+D1059
Trigger mode: 1
Integration Time (sec): 1.000000E-1
Scans to average: 1
Electric dark correction enabled: true
Nonlinearity correction enabled: false
Boxcar width: 0
XAxis mode: Wavelengths
Number of Pixels in Spectrum: 2048
>>>>>Begin Spectral Data<<<<<
223.165	-21.75
223.4	-21.75
223.635	-21.75
223.869	-22.75
224.104	-22.75
224.338	-10.75
224.573	7.25
224.808	-29.75
225.042	-19.75
225.277	-0.75
225.511	8.25
225.746	9.25
225.98	8.25
226.215	9.25
226.449	14.25
226.683	15.25
226.918	18.25
227.152	38.25
227.387	29.25
227.621	42.25
227.856	27.25
228.09	38.25
228.324	47.25
228.559	49.25
228.793	59.25
229.027	93.25
229.262	102.25
229.496	94.25
229.73	116.25
229.964	122.25
230.199	102.25
230.433	105.25
230.667	106.25
230.901	103.25
231.136	88.25
231.37	106.25
231.604	112.25
231.838	103.25
232.072	122.25
232.306	105.25
232.541	97.25
232.775	93.25
233.009	110.25
233.243	120.25
233.477	117.25
233.711	110.25
233.945	107.25
234.179	113.25
234.413	112.25
234.647	109.25
234.881	112.25
235.115	106.25
235.349	106.25
235.583	108.25
235.817	115.25
236.051	125.25
236.285	109.25
236.519	108.25
236.753	128.25
236.987	127.25
237.221	144.25
237.455	163.25
237.689	147.25
237.922	120.25
238.156	117.25
238.39	127.25
238.624	120.25
238.858	104.25
239.091	104.25
239.325	120.25
239.559	122.25
239.793	117.25
240.027	130.25
240.26	123.25
240.494	145.25
240.728	123.25
240.961	115.25
241.195	145.25
241.429	126.25
241.662	115.25
241.896	120.25
242.13	125.25
242.363	129.25
242.597	116.25
242.83	132.25
243.064	130.25
243.298	117.25
243.531	125.25
243.765	136.25
243.998	120.25
244.232	120.25
244.465	132.25
244.699	141.25
244.932	148.25
245.166	153.25
245.399	120.25
245.633	144.25
245.866	123.25
246.099	137.25
246.333	143.25
246.566	133.25
246.8	143.25
247.033	140.25
247.266	141.25
247.5	136.25
247.733	149.25
247.966	150.25
248.2	146.25
248.433	126.25
248.666	155.25
248.899	156.25
249.133	158.25
249.366	167.25
249.599	152.25
249.832	152.25
250.066	146.25
250.299	148.25
250.532	166.25
250.765	165.25
250.998	179.25
251.231	176.25
251.465	176.25
251.698	159.25
251.931	183.25
252.164	174.25
252.397	169.25
252.63	170.25
252.863	180.25
253.096	159.25
253.329	173.25
253.562	191.25
253.795	166.25
254.028	171.25
254.261	182.25
254.494	191.25
254.727	200.25
254.96	201.25
255.193	200.25
255.426	199.25
255.659	190.25
255.892	188.25
256.124	184.25
256.357	180.25
256.59	186.25
256.823	180.25
257.056	176.25
257.289	192.25
257.521	173.25
257.754	176.25
257.987	191.25
258.22	176.25
258.452	179.25
258.685	197.25
258.918	182.25
259.151	196.25
259.383	175.25
259.616	195.25
259.849	197.25
260.081	203.25
260.314	213.25
260.547	208.25
260.779	206.25
261.012	204.25
261.244	200.25
261.477	196.25
261.71	199.25
261.942	192.25
262.175	205.25
262.407	207.25
262.64	186.25
262.872	203.25
263.105	190.25
263.337	201.25
263.57	200.25
263.802	188.25
264.035	195.25
264.267	193.25
264.499	189.25
264.732	185.25
264.964	198.25
265.197	183.25
265.429	193.25
265.661	212.25
265.894	213.25
266.126	190.25
266.358	208.25
266.591	202.25
266.823	209.25
267.055	194.25
267.287	200.25
267.52	200.25
267.752	202.25
267.984	205.25
268.216	214.25
268.448	199.25
268.681	219.25
268.913	217.25
269.145	214.25
269.377	222.25
269.609	221.25
269.841	214.25
270.073	235.25
270.306	240.25
270.538	240.25
270.77	236.25
271.002	243.25
271.234	246.25
271.466	226.25
271.698	247.25
271.93	265.25
272.162	264.25
272.394	255.25
272.626	243.25
272.858	258.25
273.09	232.25
273.322	237.25
273.553	225.25
273.785	227.25
274.017	235.25
274.249	237.25
274.481	241.25
274.713	234.25
274.945	234.25
275.176	231.25
275.408	238.25
275.64	228.25
275.872	235.25
276.104	232.25
276.335	248.25
276.567	225.25
276.799	257.25
277.031	262.25
277.262	257.25
277.494	277.25
277.726	247.25
277.957	267.25
278.189	254.25
278.421	250.25
278.652	248.25
278.884	253.25
279.115	225.25
279.347	248.25
279.579	238.25
279.81	253.25
280.042	245.25
280.273	253.25
280.505	242.25
280.736	238.25
280.968	240.25
281.199	264.25
281.431	272.25
281.662	243.25
281.894	259.25
282.125	256.25
282.356	269.25
282.588	283.25
282.819	253.25
283.051	263.25
283.282	263.25
283.513	247.25
283.745	267.25
283.976	264.25
284.207	263.25
284.439	269.25
284.67	263.25
284.901	269.25
285.132	279.25
285.364	267.25
285.595	255.25
285.826	248.25
286.057	267.25
286.288	265.25
286.52	273.25
286.751	263.25
286.982	268.25
287.213	267.25
287.444	275.25
287.675	270.25
287.906	265.25
288.138	284.25
288.369	274.25
288.6	279.25
288.831	311.25
289.062	283.25
289.293	272.25
289.524	277.25
289.755	261.25
289.986	285.25
290.217	282.25
290.448	285.25
290.679	272.25
290.91	280.25
291.141	287.25
291.371	274.25
291.602	272.25
291.833	266.25
292.064	288.25
292.295	285.25
292.526	283.25
292.757	286.25
292.987	275.25
293.218	267.25
293.449	264.25
293.68	279.25
293.91	273.25
294.141	286.25
294.372	283.25
294.603	262.25
294.833	299.25
295.064	270.25
295.295	269.25
295.525	278.25
295.756	278.25
295.987	299.25
296.217	299.25
296.448	283.25
296.679	285.25
296.909	292.25
297.14	287.25
297.37	288.25
297.601	283.25
297.831	279.25
298.062	279.25
298.292	300.25
298.523	297.25
298.753	315.25
298.984	303.25
299.214	307.25
299.445	315.25
299.675	297.25
299.905	293.25
300.136	302.25
300.366	296.25
300.597	301.25
300.827	296.25
301.057	310.25
301.288	301.25
301.518	307.25
301.748	302.25
301.979	313.25
302.209	314.25
302.439	321.25
302.669	306.25
302.9	320.25
303.13	299.25
303.36	324.25
303.59	323.25
303.82	309.25
304.051	331.25
304.281	307.25
304.511	304.25
304.741	317.25
304.971	299.25
305.201	310.25
305.431	323.25
305.661	296.25
305.891	306.25
306.121	296.25
306.352	317.25
306.582	323.25
306.812	302.25
307.042	316.25
307.272	311.25
307.502	288.25
307.731	309.25
307.961	311.25
308.191	303.25
308.421	311.25
308.651	317.25
308.881	303.25
309.111	295.25
309.341	327.25
309.571	327.25
309.8	333.25
310.03	313.25
310.26	311.25
310.49	324.25
310.72	337.25
310.949	317.25
311.179	333.25
311.409	342.25
311.639	332.25
311.868	339.25
312.098	345.25
312.328	335.25
312.557	372.25
312.787	345.25
313.017	332.25
313.246	350.25
313.476	319.25
313.706	336.25
313.935	346.25
314.165	341.25
314.394	359.25
314.624	352.25
314.853	340.25
315.083	337.25
315.312	315.25
315.542	326.25
315.771	336.25
316.001	354.25
316.23	342.25
316.46	325.25
316.689	346.25
316.919	315.25
317.148	346.25
317.377	347.25
317.607	351.25
317.836	338.25
318.065	343.25
318.295	348.25
318.524	344.25
318.753	317.25
318.983	350.25
319.212	337.25
319.441	351.25
319.67	376.25
319.9	329.25
320.129	340.25
320.358	348.25
320.587	335.25
320.816	353.25
321.046	363.25
321.275	354.25
321.504	351.25
321.733	355.25
321.962	356.25
322.191	348.25
322.42	370.25
322.649	371.25
322.878	385.25
323.108	385.25
323.337	383.25
323.566	408.25
323.795	408.25
324.024	441.25
324.253	489.25
324.482	634.25
324.71	867.25
324.939	1183.25
325.168	1037.25
325.397	611.25
325.626	462.25
325.855	419.25
326.084	407.25
326.313	428.25
326.542	411.25
326.77	435.25
326.999	491.25
327.228	602.25
327.457	841.25
327.686	949.25
327.914	680.25
328.143	489.25
328.372	445.25
328.6	431.25
328.829	444.25
329.058	425.25
329.287	437.25
329.515	435.25
329.744	406.25
329.972	395.25
330.201	421.25
330.43	435.25
330.658	416.25
330.887	451.25
331.115	445.25
331.344	409.25
331.572	411.25
331.801	382.25
332.03	386.25
332.258	412.25
332.486	406.25
332.715	410.25
332.943	414.25
333.172	424.25
333.4	446.25
333.629	433.25
333.857	445.25
334.085	458.25
334.314	445.25
334.542	435.25
334.771	432.25
334.999	441.25
335.227	421.25
335.455	413.25
335.684	414.25
335.912	404.25
336.14	411.25
336.369	407.25
336.597	430.25
336.825	419.25
337.053	403.25
337.281	415.25
337.51	400.25
337.738	397.25
337.966	375.25
338.194	391.25
338.422	388.25
338.65	372.25
338.878	391.25
339.106	397.25
339.334	368.25
339.562	393.25
339.79	375.25
340.018	383.25
340.246	393.25
340.474	388.25
340.702	390.25
340.93	391.25
341.158	366.25
341.386	385.25
341.614	377.25
341.842	389.25
342.07	379.25
342.298	366.25
342.526	375.25
342.754	368.25
342.981	373.25
343.209	371.25
343.437	381.25
343.665	409.25
343.893	399.25
344.12	414.25
344.348	407.25
344.576	413.25
344.804	405.25
345.031	391.25
345.259	379.25
345.487	373.25
345.714	378.25
345.942	366.25
346.17	368.25
346.397	348.25
346.625	365.25
346.853	364.25
347.08	363.25
347.308	362.25
347.535	365.25
347.763	343.25
347.99	354.25
348.218	351.25
348.445	365.25
348.673	360.25
348.9	368.25
349.128	349.25
349.355	362.25
349.583	344.25
349.81	354.25
350.037	355.25
350.265	371.25
350.492	342.25
350.72	352.25
350.947	372.25
351.174	371.25
351.402	366.25
351.629	365.25
351.856	342.25
352.083	347.25
352.311	350.25
352.538	362.25
352.765	368.25
352.992	353.25
353.22	339.25
353.447	350.25
353.674	350.25
353.901	350.25
354.128	340.25
354.355	338.25
354.583	358.25
354.81	352.25
355.037	329.25
355.264	333.25
355.491	343.25
355.718	333.25
355.945	341.25
356.172	344.25
356.399	358.25
356.626	348.25
356.853	341.25
357.08	337.25
357.307	349.25
357.534	334.25
357.761	354.25
357.988	349.25
358.215	354.25
358.441	343.25
358.668	341.25
358.895	343.25
359.122	352.25
359.349	356.25
359.576	337.25
359.802	374.25
360.029	367.25
360.256	356.25
360.483	375.25
360.709	358.25
360.936	355.25
361.163	342.25
361.39	337.25
361.616	366.25
361.843	352.25
362.07	348.25
362.296	345.25
362.523	333.25
362.749	360.25
362.976	361.25
363.203	369.25
363.429	344.25
363.656	340.25
363.882	344.25
364.109	355.25
364.335	356.25
364.562	360.25
364.788	337.25
365.015	341.25
365.241	343.25
365.468	352.25
365.694	333.25
365.92	341.25
366.147	354.25
366.373	341.25
366.599	331.25
366.826	352.25
367.052	333.25
367.278	334.25
367.505	339.25
367.731	355.25
367.957	339.25
368.184	335.25
368.41	345.25
368.636	349.25
368.862	359.25
369.089	341.25
369.315	356.25
369.541	339.25
369.767	329.25
369.993	349.25
370.219	353.25
370.445	355.25
370.672	346.25
370.898	368.25
371.124	341.25
371.35	367.25
371.576	367.25
371.802	363.25
372.028	357.25
372.254	360.25
372.48	356.25
372.706	376.25
372.932	365.25
373.158	387.25
373.384	356.25
373.61	374.25
373.835	363.25
374.061	337.25
374.287	360.25
374.513	355.25
374.739	364.25
374.965	366.25
375.191	351.25
375.416	366.25
375.642	371.25
375.868	368.25
376.094	357.25
376.319	366.25
376.545	354.25
376.771	354.25
376.997	349.25
377.222	348.25
377.448	366.25
377.674	358.25
377.899	346.25
378.125	344.25
378.35	361.25
378.576	361.25
378.802	364.25
379.027	353.25
379.253	367.25
379.478	350.25
379.704	347.25
379.929	357.25
380.155	345.25
380.38	339.25
380.606	356.25
380.831	343.25
381.057	345.25
381.282	359.25
381.507	328.25
381.733	364.25
381.958	347.25
382.184	360.25
382.409	363.25
382.634	376.25
382.86	356.25
383.085	365.25
383.31	373.25
383.535	371.25
383.761	383.25
383.986	374.25
384.211	393.25
384.436	373.25
384.662	382.25
384.887	411.25
385.112	398.25
385.337	376.25
385.562	388.25
385.787	390.25
386.013	408.25
386.238	384.25
386.463	388.25
386.688	409.25
386.913	397.25
387.138	373.25
387.363	389.25
387.588	408.25
387.813	377.25
388.038	384.25
388.263	399.25
388.488	411.25
388.713	398.25
388.938	390.25
389.163	377.25
389.387	404.25
389.612	363.25
389.837	386.25
390.062	385.25
390.287	407.25
390.512	380.25
390.736	395.25
390.961	397.25
391.186	406.25
391.411	421.25
391.636	412.25
391.86	421.25
392.085	440.25
392.31	440.25
392.534	421.25
392.759	433.25
392.984	407.25
393.208	398.25
393.433	410.25
393.658	425.25
393.882	419.25
394.107	416.25
394.331	423.25
394.556	419.25
394.78	414.25
395.005	403.25
395.229	408.25
395.454	424.25
395.678	418.25
395.903	437.25
396.127	457.25
396.352	449.25
396.576	415.25
396.801	427.25
397.025	429.25
397.249	421.25
397.474	413.25
397.698	412.25
397.922	449.25
398.147	428.25
398.371	432.25
398.595	448.25
398.82	457.25
399.044	482.25
399.268	526.25
399.492	540.25
399.717	613.25
399.941	635.25
400.165	609.25
400.389	568.25
400.613	535.25
400.837	502.25
401.062	477.25
401.286	471.25
401.51	475.25
401.734	459.25
401.958	478.25
402.182	481.25
402.406	482.25
402.63	487.25
402.854	479.25
403.078	481.25
403.302	485.25
403.526	513.25
403.75	513.25
403.974	530.25
404.198	504.25
404.422	502.25
404.645	475.25
404.869	480.25
405.093	497.25
405.317	510.25
405.541	513.25
405.765	517.25
405.988	513.25
406.212	523.25
406.436	521.25
406.66	523.25
406.883	526.25
407.107	525.25
407.331	582.25
407.555	617.25
407.778	627.25
408.002	587.25
408.226	535.25
408.449	537.25
408.673	520.25
408.896	551.25
409.12	572.25
409.344	544.25
409.567	517.25
409.791	504.25
410.014	491.25
410.238	502.25
410.461	505.25
410.685	473.25
410.908	494.25
411.132	510.25
411.355	520.25
411.578	479.25
411.802	484.25
412.025	457.25
412.249	461.25
412.472	472.25
412.695	484.25
412.919	462.25
413.142	464.25
413.365	454.25
413.589	460.25
413.812	454.25
414.035	449.25
414.258	443.25
414.482	456.25
414.705	446.25
414.928	452.25
415.151	437.25
415.374	455.25
415.597	453.25
415.821	438.25
416.044	463.25
416.267	448.25
416.49	430.25
416.713	453.25
416.936	462.25
417.159	450.25
417.382	430.25
417.605	467.25
417.828	446.25
418.051	463.25
418.274	483.25
418.497	464.25
418.72	473.25
418.943	466.25
419.166	471.25
419.389	511.25
419.611	490.25
419.834	489.25
420.057	483.25
420.28	473.25
420.503	478.25
420.726	447.25
420.948	473.25
421.171	519.25
421.394	495.25
421.617	461.25
421.839	469.25
422.062	473.25
422.285	447.25
422.507	482.25
422.73	548.25
422.953	541.25
423.175	511.25
423.398	509.25
423.621	513.25
423.843	501.25
424.066	473.25
424.288	482.25
424.511	509.25
424.733	539.25
424.956	577.25
425.178	559.25
425.401	531.25
425.623	555.25
425.846	515.25
426.068	485.25
426.291	455.25
426.513	468.25
426.735	478.25
426.958	480.25
427.18	530.25
427.402	584.25
427.625	637.25
427.847	555.25
428.069	479.25
428.292	446.25
428.514	465.25
428.736	435.25
428.958	450.25
429.181	437.25
429.403	429.25
429.625	427.25
429.847	459.25
430.069	488.25
430.292	483.25
430.514	447.25
430.736	436.25
430.958	428.25
431.18	413.25
431.402	417.25
431.624	412.25
431.846	428.25
432.068	429.25
432.29	437.25
432.512	422.25
432.734	419.25
432.956	436.25
433.178	427.25
433.4	416.25
433.622	423.25
433.844	423.25
434.066	404.25
434.287	414.25
434.509	413.25
434.731	436.25
434.953	465.25
435.175	465.25
435.397	466.25
435.618	477.25
435.84	470.25
436.062	517.25
436.284	553.25
436.505	489.25
436.727	468.25
436.949	437.25
437.17	430.25
437.392	421.25
437.614	432.25
437.835	455.25
438.057	493.25
438.278	531.25
438.5	526.25
438.721	574.25
438.943	574.25
439.165	472.25
439.386	448.25
439.608	435.25
439.829	445.25
440.05	465.25
440.272	481.25
440.493	478.25
440.715	457.25
440.936	435.25
441.158	462.25
441.379	440.25
441.6	447.25
441.822	480.25
442.043	495.25
442.264	524.25
442.486	551.25
442.707	484.25
442.928	478.25
443.149	464.25
443.371	487.25
443.592	499.25
443.813	578.25
444.034	583.25
444.255	529.25
444.476	499.25
444.698	513.25
444.919	536.25
445.14	625.25
445.361	541.25
445.582	518.25
445.803	513.25
446.024	577.25
446.245	550.25
446.466	523.25
446.687	480.25
446.908	442.25
447.129	439.25
447.35	425.25
447.571	402.25
447.792	424.25
448.013	405.25
448.234	416.25
448.455	445.25
448.675	500.25
448.896	551.25
449.117	500.25
449.338	481.25
449.559	539.25
449.779	580.25
450	514.25
450.221	432.25
450.442	421.25
450.662	399.25
450.883	394.25
451.104	427.25
451.324	402.25
451.545	407.25
451.766	395.25
451.986	381.25
452.207	375.25
452.428	372.25
452.648	384.25
452.869	387.25
453.089	398.25
453.31	396.25
453.53	407.25
453.751	393.25
453.971	376.25
454.192	380.25
454.412	372.25
454.633	383.25
454.853	375.25
455.073	386.25
455.294	401.25
455.514	433.25
455.734	406.25
455.955	376.25
456.175	366.25
456.395	379.25
456.616	371.25
456.836	367.25
457.056	356.25
457.276	363.25
457.497	347.25
457.717	382.25
457.937	377.25
458.157	375.25
458.377	371.25
458.598	390.25
458.818	413.25
459.038	449.25
459.258	461.25
459.478	454.25
459.698	429.25
459.918	425.25
460.138	423.25
460.358	440.25
460.578	473.25
460.798	475.25
461.018	447.25
461.238	444.25
461.458	460.25
461.678	430.25
461.898	449.25
462.118	474.25
462.338	473.25
462.558	465.25
462.777	491.25
462.997	519.25
463.217	541.25
463.437	541.25
463.657	521.25
463.876	494.25
464.096	508.25
464.316	514.25
464.536	499.25
464.755	519.25
464.975	494.25
465.195	506.25
465.414	515.25
465.634	446.25
465.854	424.25
466.073	419.25
466.293	405.25
466.512	403.25
466.732	409.25
466.951	411.25
467.171	385.25
467.391	402.25
467.61	397.25
467.829	405.25
468.049	408.25
468.268	388.25
468.488	398.25
468.707	391.25
468.927	375.25
469.146	381.25
469.365	390.25
469.585	401.25
469.804	391.25
470.023	415.25
470.243	419.25
470.462	387.25
470.681	400.25
470.901	408.25
471.12	411.25
471.339	410.25
471.558	419.25
471.777	409.25
471.997	407.25
472.216	398.25
472.435	421.25
472.654	400.25
472.873	377.25
473.092	397.25
473.311	410.25
473.53	373.25
473.749	385.25
473.968	411.25
474.187	457.25
474.406	467.25
474.625	400.25
474.844	403.25
475.063	372.25
475.282	401.25
475.501	413.25
475.72	392.25
475.939	403.25
476.158	407.25
476.377	401.25
476.596	387.25
476.814	421.25
477.033	419.25
477.252	411.25
477.471	429.25
477.69	427.25
477.908	449.25
478.127	444.25
478.346	449.25
478.564	471.25
478.783	458.25
479.002	459.25
479.22	473.25
479.439	477.25
479.658	467.25
479.876	473.25
480.095	491.25
480.313	512.25
480.532	489.25
480.751	486.25
480.969	496.25
481.188	487.25
481.406	442.25
481.624	461.25
481.843	449.25
482.061	442.25
482.28	451.25
482.498	461.25
482.717	454.25
482.935	437.25
483.153	447.25
483.372	441.25
483.59	435.25
483.808	445.25
484.027	452.25
484.245	434.25
484.463	453.25
484.681	462.25
484.9	440.25
485.118	445.25
485.336	474.25
485.554	473.25
485.772	452.25
485.99	463.25
486.209	478.25
486.427	469.25
486.645	453.25
486.863	456.25
487.081	465.25
487.299	478.25
487.517	487.25
487.735	475.25
487.953	472.25
488.171	465.25
488.389	459.25
488.607	447.25
488.825	471.25
489.043	457.25
489.261	488.25
489.479	482.25
489.696	473.25
489.914	475.25
490.132	496.25
490.35	473.25
490.568	496.25
490.786	481.25
491.003	478.25
491.221	485.25
491.439	525.25
491.657	511.25
491.874	499.25
492.092	492.25
492.31	513.25
492.527	513.25
492.745	520.25
492.963	514.25
493.18	519.25
493.398	525.25
493.615	517.25
493.833	533.25
494.05	509.25
494.268	523.25
494.485	521.25
494.703	523.25
494.92	533.25
495.138	545.25
495.355	535.25
495.573	525.25
495.79	515.25
496.008	568.25
496.225	550.25
496.442	533.25
496.66	541.25
496.877	550.25
497.094	567.25
497.312	543.25
497.529	581.25
497.746	567.25
497.963	565.25
498.181	629.25
498.398	620.25
498.615	657.25
498.832	669.25
499.049	700.25
499.267	743.25
499.484	809.25
499.701	835.25
499.918	895.25
500.135	961.25
500.352	1024.25
500.569	1059.25
500.786	1097.25
501.003	1021.25
501.22	964.25
501.437	886.25
501.654	843.25
501.871	775.25
502.088	727.25
