Data from 1984.PennyLincolnUp.Lamp.En5.5.200Scan.071819.P1_HRD10591_16-58-27-968.txt Node
Date: Thu Jul 18 16:58:27 EDT 2019
User: cochatt
Spectrometer: HR+D1059
Trigger mode: 1
Integration Time (sec): 1.000000E-1
Scans to average: 1
Electric dark correction enabled: true
Nonlinearity correction enabled: false
Boxcar width: 0
XAxis mode: Wavelengths
Number of Pixels in Spectrum: 2048
>>>>>Begin Spectral Data<<<<<
223.165	-15.38
223.4	-15.38
223.635	-15.38
223.869	-13.38
224.104	-19.38
224.338	-13.38
224.573	-20.38
224.808	-13.38
225.042	-1.38
225.277	-9.38
225.511	1.62
225.746	0.62
225.98	2.62
226.215	11.62
226.449	30.62
226.683	20.62
226.918	15.62
227.152	22.62
227.387	30.62
227.621	28.62
227.856	55.62
228.09	44.62
228.324	60.62
228.559	64.62
228.793	67.62
229.027	76.62
229.262	91.62
229.496	92.62
229.73	105.62
229.964	122.62
230.199	106.62
230.433	104.62
230.667	99.62
230.901	107.62
231.136	94.62
231.37	111.62
231.604	103.62
231.838	104.62
232.072	119.62
232.306	112.62
232.541	114.62
232.775	108.62
233.009	124.62
233.243	117.62
233.477	104.62
233.711	98.62
233.945	107.62
234.179	118.62
234.413	102.62
234.647	111.62
234.881	111.62
235.115	115.62
235.349	110.62
235.583	108.62
235.817	102.62
236.051	123.62
236.285	120.62
236.519	112.62
236.753	130.62
236.987	114.62
237.221	141.62
237.455	160.62
237.689	153.62
237.922	126.62
238.156	132.62
238.39	127.62
238.624	115.62
238.858	121.62
239.091	123.62
239.325	120.62
239.559	122.62
239.793	121.62
240.027	106.62
240.26	138.62
240.494	129.62
240.728	131.62
240.961	133.62
241.195	128.62
241.429	128.62
241.662	124.62
241.896	121.62
242.13	130.62
242.363	124.62
242.597	132.62
242.83	131.62
243.064	128.62
243.298	127.62
243.531	138.62
243.765	123.62
243.998	124.62
244.232	134.62
244.465	144.62
244.699	130.62
244.932	136.62
245.166	128.62
245.399	148.62
245.633	115.62
245.866	116.62
246.099	128.62
246.333	145.62
246.566	130.62
246.8	130.62
247.033	140.62
247.266	147.62
247.5	162.62
247.733	150.62
247.966	136.62
248.2	165.62
248.433	162.62
248.666	153.62
248.899	159.62
249.133	171.62
249.366	163.62
249.599	157.62
249.832	137.62
250.066	171.62
250.299	175.62
250.532	172.62
250.765	198.62
250.998	206.62
251.231	190.62
251.465	171.62
251.698	178.62
251.931	174.62
252.164	168.62
252.397	175.62
252.63	163.62
252.863	173.62
253.096	191.62
253.329	180.62
253.562	184.62
253.795	179.62
254.028	187.62
254.261	172.62
254.494	184.62
254.727	187.62
254.96	234.62
255.193	198.62
255.426	201.62
255.659	206.62
255.892	214.62
256.124	219.62
256.357	240.62
256.59	209.62
256.823	202.62
257.056	195.62
257.289	182.62
257.521	185.62
257.754	182.62
257.987	191.62
258.22	176.62
258.452	173.62
258.685	195.62
258.918	196.62
259.151	203.62
259.383	200.62
259.616	190.62
259.849	216.62
260.081	211.62
260.314	207.62
260.547	230.62
260.779	191.62
261.012	200.62
261.244	188.62
261.477	220.62
261.71	187.62
261.942	194.62
262.175	197.62
262.407	206.62
262.64	189.62
262.872	203.62
263.105	198.62
263.337	211.62
263.57	186.62
263.802	212.62
264.035	201.62
264.267	190.62
264.499	183.62
264.732	189.62
264.964	190.62
265.197	192.62
265.429	185.62
265.661	216.62
265.894	191.62
266.126	206.62
266.358	199.62
266.591	207.62
266.823	197.62
267.055	213.62
267.287	202.62
267.52	208.62
267.752	204.62
267.984	208.62
268.216	217.62
268.448	200.62
268.681	212.62
268.913	224.62
269.145	221.62
269.377	236.62
269.609	235.62
269.841	230.62
270.073	226.62
270.306	232.62
270.538	259.62
270.77	246.62
271.002	250.62
271.234	250.62
271.466	251.62
271.698	261.62
271.93	256.62
272.162	266.62
272.394	277.62
272.626	264.62
272.858	254.62
273.09	238.62
273.322	246.62
273.553	245.62
273.785	239.62
274.017	230.62
274.249	250.62
274.481	237.62
274.713	249.62
274.945	248.62
275.176	243.62
275.408	246.62
275.64	219.62
275.872	260.62
276.104	232.62
276.335	243.62
276.567	254.62
276.799	285.62
277.031	283.62
277.262	276.62
277.494	279.62
277.726	262.62
277.957	235.62
278.189	241.62
278.421	254.62
278.652	258.62
278.884	240.62
279.115	252.62
279.347	266.62
279.579	242.62
279.81	263.62
280.042	260.62
280.273	234.62
280.505	261.62
280.736	254.62
280.968	231.62
281.199	238.62
281.431	255.62
281.662	259.62
281.894	244.62
282.125	257.62
282.356	296.62
282.588	283.62
282.819	268.62
283.051	236.62
283.282	263.62
283.513	259.62
283.745	270.62
283.976	269.62
284.207	269.62
284.439	282.62
284.67	253.62
284.901	267.62
285.132	272.62
285.364	284.62
285.595	258.62
285.826	268.62
286.057	269.62
286.288	265.62
286.52	285.62
286.751	268.62
286.982	277.62
287.213	250.62
287.444	275.62
287.675	270.62
287.906	274.62
288.138	272.62
288.369	282.62
288.6	287.62
288.831	270.62
289.062	287.62
289.293	272.62
289.524	289.62
289.755	288.62
289.986	287.62
290.217	283.62
290.448	267.62
290.679	288.62
290.91	269.62
291.141	286.62
291.371	285.62
291.602	274.62
291.833	266.62
292.064	272.62
292.295	286.62
292.526	262.62
292.757	288.62
292.987	277.62
293.218	261.62
293.449	277.62
293.68	271.62
293.91	275.62
294.141	280.62
294.372	300.62
294.603	275.62
294.833	274.62
295.064	275.62
295.295	289.62
295.525	296.62
295.756	289.62
295.987	292.62
296.217	275.62
296.448	294.62
296.679	292.62
296.909	280.62
297.14	291.62
297.37	284.62
297.601	304.62
297.831	314.62
298.062	292.62
298.292	296.62
298.523	306.62
298.753	302.62
298.984	317.62
299.214	308.62
299.445	300.62
299.675	306.62
299.905	316.62
300.136	303.62
300.366	303.62
300.597	302.62
300.827	299.62
301.057	329.62
301.288	334.62
301.518	300.62
301.748	335.62
301.979	324.62
302.209	320.62
302.439	331.62
302.669	318.62
302.9	314.62
303.13	307.62
303.36	312.62
303.59	319.62
303.82	306.62
304.051	326.62
304.281	310.62
304.511	319.62
304.741	304.62
304.971	320.62
305.201	331.62
305.431	312.62
305.661	310.62
305.891	322.62
306.121	314.62
306.352	328.62
306.582	314.62
306.812	307.62
307.042	308.62
307.272	314.62
307.502	327.62
307.731	319.62
307.961	310.62
308.191	314.62
308.421	322.62
308.651	321.62
308.881	307.62
309.111	328.62
309.341	334.62
309.571	328.62
309.8	315.62
310.03	356.62
310.26	354.62
310.49	341.62
310.72	351.62
310.949	353.62
311.179	353.62
311.409	347.62
311.639	336.62
311.868	336.62
312.098	348.62
312.328	327.62
312.557	348.62
312.787	349.62
313.017	369.62
313.246	361.62
313.476	351.62
313.706	339.62
313.935	341.62
314.165	356.62
314.394	358.62
314.624	341.62
314.853	363.62
315.083	353.62
315.312	350.62
315.542	336.62
315.771	333.62
316.001	334.62
316.23	339.62
316.46	342.62
316.689	343.62
316.919	341.62
317.148	364.62
317.377	354.62
317.607	337.62
317.836	335.62
318.065	333.62
318.295	349.62
318.524	340.62
318.753	333.62
318.983	337.62
319.212	332.62
319.441	337.62
319.67	358.62
319.9	357.62
320.129	350.62
320.358	347.62
320.587	356.62
320.816	352.62
321.046	339.62
321.275	367.62
321.504	355.62
321.733	352.62
321.962	358.62
322.191	352.62
322.42	379.62
322.649	390.62
322.878	384.62
323.108	393.62
323.337	410.62
323.566	418.62
323.795	419.62
324.024	445.62
324.253	524.62
324.482	728.62
324.71	996.62
324.939	1364.62
325.168	1188.62
325.397	646.62
325.626	477.62
325.855	443.62
326.084	447.62
326.313	428.62
326.542	423.62
326.77	465.62
326.999	528.62
327.228	656.62
327.457	910.62
327.686	1068.62
327.914	722.62
328.143	552.62
328.372	512.62
328.6	484.62
328.829	468.62
329.058	479.62
329.287	482.62
329.515	453.62
329.744	425.62
329.972	464.62
330.201	500.62
330.43	527.62
330.658	500.62
330.887	490.62
331.115	477.62
331.344	451.62
331.572	425.62
331.801	435.62
332.03	419.62
332.258	408.62
332.486	446.62
332.715	444.62
332.943	437.62
333.172	436.62
333.4	464.62
333.629	472.62
333.857	496.62
334.085	503.62
334.314	546.62
334.542	602.62
334.771	578.62
334.999	534.62
335.227	466.62
335.455	447.62
335.684	458.62
335.912	423.62
336.14	424.62
336.369	446.62
336.597	424.62
336.825	405.62
337.053	424.62
337.281	414.62
337.51	406.62
337.738	414.62
337.966	408.62
338.194	404.62
338.422	391.62
338.65	400.62
338.878	410.62
339.106	380.62
339.334	401.62
339.562	382.62
339.79	377.62
340.018	398.62
340.246	394.62
340.474	385.62
340.702	393.62
340.93	387.62
341.158	375.62
341.386	368.62
341.614	382.62
341.842	400.62
342.07	403.62
342.298	388.62
342.526	379.62
342.754	383.62
342.981	366.62
343.209	383.62
343.437	394.62
343.665	394.62
343.893	387.62
344.12	438.62
344.348	426.62
344.576	409.62
344.804	408.62
345.031	381.62
345.259	386.62
345.487	394.62
345.714	381.62
345.942	356.62
346.17	365.62
346.397	374.62
346.625	374.62
346.853	362.62
347.08	380.62
347.308	354.62
347.535	377.62
347.763	372.62
347.99	384.62
348.218	366.62
348.445	377.62
348.673	386.62
348.9	373.62
349.128	364.62
349.355	355.62
349.583	359.62
349.81	359.62
350.037	344.62
350.265	346.62
350.492	346.62
350.72	355.62
350.947	333.62
351.174	346.62
351.402	370.62
351.629	364.62
351.856	377.62
352.083	375.62
352.311	372.62
352.538	360.62
352.765	363.62
352.992	354.62
353.22	349.62
353.447	361.62
353.674	362.62
353.901	366.62
354.128	369.62
354.355	351.62
354.583	354.62
354.81	334.62
355.037	323.62
355.264	354.62
355.491	341.62
355.718	341.62
355.945	354.62
356.172	346.62
356.399	359.62
356.626	342.62
356.853	344.62
357.08	336.62
357.307	354.62
357.534	359.62
357.761	328.62
357.988	356.62
358.215	356.62
358.441	354.62
358.668	333.62
358.895	360.62
359.122	359.62
359.349	364.62
359.576	374.62
359.802	376.62
360.029	398.62
360.256	386.62
360.483	378.62
360.709	374.62
360.936	351.62
361.163	347.62
361.39	364.62
361.616	359.62
361.843	375.62
362.07	362.62
362.296	340.62
362.523	359.62
362.749	361.62
362.976	352.62
363.203	350.62
363.429	343.62
363.656	357.62
363.882	343.62
364.109	346.62
364.335	350.62
364.562	354.62
364.788	363.62
365.015	333.62
365.241	344.62
365.468	370.62
365.694	350.62
365.92	342.62
366.147	339.62
366.373	338.62
366.599	339.62
366.826	325.62
367.052	325.62
367.278	345.62
367.505	342.62
367.731	355.62
367.957	337.62
368.184	331.62
368.41	346.62
368.636	344.62
368.862	368.62
369.089	357.62
369.315	362.62
369.541	351.62
369.767	362.62
369.993	348.62
370.219	354.62
370.445	348.62
370.672	340.62
370.898	350.62
371.124	359.62
371.35	339.62
371.576	343.62
371.802	352.62
372.028	351.62
372.254	348.62
372.48	360.62
372.706	355.62
372.932	367.62
373.158	354.62
373.384	360.62
373.61	385.62
373.835	348.62
374.061	360.62
374.287	382.62
374.513	378.62
374.739	379.62
374.965	361.62
375.191	367.62
375.416	358.62
375.642	356.62
375.868	364.62
376.094	371.62
376.319	362.62
376.545	352.62
376.771	363.62
376.997	348.62
377.222	352.62
377.448	345.62
377.674	348.62
377.899	339.62
378.125	360.62
378.35	347.62
378.576	335.62
378.802	330.62
379.027	360.62
379.253	338.62
379.478	324.62
379.704	361.62
379.929	367.62
380.155	354.62
380.38	355.62
380.606	345.62
380.831	330.62
381.057	346.62
381.282	356.62
381.507	347.62
381.733	358.62
381.958	366.62
382.184	347.62
382.409	365.62
382.634	379.62
382.86	366.62
383.085	357.62
383.31	384.62
383.535	373.62
383.761	387.62
383.986	366.62
384.211	374.62
384.436	390.62
384.662	386.62
384.887	422.62
385.112	386.62
385.337	418.62
385.562	390.62
385.787	419.62
386.013	416.62
386.238	400.62
386.463	416.62
386.688	406.62
386.913	403.62
387.138	411.62
387.363	395.62
387.588	394.62
387.813	404.62
388.038	423.62
388.263	387.62
388.488	413.62
388.713	423.62
388.938	396.62
389.163	386.62
389.387	392.62
389.612	385.62
389.837	385.62
390.062	397.62
390.287	377.62
390.512	398.62
390.736	380.62
390.961	373.62
391.186	386.62
391.411	406.62
391.636	412.62
391.86	417.62
392.085	413.62
392.31	431.62
392.534	415.62
392.759	419.62
392.984	415.62
393.208	411.62
393.433	420.62
393.658	407.62
393.882	407.62
394.107	409.62
394.331	414.62
394.556	405.62
394.78	411.62
395.005	416.62
395.229	419.62
395.454	426.62
395.678	430.62
395.903	431.62
396.127	437.62
396.352	436.62
396.576	419.62
396.801	416.62
397.025	423.62
397.249	457.62
397.474	432.62
397.698	435.62
397.922	430.62
398.147	452.62
398.371	440.62
398.595	440.62
398.82	460.62
399.044	471.62
399.268	508.62
399.492	558.62
399.717	603.62
399.941	626.62
400.165	617.62
400.389	583.62
400.613	545.62
400.837	503.62
401.062	468.62
401.286	484.62
401.51	467.62
401.734	451.62
401.958	486.62
402.182	492.62
402.406	482.62
402.63	479.62
402.854	464.62
403.078	476.62
403.302	482.62
403.526	506.62
403.75	521.62
403.974	527.62
404.198	526.62
404.422	512.62
404.645	524.62
404.869	525.62
405.093	551.62
405.317	553.62
405.541	579.62
405.765	550.62
405.988	519.62
406.212	509.62
406.436	518.62
406.66	548.62
406.883	536.62
407.107	567.62
407.331	582.62
407.555	632.62
407.778	606.62
408.002	582.62
408.226	536.62
408.449	540.62
408.673	550.62
408.896	540.62
409.12	559.62
409.344	567.62
409.567	519.62
409.791	493.62
410.014	503.62
410.238	504.62
410.461	508.62
410.685	521.62
410.908	495.62
411.132	522.62
411.355	517.62
411.578	494.62
411.802	502.62
412.025	491.62
412.249	508.62
412.472	523.62
412.695	548.62
412.919	527.62
413.142	506.62
413.365	494.62
413.589	469.62
413.812	457.62
414.035	460.62
414.258	466.62
414.482	470.62
414.705	471.62
414.928	484.62
415.151	447.62
415.374	473.62
415.597	484.62
415.821	477.62
416.044	475.62
416.267	470.62
416.49	481.62
416.713	468.62
416.936	445.62
417.159	468.62
417.382	468.62
417.605	456.62
417.828	454.62
418.051	477.62
418.274	488.62
418.497	470.62
418.72	476.62
418.943	459.62
419.166	481.62
419.389	485.62
419.611	498.62
419.834	504.62
420.057	500.62
420.28	493.62
420.503	503.62
420.726	492.62
420.948	496.62
421.171	489.62
421.394	510.62
421.617	482.62
421.839	459.62
422.062	471.62
422.285	475.62
422.507	526.62
422.73	551.62
422.953	536.62
423.175	490.62
423.398	514.62
423.621	490.62
423.843	495.62
424.066	494.62
424.288	514.62
424.511	496.62
424.733	534.62
424.956	569.62
425.178	556.62
425.401	536.62
425.623	554.62
425.846	512.62
426.068	471.62
426.291	471.62
426.513	466.62
426.735	474.62
426.958	504.62
427.18	533.62
427.402	628.62
427.625	682.62
427.847	589.62
428.069	544.62
428.292	518.62
428.514	472.62
428.736	459.62
428.958	441.62
429.181	436.62
429.403	428.62
429.625	459.62
429.847	446.62
430.069	484.62
430.292	494.62
430.514	434.62
430.736	427.62
430.958	416.62
431.18	423.62
431.402	427.62
431.624	411.62
431.846	404.62
432.068	426.62
432.29	443.62
432.512	428.62
432.734	426.62
432.956	433.62
433.178	438.62
433.4	440.62
433.622	447.62
433.844	446.62
434.066	436.62
434.287	416.62
434.509	421.62
434.731	446.62
434.953	500.62
435.175	477.62
435.397	483.62
435.618	484.62
435.84	468.62
436.062	542.62
436.284	574.62
436.505	513.62
436.727	452.62
436.949	458.62
437.17	442.62
437.392	421.62
437.614	439.62
437.835	468.62
438.057	496.62
438.278	569.62
438.5	567.62
438.721	611.62
438.943	585.62
439.165	489.62
439.386	452.62
439.608	479.62
439.829	468.62
440.05	455.62
440.272	507.62
440.493	482.62
440.715	454.62
440.936	458.62
441.158	438.62
441.379	476.62
441.6	476.62
441.822	482.62
442.043	517.62
442.264	550.62
442.486	557.62
442.707	508.62
442.928	483.62
443.149	487.62
443.371	499.62
443.592	523.62
443.813	587.62
444.034	601.62
444.255	547.62
444.476	511.62
444.698	516.62
444.919	538.62
445.14	624.62
445.361	547.62
445.582	505.62
445.803	538.62
446.024	565.62
446.245	566.62
446.466	536.62
446.687	474.62
446.908	447.62
447.129	427.62
447.35	438.62
447.571	432.62
447.792	423.62
448.013	415.62
448.234	436.62
448.455	431.62
448.675	518.62
448.896	592.62
449.117	521.62
449.338	502.62
449.559	535.62
449.779	636.62
450	518.62
450.221	438.62
450.442	431.62
450.662	402.62
450.883	412.62
451.104	445.62
451.324	414.62
451.545	411.62
451.766	387.62
451.986	374.62
452.207	384.62
452.428	381.62
452.648	390.62
452.869	399.62
453.089	404.62
453.31	397.62
453.53	406.62
453.751	384.62
453.971	401.62
454.192	393.62
454.412	419.62
454.633	400.62
454.853	390.62
455.073	392.62
455.294	409.62
455.514	429.62
455.734	422.62
455.955	368.62
456.175	378.62
456.395	377.62
456.616	384.62
456.836	376.62
457.056	357.62
457.276	372.62
457.497	374.62
457.717	374.62
457.937	375.62
458.157	378.62
458.377	379.62
458.598	394.62
458.818	412.62
459.038	447.62
459.258	468.62
459.478	434.62
459.698	425.62
459.918	450.62
460.138	447.62
460.358	449.62
460.578	458.62
460.798	451.62
461.018	470.62
461.238	474.62
461.458	445.62
461.678	444.62
461.898	458.62
462.118	468.62
462.338	484.62
462.558	498.62
462.777	494.62
462.997	533.62
463.217	557.62
463.437	546.62
463.657	559.62
463.876	488.62
464.096	498.62
464.316	498.62
464.536	511.62
464.755	508.62
464.975	516.62
465.195	489.62
465.414	490.62
465.634	462.62
465.854	446.62
466.073	445.62
466.293	417.62
466.512	400.62
466.732	402.62
466.951	404.62
467.171	392.62
467.391	412.62
467.61	422.62
467.829	413.62
468.049	413.62
468.268	423.62
468.488	398.62
468.707	378.62
468.927	396.62
469.146	395.62
469.365	422.62
469.585	392.62
469.804	418.62
470.023	424.62
470.243	419.62
470.462	404.62
470.681	443.62
470.901	417.62
471.12	424.62
471.339	414.62
471.558	427.62
471.777	399.62
471.997	396.62
472.216	420.62
472.435	454.62
472.654	452.62
472.873	416.62
473.092	399.62
473.311	412.62
473.53	402.62
473.749	398.62
473.968	441.62
474.187	464.62
474.406	466.62
474.625	425.62
474.844	394.62
475.063	419.62
475.282	423.62
475.501	401.62
475.72	417.62
475.939	403.62
476.158	404.62
476.377	406.62
476.596	394.62
476.814	395.62
477.033	415.62
477.252	431.62
477.471	424.62
477.69	453.62
477.908	432.62
478.127	463.62
478.346	452.62
478.564	446.62
478.783	480.62
479.002	465.62
479.22	461.62
479.439	470.62
479.658	481.62
479.876	489.62
480.095	499.62
480.313	517.62
480.532	510.62
480.751	490.62
480.969	515.62
481.188	587.62
481.406	600.62
481.624	564.62
481.843	506.62
482.061	512.62
482.28	477.62
482.498	459.62
482.717	458.62
482.935	458.62
483.153	466.62
483.372	460.62
483.59	460.62
483.808	439.62
484.027	448.62
484.245	463.62
484.463	451.62
484.681	476.62
484.9	478.62
485.118	472.62
485.336	467.62
485.554	466.62
485.772	474.62
485.99	469.62
486.209	460.62
486.427	486.62
486.645	476.62
486.863	496.62
487.081	495.62
487.299	487.62
487.517	472.62
487.735	489.62
487.953	480.62
488.171	483.62
488.389	486.62
488.607	482.62
488.825	478.62
489.043	494.62
489.261	488.62
489.479	495.62
489.696	482.62
489.914	482.62
490.132	484.62
490.35	506.62
490.568	490.62
490.786	514.62
491.003	504.62
491.221	506.62
491.439	531.62
491.657	540.62
491.874	550.62
492.092	537.62
492.31	543.62
492.527	549.62
492.745	560.62
492.963	575.62
493.18	558.62
493.398	534.62
493.615	555.62
493.833	552.62
494.05	568.62
494.268	556.62
494.485	553.62
494.703	579.62
494.92	556.62
495.138	542.62
495.355	543.62
495.573	546.62
495.79	558.62
496.008	569.62
496.225	554.62
496.442	566.62
496.66	565.62
496.877	558.62
497.094	578.62
497.312	580.62
497.529	601.62
497.746	588.62
497.963	598.62
498.181	632.62
498.398	642.62
498.615	655.62
498.832	698.62
499.049	713.62
499.267	719.62
499.484	795.62
499.701	824.62
499.918	872.62
500.135	950.62
500.352	1056.62
500.569	1078.62
500.786	1094.62
501.003	1062.62
501.22	985.62
501.437	922.62
501.654	836.62
501.871	815.62
502.088	773.62
