Data from 1984.PennyLincolnUp.Lamp.En5.5.200Scan.071819.P1_HRD10591_16-58-36-967.txt Node
Date: Thu Jul 18 16:58:36 EDT 2019
User: cochatt
Spectrometer: HR+D1059
Trigger mode: 1
Integration Time (sec): 1.000000E-1
Scans to average: 1
Electric dark correction enabled: true
Nonlinearity correction enabled: false
Boxcar width: 0
XAxis mode: Wavelengths
Number of Pixels in Spectrum: 2048
>>>>>Begin Spectral Data<<<<<
223.165	-17.81
223.4	-17.81
223.635	-17.81
223.869	-18.81
224.104	-30.81
224.338	-16.81
224.573	-21.81
224.808	-3.81
225.042	-7.81
225.277	-4.81
225.511	6.19
225.746	3.19
225.98	5.19
226.215	7.19
226.449	33.19
226.683	15.19
226.918	21.19
227.152	31.19
227.387	31.19
227.621	27.19
227.856	48.19
228.09	43.19
228.324	52.19
228.559	51.19
228.793	75.19
229.027	96.19
229.262	103.19
229.496	96.19
229.73	109.19
229.964	118.19
230.199	105.19
230.433	90.19
230.667	96.19
230.901	102.19
231.136	111.19
231.37	91.19
231.604	108.19
231.838	102.19
232.072	120.19
232.306	116.19
232.541	101.19
232.775	108.19
233.009	114.19
233.243	109.19
233.477	120.19
233.711	103.19
233.945	105.19
234.179	101.19
234.413	114.19
234.647	117.19
234.881	117.19
235.115	102.19
235.349	111.19
235.583	117.19
235.817	114.19
236.051	124.19
236.285	117.19
236.519	118.19
236.753	111.19
236.987	131.19
237.221	149.19
237.455	173.19
237.689	150.19
237.922	117.19
238.156	131.19
238.39	122.19
238.624	110.19
238.858	110.19
239.091	112.19
239.325	116.19
239.559	104.19
239.793	118.19
240.027	122.19
240.26	125.19
240.494	141.19
240.728	133.19
240.961	146.19
241.195	136.19
241.429	120.19
241.662	110.19
241.896	116.19
242.13	134.19
242.363	120.19
242.597	126.19
242.83	128.19
243.064	129.19
243.298	113.19
243.531	116.19
243.765	115.19
243.998	133.19
244.232	131.19
244.465	139.19
244.699	130.19
244.932	137.19
245.166	128.19
245.399	132.19
245.633	125.19
245.866	137.19
246.099	139.19
246.333	134.19
246.566	134.19
246.8	133.19
247.033	140.19
247.266	126.19
247.5	134.19
247.733	157.19
247.966	138.19
248.2	175.19
248.433	153.19
248.666	146.19
248.899	166.19
249.133	164.19
249.366	169.19
249.599	168.19
249.832	154.19
250.066	165.19
250.299	177.19
250.532	180.19
250.765	194.19
250.998	185.19
251.231	185.19
251.465	174.19
251.698	185.19
251.931	187.19
252.164	161.19
252.397	173.19
252.63	174.19
252.863	170.19
253.096	186.19
253.329	190.19
253.562	196.19
253.795	185.19
254.028	177.19
254.261	194.19
254.494	186.19
254.727	210.19
254.96	230.19
255.193	209.19
255.426	217.19
255.659	209.19
255.892	216.19
256.124	228.19
256.357	241.19
256.59	221.19
256.823	197.19
257.056	203.19
257.289	189.19
257.521	180.19
257.754	200.19
257.987	169.19
258.22	182.19
258.452	195.19
258.685	191.19
258.918	171.19
259.151	177.19
259.383	198.19
259.616	205.19
259.849	198.19
260.081	201.19
260.314	213.19
260.547	209.19
260.779	195.19
261.012	191.19
261.244	193.19
261.477	191.19
261.71	192.19
261.942	202.19
262.175	192.19
262.407	189.19
262.64	173.19
262.872	185.19
263.105	166.19
263.337	197.19
263.57	198.19
263.802	200.19
264.035	201.19
264.267	182.19
264.499	195.19
264.732	199.19
264.964	198.19
265.197	200.19
265.429	223.19
265.661	199.19
265.894	196.19
266.126	202.19
266.358	193.19
266.591	197.19
266.823	195.19
267.055	214.19
267.287	215.19
267.52	193.19
267.752	215.19
267.984	198.19
268.216	209.19
268.448	222.19
268.681	204.19
268.913	221.19
269.145	215.19
269.377	231.19
269.609	224.19
269.841	247.19
270.073	229.19
270.306	261.19
270.538	254.19
270.77	264.19
271.002	259.19
271.234	264.19
271.466	262.19
271.698	272.19
271.93	256.19
272.162	271.19
272.394	289.19
272.626	266.19
272.858	252.19
273.09	246.19
273.322	262.19
273.553	230.19
273.785	240.19
274.017	264.19
274.249	249.19
274.481	246.19
274.713	253.19
274.945	251.19
275.176	245.19
275.408	238.19
275.64	234.19
275.872	242.19
276.104	230.19
276.335	243.19
276.567	243.19
276.799	247.19
277.031	251.19
277.262	278.19
277.494	291.19
277.726	283.19
277.957	268.19
278.189	256.19
278.421	264.19
278.652	245.19
278.884	275.19
279.115	256.19
279.347	239.19
279.579	260.19
279.81	254.19
280.042	238.19
280.273	248.19
280.505	272.19
280.736	257.19
280.968	259.19
281.199	257.19
281.431	263.19
281.662	240.19
281.894	271.19
282.125	259.19
282.356	269.19
282.588	286.19
282.819	280.19
283.051	265.19
283.282	264.19
283.513	264.19
283.745	271.19
283.976	276.19
284.207	275.19
284.439	274.19
284.67	276.19
284.901	246.19
285.132	265.19
285.364	281.19
285.595	247.19
285.826	266.19
286.057	257.19
286.288	272.19
286.52	281.19
286.751	285.19
286.982	271.19
287.213	273.19
287.444	274.19
287.675	272.19
287.906	276.19
288.138	271.19
288.369	289.19
288.6	304.19
288.831	307.19
289.062	271.19
289.293	270.19
289.524	288.19
289.755	281.19
289.986	286.19
290.217	266.19
290.448	280.19
290.679	268.19
290.91	280.19
291.141	291.19
291.371	285.19
291.602	281.19
291.833	288.19
292.064	267.19
292.295	273.19
292.526	287.19
292.757	277.19
292.987	285.19
293.218	284.19
293.449	314.19
293.68	287.19
293.91	271.19
294.141	276.19
294.372	278.19
294.603	276.19
294.833	288.19
295.064	282.19
295.295	289.19
295.525	282.19
295.756	289.19
295.987	286.19
296.217	306.19
296.448	289.19
296.679	295.19
296.909	282.19
297.14	315.19
297.37	297.19
297.601	293.19
297.831	297.19
298.062	294.19
298.292	313.19
298.523	296.19
298.753	290.19
298.984	283.19
299.214	293.19
299.445	292.19
299.675	307.19
299.905	313.19
300.136	315.19
300.366	302.19
300.597	287.19
300.827	309.19
301.057	322.19
301.288	335.19
301.518	328.19
301.748	311.19
301.979	314.19
302.209	310.19
302.439	337.19
302.669	312.19
302.9	317.19
303.13	316.19
303.36	298.19
303.59	321.19
303.82	318.19
304.051	309.19
304.281	322.19
304.511	330.19
304.741	325.19
304.971	335.19
305.201	323.19
305.431	309.19
305.661	288.19
305.891	312.19
306.121	324.19
306.352	323.19
306.582	328.19
306.812	318.19
307.042	320.19
307.272	297.19
307.502	317.19
307.731	335.19
307.961	321.19
308.191	314.19
308.421	318.19
308.651	322.19
308.881	316.19
309.111	315.19
309.341	318.19
309.571	337.19
309.8	325.19
310.03	326.19
310.26	355.19
310.49	346.19
310.72	346.19
310.949	359.19
311.179	383.19
311.409	334.19
311.639	342.19
311.868	349.19
312.098	356.19
312.328	331.19
312.557	353.19
312.787	348.19
313.017	360.19
313.246	354.19
313.476	357.19
313.706	350.19
313.935	361.19
314.165	357.19
314.394	352.19
314.624	362.19
314.853	347.19
315.083	339.19
315.312	348.19
315.542	344.19
315.771	352.19
316.001	349.19
316.23	344.19
316.46	347.19
316.689	347.19
316.919	344.19
317.148	345.19
317.377	335.19
317.607	358.19
317.836	349.19
318.065	357.19
318.295	356.19
318.524	349.19
318.753	328.19
318.983	333.19
319.212	341.19
319.441	363.19
319.67	359.19
319.9	360.19
320.129	338.19
320.358	357.19
320.587	355.19
320.816	341.19
321.046	358.19
321.275	357.19
321.504	355.19
321.733	377.19
321.962	368.19
322.191	363.19
322.42	385.19
322.649	379.19
322.878	377.19
323.108	392.19
323.337	415.19
323.566	415.19
323.795	424.19
324.024	495.19
324.253	539.19
324.482	719.19
324.71	1064.19
324.939	1453.19
325.168	1274.19
325.397	727.19
325.626	517.19
325.855	474.19
326.084	436.19
326.313	434.19
326.542	418.19
326.77	472.19
326.999	554.19
327.228	704.19
327.457	963.19
327.686	1158.19
327.914	809.19
328.143	579.19
328.372	529.19
328.6	493.19
328.829	488.19
329.058	490.19
329.287	480.19
329.515	479.19
329.744	448.19
329.972	476.19
330.201	509.19
330.43	536.19
330.658	533.19
330.887	510.19
331.115	511.19
331.344	458.19
331.572	472.19
331.801	429.19
332.03	457.19
332.258	423.19
332.486	430.19
332.715	448.19
332.943	451.19
333.172	461.19
333.4	472.19
333.629	485.19
333.857	509.19
334.085	542.19
334.314	587.19
334.542	596.19
334.771	609.19
334.999	537.19
335.227	501.19
335.455	475.19
335.684	460.19
335.912	443.19
336.14	443.19
336.369	425.19
336.597	434.19
336.825	437.19
337.053	420.19
337.281	418.19
337.51	411.19
337.738	437.19
337.966	405.19
338.194	419.19
338.422	412.19
338.65	423.19
338.878	399.19
339.106	413.19
339.334	395.19
339.562	394.19
339.79	400.19
340.018	384.19
340.246	393.19
340.474	376.19
340.702	412.19
340.93	401.19
341.158	408.19
341.386	406.19
341.614	385.19
341.842	401.19
342.07	377.19
342.298	385.19
342.526	378.19
342.754	370.19
342.981	394.19
343.209	388.19
343.437	410.19
343.665	413.19
343.893	436.19
344.12	417.19
344.348	434.19
344.576	412.19
344.804	389.19
345.031	413.19
345.259	401.19
345.487	381.19
345.714	388.19
345.942	381.19
346.17	378.19
346.397	375.19
346.625	377.19
346.853	347.19
347.08	364.19
347.308	367.19
347.535	359.19
347.763	387.19
347.99	390.19
348.218	365.19
348.445	377.19
348.673	361.19
348.9	362.19
349.128	370.19
349.355	363.19
349.583	356.19
349.81	359.19
350.037	379.19
350.265	371.19
350.492	381.19
350.72	382.19
350.947	358.19
351.174	372.19
351.402	373.19
351.629	362.19
351.856	366.19
352.083	367.19
352.311	381.19
352.538	379.19
352.765	372.19
352.992	357.19
353.22	360.19
353.447	372.19
353.674	362.19
353.901	360.19
354.128	346.19
354.355	368.19
354.583	356.19
354.81	357.19
355.037	375.19
355.264	345.19
355.491	354.19
355.718	358.19
355.945	358.19
356.172	360.19
356.399	344.19
356.626	330.19
356.853	341.19
357.08	364.19
357.307	372.19
357.534	352.19
357.761	347.19
357.988	352.19
358.215	339.19
358.441	327.19
358.668	322.19
358.895	341.19
359.122	347.19
359.349	366.19
359.576	359.19
359.802	388.19
360.029	383.19
360.256	378.19
360.483	377.19
360.709	368.19
360.936	366.19
361.163	358.19
361.39	358.19
361.616	372.19
361.843	371.19
362.07	356.19
362.296	381.19
362.523	352.19
362.749	377.19
362.976	365.19
363.203	344.19
363.429	365.19
363.656	356.19
363.882	362.19
364.109	369.19
364.335	357.19
364.562	349.19
364.788	348.19
365.015	364.19
365.241	360.19
365.468	362.19
365.694	351.19
365.92	353.19
366.147	357.19
366.373	342.19
366.599	335.19
366.826	356.19
367.052	362.19
367.278	336.19
367.505	344.19
367.731	346.19
367.957	336.19
368.184	356.19
368.41	365.19
368.636	354.19
368.862	377.19
369.089	355.19
369.315	361.19
369.541	361.19
369.767	355.19
369.993	363.19
370.219	341.19
370.445	359.19
370.672	357.19
370.898	366.19
371.124	374.19
371.35	357.19
371.576	363.19
371.802	360.19
372.028	361.19
372.254	361.19
372.48	341.19
372.706	362.19
372.932	377.19
373.158	371.19
373.384	369.19
373.61	365.19
373.835	369.19
374.061	360.19
374.287	361.19
374.513	378.19
374.739	377.19
374.965	387.19
375.191	374.19
375.416	366.19
375.642	356.19
375.868	360.19
376.094	361.19
376.319	362.19
376.545	358.19
376.771	359.19
376.997	334.19
377.222	355.19
377.448	359.19
377.674	357.19
377.899	358.19
378.125	336.19
378.35	341.19
378.576	355.19
378.802	337.19
379.027	337.19
379.253	342.19
379.478	353.19
379.704	335.19
379.929	346.19
380.155	357.19
380.38	367.19
380.606	354.19
380.831	359.19
381.057	360.19
381.282	346.19
381.507	351.19
381.733	371.19
381.958	382.19
382.184	397.19
382.409	362.19
382.634	357.19
382.86	359.19
383.085	375.19
383.31	368.19
383.535	374.19
383.761	374.19
383.986	378.19
384.211	395.19
384.436	385.19
384.662	403.19
384.887	388.19
385.112	397.19
385.337	412.19
385.562	407.19
385.787	409.19
386.013	393.19
386.238	407.19
386.463	403.19
386.688	399.19
386.913	389.19
387.138	395.19
387.363	400.19
387.588	423.19
387.813	413.19
388.038	399.19
388.263	408.19
388.488	396.19
388.713	413.19
388.938	403.19
389.163	404.19
389.387	386.19
389.612	411.19
389.837	419.19
390.062	396.19
390.287	399.19
390.512	390.19
390.736	402.19
390.961	418.19
391.186	411.19
391.411	422.19
391.636	419.19
391.86	441.19
392.085	441.19
392.31	424.19
392.534	419.19
392.759	421.19
392.984	424.19
393.208	408.19
393.433	398.19
393.658	422.19
393.882	418.19
394.107	404.19
394.331	412.19
394.556	421.19
394.78	421.19
395.005	405.19
395.229	424.19
395.454	416.19
395.678	432.19
395.903	403.19
396.127	440.19
396.352	465.19
396.576	439.19
396.801	428.19
397.025	425.19
397.249	412.19
397.474	443.19
397.698	424.19
397.922	450.19
398.147	469.19
398.371	463.19
398.595	464.19
398.82	482.19
399.044	502.19
399.268	523.19
399.492	578.19
399.717	621.19
399.941	647.19
400.165	631.19
400.389	611.19
400.613	549.19
400.837	522.19
401.062	488.19
401.286	478.19
401.51	482.19
401.734	480.19
401.958	484.19
402.182	489.19
402.406	498.19
402.63	503.19
402.854	515.19
403.078	495.19
403.302	514.19
403.526	489.19
403.75	519.19
403.974	544.19
404.198	529.19
404.422	522.19
404.645	550.19
404.869	516.19
405.093	548.19
405.317	593.19
405.541	577.19
405.765	565.19
405.988	516.19
406.212	530.19
406.436	555.19
406.66	560.19
406.883	521.19
407.107	555.19
407.331	585.19
407.555	635.19
407.778	634.19
408.002	624.19
408.226	572.19
408.449	575.19
408.673	558.19
408.896	566.19
409.12	583.19
409.344	521.19
409.567	507.19
409.791	504.19
410.014	495.19
410.238	516.19
410.461	516.19
410.685	510.19
410.908	506.19
411.132	496.19
411.355	522.19
411.578	513.19
411.802	528.19
412.025	513.19
412.249	546.19
412.472	545.19
412.695	550.19
412.919	559.19
413.142	503.19
413.365	510.19
413.589	483.19
413.812	483.19
414.035	481.19
414.258	469.19
414.482	475.19
414.705	471.19
414.928	453.19
415.151	464.19
415.374	451.19
415.597	469.19
415.821	463.19
416.044	474.19
416.267	478.19
416.49	468.19
416.713	467.19
416.936	462.19
417.159	481.19
417.382	473.19
417.605	460.19
417.828	464.19
418.051	486.19
418.274	470.19
418.497	477.19
418.72	485.19
418.943	471.19
419.166	510.19
419.389	542.19
419.611	506.19
419.834	496.19
420.057	508.19
420.28	479.19
420.503	511.19
420.726	481.19
420.948	509.19
421.171	497.19
421.394	511.19
421.617	503.19
421.839	497.19
422.062	469.19
422.285	470.19
422.507	526.19
422.73	547.19
422.953	559.19
423.175	507.19
423.398	505.19
423.621	490.19
423.843	524.19
424.066	505.19
424.288	521.19
424.511	511.19
424.733	543.19
424.956	617.19
425.178	593.19
425.401	558.19
425.623	583.19
425.846	522.19
426.068	496.19
426.291	484.19
426.513	488.19
426.735	485.19
426.958	504.19
427.18	565.19
427.402	624.19
427.625	669.19
427.847	613.19
428.069	578.19
428.292	522.19
428.514	469.19
428.736	459.19
428.958	463.19
429.181	448.19
429.403	439.19
429.625	465.19
429.847	457.19
430.069	502.19
430.292	505.19
430.514	448.19
430.736	462.19
430.958	448.19
431.18	439.19
431.402	446.19
431.624	437.19
431.846	442.19
432.068	439.19
432.29	419.19
432.512	431.19
432.734	458.19
432.956	435.19
433.178	442.19
433.4	439.19
433.622	421.19
433.844	439.19
434.066	428.19
434.287	459.19
434.509	468.19
434.731	462.19
434.953	454.19
435.175	463.19
435.397	486.19
435.618	493.19
435.84	504.19
436.062	539.19
436.284	564.19
436.505	512.19
436.727	482.19
436.949	455.19
437.17	458.19
437.392	437.19
437.614	430.19
437.835	445.19
438.057	504.19
438.278	571.19
438.5	563.19
438.721	606.19
438.943	616.19
439.165	494.19
439.386	480.19
439.608	475.19
439.829	458.19
440.05	478.19
440.272	509.19
440.493	478.19
440.715	471.19
440.936	434.19
441.158	461.19
441.379	460.19
441.6	477.19
441.822	498.19
442.043	536.19
442.264	549.19
442.486	587.19
442.707	529.19
442.928	510.19
443.149	495.19
443.371	509.19
443.592	557.19
443.813	587.19
444.034	612.19
444.255	557.19
444.476	507.19
444.698	529.19
444.919	546.19
445.14	629.19
445.361	569.19
445.582	534.19
445.803	540.19
446.024	601.19
446.245	615.19
446.466	569.19
446.687	497.19
446.908	467.19
447.129	432.19
447.35	449.19
447.571	434.19
447.792	437.19
448.013	420.19
448.234	447.19
448.455	484.19
448.675	552.19
448.896	587.19
449.117	530.19
449.338	499.19
449.559	548.19
449.779	633.19
450	519.19
450.221	460.19
450.442	434.19
450.662	426.19
450.883	415.19
451.104	418.19
451.324	438.19
451.545	423.19
451.766	404.19
451.986	405.19
452.207	390.19
452.428	419.19
452.648	403.19
452.869	387.19
453.089	394.19
453.31	414.19
453.53	407.19
453.751	406.19
453.971	384.19
454.192	401.19
454.412	395.19
454.633	406.19
454.853	374.19
455.073	391.19
455.294	401.19
455.514	461.19
455.734	427.19
455.955	384.19
456.175	387.19
456.395	379.19
456.616	366.19
456.836	369.19
457.056	375.19
457.276	343.19
457.497	358.19
457.717	371.19
457.937	386.19
458.157	383.19
458.377	397.19
458.598	408.19
458.818	425.19
459.038	486.19
459.258	491.19
459.478	445.19
459.698	452.19
459.918	427.19
460.138	452.19
460.358	456.19
460.578	459.19
460.798	475.19
461.018	459.19
461.238	465.19
461.458	474.19
461.678	462.19
461.898	470.19
462.118	495.19
462.338	488.19
462.558	492.19
462.777	490.19
462.997	529.19
463.217	563.19
463.437	566.19
463.657	537.19
463.876	520.19
464.096	518.19
464.316	541.19
464.536	525.19
464.755	530.19
464.975	506.19
465.195	504.19
465.414	532.19
465.634	473.19
465.854	432.19
466.073	438.19
466.293	444.19
466.512	427.19
466.732	407.19
466.951	416.19
467.171	394.19
467.391	427.19
467.61	439.19
467.829	433.19
468.049	439.19
468.268	429.19
468.488	415.19
468.707	402.19
468.927	411.19
469.146	409.19
469.365	402.19
469.585	393.19
469.804	401.19
470.023	439.19
470.243	444.19
470.462	414.19
470.681	437.19
470.901	429.19
471.12	424.19
471.339	425.19
471.558	433.19
471.777	424.19
471.997	413.19
472.216	433.19
472.435	470.19
472.654	452.19
472.873	406.19
473.092	418.19
473.311	402.19
473.53	409.19
473.749	389.19
473.968	431.19
474.187	451.19
474.406	459.19
474.625	425.19
474.844	397.19
475.063	390.19
475.282	402.19
475.501	407.19
475.72	407.19
475.939	408.19
476.158	434.19
476.377	429.19
476.596	411.19
476.814	424.19
477.033	422.19
477.252	434.19
477.471	410.19
477.69	434.19
477.908	426.19
478.127	452.19
478.346	442.19
478.564	450.19
478.783	456.19
479.002	483.19
479.22	456.19
479.439	473.19
479.658	481.19
479.876	513.19
480.095	512.19
480.313	499.19
480.532	515.19
480.751	514.19
480.969	538.19
481.188	606.19
481.406	627.19
481.624	553.19
481.843	497.19
482.061	490.19
482.28	496.19
482.498	470.19
482.717	461.19
482.935	469.19
483.153	491.19
483.372	483.19
483.59	493.19
483.808	469.19
484.027	446.19
484.245	465.19
484.463	445.19
484.681	476.19
484.9	446.19
485.118	462.19
485.336	464.19
485.554	480.19
485.772	472.19
485.99	452.19
486.209	495.19
486.427	480.19
486.645	480.19
486.863	489.19
487.081	512.19
487.299	518.19
487.517	493.19
487.735	485.19
487.953	475.19
488.171	506.19
488.389	520.19
488.607	505.19
488.825	501.19
489.043	487.19
489.261	513.19
489.479	514.19
489.696	501.19
489.914	500.19
490.132	510.19
490.35	498.19
490.568	529.19
490.786	515.19
491.003	513.19
491.221	520.19
491.439	546.19
491.657	537.19
491.874	548.19
492.092	560.19
492.31	573.19
492.527	547.19
492.745	577.19
492.963	586.19
493.18	569.19
493.398	602.19
493.615	558.19
493.833	563.19
494.05	570.19
494.268	577.19
494.485	593.19
494.703	577.19
494.92	539.19
495.138	565.19
495.355	565.19
495.573	581.19
495.79	557.19
496.008	568.19
496.225	546.19
496.442	580.19
496.66	564.19
496.877	553.19
497.094	567.19
497.312	593.19
497.529	605.19
497.746	614.19
497.963	600.19
498.181	641.19
498.398	652.19
498.615	684.19
498.832	710.19
499.049	732.19
499.267	755.19
499.484	801.19
499.701	843.19
499.918	911.19
500.135	995.19
500.352	1045.19
500.569	1106.19
500.786	1141.19
501.003	1060.19
501.22	993.19
501.437	925.19
501.654	867.19
501.871	827.19
502.088	789.19
