Data from 1984.PennyLincolnUp.Lamp.En5.5.200Scan.071819.P1_HRD10591_16-57-55-968.txt Node
Date: Thu Jul 18 16:57:55 EDT 2019
User: cochatt
Spectrometer: HR+D1059
Trigger mode: 1
Integration Time (sec): 1.000000E-1
Scans to average: 1
Electric dark correction enabled: true
Nonlinearity correction enabled: false
Boxcar width: 0
XAxis mode: Wavelengths
Number of Pixels in Spectrum: 2048
>>>>>Begin Spectral Data<<<<<
223.165	-17.38
223.4	-17.38
223.635	-17.38
223.869	-16.38
224.104	-17.38
224.338	-24.38
224.573	-1.38
224.808	-1.38
225.042	-4.38
225.277	-6.38
225.511	-3.38
225.746	2.62
225.98	9.62
226.215	-0.38
226.449	2.62
226.683	24.62
226.918	34.62
227.152	18.62
227.387	30.62
227.621	35.62
227.856	43.62
228.09	47.62
228.324	43.62
228.559	55.62
228.793	73.62
229.027	86.62
229.262	105.62
229.496	85.62
229.73	107.62
229.964	114.62
230.199	118.62
230.433	90.62
230.667	112.62
230.901	105.62
231.136	105.62
231.37	91.62
231.604	99.62
231.838	120.62
232.072	99.62
232.306	96.62
232.541	101.62
232.775	122.62
233.009	112.62
233.243	105.62
233.477	99.62
233.711	119.62
233.945	108.62
234.179	118.62
234.413	116.62
234.647	119.62
234.881	114.62
235.115	121.62
235.349	113.62
235.583	86.62
235.817	96.62
236.051	104.62
236.285	116.62
236.519	108.62
236.753	120.62
236.987	106.62
237.221	133.62
237.455	164.62
237.689	133.62
237.922	116.62
238.156	116.62
238.39	105.62
238.624	106.62
238.858	111.62
239.091	105.62
239.325	117.62
239.559	104.62
239.793	123.62
240.027	117.62
240.26	118.62
240.494	118.62
240.728	130.62
240.961	126.62
241.195	118.62
241.429	116.62
241.662	117.62
241.896	119.62
242.13	121.62
242.363	118.62
242.597	134.62
242.83	122.62
243.064	127.62
243.298	123.62
243.531	111.62
243.765	137.62
243.998	125.62
244.232	129.62
244.465	122.62
244.699	129.62
244.932	120.62
245.166	107.62
245.399	122.62
245.633	138.62
245.866	150.62
246.099	136.62
246.333	130.62
246.566	125.62
246.8	140.62
247.033	138.62
247.266	148.62
247.5	131.62
247.733	139.62
247.966	157.62
248.2	136.62
248.433	141.62
248.666	137.62
248.899	171.62
249.133	159.62
249.366	159.62
249.599	155.62
249.832	141.62
250.066	152.62
250.299	149.62
250.532	168.62
250.765	159.62
250.998	175.62
251.231	177.62
251.465	169.62
251.698	165.62
251.931	155.62
252.164	169.62
252.397	171.62
252.63	172.62
252.863	156.62
253.096	195.62
253.329	183.62
253.562	192.62
253.795	192.62
254.028	179.62
254.261	186.62
254.494	188.62
254.727	210.62
254.96	216.62
255.193	201.62
255.426	190.62
255.659	162.62
255.892	180.62
256.124	185.62
256.357	185.62
256.59	182.62
256.823	182.62
257.056	191.62
257.289	181.62
257.521	171.62
257.754	192.62
257.987	169.62
258.22	185.62
258.452	159.62
258.685	178.62
258.918	178.62
259.151	174.62
259.383	210.62
259.616	191.62
259.849	182.62
260.081	188.62
260.314	193.62
260.547	219.62
260.779	198.62
261.012	193.62
261.244	183.62
261.477	187.62
261.71	194.62
261.942	201.62
262.175	199.62
262.407	183.62
262.64	194.62
262.872	192.62
263.105	195.62
263.337	180.62
263.57	199.62
263.802	177.62
264.035	189.62
264.267	180.62
264.499	190.62
264.732	180.62
264.964	205.62
265.197	194.62
265.429	176.62
265.661	204.62
265.894	190.62
266.126	183.62
266.358	187.62
266.591	203.62
266.823	207.62
267.055	210.62
267.287	201.62
267.52	204.62
267.752	206.62
267.984	211.62
268.216	200.62
268.448	195.62
268.681	211.62
268.913	214.62
269.145	216.62
269.377	219.62
269.609	227.62
269.841	236.62
270.073	240.62
270.306	254.62
270.538	225.62
270.77	242.62
271.002	256.62
271.234	238.62
271.466	247.62
271.698	250.62
271.93	249.62
272.162	262.62
272.394	256.62
272.626	247.62
272.858	256.62
273.09	230.62
273.322	239.62
273.553	228.62
273.785	245.62
274.017	240.62
274.249	226.62
274.481	226.62
274.713	236.62
274.945	242.62
275.176	230.62
275.408	221.62
275.64	229.62
275.872	246.62
276.104	233.62
276.335	240.62
276.567	241.62
276.799	242.62
277.031	249.62
277.262	250.62
277.494	259.62
277.726	248.62
277.957	238.62
278.189	255.62
278.421	244.62
278.652	263.62
278.884	241.62
279.115	226.62
279.347	235.62
279.579	242.62
279.81	229.62
280.042	236.62
280.273	256.62
280.505	246.62
280.736	243.62
280.968	262.62
281.199	242.62
281.431	245.62
281.662	245.62
281.894	251.62
282.125	245.62
282.356	273.62
282.588	261.62
282.819	294.62
283.051	264.62
283.282	256.62
283.513	258.62
283.745	260.62
283.976	252.62
284.207	257.62
284.439	242.62
284.67	265.62
284.901	273.62
285.132	248.62
285.364	268.62
285.595	268.62
285.826	276.62
286.057	277.62
286.288	277.62
286.52	275.62
286.751	266.62
286.982	274.62
287.213	264.62
287.444	282.62
287.675	259.62
287.906	273.62
288.138	259.62
288.369	284.62
288.6	278.62
288.831	266.62
289.062	268.62
289.293	273.62
289.524	276.62
289.755	271.62
289.986	279.62
290.217	272.62
290.448	278.62
290.679	270.62
290.91	260.62
291.141	276.62
291.371	282.62
291.602	266.62
291.833	265.62
292.064	279.62
292.295	266.62
292.526	277.62
292.757	276.62
292.987	258.62
293.218	275.62
293.449	266.62
293.68	263.62
293.91	299.62
294.141	274.62
294.372	261.62
294.603	268.62
294.833	283.62
295.064	289.62
295.295	297.62
295.525	277.62
295.756	287.62
295.987	270.62
296.217	267.62
296.448	302.62
296.679	304.62
296.909	286.62
297.14	276.62
297.37	294.62
297.601	283.62
297.831	277.62
298.062	278.62
298.292	273.62
298.523	294.62
298.753	298.62
298.984	277.62
299.214	296.62
299.445	288.62
299.675	304.62
299.905	299.62
300.136	288.62
300.366	286.62
300.597	291.62
300.827	308.62
301.057	312.62
301.288	303.62
301.518	298.62
301.748	309.62
301.979	309.62
302.209	288.62
302.439	294.62
302.669	304.62
302.9	316.62
303.13	322.62
303.36	325.62
303.59	314.62
303.82	300.62
304.051	303.62
304.281	297.62
304.511	307.62
304.741	306.62
304.971	304.62
305.201	306.62
305.431	298.62
305.661	308.62
305.891	299.62
306.121	308.62
306.352	318.62
306.582	323.62
306.812	299.62
307.042	320.62
307.272	314.62
307.502	308.62
307.731	306.62
307.961	296.62
308.191	312.62
308.421	301.62
308.651	321.62
308.881	292.62
309.111	315.62
309.341	319.62
309.571	311.62
309.8	304.62
310.03	315.62
310.26	317.62
310.49	303.62
310.72	328.62
310.949	338.62
311.179	333.62
311.409	331.62
311.639	324.62
311.868	327.62
312.098	321.62
312.328	340.62
312.557	338.62
312.787	344.62
313.017	334.62
313.246	339.62
313.476	334.62
313.706	329.62
313.935	348.62
314.165	343.62
314.394	332.62
314.624	326.62
314.853	356.62
315.083	322.62
315.312	337.62
315.542	324.62
315.771	333.62
316.001	323.62
316.23	311.62
316.46	341.62
316.689	336.62
316.919	359.62
317.148	354.62
317.377	349.62
317.607	334.62
317.836	335.62
318.065	328.62
318.295	350.62
318.524	337.62
318.753	327.62
318.983	336.62
319.212	326.62
319.441	343.62
319.67	330.62
319.9	333.62
320.129	327.62
320.358	320.62
320.587	339.62
320.816	319.62
321.046	352.62
321.275	349.62
321.504	338.62
321.733	355.62
321.962	358.62
322.191	379.62
322.42	347.62
322.649	360.62
322.878	357.62
323.108	367.62
323.337	373.62
323.566	382.62
323.795	409.62
324.024	433.62
324.253	490.62
324.482	639.62
324.71	914.62
324.939	1255.62
325.168	1104.62
325.397	617.62
325.626	459.62
325.855	435.62
326.084	395.62
326.313	400.62
326.542	417.62
326.77	445.62
326.999	464.62
327.228	614.62
327.457	843.62
327.686	993.62
327.914	703.62
328.143	512.62
328.372	461.62
328.6	439.62
328.829	417.62
329.058	430.62
329.287	436.62
329.515	406.62
329.744	403.62
329.972	402.62
330.201	408.62
330.43	447.62
330.658	439.62
330.887	451.62
331.115	443.62
331.344	410.62
331.572	408.62
331.801	423.62
332.03	415.62
332.258	396.62
332.486	401.62
332.715	432.62
332.943	411.62
333.172	442.62
333.4	442.62
333.629	461.62
333.857	460.62
334.085	457.62
334.314	462.62
334.542	465.62
334.771	467.62
334.999	441.62
335.227	435.62
335.455	411.62
335.684	424.62
335.912	421.62
336.14	409.62
336.369	422.62
336.597	402.62
336.825	424.62
337.053	405.62
337.281	389.62
337.51	399.62
337.738	393.62
337.966	381.62
338.194	389.62
338.422	387.62
338.65	399.62
338.878	393.62
339.106	363.62
339.334	386.62
339.562	388.62
339.79	371.62
340.018	376.62
340.246	374.62
340.474	388.62
340.702	356.62
340.93	370.62
341.158	376.62
341.386	374.62
341.614	374.62
341.842	370.62
342.07	377.62
342.298	365.62
342.526	387.62
342.754	382.62
342.981	369.62
343.209	353.62
343.437	380.62
343.665	378.62
343.893	415.62
344.12	420.62
344.348	418.62
344.576	386.62
344.804	371.62
345.031	378.62
345.259	384.62
345.487	368.62
345.714	351.62
345.942	359.62
346.17	348.62
346.397	354.62
346.625	357.62
346.853	362.62
347.08	345.62
347.308	372.62
347.535	361.62
347.763	364.62
347.99	367.62
348.218	372.62
348.445	360.62
348.673	360.62
348.9	372.62
349.128	357.62
349.355	342.62
349.583	371.62
349.81	358.62
350.037	352.62
350.265	347.62
350.492	350.62
350.72	341.62
350.947	361.62
351.174	330.62
351.402	346.62
351.629	377.62
351.856	357.62
352.083	354.62
352.311	362.62
352.538	361.62
352.765	350.62
352.992	350.62
353.22	356.62
353.447	351.62
353.674	335.62
353.901	330.62
354.128	336.62
354.355	337.62
354.583	345.62
354.81	350.62
355.037	360.62
355.264	321.62
355.491	326.62
355.718	336.62
355.945	344.62
356.172	339.62
356.399	332.62
356.626	337.62
356.853	332.62
357.08	336.62
357.307	316.62
357.534	326.62
357.761	337.62
357.988	334.62
358.215	360.62
358.441	343.62
358.668	324.62
358.895	338.62
359.122	331.62
359.349	336.62
359.576	356.62
359.802	347.62
360.029	346.62
360.256	386.62
360.483	362.62
360.709	341.62
360.936	326.62
361.163	348.62
361.39	367.62
361.616	329.62
361.843	336.62
362.07	375.62
362.296	344.62
362.523	341.62
362.749	345.62
362.976	348.62
363.203	361.62
363.429	344.62
363.656	346.62
363.882	330.62
364.109	338.62
364.335	329.62
364.562	314.62
364.788	342.62
365.015	353.62
365.241	340.62
365.468	329.62
365.694	326.62
365.92	323.62
366.147	343.62
366.373	329.62
366.599	331.62
366.826	346.62
367.052	339.62
367.278	338.62
367.505	336.62
367.731	335.62
367.957	338.62
368.184	337.62
368.41	345.62
368.636	344.62
368.862	336.62
369.089	366.62
369.315	345.62
369.541	340.62
369.767	332.62
369.993	348.62
370.219	357.62
370.445	329.62
370.672	359.62
370.898	330.62
371.124	355.62
371.35	367.62
371.576	338.62
371.802	348.62
372.028	334.62
372.254	349.62
372.48	350.62
372.706	347.62
372.932	361.62
373.158	360.62
373.384	371.62
373.61	356.62
373.835	343.62
374.061	344.62
374.287	345.62
374.513	345.62
374.739	351.62
374.965	361.62
375.191	352.62
375.416	362.62
375.642	361.62
375.868	377.62
376.094	358.62
376.319	361.62
376.545	351.62
376.771	350.62
376.997	339.62
377.222	337.62
377.448	346.62
377.674	333.62
377.899	347.62
378.125	354.62
378.35	344.62
378.576	340.62
378.802	337.62
379.027	342.62
379.253	339.62
379.478	353.62
379.704	348.62
379.929	334.62
380.155	331.62
380.38	373.62
380.606	345.62
380.831	336.62
381.057	355.62
381.282	340.62
381.507	337.62
381.733	353.62
381.958	338.62
382.184	363.62
382.409	364.62
382.634	344.62
382.86	358.62
383.085	353.62
383.31	354.62
383.535	354.62
383.761	372.62
383.986	371.62
384.211	370.62
384.436	376.62
384.662	358.62
384.887	382.62
385.112	380.62
385.337	389.62
385.562	396.62
385.787	376.62
386.013	392.62
386.238	408.62
386.463	399.62
386.688	388.62
386.913	394.62
387.138	403.62
387.363	391.62
387.588	388.62
387.813	372.62
388.038	400.62
388.263	399.62
388.488	405.62
388.713	396.62
388.938	384.62
389.163	400.62
389.387	398.62
389.612	385.62
389.837	402.62
390.062	395.62
390.287	406.62
390.512	363.62
390.736	369.62
390.961	397.62
391.186	375.62
391.411	405.62
391.636	412.62
391.86	417.62
392.085	424.62
392.31	416.62
392.534	395.62
392.759	410.62
392.984	428.62
393.208	404.62
393.433	409.62
393.658	425.62
393.882	410.62
394.107	416.62
394.331	381.62
394.556	391.62
394.78	400.62
395.005	418.62
395.229	419.62
395.454	439.62
395.678	420.62
395.903	421.62
396.127	423.62
396.352	448.62
396.576	413.62
396.801	400.62
397.025	405.62
397.249	410.62
397.474	447.62
397.698	448.62
397.922	440.62
398.147	449.62
398.371	454.62
398.595	471.62
398.82	459.62
399.044	479.62
399.268	523.62
399.492	548.62
399.717	610.62
399.941	607.62
400.165	601.62
400.389	574.62
400.613	511.62
400.837	482.62
401.062	481.62
401.286	452.62
401.51	442.62
401.734	463.62
401.958	455.62
402.182	453.62
402.406	463.62
402.63	489.62
402.854	499.62
403.078	471.62
403.302	473.62
403.526	492.62
403.75	520.62
403.974	509.62
404.198	516.62
404.422	494.62
404.645	522.62
404.869	512.62
405.093	530.62
405.317	499.62
405.541	540.62
405.765	528.62
405.988	515.62
406.212	502.62
406.436	500.62
406.66	544.62
406.883	536.62
407.107	547.62
407.331	578.62
407.555	624.62
407.778	611.62
408.002	578.62
408.226	555.62
408.449	542.62
408.673	537.62
408.896	532.62
409.12	559.62
409.344	514.62
409.567	487.62
409.791	498.62
410.014	501.62
410.238	483.62
410.461	481.62
410.685	499.62
410.908	502.62
411.132	494.62
411.355	524.62
411.578	511.62
411.802	487.62
412.025	498.62
412.249	482.62
412.472	478.62
412.695	518.62
412.919	482.62
413.142	486.62
413.365	468.62
413.589	464.62
413.812	477.62
414.035	462.62
414.258	436.62
414.482	469.62
414.705	462.62
414.928	460.62
415.151	458.62
415.374	450.62
415.597	443.62
415.821	441.62
416.044	435.62
416.267	443.62
416.49	446.62
416.713	450.62
416.936	449.62
417.159	439.62
417.382	427.62
417.605	443.62
417.828	468.62
418.051	467.62
418.274	468.62
418.497	476.62
418.72	438.62
418.943	452.62
419.166	481.62
419.389	488.62
419.611	515.62
419.834	479.62
420.057	471.62
420.28	470.62
420.503	459.62
420.726	468.62
420.948	472.62
421.171	484.62
421.394	507.62
421.617	459.62
421.839	451.62
422.062	475.62
422.285	463.62
422.507	498.62
422.73	564.62
422.953	513.62
423.175	475.62
423.398	489.62
423.621	472.62
423.843	489.62
424.066	489.62
424.288	497.62
424.511	478.62
424.733	524.62
424.956	565.62
425.178	547.62
425.401	549.62
425.623	544.62
425.846	503.62
426.068	471.62
426.291	456.62
426.513	465.62
426.735	465.62
426.958	479.62
427.18	519.62
427.402	597.62
427.625	626.62
427.847	555.62
428.069	512.62
428.292	482.62
428.514	442.62
428.736	438.62
428.958	428.62
429.181	449.62
429.403	424.62
429.625	425.62
429.847	435.62
430.069	494.62
430.292	485.62
430.514	426.62
430.736	448.62
430.958	411.62
431.18	411.62
431.402	430.62
431.624	417.62
431.846	408.62
432.068	443.62
432.29	412.62
432.512	422.62
432.734	426.62
432.956	416.62
433.178	435.62
433.4	451.62
433.622	426.62
433.844	422.62
434.066	407.62
434.287	418.62
434.509	443.62
434.731	441.62
434.953	458.62
435.175	462.62
435.397	467.62
435.618	455.62
435.84	478.62
436.062	520.62
436.284	548.62
436.505	481.62
436.727	457.62
436.949	442.62
437.17	431.62
437.392	427.62
437.614	427.62
437.835	451.62
438.057	494.62
438.278	521.62
438.5	540.62
438.721	619.62
438.943	582.62
439.165	474.62
439.386	443.62
439.608	458.62
439.829	450.62
440.05	459.62
440.272	480.62
440.493	473.62
440.715	444.62
440.936	416.62
441.158	439.62
441.379	419.62
441.6	432.62
441.822	481.62
442.043	482.62
442.264	523.62
442.486	544.62
442.707	496.62
442.928	462.62
443.149	476.62
443.371	510.62
443.592	505.62
443.813	560.62
444.034	616.62
444.255	531.62
444.476	506.62
444.698	501.62
444.919	511.62
445.14	618.62
445.361	571.62
445.582	501.62
445.803	508.62
446.024	576.62
446.245	542.62
446.466	512.62
446.687	471.62
446.908	449.62
447.129	415.62
447.35	429.62
447.571	440.62
447.792	436.62
448.013	426.62
448.234	439.62
448.455	414.62
448.675	484.62
448.896	579.62
449.117	498.62
449.338	469.62
449.559	515.62
449.779	578.62
450	495.62
450.221	435.62
450.442	399.62
450.662	407.62
450.883	397.62
451.104	409.62
451.324	401.62
451.545	406.62
451.766	370.62
451.986	391.62
452.207	377.62
452.428	382.62
452.648	394.62
452.869	370.62
453.089	384.62
453.31	396.62
453.53	384.62
453.751	378.62
453.971	368.62
454.192	381.62
454.412	351.62
454.633	357.62
454.853	362.62
455.073	376.62
455.294	378.62
455.514	412.62
455.734	427.62
455.955	376.62
456.175	361.62
456.395	355.62
456.616	355.62
456.836	375.62
457.056	353.62
457.276	347.62
457.497	368.62
457.717	371.62
457.937	356.62
458.157	360.62
458.377	373.62
458.598	382.62
458.818	407.62
459.038	451.62
459.258	482.62
459.478	449.62
459.698	425.62
459.918	400.62
460.138	430.62
460.358	449.62
460.578	450.62
460.798	444.62
461.018	450.62
461.238	465.62
461.458	440.62
461.678	455.62
461.898	465.62
462.118	462.62
462.338	460.62
462.558	478.62
462.777	474.62
462.997	523.62
463.217	538.62
463.437	551.62
463.657	519.62
463.876	508.62
464.096	524.62
464.316	503.62
464.536	500.62
464.755	494.62
464.975	471.62
465.195	471.62
465.414	477.62
465.634	456.62
465.854	428.62
466.073	424.62
466.293	383.62
466.512	388.62
466.732	406.62
466.951	392.62
467.171	396.62
467.391	404.62
467.61	393.62
467.829	400.62
468.049	409.62
468.268	401.62
468.488	407.62
468.707	396.62
468.927	408.62
469.146	385.62
469.365	378.62
469.585	371.62
469.804	418.62
470.023	404.62
470.243	385.62
470.462	398.62
470.681	424.62
470.901	430.62
471.12	416.62
471.339	400.62
471.558	393.62
471.777	412.62
471.997	396.62
472.216	392.62
472.435	398.62
472.654	394.62
472.873	379.62
473.092	401.62
473.311	395.62
473.53	395.62
473.749	389.62
473.968	412.62
474.187	451.62
474.406	451.62
474.625	417.62
474.844	388.62
475.063	395.62
475.282	396.62
475.501	366.62
475.72	378.62
475.939	397.62
476.158	415.62
476.377	391.62
476.596	384.62
476.814	430.62
477.033	403.62
477.252	413.62
477.471	431.62
477.69	412.62
477.908	425.62
478.127	434.62
478.346	440.62
478.564	451.62
478.783	450.62
479.002	450.62
479.22	458.62
479.439	465.62
479.658	455.62
479.876	466.62
480.095	488.62
480.313	478.62
480.532	494.62
480.751	485.62
480.969	472.62
481.188	478.62
481.406	508.62
481.624	476.62
481.843	449.62
482.061	465.62
482.28	438.62
482.498	465.62
482.717	461.62
482.935	432.62
483.153	430.62
483.372	463.62
483.59	450.62
483.808	442.62
484.027	458.62
484.245	450.62
484.463	430.62
484.681	440.62
484.9	435.62
485.118	478.62
485.336	452.62
485.554	487.62
485.772	452.62
485.99	468.62
486.209	466.62
486.427	466.62
486.645	459.62
486.863	488.62
487.081	469.62
487.299	464.62
487.517	484.62
487.735	476.62
487.953	480.62
488.171	471.62
488.389	462.62
488.607	453.62
488.825	475.62
489.043	459.62
489.261	472.62
489.479	442.62
489.696	474.62
489.914	462.62
490.132	494.62
490.35	506.62
490.568	488.62
490.786	498.62
491.003	521.62
491.221	517.62
491.439	516.62
491.657	481.62
491.874	517.62
492.092	494.62
492.31	514.62
492.527	513.62
492.745	507.62
492.963	525.62
493.18	534.62
493.398	532.62
493.615	551.62
493.833	549.62
494.05	528.62
494.268	545.62
494.485	536.62
494.703	553.62
494.92	547.62
495.138	547.62
495.355	518.62
495.573	514.62
495.79	522.62
496.008	544.62
496.225	548.62
496.442	535.62
496.66	549.62
496.877	561.62
497.094	568.62
497.312	570.62
497.529	576.62
497.746	577.62
497.963	591.62
498.181	620.62
498.398	642.62
498.615	646.62
498.832	673.62
499.049	675.62
499.267	728.62
499.484	765.62
499.701	811.62
499.918	878.62
500.135	934.62
500.352	1056.62
500.569	1088.62
500.786	1051.62
501.003	1027.62
501.22	964.62
501.437	908.62
501.654	823.62
501.871	794.62
502.088	727.62
