Data from 1984.PennyLincolnUp.Lamp.En5.5.200Scan.071819.P1_HRD10591_17-00-26-968.txt Node
Date: Thu Jul 18 17:00:26 EDT 2019
User: cochatt
Spectrometer: HR+D1059
Trigger mode: 1
Integration Time (sec): 1.000000E-1
Scans to average: 1
Electric dark correction enabled: true
Nonlinearity correction enabled: false
Boxcar width: 0
XAxis mode: Wavelengths
Number of Pixels in Spectrum: 2048
>>>>>Begin Spectral Data<<<<<
223.165	-14.38
223.4	-14.38
223.635	-14.38
223.869	-19.38
224.104	-14.38
224.338	-8.38
224.573	-3.38
224.808	-7.38
225.042	-25.38
225.277	-3.38
225.511	-2.38
225.746	7.62
225.98	11.62
226.215	12.62
226.449	8.62
226.683	5.62
226.918	18.62
227.152	33.62
227.387	32.62
227.621	40.62
227.856	46.62
228.09	40.62
228.324	59.62
228.559	66.62
228.793	68.62
229.027	95.62
229.262	119.62
229.496	105.62
229.73	100.62
229.964	124.62
230.199	116.62
230.433	103.62
230.667	114.62
230.901	118.62
231.136	103.62
231.37	116.62
231.604	122.62
231.838	111.62
232.072	114.62
232.306	108.62
232.541	87.62
232.775	120.62
233.009	118.62
233.243	103.62
233.477	116.62
233.711	114.62
233.945	102.62
234.179	112.62
234.413	112.62
234.647	103.62
234.881	114.62
235.115	126.62
235.349	102.62
235.583	130.62
235.817	120.62
236.051	106.62
236.285	121.62
236.519	130.62
236.753	126.62
236.987	120.62
237.221	125.62
237.455	159.62
237.689	146.62
237.922	112.62
238.156	126.62
238.39	122.62
238.624	105.62
238.858	112.62
239.091	123.62
239.325	118.62
239.559	120.62
239.793	117.62
240.027	127.62
240.26	126.62
240.494	145.62
240.728	146.62
240.961	127.62
241.195	137.62
241.429	121.62
241.662	141.62
241.896	129.62
242.13	118.62
242.363	106.62
242.597	127.62
242.83	132.62
243.064	124.62
243.298	134.62
243.531	130.62
243.765	133.62
243.998	138.62
244.232	133.62
244.465	141.62
244.699	123.62
244.932	134.62
245.166	133.62
245.399	142.62
245.633	129.62
245.866	130.62
246.099	136.62
246.333	143.62
246.566	136.62
246.8	141.62
247.033	142.62
247.266	154.62
247.5	151.62
247.733	145.62
247.966	145.62
248.2	143.62
248.433	157.62
248.666	154.62
248.899	158.62
249.133	165.62
249.366	167.62
249.599	167.62
249.832	148.62
250.066	173.62
250.299	178.62
250.532	204.62
250.765	209.62
250.998	200.62
251.231	196.62
251.465	196.62
251.698	204.62
251.931	175.62
252.164	174.62
252.397	173.62
252.63	178.62
252.863	183.62
253.096	187.62
253.329	205.62
253.562	183.62
253.795	172.62
254.028	189.62
254.261	199.62
254.494	193.62
254.727	195.62
254.96	214.62
255.193	209.62
255.426	216.62
255.659	209.62
255.892	250.62
256.124	290.62
256.357	299.62
256.59	249.62
256.823	211.62
257.056	207.62
257.289	193.62
257.521	187.62
257.754	202.62
257.987	187.62
258.22	187.62
258.452	185.62
258.685	201.62
258.918	188.62
259.151	183.62
259.383	196.62
259.616	169.62
259.849	201.62
260.081	200.62
260.314	205.62
260.547	217.62
260.779	201.62
261.012	200.62
261.244	208.62
261.477	195.62
261.71	192.62
261.942	195.62
262.175	212.62
262.407	203.62
262.64	183.62
262.872	223.62
263.105	202.62
263.337	188.62
263.57	204.62
263.802	204.62
264.035	201.62
264.267	203.62
264.499	189.62
264.732	195.62
264.964	209.62
265.197	200.62
265.429	196.62
265.661	199.62
265.894	203.62
266.126	206.62
266.358	205.62
266.591	213.62
266.823	193.62
267.055	216.62
267.287	198.62
267.52	219.62
267.752	196.62
267.984	209.62
268.216	219.62
268.448	211.62
268.681	219.62
268.913	218.62
269.145	232.62
269.377	236.62
269.609	227.62
269.841	232.62
270.073	232.62
270.306	234.62
270.538	251.62
270.77	231.62
271.002	248.62
271.234	248.62
271.466	256.62
271.698	264.62
271.93	279.62
272.162	268.62
272.394	264.62
272.626	263.62
272.858	253.62
273.09	234.62
273.322	241.62
273.553	252.62
273.785	253.62
274.017	231.62
274.249	224.62
274.481	241.62
274.713	245.62
274.945	242.62
275.176	280.62
275.408	258.62
275.64	253.62
275.872	259.62
276.104	248.62
276.335	265.62
276.567	271.62
276.799	276.62
277.031	280.62
277.262	289.62
277.494	289.62
277.726	280.62
277.957	267.62
278.189	258.62
278.421	255.62
278.652	262.62
278.884	266.62
279.115	262.62
279.347	275.62
279.579	255.62
279.81	251.62
280.042	243.62
280.273	250.62
280.505	273.62
280.736	266.62
280.968	276.62
281.199	285.62
281.431	272.62
281.662	261.62
281.894	271.62
282.125	272.62
282.356	282.62
282.588	289.62
282.819	278.62
283.051	248.62
283.282	257.62
283.513	253.62
283.745	267.62
283.976	275.62
284.207	283.62
284.439	272.62
284.67	285.62
284.901	258.62
285.132	278.62
285.364	264.62
285.595	252.62
285.826	276.62
286.057	258.62
286.288	271.62
286.52	278.62
286.751	276.62
286.982	276.62
287.213	267.62
287.444	286.62
287.675	289.62
287.906	288.62
288.138	274.62
288.369	281.62
288.6	269.62
288.831	284.62
289.062	300.62
289.293	273.62
289.524	292.62
289.755	290.62
289.986	304.62
290.217	267.62
290.448	283.62
290.679	280.62
290.91	291.62
291.141	295.62
291.371	288.62
291.602	283.62
291.833	275.62
292.064	275.62
292.295	287.62
292.526	283.62
292.757	286.62
292.987	280.62
293.218	279.62
293.449	291.62
293.68	270.62
293.91	275.62
294.141	273.62
294.372	306.62
294.603	282.62
294.833	303.62
295.064	297.62
295.295	309.62
295.525	277.62
295.756	298.62
295.987	277.62
296.217	304.62
296.448	309.62
296.679	291.62
296.909	281.62
297.14	300.62
297.37	298.62
297.601	298.62
297.831	283.62
298.062	292.62
298.292	291.62
298.523	315.62
298.753	310.62
298.984	310.62
299.214	281.62
299.445	300.62
299.675	307.62
299.905	299.62
300.136	310.62
300.366	305.62
300.597	312.62
300.827	304.62
301.057	311.62
301.288	332.62
301.518	335.62
301.748	332.62
301.979	319.62
302.209	334.62
302.439	319.62
302.669	306.62
302.9	318.62
303.13	316.62
303.36	324.62
303.59	325.62
303.82	326.62
304.051	324.62
304.281	323.62
304.511	332.62
304.741	327.62
304.971	308.62
305.201	307.62
305.431	311.62
305.661	303.62
305.891	316.62
306.121	321.62
306.352	313.62
306.582	310.62
306.812	326.62
307.042	319.62
307.272	332.62
307.502	331.62
307.731	326.62
307.961	323.62
308.191	317.62
308.421	313.62
308.651	312.62
308.881	320.62
309.111	313.62
309.341	328.62
309.571	331.62
309.8	336.62
310.03	336.62
310.26	349.62
310.49	344.62
310.72	348.62
310.949	356.62
311.179	351.62
311.409	342.62
311.639	337.62
311.868	367.62
312.098	342.62
312.328	368.62
312.557	359.62
312.787	357.62
313.017	360.62
313.246	360.62
313.476	341.62
313.706	354.62
313.935	352.62
314.165	364.62
314.394	368.62
314.624	376.62
314.853	370.62
315.083	347.62
315.312	354.62
315.542	340.62
315.771	366.62
316.001	346.62
316.23	352.62
316.46	368.62
316.689	338.62
316.919	355.62
317.148	364.62
317.377	344.62
317.607	351.62
317.836	355.62
318.065	359.62
318.295	339.62
318.524	356.62
318.753	356.62
318.983	345.62
319.212	354.62
319.441	333.62
319.67	367.62
319.9	338.62
320.129	339.62
320.358	361.62
320.587	342.62
320.816	359.62
321.046	359.62
321.275	374.62
321.504	363.62
321.733	378.62
321.962	366.62
322.191	384.62
322.42	374.62
322.649	385.62
322.878	386.62
323.108	391.62
323.337	420.62
323.566	442.62
323.795	423.62
324.024	462.62
324.253	526.62
324.482	703.62
324.71	1026.62
324.939	1410.62
325.168	1232.62
325.397	693.62
325.626	532.62
325.855	455.62
326.084	431.62
326.313	421.62
326.542	440.62
326.77	482.62
326.999	542.62
327.228	684.62
327.457	968.62
327.686	1124.62
327.914	816.62
328.143	617.62
328.372	570.62
328.6	541.62
328.829	501.62
329.058	513.62
329.287	510.62
329.515	490.62
329.744	508.62
329.972	536.62
330.201	605.62
330.43	676.62
330.658	621.62
330.887	570.62
331.115	541.62
331.344	475.62
331.572	462.62
331.801	453.62
332.03	451.62
332.258	446.62
332.486	474.62
332.715	473.62
332.943	455.62
333.172	474.62
333.4	505.62
333.629	518.62
333.857	548.62
334.085	610.62
334.314	676.62
334.542	754.62
334.771	775.62
334.999	638.62
335.227	514.62
335.455	488.62
335.684	475.62
335.912	459.62
336.14	441.62
336.369	442.62
336.597	440.62
336.825	454.62
337.053	450.62
337.281	425.62
337.51	411.62
337.738	406.62
337.966	410.62
338.194	421.62
338.422	403.62
338.65	398.62
338.878	412.62
339.106	403.62
339.334	408.62
339.562	402.62
339.79	398.62
340.018	382.62
340.246	403.62
340.474	388.62
340.702	392.62
340.93	406.62
341.158	375.62
341.386	384.62
341.614	386.62
341.842	397.62
342.07	390.62
342.298	384.62
342.526	389.62
342.754	384.62
342.981	369.62
343.209	391.62
343.437	411.62
343.665	410.62
343.893	430.62
344.12	423.62
344.348	392.62
344.576	447.62
344.804	420.62
345.031	406.62
345.259	413.62
345.487	399.62
345.714	386.62
345.942	381.62
346.17	386.62
346.397	381.62
346.625	381.62
346.853	378.62
347.08	378.62
347.308	390.62
347.535	389.62
347.763	379.62
347.99	379.62
348.218	379.62
348.445	382.62
348.673	366.62
348.9	371.62
349.128	374.62
349.355	350.62
349.583	359.62
349.81	350.62
350.037	374.62
350.265	370.62
350.492	360.62
350.72	366.62
350.947	363.62
351.174	360.62
351.402	390.62
351.629	390.62
351.856	354.62
352.083	366.62
352.311	367.62
352.538	374.62
352.765	360.62
352.992	356.62
353.22	356.62
353.447	376.62
353.674	367.62
353.901	355.62
354.128	369.62
354.355	344.62
354.583	352.62
354.81	346.62
355.037	349.62
355.264	361.62
355.491	353.62
355.718	355.62
355.945	366.62
356.172	361.62
356.399	363.62
356.626	353.62
356.853	368.62
357.08	356.62
357.307	342.62
357.534	352.62
357.761	353.62
357.988	344.62
358.215	356.62
358.441	352.62
358.668	348.62
358.895	359.62
359.122	345.62
359.349	360.62
359.576	381.62
359.802	394.62
360.029	379.62
360.256	389.62
360.483	392.62
360.709	377.62
360.936	379.62
361.163	351.62
361.39	358.62
361.616	361.62
361.843	352.62
362.07	367.62
362.296	374.62
362.523	365.62
362.749	356.62
362.976	355.62
363.203	363.62
363.429	347.62
363.656	355.62
363.882	360.62
364.109	368.62
364.335	362.62
364.562	344.62
364.788	350.62
365.015	348.62
365.241	345.62
365.468	337.62
365.694	354.62
365.92	345.62
366.147	365.62
366.373	333.62
366.599	349.62
366.826	341.62
367.052	337.62
367.278	363.62
367.505	365.62
367.731	340.62
367.957	347.62
368.184	349.62
368.41	350.62
368.636	365.62
368.862	364.62
369.089	348.62
369.315	356.62
369.541	372.62
369.767	368.62
369.993	380.62
370.219	348.62
370.445	363.62
370.672	360.62
370.898	355.62
371.124	339.62
371.35	360.62
371.576	362.62
371.802	349.62
372.028	349.62
372.254	362.62
372.48	367.62
372.706	376.62
372.932	352.62
373.158	360.62
373.384	370.62
373.61	375.62
373.835	348.62
374.061	380.62
374.287	370.62
374.513	358.62
374.739	372.62
374.965	356.62
375.191	372.62
375.416	365.62
375.642	375.62
375.868	357.62
376.094	375.62
376.319	365.62
376.545	362.62
376.771	343.62
376.997	341.62
377.222	359.62
377.448	361.62
377.674	364.62
377.899	357.62
378.125	360.62
378.35	352.62
378.576	344.62
378.802	351.62
379.027	368.62
379.253	356.62
379.478	356.62
379.704	364.62
379.929	368.62
380.155	346.62
380.38	363.62
380.606	344.62
380.831	334.62
381.057	367.62
381.282	359.62
381.507	361.62
381.733	369.62
381.958	359.62
382.184	364.62
382.409	377.62
382.634	363.62
382.86	371.62
383.085	386.62
383.31	359.62
383.535	365.62
383.761	383.62
383.986	372.62
384.211	375.62
384.436	398.62
384.662	378.62
384.887	401.62
385.112	383.62
385.337	391.62
385.562	392.62
385.787	408.62
386.013	400.62
386.238	410.62
386.463	402.62
386.688	412.62
386.913	401.62
387.138	400.62
387.363	400.62
387.588	400.62
387.813	408.62
388.038	399.62
388.263	400.62
388.488	393.62
388.713	390.62
388.938	407.62
389.163	410.62
389.387	431.62
389.612	398.62
389.837	414.62
390.062	396.62
390.287	388.62
390.512	391.62
390.736	398.62
390.961	384.62
391.186	407.62
391.411	420.62
391.636	425.62
391.86	436.62
392.085	432.62
392.31	428.62
392.534	423.62
392.759	426.62
392.984	408.62
393.208	410.62
393.433	414.62
393.658	412.62
393.882	418.62
394.107	408.62
394.331	416.62
394.556	397.62
394.78	426.62
395.005	404.62
395.229	399.62
395.454	421.62
395.678	429.62
395.903	442.62
396.127	432.62
396.352	440.62
396.576	424.62
396.801	423.62
397.025	426.62
397.249	441.62
397.474	421.62
397.698	454.62
397.922	441.62
398.147	427.62
398.371	455.62
398.595	474.62
398.82	495.62
399.044	504.62
399.268	541.62
399.492	563.62
399.717	601.62
399.941	623.62
400.165	611.62
400.389	582.62
400.613	532.62
400.837	512.62
401.062	477.62
401.286	474.62
401.51	469.62
401.734	460.62
401.958	483.62
402.182	488.62
402.406	495.62
402.63	480.62
402.854	496.62
403.078	489.62
403.302	522.62
403.526	504.62
403.75	515.62
403.974	511.62
404.198	542.62
404.422	524.62
404.645	534.62
404.869	564.62
405.093	590.62
405.317	628.62
405.541	652.62
405.765	590.62
405.988	539.62
406.212	511.62
406.436	543.62
406.66	570.62
406.883	540.62
407.107	590.62
407.331	596.62
407.555	634.62
407.778	621.62
408.002	603.62
408.226	556.62
408.449	557.62
408.673	554.62
408.896	569.62
409.12	553.62
409.344	540.62
409.567	520.62
409.791	495.62
410.014	494.62
410.238	499.62
410.461	490.62
410.685	512.62
410.908	507.62
411.132	518.62
411.355	542.62
411.578	509.62
411.802	487.62
412.025	493.62
412.249	531.62
412.472	550.62
412.695	612.62
412.919	601.62
413.142	539.62
413.365	536.62
413.589	536.62
413.812	495.62
414.035	491.62
414.258	476.62
414.482	488.62
414.705	474.62
414.928	486.62
415.151	464.62
415.374	465.62
415.597	461.62
415.821	467.62
416.044	472.62
416.267	460.62
416.49	462.62
416.713	451.62
416.936	454.62
417.159	459.62
417.382	462.62
417.605	482.62
417.828	476.62
418.051	485.62
418.274	482.62
418.497	456.62
418.72	482.62
418.943	482.62
419.166	494.62
419.389	509.62
419.611	518.62
419.834	514.62
420.057	527.62
420.28	544.62
420.503	543.62
420.726	512.62
420.948	515.62
421.171	503.62
421.394	524.62
421.617	495.62
421.839	463.62
422.062	464.62
422.285	483.62
422.507	510.62
422.73	571.62
422.953	551.62
423.175	522.62
423.398	487.62
423.621	488.62
423.843	503.62
424.066	500.62
424.288	515.62
424.511	514.62
424.733	552.62
424.956	569.62
425.178	558.62
425.401	533.62
425.623	553.62
425.846	506.62
426.068	476.62
426.291	470.62
426.513	474.62
426.735	487.62
426.958	498.62
427.18	544.62
427.402	628.62
427.625	692.62
427.847	610.62
428.069	572.62
428.292	520.62
428.514	456.62
428.736	472.62
428.958	459.62
429.181	475.62
429.403	450.62
429.625	446.62
429.847	473.62
430.069	488.62
430.292	473.62
430.514	445.62
430.736	448.62
430.958	430.62
431.18	432.62
431.402	423.62
431.624	428.62
431.846	426.62
432.068	413.62
432.29	436.62
432.512	429.62
432.734	429.62
432.956	438.62
433.178	446.62
433.4	444.62
433.622	430.62
433.844	454.62
434.066	432.62
434.287	438.62
434.509	444.62
434.731	452.62
434.953	471.62
435.175	461.62
435.397	466.62
435.618	471.62
435.84	487.62
436.062	532.62
436.284	589.62
436.505	490.62
436.727	456.62
436.949	437.62
437.17	440.62
437.392	445.62
437.614	442.62
437.835	468.62
438.057	511.62
438.278	568.62
438.5	559.62
438.721	618.62
438.943	588.62
439.165	472.62
439.386	452.62
439.608	435.62
439.829	471.62
440.05	471.62
440.272	514.62
440.493	478.62
440.715	471.62
440.936	436.62
441.158	469.62
441.379	462.62
441.6	482.62
441.822	484.62
442.043	509.62
442.264	530.62
442.486	568.62
442.707	505.62
442.928	480.62
443.149	491.62
443.371	512.62
443.592	502.62
443.813	565.62
444.034	611.62
444.255	538.62
444.476	506.62
444.698	500.62
444.919	501.62
445.14	651.62
445.361	544.62
445.582	539.62
445.803	533.62
446.024	575.62
446.245	589.62
446.466	531.62
446.687	475.62
446.908	477.62
447.129	455.62
447.35	424.62
447.571	443.62
447.792	408.62
448.013	422.62
448.234	444.62
448.455	455.62
448.675	506.62
448.896	600.62
449.117	525.62
449.338	498.62
449.559	536.62
449.779	616.62
450	517.62
450.221	442.62
450.442	431.62
450.662	420.62
450.883	419.62
451.104	419.62
451.324	405.62
451.545	405.62
451.766	401.62
451.986	391.62
452.207	393.62
452.428	371.62
452.648	384.62
452.869	410.62
453.089	394.62
453.31	404.62
453.53	382.62
453.751	377.62
453.971	385.62
454.192	397.62
454.412	396.62
454.633	391.62
454.853	398.62
455.073	370.62
455.294	395.62
455.514	426.62
455.734	431.62
455.955	388.62
456.175	372.62
456.395	352.62
456.616	355.62
456.836	380.62
457.056	374.62
457.276	378.62
457.497	367.62
457.717	370.62
457.937	364.62
458.157	380.62
458.377	382.62
458.598	388.62
458.818	410.62
459.038	475.62
459.258	489.62
459.478	461.62
459.698	436.62
459.918	421.62
460.138	451.62
460.358	462.62
460.578	474.62
460.798	456.62
461.018	480.62
461.238	462.62
461.458	479.62
461.678	466.62
461.898	465.62
462.118	453.62
462.338	491.62
462.558	499.62
462.777	489.62
462.997	529.62
463.217	550.62
463.437	603.62
463.657	534.62
463.876	525.62
464.096	513.62
464.316	522.62
464.536	498.62
464.755	507.62
464.975	481.62
465.195	518.62
465.414	538.62
465.634	463.62
465.854	452.62
466.073	436.62
466.293	424.62
466.512	393.62
466.732	414.62
466.951	427.62
467.171	399.62
467.391	422.62
467.61	404.62
467.829	431.62
468.049	430.62
468.268	443.62
468.488	408.62
468.707	414.62
468.927	404.62
469.146	408.62
469.365	412.62
469.585	413.62
469.804	408.62
470.023	435.62
470.243	431.62
470.462	436.62
470.681	452.62
470.901	404.62
471.12	427.62
471.339	407.62
471.558	442.62
471.777	416.62
471.997	442.62
472.216	481.62
472.435	566.62
472.654	527.62
472.873	460.62
473.092	431.62
473.311	431.62
473.53	418.62
473.749	410.62
473.968	449.62
474.187	495.62
474.406	493.62
474.625	437.62
474.844	441.62
475.063	404.62
475.282	410.62
475.501	400.62
475.72	416.62
475.939	419.62
476.158	420.62
476.377	390.62
476.596	416.62
476.814	402.62
477.033	428.62
477.252	439.62
477.471	432.62
477.69	439.62
477.908	450.62
478.127	456.62
478.346	452.62
478.564	459.62
478.783	458.62
479.002	455.62
479.22	485.62
479.439	478.62
479.658	501.62
479.876	510.62
480.095	515.62
480.313	521.62
480.532	514.62
480.751	547.62
480.969	570.62
481.188	710.62
481.406	804.62
481.624	626.62
481.843	547.62
482.061	524.62
482.28	527.62
482.498	509.62
482.717	470.62
482.935	487.62
483.153	456.62
483.372	487.62
483.59	479.62
483.808	470.62
484.027	470.62
484.245	477.62
484.463	480.62
484.681	515.62
484.9	493.62
485.118	481.62
485.336	463.62
485.554	485.62
485.772	489.62
485.99	503.62
486.209	484.62
486.427	482.62
486.645	501.62
486.863	509.62
487.081	492.62
487.299	490.62
487.517	477.62
487.735	478.62
487.953	504.62
488.171	492.62
488.389	503.62
488.607	524.62
488.825	479.62
489.043	479.62
489.261	512.62
489.479	495.62
489.696	516.62
489.914	498.62
490.132	512.62
490.35	523.62
490.568	538.62
490.786	520.62
491.003	541.62
491.221	555.62
491.439	546.62
491.657	566.62
491.874	570.62
492.092	559.62
492.31	566.62
492.527	596.62
492.745	610.62
492.963	629.62
493.18	637.62
493.398	621.62
493.615	608.62
493.833	592.62
494.05	596.62
494.268	569.62
494.485	588.62
494.703	589.62
494.92	597.62
495.138	584.62
495.355	581.62
495.573	568.62
495.79	569.62
496.008	582.62
496.225	577.62
496.442	590.62
496.66	589.62
496.877	579.62
497.094	576.62
497.312	588.62
497.529	591.62
497.746	616.62
497.963	624.62
498.181	641.62
498.398	675.62
498.615	683.62
498.832	699.62
499.049	726.62
499.267	760.62
499.484	807.62
499.701	854.62
499.918	918.62
500.135	1004.62
500.352	1066.62
500.569	1094.62
500.786	1090.62
501.003	1069.62
501.22	1002.62
501.437	925.62
501.654	850.62
501.871	819.62
