Data from 1984.PennyLincolnUp.Lamp.En5.5.200Scan.071819.P1_HRD10591_17-00-25-993.txt Node
Date: Thu Jul 18 17:00:25 EDT 2019
User: cochatt
Spectrometer: HR+D1059
Trigger mode: 1
Integration Time (sec): 1.000000E-1
Scans to average: 1
Electric dark correction enabled: true
Nonlinearity correction enabled: false
Boxcar width: 0
XAxis mode: Wavelengths
Number of Pixels in Spectrum: 2048
>>>>>Begin Spectral Data<<<<<
223.165	-12.81
223.4	-12.81
223.635	-12.81
223.869	-16.81
224.104	-12.81
224.338	-20.81
224.573	-12.81
224.808	-14.81
225.042	-9.81
225.277	-1.81
225.511	7.19
225.746	5.19
225.98	-6.81
226.215	8.19
226.449	14.19
226.683	13.19
226.918	22.19
227.152	39.19
227.387	29.19
227.621	38.19
227.856	42.19
228.09	59.19
228.324	64.19
228.559	45.19
228.793	57.19
229.027	91.19
229.262	97.19
229.496	108.19
229.73	88.19
229.964	114.19
230.199	109.19
230.433	115.19
230.667	103.19
230.901	111.19
231.136	107.19
231.37	93.19
231.604	114.19
231.838	95.19
232.072	122.19
232.306	117.19
232.541	108.19
232.775	118.19
233.009	108.19
233.243	96.19
233.477	111.19
233.711	102.19
233.945	121.19
234.179	106.19
234.413	103.19
234.647	107.19
234.881	122.19
235.115	102.19
235.349	100.19
235.583	111.19
235.817	114.19
236.051	125.19
236.285	116.19
236.519	127.19
236.753	106.19
236.987	129.19
237.221	139.19
237.455	182.19
237.689	134.19
237.922	112.19
238.156	113.19
238.39	126.19
238.624	109.19
238.858	125.19
239.091	111.19
239.325	124.19
239.559	133.19
239.793	115.19
240.027	121.19
240.26	123.19
240.494	147.19
240.728	147.19
240.961	124.19
241.195	134.19
241.429	122.19
241.662	126.19
241.896	127.19
242.13	133.19
242.363	137.19
242.597	126.19
242.83	134.19
243.064	123.19
243.298	140.19
243.531	131.19
243.765	140.19
243.998	138.19
244.232	139.19
244.465	135.19
244.699	135.19
244.932	135.19
245.166	134.19
245.399	133.19
245.633	133.19
245.866	140.19
246.099	149.19
246.333	125.19
246.566	148.19
246.8	129.19
247.033	141.19
247.266	145.19
247.5	152.19
247.733	139.19
247.966	149.19
248.2	145.19
248.433	155.19
248.666	152.19
248.899	178.19
249.133	179.19
249.366	182.19
249.599	181.19
249.832	187.19
250.066	179.19
250.299	179.19
250.532	188.19
250.765	224.19
250.998	221.19
251.231	186.19
251.465	182.19
251.698	181.19
251.931	191.19
252.164	178.19
252.397	167.19
252.63	177.19
252.863	173.19
253.096	181.19
253.329	187.19
253.562	210.19
253.795	189.19
254.028	185.19
254.261	196.19
254.494	184.19
254.727	222.19
254.96	220.19
255.193	211.19
255.426	202.19
255.659	232.19
255.892	233.19
256.124	283.19
256.357	318.19
256.59	268.19
256.823	209.19
257.056	218.19
257.289	210.19
257.521	202.19
257.754	213.19
257.987	218.19
258.22	202.19
258.452	200.19
258.685	190.19
258.918	193.19
259.151	204.19
259.383	199.19
259.616	191.19
259.849	212.19
260.081	205.19
260.314	213.19
260.547	220.19
260.779	216.19
261.012	211.19
261.244	212.19
261.477	200.19
261.71	204.19
261.942	204.19
262.175	206.19
262.407	204.19
262.64	211.19
262.872	213.19
263.105	215.19
263.337	191.19
263.57	183.19
263.802	190.19
264.035	202.19
264.267	197.19
264.499	202.19
264.732	218.19
264.964	196.19
265.197	208.19
265.429	212.19
265.661	211.19
265.894	211.19
266.126	188.19
266.358	204.19
266.591	219.19
266.823	225.19
267.055	210.19
267.287	203.19
267.52	213.19
267.752	203.19
267.984	210.19
268.216	225.19
268.448	215.19
268.681	224.19
268.913	215.19
269.145	247.19
269.377	230.19
269.609	229.19
269.841	241.19
270.073	233.19
270.306	251.19
270.538	259.19
270.77	251.19
271.002	253.19
271.234	253.19
271.466	245.19
271.698	264.19
271.93	260.19
272.162	256.19
272.394	285.19
272.626	263.19
272.858	245.19
273.09	238.19
273.322	249.19
273.553	228.19
273.785	243.19
274.017	247.19
274.249	259.19
274.481	251.19
274.713	243.19
274.945	248.19
275.176	247.19
275.408	262.19
275.64	227.19
275.872	250.19
276.104	233.19
276.335	257.19
276.567	263.19
276.799	277.19
277.031	275.19
277.262	291.19
277.494	283.19
277.726	291.19
277.957	270.19
278.189	265.19
278.421	266.19
278.652	272.19
278.884	273.19
279.115	260.19
279.347	269.19
279.579	268.19
279.81	261.19
280.042	269.19
280.273	288.19
280.505	284.19
280.736	266.19
280.968	269.19
281.199	276.19
281.431	257.19
281.662	267.19
281.894	278.19
282.125	283.19
282.356	279.19
282.588	291.19
282.819	291.19
283.051	280.19
283.282	264.19
283.513	257.19
283.745	267.19
283.976	277.19
284.207	265.19
284.439	274.19
284.67	273.19
284.901	269.19
285.132	299.19
285.364	264.19
285.595	285.19
285.826	282.19
286.057	268.19
286.288	267.19
286.52	276.19
286.751	279.19
286.982	287.19
287.213	302.19
287.444	290.19
287.675	275.19
287.906	282.19
288.138	288.19
288.369	268.19
288.6	283.19
288.831	282.19
289.062	304.19
289.293	301.19
289.524	281.19
289.755	283.19
289.986	269.19
290.217	298.19
290.448	272.19
290.679	283.19
290.91	315.19
291.141	284.19
291.371	295.19
291.602	288.19
291.833	270.19
292.064	281.19
292.295	273.19
292.526	287.19
292.757	295.19
292.987	279.19
293.218	306.19
293.449	287.19
293.68	280.19
293.91	301.19
294.141	281.19
294.372	284.19
294.603	289.19
294.833	297.19
295.064	302.19
295.295	298.19
295.525	292.19
295.756	306.19
295.987	304.19
296.217	333.19
296.448	320.19
296.679	301.19
296.909	282.19
297.14	311.19
297.37	297.19
297.601	296.19
297.831	299.19
298.062	307.19
298.292	305.19
298.523	313.19
298.753	309.19
298.984	309.19
299.214	287.19
299.445	292.19
299.675	303.19
299.905	307.19
300.136	305.19
300.366	311.19
300.597	320.19
300.827	315.19
301.057	332.19
301.288	326.19
301.518	330.19
301.748	336.19
301.979	299.19
302.209	317.19
302.439	347.19
302.669	316.19
302.9	333.19
303.13	321.19
303.36	315.19
303.59	330.19
303.82	336.19
304.051	333.19
304.281	323.19
304.511	316.19
304.741	317.19
304.971	310.19
305.201	332.19
305.431	332.19
305.661	327.19
305.891	321.19
306.121	340.19
306.352	318.19
306.582	333.19
306.812	319.19
307.042	327.19
307.272	313.19
307.502	337.19
307.731	333.19
307.961	337.19
308.191	311.19
308.421	339.19
308.651	333.19
308.881	350.19
309.111	344.19
309.341	315.19
309.571	330.19
309.8	344.19
310.03	348.19
310.26	348.19
310.49	339.19
310.72	355.19
310.949	352.19
311.179	344.19
311.409	346.19
311.639	353.19
311.868	360.19
312.098	360.19
312.328	360.19
312.557	349.19
312.787	377.19
313.017	367.19
313.246	364.19
313.476	363.19
313.706	352.19
313.935	357.19
314.165	371.19
314.394	373.19
314.624	379.19
314.853	359.19
315.083	349.19
315.312	368.19
315.542	359.19
315.771	367.19
316.001	339.19
316.23	359.19
316.46	336.19
316.689	351.19
316.919	362.19
317.148	368.19
317.377	377.19
317.607	377.19
317.836	374.19
318.065	359.19
318.295	356.19
318.524	364.19
318.753	354.19
318.983	373.19
319.212	359.19
319.441	369.19
319.67	361.19
319.9	342.19
320.129	363.19
320.358	361.19
320.587	338.19
320.816	381.19
321.046	379.19
321.275	360.19
321.504	373.19
321.733	372.19
321.962	357.19
322.191	360.19
322.42	404.19
322.649	390.19
322.878	421.19
323.108	437.19
323.337	420.19
323.566	439.19
323.795	466.19
324.024	481.19
324.253	559.19
324.482	740.19
324.71	1099.19
324.939	1545.19
325.168	1321.19
325.397	743.19
325.626	527.19
325.855	477.19
326.084	478.19
326.313	471.19
326.542	441.19
326.77	482.19
326.999	543.19
327.228	727.19
327.457	1044.19
327.686	1226.19
327.914	872.19
328.143	654.19
328.372	585.19
328.6	559.19
328.829	536.19
329.058	526.19
329.287	532.19
329.515	511.19
329.744	504.19
329.972	569.19
330.201	647.19
330.43	712.19
330.658	682.19
330.887	601.19
331.115	546.19
331.344	516.19
331.572	480.19
331.801	467.19
332.03	484.19
332.258	459.19
332.486	472.19
332.715	482.19
332.943	508.19
333.172	505.19
333.4	497.19
333.629	538.19
333.857	575.19
334.085	627.19
334.314	728.19
334.542	834.19
334.771	861.19
334.999	657.19
335.227	550.19
335.455	515.19
335.684	486.19
335.912	468.19
336.14	450.19
336.369	443.19
336.597	443.19
336.825	464.19
337.053	433.19
337.281	449.19
337.51	444.19
337.738	444.19
337.966	421.19
338.194	435.19
338.422	442.19
338.65	416.19
338.878	407.19
339.106	428.19
339.334	419.19
339.562	400.19
339.79	421.19
340.018	419.19
340.246	394.19
340.474	418.19
340.702	411.19
340.93	390.19
341.158	403.19
341.386	396.19
341.614	408.19
341.842	405.19
342.07	389.19
342.298	404.19
342.526	372.19
342.754	396.19
342.981	403.19
343.209	396.19
343.437	411.19
343.665	420.19
343.893	417.19
344.12	441.19
344.348	428.19
344.576	435.19
344.804	411.19
345.031	404.19
345.259	418.19
345.487	407.19
345.714	411.19
345.942	389.19
346.17	386.19
346.397	375.19
346.625	398.19
346.853	361.19
347.08	374.19
347.308	390.19
347.535	389.19
347.763	412.19
347.99	388.19
348.218	393.19
348.445	372.19
348.673	385.19
348.9	380.19
349.128	382.19
349.355	375.19
349.583	379.19
349.81	358.19
350.037	362.19
350.265	355.19
350.492	380.19
350.72	357.19
350.947	371.19
351.174	379.19
351.402	405.19
351.629	385.19
351.856	388.19
352.083	357.19
352.311	379.19
352.538	391.19
352.765	387.19
352.992	379.19
353.22	379.19
353.447	394.19
353.674	383.19
353.901	369.19
354.128	376.19
354.355	362.19
354.583	356.19
354.81	367.19
355.037	355.19
355.264	359.19
355.491	357.19
355.718	345.19
355.945	359.19
356.172	379.19
356.399	371.19
356.626	351.19
356.853	349.19
357.08	356.19
357.307	370.19
357.534	373.19
357.761	363.19
357.988	376.19
358.215	371.19
358.441	341.19
358.668	354.19
358.895	349.19
359.122	360.19
359.349	380.19
359.576	361.19
359.802	385.19
360.029	381.19
360.256	402.19
360.483	415.19
360.709	373.19
360.936	381.19
361.163	352.19
361.39	379.19
361.616	391.19
361.843	374.19
362.07	351.19
362.296	374.19
362.523	380.19
362.749	374.19
362.976	364.19
363.203	363.19
363.429	358.19
363.656	368.19
363.882	361.19
364.109	343.19
364.335	375.19
364.562	372.19
364.788	346.19
365.015	345.19
365.241	369.19
365.468	349.19
365.694	352.19
365.92	373.19
366.147	350.19
366.373	359.19
366.599	357.19
366.826	367.19
367.052	351.19
367.278	353.19
367.505	365.19
367.731	362.19
367.957	376.19
368.184	363.19
368.41	385.19
368.636	375.19
368.862	365.19
369.089	367.19
369.315	367.19
369.541	380.19
369.767	340.19
369.993	347.19
370.219	371.19
370.445	363.19
370.672	379.19
370.898	361.19
371.124	377.19
371.35	374.19
371.576	357.19
371.802	361.19
372.028	356.19
372.254	359.19
372.48	388.19
372.706	363.19
372.932	353.19
373.158	380.19
373.384	379.19
373.61	377.19
373.835	380.19
374.061	364.19
374.287	368.19
374.513	389.19
374.739	382.19
374.965	396.19
375.191	400.19
375.416	395.19
375.642	377.19
375.868	395.19
376.094	379.19
376.319	369.19
376.545	353.19
376.771	362.19
376.997	355.19
377.222	351.19
377.448	358.19
377.674	365.19
377.899	345.19
378.125	350.19
378.35	359.19
378.576	363.19
378.802	371.19
379.027	364.19
379.253	369.19
379.478	371.19
379.704	365.19
379.929	378.19
380.155	351.19
380.38	359.19
380.606	360.19
380.831	332.19
381.057	372.19
381.282	360.19
381.507	371.19
381.733	367.19
381.958	355.19
382.184	375.19
382.409	393.19
382.634	352.19
382.86	380.19
383.085	375.19
383.31	358.19
383.535	373.19
383.761	374.19
383.986	397.19
384.211	401.19
384.436	388.19
384.662	407.19
384.887	384.19
385.112	406.19
385.337	378.19
385.562	397.19
385.787	410.19
386.013	440.19
386.238	437.19
386.463	423.19
386.688	423.19
386.913	397.19
387.138	401.19
387.363	390.19
387.588	405.19
387.813	397.19
388.038	407.19
388.263	424.19
388.488	400.19
388.713	405.19
388.938	417.19
389.163	407.19
389.387	417.19
389.612	405.19
389.837	400.19
390.062	382.19
390.287	415.19
390.512	403.19
390.736	396.19
390.961	403.19
391.186	421.19
391.411	415.19
391.636	451.19
391.86	440.19
392.085	444.19
392.31	451.19
392.534	432.19
392.759	411.19
392.984	420.19
393.208	383.19
393.433	419.19
393.658	409.19
393.882	407.19
394.107	428.19
394.331	417.19
394.556	434.19
394.78	428.19
395.005	437.19
395.229	420.19
395.454	447.19
395.678	439.19
395.903	434.19
396.127	422.19
396.352	453.19
396.576	429.19
396.801	406.19
397.025	409.19
397.249	439.19
397.474	446.19
397.698	426.19
397.922	461.19
398.147	460.19
398.371	460.19
398.595	470.19
398.82	482.19
399.044	503.19
399.268	521.19
399.492	583.19
399.717	635.19
399.941	668.19
400.165	605.19
400.389	595.19
400.613	542.19
400.837	514.19
401.062	491.19
401.286	476.19
401.51	473.19
401.734	479.19
401.958	512.19
402.182	505.19
402.406	499.19
402.63	515.19
402.854	506.19
403.078	532.19
403.302	525.19
403.526	531.19
403.75	536.19
403.974	540.19
404.198	549.19
404.422	549.19
404.645	561.19
404.869	567.19
405.093	607.19
405.317	626.19
405.541	659.19
405.765	615.19
405.988	568.19
406.212	552.19
406.436	573.19
406.66	550.19
406.883	553.19
407.107	600.19
407.331	618.19
407.555	641.19
407.778	637.19
408.002	614.19
408.226	579.19
408.449	549.19
408.673	540.19
408.896	553.19
409.12	595.19
409.344	571.19
409.567	536.19
409.791	504.19
410.014	524.19
410.238	516.19
410.461	521.19
410.685	526.19
410.908	497.19
411.132	528.19
411.355	546.19
411.578	523.19
411.802	518.19
412.025	529.19
412.249	533.19
412.472	579.19
412.695	639.19
412.919	615.19
413.142	577.19
413.365	545.19
413.589	527.19
413.812	519.19
414.035	506.19
414.258	512.19
414.482	501.19
414.705	500.19
414.928	464.19
415.151	491.19
415.374	490.19
415.597	474.19
415.821	486.19
416.044	496.19
416.267	472.19
416.49	469.19
416.713	465.19
416.936	491.19
417.159	477.19
417.382	478.19
417.605	463.19
417.828	510.19
418.051	504.19
418.274	486.19
418.497	482.19
418.72	476.19
418.943	476.19
419.166	521.19
419.389	537.19
419.611	528.19
419.834	545.19
420.057	513.19
420.28	542.19
420.503	548.19
420.726	507.19
420.948	519.19
421.171	535.19
421.394	543.19
421.617	501.19
421.839	488.19
422.062	493.19
422.285	490.19
422.507	512.19
422.73	588.19
422.953	532.19
423.175	519.19
423.398	524.19
423.621	501.19
423.843	534.19
424.066	521.19
424.288	513.19
424.511	507.19
424.733	562.19
424.956	588.19
425.178	554.19
425.401	584.19
425.623	587.19
425.846	528.19
426.068	477.19
426.291	495.19
426.513	488.19
426.735	500.19
426.958	507.19
427.18	563.19
427.402	645.19
427.625	695.19
427.847	636.19
428.069	603.19
428.292	516.19
428.514	498.19
428.736	463.19
428.958	460.19
429.181	453.19
429.403	458.19
429.625	461.19
429.847	466.19
430.069	497.19
430.292	503.19
430.514	455.19
430.736	448.19
430.958	442.19
431.18	451.19
431.402	439.19
431.624	444.19
431.846	448.19
432.068	425.19
432.29	445.19
432.512	423.19
432.734	455.19
432.956	457.19
433.178	443.19
433.4	479.19
433.622	447.19
433.844	418.19
434.066	433.19
434.287	417.19
434.509	464.19
434.731	449.19
434.953	467.19
435.175	495.19
435.397	488.19
435.618	497.19
435.84	519.19
436.062	571.19
436.284	584.19
436.505	503.19
436.727	491.19
436.949	471.19
437.17	459.19
437.392	439.19
437.614	458.19
437.835	468.19
438.057	531.19
438.278	580.19
438.5	578.19
438.721	625.19
438.943	595.19
439.165	488.19
439.386	480.19
439.608	497.19
439.829	479.19
440.05	510.19
440.272	523.19
440.493	513.19
440.715	467.19
440.936	473.19
441.158	446.19
441.379	480.19
441.6	465.19
441.822	467.19
442.043	519.19
442.264	569.19
442.486	592.19
442.707	523.19
442.928	503.19
443.149	538.19
443.371	508.19
443.592	524.19
443.813	584.19
444.034	641.19
444.255	561.19
444.476	525.19
444.698	530.19
444.919	556.19
445.14	664.19
445.361	575.19
445.582	515.19
445.803	553.19
446.024	575.19
446.245	607.19
446.466	592.19
446.687	493.19
446.908	465.19
447.129	443.19
447.35	437.19
447.571	449.19
447.792	425.19
448.013	429.19
448.234	445.19
448.455	459.19
448.675	529.19
448.896	633.19
449.117	521.19
449.338	525.19
449.559	551.19
449.779	628.19
450	534.19
450.221	458.19
450.442	429.19
450.662	452.19
450.883	418.19
451.104	444.19
451.324	435.19
451.545	431.19
451.766	418.19
451.986	411.19
452.207	395.19
452.428	399.19
452.648	405.19
452.869	407.19
453.089	418.19
453.31	411.19
453.53	406.19
453.751	394.19
453.971	394.19
454.192	403.19
454.412	409.19
454.633	400.19
454.853	390.19
455.073	376.19
455.294	423.19
455.514	451.19
455.734	433.19
455.955	398.19
456.175	389.19
456.395	389.19
456.616	359.19
456.836	386.19
457.056	393.19
457.276	364.19
457.497	381.19
457.717	385.19
457.937	391.19
458.157	395.19
458.377	394.19
458.598	406.19
458.818	439.19
459.038	494.19
459.258	485.19
459.478	463.19
459.698	459.19
459.918	447.19
460.138	461.19
460.358	463.19
460.578	464.19
460.798	471.19
461.018	471.19
461.238	488.19
461.458	500.19
461.678	460.19
461.898	472.19
462.118	465.19
462.338	486.19
462.558	478.19
462.777	492.19
462.997	545.19
463.217	559.19
463.437	584.19
463.657	545.19
463.876	525.19
464.096	520.19
464.316	538.19
464.536	531.19
464.755	521.19
464.975	518.19
465.195	517.19
465.414	546.19
465.634	484.19
465.854	447.19
466.073	446.19
466.293	425.19
466.512	420.19
466.732	397.19
466.951	437.19
467.171	437.19
467.391	421.19
467.61	425.19
467.829	441.19
468.049	439.19
468.268	465.19
468.488	452.19
468.707	433.19
468.927	427.19
469.146	408.19
469.365	419.19
469.585	410.19
469.804	434.19
470.023	431.19
470.243	428.19
470.462	455.19
470.681	441.19
470.901	417.19
471.12	427.19
471.339	421.19
471.558	436.19
471.777	441.19
471.997	419.19
472.216	492.19
472.435	575.19
472.654	559.19
472.873	487.19
473.092	456.19
473.311	424.19
473.53	431.19
473.749	445.19
473.968	442.19
474.187	500.19
474.406	505.19
474.625	459.19
474.844	435.19
475.063	406.19
475.282	417.19
475.501	409.19
475.72	431.19
475.939	431.19
476.158	422.19
476.377	431.19
476.596	420.19
476.814	433.19
477.033	437.19
477.252	442.19
477.471	426.19
477.69	446.19
477.908	456.19
478.127	470.19
478.346	455.19
478.564	475.19
478.783	488.19
479.002	467.19
479.22	489.19
479.439	509.19
479.658	490.19
479.876	513.19
480.095	515.19
480.313	516.19
480.532	536.19
480.751	543.19
480.969	572.19
481.188	745.19
481.406	856.19
481.624	663.19
481.843	570.19
482.061	548.19
482.28	523.19
482.498	526.19
482.717	496.19
482.935	517.19
483.153	495.19
483.372	469.19
483.59	485.19
483.808	495.19
484.027	474.19
484.245	463.19
484.463	489.19
484.681	486.19
484.9	470.19
485.118	512.19
485.336	495.19
485.554	491.19
485.772	509.19
485.99	510.19
486.209	514.19
486.427	490.19
486.645	511.19
486.863	502.19
487.081	514.19
487.299	501.19
487.517	498.19
487.735	499.19
487.953	510.19
488.171	523.19
488.389	520.19
488.607	519.19
488.825	524.19
489.043	521.19
489.261	514.19
489.479	502.19
489.696	531.19
489.914	532.19
490.132	545.19
490.35	538.19
490.568	547.19
490.786	568.19
491.003	563.19
491.221	586.19
491.439	585.19
491.657	607.19
491.874	598.19
492.092	609.19
492.31	637.19
492.527	634.19
492.745	632.19
492.963	647.19
493.18	636.19
493.398	645.19
493.615	632.19
493.833	610.19
494.05	623.19
494.268	604.19
494.485	607.19
494.703	620.19
494.92	623.19
495.138	591.19
495.355	593.19
495.573	586.19
495.79	590.19
496.008	579.19
496.225	609.19
496.442	595.19
496.66	584.19
496.877	596.19
497.094	588.19
497.312	614.19
497.529	605.19
497.746	631.19
497.963	636.19
498.181	659.19
498.398	684.19
498.615	675.19
498.832	716.19
499.049	752.19
499.267	797.19
499.484	860.19
499.701	883.19
499.918	930.19
500.135	976.19
500.352	1106.19
500.569	1135.19
500.786	1123.19
501.003	1086.19
501.22	1039.19
501.437	915.19
501.654	893.19
501.871	852.19
