Data from 1984.PennyLincolnUp.Lamp.En5.5.200Scan.071819.P1_HRD10591_16-58-13-967.txt Node
Date: Thu Jul 18 16:58:13 EDT 2019
User: cochatt
Spectrometer: HR+D1059
Trigger mode: 1
Integration Time (sec): 1.000000E-1
Scans to average: 1
Electric dark correction enabled: true
Nonlinearity correction enabled: false
Boxcar width: 0
XAxis mode: Wavelengths
Number of Pixels in Spectrum: 2048
>>>>>Begin Spectral Data<<<<<
223.165	-3.5
223.4	-3.5
223.635	-3.5
223.869	-18.5
224.104	-21.5
224.338	-12.5
224.573	-11.5
224.808	-21.5
225.042	-19.5
225.277	-13.5
225.511	2.5
225.746	0.5
225.98	9.5
226.215	13.5
226.449	13.5
226.683	15.5
226.918	30.5
227.152	36.5
227.387	29.5
227.621	42.5
227.856	33.5
228.09	44.5
228.324	41.5
228.559	60.5
228.793	59.5
229.027	80.5
229.262	121.5
229.496	101.5
229.73	89.5
229.964	120.5
230.199	116.5
230.433	98.5
230.667	101.5
230.901	109.5
231.136	110.5
231.37	97.5
231.604	112.5
231.838	104.5
232.072	119.5
232.306	113.5
232.541	123.5
232.775	97.5
233.009	123.5
233.243	105.5
233.477	100.5
233.711	100.5
233.945	111.5
234.179	116.5
234.413	115.5
234.647	116.5
234.881	107.5
235.115	121.5
235.349	105.5
235.583	115.5
235.817	113.5
236.051	104.5
236.285	121.5
236.519	108.5
236.753	113.5
236.987	117.5
237.221	157.5
237.455	167.5
237.689	140.5
237.922	117.5
238.156	127.5
238.39	117.5
238.624	123.5
238.858	112.5
239.091	121.5
239.325	122.5
239.559	118.5
239.793	122.5
240.027	127.5
240.26	130.5
240.494	142.5
240.728	144.5
240.961	133.5
241.195	123.5
241.429	110.5
241.662	106.5
241.896	131.5
242.13	130.5
242.363	125.5
242.597	135.5
242.83	138.5
243.064	136.5
243.298	125.5
243.531	131.5
243.765	119.5
243.998	127.5
244.232	132.5
244.465	146.5
244.699	123.5
244.932	142.5
245.166	157.5
245.399	159.5
245.633	151.5
245.866	135.5
246.099	148.5
246.333	139.5
246.566	143.5
246.8	128.5
247.033	139.5
247.266	138.5
247.5	151.5
247.733	140.5
247.966	143.5
248.2	159.5
248.433	156.5
248.666	143.5
248.899	162.5
249.133	170.5
249.366	154.5
249.599	161.5
249.832	181.5
250.066	160.5
250.299	156.5
250.532	164.5
250.765	174.5
250.998	182.5
251.231	183.5
251.465	190.5
251.698	180.5
251.931	174.5
252.164	182.5
252.397	169.5
252.63	165.5
252.863	191.5
253.096	183.5
253.329	182.5
253.562	189.5
253.795	183.5
254.028	188.5
254.261	174.5
254.494	181.5
254.727	214.5
254.96	223.5
255.193	205.5
255.426	194.5
255.659	195.5
255.892	207.5
256.124	187.5
256.357	230.5
256.59	213.5
256.823	195.5
257.056	185.5
257.289	209.5
257.521	186.5
257.754	183.5
257.987	184.5
258.22	196.5
258.452	196.5
258.685	203.5
258.918	194.5
259.151	190.5
259.383	185.5
259.616	187.5
259.849	206.5
260.081	197.5
260.314	209.5
260.547	207.5
260.779	207.5
261.012	205.5
261.244	200.5
261.477	199.5
261.71	205.5
261.942	200.5
262.175	201.5
262.407	213.5
262.64	195.5
262.872	210.5
263.105	193.5
263.337	193.5
263.57	208.5
263.802	205.5
264.035	201.5
264.267	194.5
264.499	189.5
264.732	191.5
264.964	206.5
265.197	185.5
265.429	191.5
265.661	193.5
265.894	204.5
266.126	222.5
266.358	207.5
266.591	196.5
266.823	205.5
267.055	207.5
267.287	217.5
267.52	203.5
267.752	212.5
267.984	207.5
268.216	209.5
268.448	199.5
268.681	228.5
268.913	225.5
269.145	228.5
269.377	235.5
269.609	242.5
269.841	235.5
270.073	243.5
270.306	257.5
270.538	257.5
270.77	250.5
271.002	247.5
271.234	241.5
271.466	258.5
271.698	268.5
271.93	270.5
272.162	278.5
272.394	282.5
272.626	256.5
272.858	245.5
273.09	235.5
273.322	238.5
273.553	219.5
273.785	241.5
274.017	221.5
274.249	247.5
274.481	233.5
274.713	257.5
274.945	230.5
275.176	247.5
275.408	252.5
275.64	247.5
275.872	231.5
276.104	250.5
276.335	245.5
276.567	254.5
276.799	257.5
277.031	258.5
277.262	272.5
277.494	263.5
277.726	272.5
277.957	259.5
278.189	251.5
278.421	242.5
278.652	264.5
278.884	261.5
279.115	261.5
279.347	253.5
279.579	263.5
279.81	259.5
280.042	245.5
280.273	251.5
280.505	256.5
280.736	239.5
280.968	250.5
281.199	256.5
281.431	259.5
281.662	262.5
281.894	265.5
282.125	283.5
282.356	260.5
282.588	296.5
282.819	270.5
283.051	265.5
283.282	271.5
283.513	253.5
283.745	260.5
283.976	264.5
284.207	259.5
284.439	270.5
284.67	280.5
284.901	260.5
285.132	280.5
285.364	263.5
285.595	283.5
285.826	273.5
286.057	261.5
286.288	280.5
286.52	272.5
286.751	271.5
286.982	276.5
287.213	281.5
287.444	284.5
287.675	261.5
287.906	298.5
288.138	275.5
288.369	287.5
288.6	268.5
288.831	271.5
289.062	268.5
289.293	298.5
289.524	290.5
289.755	281.5
289.986	290.5
290.217	266.5
290.448	286.5
290.679	281.5
290.91	258.5
291.141	279.5
291.371	278.5
291.602	287.5
291.833	295.5
292.064	298.5
292.295	277.5
292.526	294.5
292.757	284.5
292.987	274.5
293.218	276.5
293.449	292.5
293.68	286.5
293.91	289.5
294.141	287.5
294.372	277.5
294.603	271.5
294.833	288.5
295.064	281.5
295.295	292.5
295.525	281.5
295.756	281.5
295.987	297.5
296.217	297.5
296.448	299.5
296.679	313.5
296.909	296.5
297.14	282.5
297.37	291.5
297.601	294.5
297.831	285.5
298.062	282.5
298.292	277.5
298.523	296.5
298.753	283.5
298.984	307.5
299.214	296.5
299.445	289.5
299.675	301.5
299.905	309.5
300.136	302.5
300.366	333.5
300.597	302.5
300.827	302.5
301.057	321.5
301.288	299.5
301.518	304.5
301.748	302.5
301.979	319.5
302.209	317.5
302.439	325.5
302.669	327.5
302.9	325.5
303.13	320.5
303.36	328.5
303.59	311.5
303.82	325.5
304.051	316.5
304.281	310.5
304.511	317.5
304.741	316.5
304.971	325.5
305.201	316.5
305.431	318.5
305.661	324.5
305.891	300.5
306.121	317.5
306.352	314.5
306.582	287.5
306.812	313.5
307.042	309.5
307.272	308.5
307.502	320.5
307.731	328.5
307.961	324.5
308.191	313.5
308.421	331.5
308.651	313.5
308.881	324.5
309.111	309.5
309.341	330.5
309.571	302.5
309.8	329.5
310.03	337.5
310.26	342.5
310.49	333.5
310.72	337.5
310.949	361.5
311.179	331.5
311.409	350.5
311.639	334.5
311.868	332.5
312.098	351.5
312.328	335.5
312.557	341.5
312.787	363.5
313.017	344.5
313.246	353.5
313.476	348.5
313.706	351.5
313.935	342.5
314.165	355.5
314.394	363.5
314.624	351.5
314.853	340.5
315.083	366.5
315.312	354.5
315.542	340.5
315.771	338.5
316.001	346.5
316.23	336.5
316.46	332.5
316.689	339.5
316.919	355.5
317.148	369.5
317.377	343.5
317.607	359.5
317.836	350.5
318.065	343.5
318.295	345.5
318.524	335.5
318.753	348.5
318.983	348.5
319.212	349.5
319.441	364.5
319.67	357.5
319.9	364.5
320.129	360.5
320.358	345.5
320.587	342.5
320.816	357.5
321.046	345.5
321.275	349.5
321.504	375.5
321.733	349.5
321.962	367.5
322.191	364.5
322.42	363.5
322.649	382.5
322.878	385.5
323.108	382.5
323.337	392.5
323.566	409.5
323.795	420.5
324.024	462.5
324.253	542.5
324.482	694.5
324.71	1015.5
324.939	1368.5
325.168	1163.5
325.397	661.5
325.626	502.5
325.855	454.5
326.084	433.5
326.313	416.5
326.542	433.5
326.77	457.5
326.999	505.5
327.228	669.5
327.457	913.5
327.686	1044.5
327.914	756.5
328.143	574.5
328.372	510.5
328.6	499.5
328.829	457.5
329.058	474.5
329.287	471.5
329.515	444.5
329.744	435.5
329.972	438.5
330.201	468.5
330.43	499.5
330.658	490.5
330.887	489.5
331.115	473.5
331.344	436.5
331.572	413.5
331.801	420.5
332.03	431.5
332.258	431.5
332.486	438.5
332.715	457.5
332.943	434.5
333.172	453.5
333.4	469.5
333.629	465.5
333.857	490.5
334.085	498.5
334.314	502.5
334.542	546.5
334.771	531.5
334.999	487.5
335.227	444.5
335.455	441.5
335.684	458.5
335.912	432.5
336.14	430.5
336.369	419.5
336.597	424.5
336.825	418.5
337.053	430.5
337.281	407.5
337.51	398.5
337.738	408.5
337.966	415.5
338.194	413.5
338.422	404.5
338.65	396.5
338.878	389.5
339.106	389.5
339.334	396.5
339.562	405.5
339.79	399.5
340.018	387.5
340.246	379.5
340.474	369.5
340.702	398.5
340.93	382.5
341.158	394.5
341.386	382.5
341.614	385.5
341.842	387.5
342.07	381.5
342.298	368.5
342.526	362.5
342.754	386.5
342.981	355.5
343.209	384.5
343.437	401.5
343.665	395.5
343.893	415.5
344.12	436.5
344.348	430.5
344.576	382.5
344.804	408.5
345.031	416.5
345.259	372.5
345.487	392.5
345.714	388.5
345.942	372.5
346.17	374.5
346.397	378.5
346.625	373.5
346.853	365.5
347.08	356.5
347.308	361.5
347.535	385.5
347.763	356.5
347.99	383.5
348.218	377.5
348.445	378.5
348.673	377.5
348.9	366.5
349.128	373.5
349.355	371.5
349.583	353.5
349.81	358.5
350.037	349.5
350.265	365.5
350.492	367.5
350.72	356.5
350.947	352.5
351.174	346.5
351.402	346.5
351.629	363.5
351.856	356.5
352.083	378.5
352.311	363.5
352.538	366.5
352.765	380.5
352.992	362.5
353.22	366.5
353.447	334.5
353.674	349.5
353.901	336.5
354.128	354.5
354.355	345.5
354.583	350.5
354.81	344.5
355.037	353.5
355.264	335.5
355.491	328.5
355.718	351.5
355.945	349.5
356.172	361.5
356.399	342.5
356.626	330.5
356.853	349.5
357.08	344.5
357.307	339.5
357.534	363.5
357.761	340.5
357.988	351.5
358.215	340.5
358.441	348.5
358.668	358.5
358.895	366.5
359.122	346.5
359.349	359.5
359.576	383.5
359.802	377.5
360.029	379.5
360.256	380.5
360.483	379.5
360.709	382.5
360.936	352.5
361.163	353.5
361.39	357.5
361.616	361.5
361.843	374.5
362.07	381.5
362.296	374.5
362.523	372.5
362.749	349.5
362.976	359.5
363.203	341.5
363.429	347.5
363.656	376.5
363.882	357.5
364.109	356.5
364.335	350.5
364.562	353.5
364.788	363.5
365.015	344.5
365.241	349.5
365.468	353.5
365.694	337.5
365.92	352.5
366.147	360.5
366.373	335.5
366.599	322.5
366.826	348.5
367.052	342.5
367.278	340.5
367.505	331.5
367.731	349.5
367.957	351.5
368.184	351.5
368.41	351.5
368.636	358.5
368.862	331.5
369.089	349.5
369.315	340.5
369.541	341.5
369.767	365.5
369.993	354.5
370.219	341.5
370.445	366.5
370.672	347.5
370.898	346.5
371.124	374.5
371.35	348.5
371.576	360.5
371.802	332.5
372.028	338.5
372.254	350.5
372.48	358.5
372.706	368.5
372.932	385.5
373.158	374.5
373.384	342.5
373.61	337.5
373.835	358.5
374.061	365.5
374.287	362.5
374.513	361.5
374.739	370.5
374.965	373.5
375.191	374.5
375.416	385.5
375.642	374.5
375.868	374.5
376.094	349.5
376.319	363.5
376.545	360.5
376.771	371.5
376.997	355.5
377.222	356.5
377.448	355.5
377.674	354.5
377.899	318.5
378.125	348.5
378.35	350.5
378.576	337.5
378.802	367.5
379.027	346.5
379.253	361.5
379.478	357.5
379.704	344.5
379.929	360.5
380.155	372.5
380.38	375.5
380.606	355.5
380.831	332.5
381.057	370.5
381.282	354.5
381.507	356.5
381.733	345.5
381.958	355.5
382.184	342.5
382.409	361.5
382.634	376.5
382.86	364.5
383.085	364.5
383.31	370.5
383.535	381.5
383.761	385.5
383.986	379.5
384.211	390.5
384.436	408.5
384.662	390.5
384.887	395.5
385.112	413.5
385.337	386.5
385.562	396.5
385.787	409.5
386.013	422.5
386.238	402.5
386.463	403.5
386.688	401.5
386.913	399.5
387.138	389.5
387.363	392.5
387.588	391.5
387.813	386.5
388.038	389.5
388.263	390.5
388.488	389.5
388.713	409.5
388.938	397.5
389.163	416.5
389.387	403.5
389.612	388.5
389.837	396.5
390.062	396.5
390.287	402.5
390.512	389.5
390.736	379.5
390.961	403.5
391.186	393.5
391.411	422.5
391.636	413.5
391.86	433.5
392.085	407.5
392.31	421.5
392.534	420.5
392.759	420.5
392.984	428.5
393.208	398.5
393.433	412.5
393.658	398.5
393.882	413.5
394.107	396.5
394.331	407.5
394.556	409.5
394.78	396.5
395.005	431.5
395.229	411.5
395.454	437.5
395.678	429.5
395.903	436.5
396.127	435.5
396.352	458.5
396.576	424.5
396.801	426.5
397.025	406.5
397.249	425.5
397.474	441.5
397.698	422.5
397.922	443.5
398.147	445.5
398.371	460.5
398.595	442.5
398.82	471.5
399.044	496.5
399.268	521.5
399.492	576.5
399.717	603.5
399.941	641.5
400.165	617.5
400.389	597.5
400.613	530.5
400.837	500.5
401.062	497.5
401.286	481.5
401.51	463.5
401.734	455.5
401.958	478.5
402.182	457.5
402.406	479.5
402.63	480.5
402.854	483.5
403.078	493.5
403.302	504.5
403.526	515.5
403.75	489.5
403.974	516.5
404.198	524.5
404.422	518.5
404.645	517.5
404.869	519.5
405.093	520.5
405.317	559.5
405.541	549.5
405.765	538.5
405.988	509.5
406.212	532.5
406.436	532.5
406.66	538.5
406.883	508.5
407.107	564.5
407.331	592.5
407.555	631.5
407.778	637.5
408.002	596.5
408.226	567.5
408.449	542.5
408.673	533.5
408.896	542.5
409.12	571.5
409.344	536.5
409.567	515.5
409.791	521.5
410.014	498.5
410.238	479.5
410.461	505.5
410.685	501.5
410.908	519.5
411.132	519.5
411.355	520.5
411.578	527.5
411.802	511.5
412.025	488.5
412.249	501.5
412.472	513.5
412.695	513.5
412.919	535.5
413.142	491.5
413.365	491.5
413.589	506.5
413.812	465.5
414.035	475.5
414.258	461.5
414.482	464.5
414.705	435.5
414.928	466.5
415.151	477.5
415.374	464.5
415.597	469.5
415.821	443.5
416.044	434.5
416.267	455.5
416.49	462.5
416.713	447.5
416.936	446.5
417.159	447.5
417.382	475.5
417.605	459.5
417.828	482.5
418.051	481.5
418.274	470.5
418.497	450.5
418.72	459.5
418.943	474.5
419.166	487.5
419.389	537.5
419.611	494.5
419.834	481.5
420.057	486.5
420.28	478.5
420.503	492.5
420.726	485.5
420.948	485.5
421.171	500.5
421.394	515.5
421.617	481.5
421.839	488.5
422.062	475.5
422.285	469.5
422.507	517.5
422.73	544.5
422.953	543.5
423.175	492.5
423.398	491.5
423.621	506.5
423.843	515.5
424.066	494.5
424.288	518.5
424.511	498.5
424.733	546.5
424.956	580.5
425.178	584.5
425.401	551.5
425.623	589.5
425.846	537.5
426.068	497.5
426.291	481.5
426.513	483.5
426.735	482.5
426.958	500.5
427.18	507.5
427.402	608.5
427.625	671.5
427.847	611.5
428.069	539.5
428.292	526.5
428.514	482.5
428.736	449.5
428.958	439.5
429.181	442.5
429.403	422.5
429.625	453.5
429.847	433.5
430.069	490.5
430.292	516.5
430.514	455.5
430.736	430.5
430.958	427.5
431.18	429.5
431.402	435.5
431.624	429.5
431.846	426.5
432.068	460.5
432.29	430.5
432.512	434.5
432.734	441.5
432.956	433.5
433.178	428.5
433.4	435.5
433.622	429.5
433.844	421.5
434.066	434.5
434.287	437.5
434.509	451.5
434.731	462.5
434.953	446.5
435.175	474.5
435.397	466.5
435.618	490.5
435.84	486.5
436.062	564.5
436.284	550.5
436.505	482.5
436.727	460.5
436.949	485.5
437.17	440.5
437.392	429.5
437.614	427.5
437.835	443.5
438.057	501.5
438.278	544.5
438.5	537.5
438.721	599.5
438.943	577.5
439.165	485.5
439.386	476.5
439.608	484.5
439.829	476.5
440.05	482.5
440.272	492.5
440.493	470.5
440.715	457.5
440.936	437.5
441.158	451.5
441.379	458.5
441.6	475.5
441.822	487.5
442.043	501.5
442.264	543.5
442.486	565.5
442.707	493.5
442.928	505.5
443.149	486.5
443.371	506.5
443.592	501.5
443.813	556.5
444.034	619.5
444.255	553.5
444.476	508.5
444.698	521.5
444.919	553.5
445.14	620.5
445.361	557.5
445.582	530.5
445.803	552.5
446.024	569.5
446.245	602.5
446.466	569.5
446.687	493.5
446.908	452.5
447.129	435.5
447.35	448.5
447.571	419.5
447.792	422.5
448.013	423.5
448.234	418.5
448.455	474.5
448.675	538.5
448.896	581.5
449.117	508.5
449.338	499.5
449.559	573.5
449.779	614.5
450	513.5
450.221	436.5
450.442	418.5
450.662	409.5
450.883	418.5
451.104	418.5
451.324	398.5
451.545	405.5
451.766	385.5
451.986	390.5
452.207	377.5
452.428	375.5
452.648	394.5
452.869	388.5
453.089	391.5
453.31	401.5
453.53	382.5
453.751	391.5
453.971	383.5
454.192	383.5
454.412	388.5
454.633	407.5
454.853	393.5
455.073	387.5
455.294	382.5
455.514	429.5
455.734	405.5
455.955	371.5
456.175	375.5
456.395	377.5
456.616	367.5
456.836	386.5
457.056	359.5
457.276	357.5
457.497	377.5
457.717	367.5
457.937	369.5
458.157	389.5
458.377	390.5
458.598	393.5
458.818	426.5
459.038	460.5
459.258	493.5
459.478	437.5
459.698	429.5
459.918	440.5
460.138	421.5
460.358	441.5
460.578	458.5
460.798	460.5
461.018	473.5
461.238	452.5
461.458	451.5
461.678	436.5
461.898	466.5
462.118	454.5
462.338	476.5
462.558	510.5
462.777	507.5
462.997	543.5
463.217	572.5
463.437	569.5
463.657	534.5
463.876	498.5
464.096	515.5
464.316	508.5
464.536	523.5
464.755	501.5
464.975	460.5
465.195	511.5
465.414	515.5
465.634	474.5
465.854	447.5
466.073	418.5
466.293	428.5
466.512	407.5
466.732	396.5
466.951	409.5
467.171	417.5
467.391	390.5
467.61	415.5
467.829	415.5
468.049	399.5
468.268	415.5
468.488	419.5
468.707	380.5
468.927	411.5
469.146	413.5
469.365	410.5
469.585	397.5
469.804	407.5
470.023	411.5
470.243	425.5
470.462	419.5
470.681	430.5
470.901	414.5
471.12	420.5
471.339	426.5
471.558	407.5
471.777	396.5
471.997	397.5
472.216	409.5
472.435	448.5
472.654	441.5
472.873	399.5
473.092	397.5
473.311	395.5
473.53	381.5
473.749	401.5
473.968	438.5
474.187	464.5
474.406	487.5
474.625	424.5
474.844	399.5
475.063	390.5
475.282	397.5
475.501	392.5
475.72	403.5
475.939	406.5
476.158	401.5
476.377	401.5
476.596	423.5
476.814	406.5
477.033	433.5
477.252	426.5
477.471	431.5
477.69	426.5
477.908	460.5
478.127	449.5
478.346	455.5
478.564	478.5
478.783	453.5
479.002	466.5
479.22	471.5
479.439	465.5
479.658	480.5
479.876	472.5
480.095	491.5
480.313	516.5
480.532	507.5
480.751	514.5
480.969	530.5
481.188	571.5
481.406	583.5
481.624	510.5
481.843	486.5
482.061	490.5
482.28	450.5
482.498	455.5
482.717	474.5
482.935	471.5
483.153	457.5
483.372	454.5
483.59	452.5
483.808	462.5
484.027	478.5
484.245	470.5
484.463	454.5
484.681	481.5
484.9	468.5
485.118	444.5
485.336	463.5
485.554	477.5
485.772	473.5
485.99	461.5
486.209	484.5
486.427	469.5
486.645	481.5
486.863	505.5
487.081	483.5
487.299	466.5
487.517	480.5
487.735	489.5
487.953	493.5
488.171	468.5
488.389	495.5
488.607	470.5
488.825	493.5
489.043	479.5
489.261	486.5
489.479	478.5
489.696	514.5
489.914	506.5
490.132	488.5
490.35	511.5
490.568	503.5
490.786	517.5
491.003	511.5
491.221	501.5
491.439	512.5
491.657	529.5
491.874	539.5
492.092	564.5
492.31	543.5
492.527	539.5
492.745	535.5
492.963	549.5
493.18	557.5
493.398	550.5
493.615	552.5
493.833	561.5
494.05	566.5
494.268	573.5
494.485	548.5
494.703	552.5
494.92	545.5
495.138	558.5
495.355	565.5
495.573	553.5
495.79	525.5
496.008	572.5
496.225	558.5
496.442	579.5
496.66	542.5
496.877	575.5
497.094	559.5
497.312	549.5
497.529	596.5
497.746	572.5
497.963	606.5
498.181	621.5
498.398	659.5
498.615	664.5
498.832	680.5
499.049	708.5
499.267	747.5
499.484	795.5
499.701	858.5
499.918	870.5
500.135	953.5
500.352	1037.5
500.569	1086.5
500.786	1097.5
501.003	1065.5
501.22	976.5
501.437	896.5
501.654	841.5
501.871	833.5
502.088	745.5
502.305	711.5
502.522	678.5
502.739	676.5
502.956	643.5
503.172	625.5
503.389	611.5
503.606	619.5
503.823	587.5
504.04	609.5
504.256	567.5
504.473	611.5
504.69	618.5
504.907	600.5
505.123	577.5
505.34	545.5
505.557	521.5
505.773	527.5
505.99	538.5
506.207	500.5
506.423	532.5
506.64	523.5
506.856	502.5
507.073	515.5
507.289	488.5
507.506	488.5
507.722	517.5
507.939	503.5
508.155	511.5
508.372	489.5
508.588	492.5
508.805	475.5
509.021	491.5
509.238	489.5
509.454	484.5
509.67	481.5
509.887	481.5
510.103	485.5
510.319	472.5
510.536	532.5
510.752	797.5
510.968	666.5
511.184	494.5
511.401	450.5
511.617	449.5
511.833	460.5
512.049	480.5
512.265	458.5
512.481	466.5
512.698	468.5
512.914	456.5
513.13	475.5
513.346	458.5
513.562	456.5
513.778	454.5
513.994	461.5
514.21	456.5
514.426	462.5
514.642	499.5
514.858	505.5
515.074	507.5
515.29	602.5
515.506	783.5
515.721	681.5
515.937	537.5
516.153	489.5
516.369	498.5
516.585	498.5
516.801	522.5
517.016	536.5
517.232	535.5
517.448	555.5
517.664	548.5
517.879	589.5
518.095	557.5
518.311	553.5
518.527	517.5
518.742	515.5
518.958	531.5
519.173	518.5
519.389	491.5
519.605	469.5
519.82	475.5
