Data from 1984.PennyLincolnUp.Lamp.En5.5.200Scan.071819.P1_HRD10591_16-57-23-967.txt Node
Date: Thu Jul 18 16:57:23 EDT 2019
User: cochatt
Spectrometer: HR+D1059
Trigger mode: 1
Integration Time (sec): 1.000000E-1
Scans to average: 1
Electric dark correction enabled: true
Nonlinearity correction enabled: false
Boxcar width: 0
XAxis mode: Wavelengths
Number of Pixels in Spectrum: 2048
>>>>>Begin Spectral Data<<<<<
223.165	-11.44
223.4	-11.44
223.635	-11.44
223.869	-21.44
224.104	-18.44
224.338	-27.44
224.573	-13.44
224.808	-5.44
225.042	-11.44
225.277	-10.44
225.511	-0.44
225.746	5.56
225.98	0.56
226.215	-3.44
226.449	16.56
226.683	24.56
226.918	28.56
227.152	47.56
227.387	38.56
227.621	32.56
227.856	39.56
228.09	37.56
228.324	41.56
228.559	49.56
228.793	60.56
229.027	86.56
229.262	93.56
229.496	101.56
229.73	102.56
229.964	127.56
230.199	112.56
230.433	95.56
230.667	98.56
230.901	100.56
231.136	99.56
231.37	109.56
231.604	105.56
231.838	103.56
232.072	98.56
232.306	98.56
232.541	110.56
232.775	105.56
233.009	105.56
233.243	109.56
233.477	113.56
233.711	94.56
233.945	105.56
234.179	110.56
234.413	120.56
234.647	103.56
234.881	99.56
235.115	102.56
235.349	96.56
235.583	103.56
235.817	108.56
236.051	106.56
236.285	120.56
236.519	103.56
236.753	100.56
236.987	120.56
237.221	138.56
237.455	139.56
237.689	134.56
237.922	105.56
238.156	112.56
238.39	118.56
238.624	108.56
238.858	112.56
239.091	109.56
239.325	105.56
239.559	99.56
239.793	112.56
240.027	107.56
240.26	131.56
240.494	118.56
240.728	117.56
240.961	120.56
241.195	128.56
241.429	121.56
241.662	119.56
241.896	105.56
242.13	122.56
242.363	112.56
242.597	111.56
242.83	128.56
243.064	125.56
243.298	112.56
243.531	134.56
243.765	128.56
243.998	122.56
244.232	130.56
244.465	122.56
244.699	122.56
244.932	118.56
245.166	118.56
245.399	135.56
245.633	126.56
245.866	126.56
246.099	120.56
246.333	128.56
246.566	133.56
246.8	133.56
247.033	139.56
247.266	138.56
247.5	120.56
247.733	146.56
247.966	131.56
248.2	142.56
248.433	138.56
248.666	152.56
248.899	148.56
249.133	136.56
249.366	143.56
249.599	163.56
249.832	154.56
250.066	149.56
250.299	142.56
250.532	149.56
250.765	162.56
250.998	154.56
251.231	153.56
251.465	169.56
251.698	169.56
251.931	155.56
252.164	154.56
252.397	160.56
252.63	162.56
252.863	162.56
253.096	153.56
253.329	169.56
253.562	169.56
253.795	174.56
254.028	166.56
254.261	167.56
254.494	176.56
254.727	182.56
254.96	198.56
255.193	162.56
255.426	175.56
255.659	175.56
255.892	183.56
256.124	173.56
256.357	167.56
256.59	156.56
256.823	177.56
257.056	176.56
257.289	157.56
257.521	159.56
257.754	160.56
257.987	186.56
258.22	183.56
258.452	158.56
258.685	176.56
258.918	180.56
259.151	163.56
259.383	185.56
259.616	172.56
259.849	187.56
260.081	192.56
260.314	184.56
260.547	209.56
260.779	182.56
261.012	172.56
261.244	186.56
261.477	184.56
261.71	184.56
261.942	177.56
262.175	186.56
262.407	179.56
262.64	182.56
262.872	198.56
263.105	168.56
263.337	174.56
263.57	188.56
263.802	185.56
264.035	186.56
264.267	182.56
264.499	183.56
264.732	182.56
264.964	176.56
265.197	174.56
265.429	176.56
265.661	185.56
265.894	183.56
266.126	182.56
266.358	185.56
266.591	196.56
266.823	192.56
267.055	191.56
267.287	194.56
267.52	206.56
267.752	185.56
267.984	193.56
268.216	192.56
268.448	207.56
268.681	211.56
268.913	205.56
269.145	204.56
269.377	210.56
269.609	220.56
269.841	215.56
270.073	217.56
270.306	205.56
270.538	234.56
270.77	218.56
271.002	217.56
271.234	231.56
271.466	242.56
271.698	243.56
271.93	236.56
272.162	215.56
272.394	244.56
272.626	241.56
272.858	238.56
273.09	240.56
273.322	220.56
273.553	203.56
273.785	239.56
274.017	231.56
274.249	231.56
274.481	223.56
274.713	213.56
274.945	221.56
275.176	226.56
275.408	214.56
275.64	236.56
275.872	228.56
276.104	222.56
276.335	210.56
276.567	220.56
276.799	228.56
277.031	244.56
277.262	267.56
277.494	258.56
277.726	231.56
277.957	238.56
278.189	250.56
278.421	229.56
278.652	216.56
278.884	212.56
279.115	230.56
279.347	224.56
279.579	219.56
279.81	237.56
280.042	238.56
280.273	232.56
280.505	248.56
280.736	242.56
280.968	211.56
281.199	236.56
281.431	224.56
281.662	229.56
281.894	230.56
282.125	243.56
282.356	245.56
282.588	248.56
282.819	259.56
283.051	242.56
283.282	246.56
283.513	239.56
283.745	241.56
283.976	261.56
284.207	269.56
284.439	260.56
284.67	262.56
284.901	265.56
285.132	238.56
285.364	252.56
285.595	254.56
285.826	231.56
286.057	254.56
286.288	252.56
286.52	272.56
286.751	244.56
286.982	264.56
287.213	268.56
287.444	270.56
287.675	282.56
287.906	270.56
288.138	276.56
288.369	274.56
288.6	276.56
288.831	254.56
289.062	273.56
289.293	246.56
289.524	276.56
289.755	261.56
289.986	274.56
290.217	261.56
290.448	257.56
290.679	261.56
290.91	267.56
291.141	261.56
291.371	277.56
291.602	255.56
291.833	279.56
292.064	256.56
292.295	270.56
292.526	254.56
292.757	257.56
292.987	275.56
293.218	260.56
293.449	270.56
293.68	270.56
293.91	265.56
294.141	273.56
294.372	245.56
294.603	270.56
294.833	258.56
295.064	256.56
295.295	281.56
295.525	256.56
295.756	272.56
295.987	285.56
296.217	285.56
296.448	259.56
296.679	273.56
296.909	285.56
297.14	295.56
297.37	288.56
297.601	280.56
297.831	290.56
298.062	286.56
298.292	287.56
298.523	282.56
298.753	278.56
298.984	267.56
299.214	276.56
299.445	304.56
299.675	290.56
299.905	289.56
300.136	290.56
300.366	288.56
300.597	292.56
300.827	292.56
301.057	294.56
301.288	296.56
301.518	298.56
301.748	294.56
301.979	302.56
302.209	303.56
302.439	296.56
302.669	298.56
302.9	296.56
303.13	304.56
303.36	324.56
303.59	307.56
303.82	283.56
304.051	312.56
304.281	298.56
304.511	295.56
304.741	275.56
304.971	309.56
305.201	286.56
305.431	314.56
305.661	287.56
305.891	297.56
306.121	286.56
306.352	294.56
306.582	301.56
306.812	302.56
307.042	300.56
307.272	319.56
307.502	305.56
307.731	290.56
307.961	304.56
308.191	314.56
308.421	296.56
308.651	295.56
308.881	291.56
309.111	297.56
309.341	293.56
309.571	303.56
309.8	310.56
310.03	307.56
310.26	305.56
310.49	311.56
310.72	310.56
310.949	306.56
311.179	324.56
311.409	330.56
311.639	317.56
311.868	303.56
312.098	307.56
312.328	309.56
312.557	321.56
312.787	295.56
313.017	356.56
313.246	339.56
313.476	317.56
313.706	337.56
313.935	310.56
314.165	319.56
314.394	354.56
314.624	343.56
314.853	328.56
315.083	322.56
315.312	316.56
315.542	295.56
315.771	332.56
316.001	334.56
316.23	333.56
316.46	325.56
316.689	336.56
316.919	316.56
317.148	327.56
317.377	317.56
317.607	328.56
317.836	325.56
318.065	325.56
318.295	328.56
318.524	320.56
318.753	314.56
318.983	306.56
319.212	318.56
319.441	328.56
319.67	333.56
319.9	331.56
320.129	331.56
320.358	340.56
320.587	327.56
320.816	335.56
321.046	341.56
321.275	345.56
321.504	329.56
321.733	333.56
321.962	324.56
322.191	334.56
322.42	348.56
322.649	354.56
322.878	340.56
323.108	361.56
323.337	348.56
323.566	359.56
323.795	387.56
324.024	389.56
324.253	424.56
324.482	530.56
324.71	717.56
324.939	936.56
325.168	850.56
325.397	511.56
325.626	401.56
325.855	393.56
326.084	380.56
326.313	367.56
326.542	392.56
326.77	377.56
326.999	402.56
327.228	508.56
327.457	656.56
327.686	773.56
327.914	588.56
328.143	419.56
328.372	383.56
328.6	385.56
328.829	394.56
329.058	386.56
329.287	399.56
329.515	392.56
329.744	367.56
329.972	370.56
330.201	377.56
330.43	380.56
330.658	364.56
330.887	393.56
331.115	405.56
331.344	393.56
331.572	380.56
331.801	393.56
332.03	380.56
332.258	381.56
332.486	393.56
332.715	392.56
332.943	419.56
333.172	388.56
333.4	404.56
333.629	408.56
333.857	430.56
334.085	441.56
334.314	463.56
334.542	414.56
334.771	409.56
334.999	404.56
335.227	400.56
335.455	403.56
335.684	400.56
335.912	394.56
336.14	398.56
336.369	397.56
336.597	405.56
336.825	393.56
337.053	380.56
337.281	374.56
337.51	388.56
337.738	381.56
337.966	359.56
338.194	378.56
338.422	386.56
338.65	393.56
338.878	367.56
339.106	372.56
339.334	390.56
339.562	377.56
339.79	371.56
340.018	357.56
340.246	360.56
340.474	358.56
340.702	341.56
340.93	358.56
341.158	353.56
341.386	371.56
341.614	372.56
341.842	369.56
342.07	353.56
342.298	348.56
342.526	361.56
342.754	347.56
342.981	333.56
343.209	347.56
343.437	381.56
343.665	391.56
343.893	388.56
344.12	404.56
344.348	386.56
344.576	391.56
344.804	391.56
345.031	367.56
345.259	356.56
345.487	358.56
345.714	358.56
345.942	352.56
346.17	352.56
346.397	346.56
346.625	359.56
346.853	344.56
347.08	345.56
347.308	342.56
347.535	338.56
347.763	338.56
347.99	348.56
348.218	357.56
348.445	338.56
348.673	347.56
348.9	330.56
349.128	337.56
349.355	320.56
349.583	322.56
349.81	333.56
350.037	325.56
350.265	332.56
350.492	327.56
350.72	320.56
350.947	328.56
351.174	329.56
351.402	356.56
351.629	342.56
351.856	337.56
352.083	340.56
352.311	324.56
352.538	340.56
352.765	333.56
352.992	324.56
353.22	339.56
353.447	346.56
353.674	328.56
353.901	329.56
354.128	320.56
354.355	314.56
354.583	314.56
354.81	345.56
355.037	340.56
355.264	317.56
355.491	341.56
355.718	322.56
355.945	326.56
356.172	322.56
356.399	330.56
356.626	325.56
356.853	329.56
357.08	340.56
357.307	346.56
357.534	350.56
357.761	337.56
357.988	334.56
358.215	319.56
358.441	353.56
358.668	339.56
358.895	313.56
359.122	332.56
359.349	316.56
359.576	328.56
359.802	336.56
360.029	353.56
360.256	335.56
360.483	327.56
360.709	330.56
360.936	352.56
361.163	332.56
361.39	320.56
361.616	356.56
361.843	342.56
362.07	327.56
362.296	335.56
362.523	324.56
362.749	317.56
362.976	335.56
363.203	332.56
363.429	328.56
363.656	338.56
363.882	334.56
364.109	326.56
364.335	330.56
364.562	328.56
364.788	334.56
365.015	341.56
365.241	311.56
365.468	327.56
365.694	335.56
365.92	333.56
366.147	314.56
366.373	317.56
366.599	316.56
366.826	341.56
367.052	308.56
367.278	325.56
367.505	341.56
367.731	329.56
367.957	342.56
368.184	337.56
368.41	338.56
368.636	335.56
368.862	349.56
369.089	333.56
369.315	322.56
369.541	317.56
369.767	350.56
369.993	333.56
370.219	323.56
370.445	335.56
370.672	311.56
370.898	336.56
371.124	332.56
371.35	343.56
371.576	328.56
371.802	341.56
372.028	319.56
372.254	338.56
372.48	330.56
372.706	341.56
372.932	351.56
373.158	330.56
373.384	341.56
373.61	342.56
373.835	330.56
374.061	326.56
374.287	333.56
374.513	373.56
374.739	364.56
374.965	350.56
375.191	354.56
375.416	371.56
375.642	355.56
375.868	362.56
376.094	342.56
376.319	339.56
376.545	352.56
376.771	329.56
376.997	339.56
377.222	314.56
377.448	348.56
377.674	344.56
377.899	340.56
378.125	337.56
378.35	329.56
378.576	349.56
378.802	330.56
379.027	341.56
379.253	344.56
379.478	336.56
379.704	340.56
379.929	329.56
380.155	332.56
380.38	334.56
380.606	329.56
380.831	336.56
381.057	336.56
381.282	334.56
381.507	322.56
381.733	335.56
381.958	372.56
382.184	362.56
382.409	355.56
382.634	353.56
382.86	342.56
383.085	352.56
383.31	350.56
383.535	349.56
383.761	357.56
383.986	368.56
384.211	368.56
384.436	361.56
384.662	350.56
384.887	396.56
385.112	388.56
385.337	369.56
385.562	388.56
385.787	387.56
386.013	390.56
386.238	372.56
386.463	389.56
386.688	390.56
386.913	394.56
387.138	384.56
387.363	390.56
387.588	363.56
387.813	389.56
388.038	389.56
388.263	392.56
388.488	398.56
388.713	392.56
388.938	393.56
389.163	368.56
389.387	380.56
389.612	369.56
389.837	387.56
390.062	380.56
390.287	386.56
390.512	386.56
390.736	377.56
390.961	392.56
391.186	413.56
391.411	377.56
391.636	415.56
391.86	392.56
392.085	402.56
392.31	404.56
392.534	410.56
392.759	390.56
392.984	421.56
393.208	392.56
393.433	391.56
393.658	383.56
393.882	420.56
394.107	375.56
394.331	387.56
394.556	393.56
394.78	401.56
395.005	389.56
395.229	406.56
395.454	406.56
395.678	404.56
395.903	441.56
396.127	417.56
396.352	425.56
396.576	396.56
396.801	386.56
397.025	386.56
397.249	402.56
397.474	416.56
397.698	398.56
397.922	394.56
398.147	406.56
398.371	430.56
398.595	426.56
398.82	448.56
399.044	450.56
399.268	504.56
399.492	550.56
399.717	586.56
399.941	599.56
400.165	576.56
400.389	539.56
400.613	520.56
400.837	481.56
401.062	469.56
401.286	459.56
401.51	441.56
401.734	454.56
401.958	466.56
402.182	466.56
402.406	449.56
402.63	462.56
402.854	468.56
403.078	489.56
403.302	477.56
403.526	487.56
403.75	501.56
403.974	516.56
404.198	488.56
404.422	512.56
404.645	489.56
404.869	487.56
405.093	486.56
405.317	497.56
405.541	507.56
405.765	477.56
405.988	490.56
406.212	499.56
406.436	504.56
406.66	501.56
406.883	502.56
407.107	520.56
407.331	549.56
407.555	582.56
407.778	576.56
408.002	559.56
408.226	524.56
408.449	510.56
408.673	532.56
408.896	508.56
409.12	547.56
409.344	514.56
409.567	487.56
409.791	469.56
410.014	465.56
410.238	477.56
410.461	480.56
410.685	478.56
410.908	469.56
411.132	484.56
411.355	472.56
411.578	501.56
411.802	448.56
412.025	450.56
412.249	482.56
412.472	455.56
412.695	480.56
412.919	456.56
413.142	457.56
413.365	456.56
413.589	452.56
413.812	432.56
414.035	447.56
414.258	441.56
414.482	436.56
414.705	432.56
414.928	450.56
415.151	454.56
415.374	438.56
415.597	441.56
415.821	438.56
416.044	419.56
416.267	434.56
416.49	428.56
416.713	442.56
416.936	452.56
417.159	443.56
417.382	429.56
417.605	429.56
417.828	443.56
418.051	453.56
418.274	432.56
418.497	435.56
418.72	446.56
418.943	434.56
419.166	463.56
419.389	480.56
419.611	483.56
419.834	445.56
420.057	467.56
420.28	452.56
420.503	432.56
420.726	456.56
420.948	445.56
421.171	469.56
421.394	459.56
421.617	456.56
421.839	443.56
422.062	426.56
422.285	456.56
422.507	469.56
422.73	503.56
422.953	508.56
423.175	463.56
423.398	481.56
423.621	461.56
423.843	485.56
424.066	491.56
424.288	457.56
424.511	465.56
424.733	516.56
424.956	539.56
425.178	494.56
425.401	494.56
425.623	529.56
425.846	490.56
426.068	446.56
426.291	470.56
426.513	418.56
426.735	453.56
426.958	468.56
427.18	486.56
427.402	554.56
427.625	617.56
427.847	492.56
428.069	455.56
428.292	444.56
428.514	418.56
428.736	412.56
428.958	396.56
429.181	420.56
429.403	416.56
429.625	432.56
429.847	426.56
430.069	455.56
430.292	437.56
430.514	416.56
430.736	421.56
430.958	398.56
431.18	389.56
431.402	392.56
431.624	397.56
431.846	395.56
432.068	407.56
432.29	398.56
432.512	408.56
432.734	413.56
432.956	389.56
433.178	406.56
433.4	425.56
433.622	413.56
433.844	399.56
434.066	431.56
434.287	422.56
434.509	425.56
434.731	447.56
434.953	448.56
435.175	432.56
435.397	461.56
435.618	450.56
435.84	464.56
436.062	479.56
436.284	522.56
436.505	454.56
436.727	419.56
436.949	412.56
437.17	425.56
437.392	399.56
437.614	412.56
437.835	413.56
438.057	464.56
438.278	500.56
438.5	495.56
438.721	526.56
438.943	532.56
439.165	440.56
439.386	421.56
439.608	415.56
439.829	430.56
440.05	434.56
440.272	448.56
440.493	426.56
440.715	426.56
440.936	417.56
441.158	445.56
441.379	451.56
441.6	424.56
441.822	452.56
442.043	477.56
442.264	493.56
442.486	493.56
442.707	468.56
442.928	460.56
443.149	464.56
443.371	459.56
443.592	455.56
443.813	522.56
444.034	553.56
444.255	489.56
444.476	478.56
444.698	496.56
444.919	480.56
445.14	636.56
445.361	544.56
445.582	493.56
445.803	494.56
446.024	520.56
446.245	530.56
446.466	467.56
446.687	431.56
446.908	427.56
447.129	402.56
447.35	404.56
447.571	418.56
447.792	388.56
448.013	390.56
448.234	393.56
448.455	421.56
448.675	475.56
448.896	506.56
449.117	478.56
449.338	451.56
449.559	518.56
449.779	548.56
450	482.56
450.221	412.56
450.442	402.56
450.662	381.56
450.883	372.56
451.104	380.56
451.324	394.56
451.545	393.56
451.766	385.56
451.986	373.56
452.207	349.56
452.428	356.56
452.648	381.56
452.869	368.56
453.089	372.56
453.31	364.56
453.53	373.56
453.751	359.56
453.971	365.56
454.192	352.56
454.412	368.56
454.633	358.56
454.853	348.56
455.073	346.56
455.294	372.56
455.514	398.56
455.734	379.56
455.955	347.56
456.175	352.56
456.395	365.56
456.616	354.56
456.836	338.56
457.056	342.56
457.276	355.56
457.497	342.56
457.717	363.56
457.937	346.56
458.157	359.56
458.377	376.56
458.598	375.56
458.818	394.56
459.038	423.56
459.258	437.56
459.478	409.56
459.698	413.56
459.918	422.56
460.138	432.56
460.358	436.56
460.578	436.56
460.798	447.56
461.018	469.56
461.238	428.56
461.458	416.56
461.678	444.56
461.898	446.56
462.118	440.56
462.338	476.56
462.558	458.56
462.777	489.56
462.997	492.56
463.217	521.56
463.437	527.56
463.657	508.56
463.876	476.56
464.096	489.56
464.316	473.56
464.536	494.56
464.755	479.56
464.975	474.56
465.195	444.56
465.414	469.56
465.634	424.56
465.854	407.56
466.073	417.56
466.293	389.56
466.512	394.56
466.732	376.56
466.951	381.56
467.171	388.56
467.391	391.56
467.61	373.56
467.829	389.56
468.049	367.56
468.268	366.56
468.488	362.56
468.707	348.56
468.927	364.56
469.146	376.56
469.365	369.56
469.585	376.56
469.804	384.56
470.023	373.56
470.243	398.56
470.462	374.56
470.681	401.56
470.901	380.56
471.12	395.56
471.339	388.56
471.558	372.56
471.777	373.56
471.997	374.56
472.216	373.56
472.435	378.56
472.654	375.56
472.873	375.56
473.092	375.56
473.311	384.56
473.53	378.56
473.749	374.56
473.968	401.56
474.187	440.56
474.406	428.56
474.625	391.56
474.844	367.56
475.063	364.56
475.282	375.56
475.501	390.56
475.72	378.56
475.939	392.56
476.158	396.56
476.377	385.56
476.596	393.56
476.814	376.56
477.033	398.56
477.252	396.56
477.471	412.56
477.69	398.56
477.908	399.56
478.127	418.56
478.346	404.56
478.564	434.56
478.783	436.56
479.002	462.56
479.22	458.56
479.439	459.56
479.658	446.56
479.876	452.56
480.095	447.56
480.313	461.56
480.532	496.56
480.751	464.56
480.969	479.56
481.188	466.56
481.406	438.56
481.624	423.56
481.843	445.56
482.061	423.56
482.28	436.56
482.498	423.56
482.717	426.56
482.935	433.56
483.153	428.56
483.372	417.56
483.59	425.56
483.808	425.56
484.027	420.56
484.245	447.56
484.463	434.56
484.681	430.56
484.9	464.56
485.118	438.56
485.336	457.56
485.554	441.56
485.772	453.56
485.99	435.56
486.209	432.56
486.427	444.56
486.645	454.56
486.863	472.56
487.081	455.56
487.299	484.56
487.517	454.56
487.735	457.56
487.953	470.56
488.171	476.56
488.389	446.56
488.607	442.56
488.825	435.56
489.043	446.56
489.261	453.56
489.479	448.56
489.696	462.56
489.914	461.56
490.132	462.56
490.35	472.56
490.568	454.56
490.786	465.56
491.003	475.56
491.221	470.56
491.439	471.56
491.657	480.56
491.874	472.56
492.092	503.56
492.31	479.56
492.527	479.56
492.745	470.56
492.963	479.56
493.18	475.56
493.398	485.56
493.615	498.56
493.833	499.56
494.05	499.56
494.268	498.56
494.485	497.56
494.703	521.56
494.92	508.56
495.138	508.56
495.355	521.56
495.573	501.56
495.79	513.56
496.008	494.56
496.225	494.56
496.442	527.56
496.66	519.56
496.877	523.56
497.094	535.56
497.312	550.56
497.529	555.56
497.746	545.56
497.963	551.56
498.181	570.56
498.398	611.56
498.615	604.56
498.832	652.56
499.049	701.56
499.267	677.56
499.484	736.56
499.701	800.56
499.918	870.56
500.135	916.56
500.352	1007.56
500.569	1080.56
500.786	1055.56
501.003	1004.56
501.22	932.56
501.437	883.56
501.654	824.56
501.871	762.56
502.088	738.56
