Data from 1984.PennyLincolnUp.Lamp.En5.5.200Scan.071819.P1_HRD10591_16-58-23-969.txt Node
Date: Thu Jul 18 16:58:23 EDT 2019
User: cochatt
Spectrometer: HR+D1059
Trigger mode: 1
Integration Time (sec): 1.000000E-1
Scans to average: 1
Electric dark correction enabled: true
Nonlinearity correction enabled: false
Boxcar width: 0
XAxis mode: Wavelengths
Number of Pixels in Spectrum: 2048
>>>>>Begin Spectral Data<<<<<
223.165	-9.31
223.4	-9.31
223.635	-9.31
223.869	-22.31
224.104	-18.31
224.338	-14.31
224.573	-20.31
224.808	-24.31
225.042	-9.31
225.277	5.69
225.511	-2.31
225.746	5.69
225.98	14.69
226.215	9.69
226.449	13.69
226.683	27.69
226.918	17.69
227.152	25.69
227.387	42.69
227.621	35.69
227.856	31.69
228.09	49.69
228.324	50.69
228.559	63.69
228.793	66.69
229.027	89.69
229.262	87.69
229.496	83.69
229.73	108.69
229.964	124.69
230.199	102.69
230.433	90.69
230.667	107.69
230.901	106.69
231.136	103.69
231.37	87.69
231.604	113.69
231.838	112.69
232.072	108.69
232.306	111.69
232.541	111.69
232.775	119.69
233.009	87.69
233.243	105.69
233.477	108.69
233.711	117.69
233.945	116.69
234.179	114.69
234.413	119.69
234.647	102.69
234.881	92.69
235.115	100.69
235.349	97.69
235.583	118.69
235.817	112.69
236.051	105.69
236.285	125.69
236.519	115.69
236.753	109.69
236.987	131.69
237.221	135.69
237.455	158.69
237.689	147.69
237.922	103.69
238.156	121.69
238.39	121.69
238.624	124.69
238.858	97.69
239.091	122.69
239.325	106.69
239.559	129.69
239.793	118.69
240.027	119.69
240.26	122.69
240.494	136.69
240.728	137.69
240.961	129.69
241.195	124.69
241.429	123.69
241.662	135.69
241.896	120.69
242.13	132.69
242.363	137.69
242.597	126.69
242.83	129.69
243.064	131.69
243.298	137.69
243.531	128.69
243.765	147.69
243.998	132.69
244.232	117.69
244.465	131.69
244.699	145.69
244.932	121.69
245.166	127.69
245.399	138.69
245.633	143.69
245.866	143.69
246.099	139.69
246.333	140.69
246.566	136.69
246.8	133.69
247.033	131.69
247.266	136.69
247.5	137.69
247.733	156.69
247.966	150.69
248.2	158.69
248.433	155.69
248.666	156.69
248.899	153.69
249.133	157.69
249.366	153.69
249.599	172.69
249.832	153.69
250.066	167.69
250.299	162.69
250.532	166.69
250.765	181.69
250.998	191.69
251.231	182.69
251.465	170.69
251.698	183.69
251.931	182.69
252.164	184.69
252.397	176.69
252.63	169.69
252.863	167.69
253.096	183.69
253.329	188.69
253.562	192.69
253.795	178.69
254.028	174.69
254.261	182.69
254.494	187.69
254.727	199.69
254.96	218.69
255.193	208.69
255.426	209.69
255.659	201.69
255.892	206.69
256.124	215.69
256.357	219.69
256.59	230.69
256.823	194.69
257.056	188.69
257.289	187.69
257.521	186.69
257.754	194.69
257.987	183.69
258.22	176.69
258.452	180.69
258.685	173.69
258.918	187.69
259.151	188.69
259.383	188.69
259.616	195.69
259.849	194.69
260.081	191.69
260.314	200.69
260.547	215.69
260.779	204.69
261.012	206.69
261.244	217.69
261.477	199.69
261.71	202.69
261.942	204.69
262.175	212.69
262.407	214.69
262.64	200.69
262.872	189.69
263.105	188.69
263.337	185.69
263.57	185.69
263.802	185.69
264.035	188.69
264.267	197.69
264.499	197.69
264.732	190.69
264.964	194.69
265.197	199.69
265.429	183.69
265.661	187.69
265.894	201.69
266.126	197.69
266.358	211.69
266.591	218.69
266.823	224.69
267.055	209.69
267.287	211.69
267.52	195.69
267.752	221.69
267.984	209.69
268.216	211.69
268.448	207.69
268.681	224.69
268.913	219.69
269.145	232.69
269.377	237.69
269.609	237.69
269.841	228.69
270.073	245.69
270.306	247.69
270.538	257.69
270.77	265.69
271.002	264.69
271.234	253.69
271.466	253.69
271.698	273.69
271.93	253.69
272.162	264.69
272.394	268.69
272.626	253.69
272.858	263.69
273.09	241.69
273.322	253.69
273.553	215.69
273.785	255.69
274.017	241.69
274.249	249.69
274.481	240.69
274.713	233.69
274.945	223.69
275.176	227.69
275.408	244.69
275.64	249.69
275.872	229.69
276.104	242.69
276.335	259.69
276.567	251.69
276.799	267.69
277.031	269.69
277.262	280.69
277.494	262.69
277.726	268.69
277.957	269.69
278.189	265.69
278.421	267.69
278.652	244.69
278.884	260.69
279.115	240.69
279.347	264.69
279.579	232.69
279.81	244.69
280.042	272.69
280.273	261.69
280.505	265.69
280.736	257.69
280.968	261.69
281.199	247.69
281.431	269.69
281.662	248.69
281.894	264.69
282.125	272.69
282.356	291.69
282.588	261.69
282.819	276.69
283.051	288.69
283.282	273.69
283.513	266.69
283.745	277.69
283.976	250.69
284.207	268.69
284.439	269.69
284.67	296.69
284.901	269.69
285.132	274.69
285.364	259.69
285.595	264.69
285.826	279.69
286.057	279.69
286.288	272.69
286.52	277.69
286.751	282.69
286.982	259.69
287.213	267.69
287.444	290.69
287.675	279.69
287.906	284.69
288.138	290.69
288.369	284.69
288.6	296.69
288.831	283.69
289.062	284.69
289.293	298.69
289.524	267.69
289.755	288.69
289.986	284.69
290.217	278.69
290.448	271.69
290.679	268.69
290.91	272.69
291.141	267.69
291.371	269.69
291.602	270.69
291.833	291.69
292.064	280.69
292.295	279.69
292.526	277.69
292.757	273.69
292.987	269.69
293.218	300.69
293.449	290.69
293.68	285.69
293.91	266.69
294.141	287.69
294.372	263.69
294.603	288.69
294.833	287.69
295.064	296.69
295.295	270.69
295.525	290.69
295.756	283.69
295.987	293.69
296.217	309.69
296.448	308.69
296.679	300.69
296.909	283.69
297.14	279.69
297.37	272.69
297.601	295.69
297.831	277.69
298.062	280.69
298.292	302.69
298.523	314.69
298.753	307.69
298.984	297.69
299.214	299.69
299.445	296.69
299.675	303.69
299.905	286.69
300.136	291.69
300.366	303.69
300.597	308.69
300.827	293.69
301.057	323.69
301.288	309.69
301.518	316.69
301.748	320.69
301.979	333.69
302.209	307.69
302.439	333.69
302.669	307.69
302.9	323.69
303.13	301.69
303.36	334.69
303.59	348.69
303.82	325.69
304.051	316.69
304.281	329.69
304.511	310.69
304.741	312.69
304.971	329.69
305.201	303.69
305.431	306.69
305.661	318.69
305.891	301.69
306.121	313.69
306.352	297.69
306.582	319.69
306.812	322.69
307.042	323.69
307.272	310.69
307.502	312.69
307.731	331.69
307.961	306.69
308.191	315.69
308.421	326.69
308.651	342.69
308.881	329.69
309.111	329.69
309.341	317.69
309.571	338.69
309.8	322.69
310.03	312.69
310.26	333.69
310.49	341.69
310.72	339.69
310.949	372.69
311.179	368.69
311.409	348.69
311.639	340.69
311.868	339.69
312.098	357.69
312.328	340.69
312.557	358.69
312.787	372.69
313.017	363.69
313.246	359.69
313.476	338.69
313.706	360.69
313.935	344.69
314.165	363.69
314.394	364.69
314.624	357.69
314.853	349.69
315.083	350.69
315.312	349.69
315.542	346.69
315.771	367.69
316.001	349.69
316.23	344.69
316.46	371.69
316.689	359.69
316.919	358.69
317.148	364.69
317.377	352.69
317.607	343.69
317.836	361.69
318.065	349.69
318.295	332.69
318.524	340.69
318.753	353.69
318.983	339.69
319.212	340.69
319.441	353.69
319.67	346.69
319.9	367.69
320.129	347.69
320.358	342.69
320.587	356.69
320.816	357.69
321.046	379.69
321.275	347.69
321.504	364.69
321.733	343.69
321.962	361.69
322.191	369.69
322.42	364.69
322.649	385.69
322.878	392.69
323.108	388.69
323.337	403.69
323.566	414.69
323.795	422.69
324.024	460.69
324.253	539.69
324.482	680.69
324.71	1037.69
324.939	1431.69
325.168	1228.69
325.397	691.69
325.626	507.69
325.855	462.69
326.084	443.69
326.313	423.69
326.542	452.69
326.77	468.69
326.999	514.69
327.228	672.69
327.457	952.69
327.686	1123.69
327.914	787.69
328.143	573.69
328.372	528.69
328.6	499.69
328.829	461.69
329.058	453.69
329.287	482.69
329.515	476.69
329.744	457.69
329.972	463.69
330.201	508.69
330.43	523.69
330.658	505.69
330.887	500.69
331.115	471.69
331.344	458.69
331.572	447.69
331.801	437.69
332.03	445.69
332.258	434.69
332.486	434.69
332.715	424.69
332.943	436.69
333.172	452.69
333.4	453.69
333.629	475.69
333.857	495.69
334.085	516.69
334.314	552.69
334.542	591.69
334.771	571.69
334.999	502.69
335.227	463.69
335.455	465.69
335.684	437.69
335.912	444.69
336.14	436.69
336.369	449.69
336.597	446.69
336.825	447.69
337.053	419.69
337.281	422.69
337.51	412.69
337.738	409.69
337.966	398.69
338.194	401.69
338.422	408.69
338.65	409.69
338.878	397.69
339.106	400.69
339.334	389.69
339.562	381.69
339.79	392.69
340.018	396.69
340.246	389.69
340.474	405.69
340.702	400.69
340.93	396.69
341.158	398.69
341.386	393.69
341.614	387.69
341.842	385.69
342.07	378.69
342.298	382.69
342.526	383.69
342.754	389.69
342.981	376.69
343.209	392.69
343.437	395.69
343.665	422.69
343.893	436.69
344.12	427.69
344.348	427.69
344.576	433.69
344.804	411.69
345.031	395.69
345.259	381.69
345.487	390.69
345.714	396.69
345.942	381.69
346.17	374.69
346.397	388.69
346.625	377.69
346.853	365.69
347.08	351.69
347.308	363.69
347.535	387.69
347.763	377.69
347.99	377.69
348.218	387.69
348.445	381.69
348.673	353.69
348.9	378.69
349.128	361.69
349.355	354.69
349.583	373.69
349.81	374.69
350.037	375.69
350.265	360.69
350.492	356.69
350.72	384.69
350.947	378.69
351.174	386.69
351.402	368.69
351.629	386.69
351.856	373.69
352.083	383.69
352.311	371.69
352.538	364.69
352.765	364.69
352.992	368.69
353.22	355.69
353.447	349.69
353.674	355.69
353.901	357.69
354.128	362.69
354.355	348.69
354.583	343.69
354.81	345.69
355.037	339.69
355.264	350.69
355.491	363.69
355.718	349.69
355.945	349.69
356.172	343.69
356.399	356.69
356.626	354.69
356.853	351.69
357.08	347.69
357.307	352.69
357.534	337.69
357.761	344.69
357.988	355.69
358.215	358.69
358.441	338.69
358.668	334.69
358.895	337.69
359.122	346.69
359.349	354.69
359.576	361.69
359.802	389.69
360.029	379.69
360.256	385.69
360.483	361.69
360.709	364.69
360.936	354.69
361.163	359.69
361.39	348.69
361.616	369.69
361.843	358.69
362.07	348.69
362.296	345.69
362.523	353.69
362.749	370.69
362.976	359.69
363.203	354.69
363.429	343.69
363.656	352.69
363.882	368.69
364.109	345.69
364.335	355.69
364.562	329.69
364.788	368.69
365.015	342.69
365.241	329.69
365.468	364.69
365.694	376.69
365.92	367.69
366.147	345.69
366.373	334.69
366.599	338.69
366.826	359.69
367.052	353.69
367.278	353.69
367.505	360.69
367.731	371.69
367.957	348.69
368.184	341.69
368.41	346.69
368.636	358.69
368.862	374.69
369.089	371.69
369.315	364.69
369.541	337.69
369.767	361.69
369.993	355.69
370.219	352.69
370.445	360.69
370.672	353.69
370.898	361.69
371.124	356.69
371.35	368.69
371.576	375.69
371.802	342.69
372.028	358.69
372.254	377.69
372.48	355.69
372.706	378.69
372.932	371.69
373.158	371.69
373.384	367.69
373.61	355.69
373.835	353.69
374.061	348.69
374.287	367.69
374.513	363.69
374.739	363.69
374.965	370.69
375.191	375.69
375.416	364.69
375.642	379.69
375.868	360.69
376.094	352.69
376.319	346.69
376.545	369.69
376.771	365.69
376.997	363.69
377.222	339.69
377.448	365.69
377.674	364.69
377.899	378.69
378.125	349.69
378.35	343.69
378.576	344.69
378.802	352.69
379.027	347.69
379.253	357.69
379.478	367.69
379.704	356.69
379.929	352.69
380.155	339.69
380.38	351.69
380.606	355.69
380.831	346.69
381.057	353.69
381.282	353.69
381.507	353.69
381.733	352.69
381.958	348.69
382.184	380.69
382.409	367.69
382.634	356.69
382.86	393.69
383.085	371.69
383.31	379.69
383.535	367.69
383.761	394.69
383.986	392.69
384.211	396.69
384.436	392.69
384.662	415.69
384.887	385.69
385.112	416.69
385.337	406.69
385.562	396.69
385.787	393.69
386.013	432.69
386.238	428.69
386.463	407.69
386.688	405.69
386.913	422.69
387.138	391.69
387.363	386.69
387.588	394.69
387.813	395.69
388.038	366.69
388.263	387.69
388.488	393.69
388.713	387.69
388.938	397.69
389.163	390.69
389.387	420.69
389.612	411.69
389.837	405.69
390.062	393.69
390.287	399.69
390.512	379.69
390.736	390.69
390.961	403.69
391.186	419.69
391.411	386.69
391.636	433.69
391.86	435.69
392.085	425.69
392.31	434.69
392.534	441.69
392.759	417.69
392.984	400.69
393.208	435.69
393.433	419.69
393.658	419.69
393.882	400.69
394.107	392.69
394.331	401.69
394.556	426.69
394.78	431.69
395.005	428.69
395.229	412.69
395.454	427.69
395.678	443.69
395.903	454.69
396.127	440.69
396.352	445.69
396.576	440.69
396.801	428.69
397.025	436.69
397.249	426.69
397.474	435.69
397.698	431.69
397.922	437.69
398.147	465.69
398.371	447.69
398.595	454.69
398.82	468.69
399.044	499.69
399.268	515.69
399.492	588.69
399.717	621.69
399.941	634.69
400.165	619.69
400.389	588.69
400.613	534.69
400.837	494.69
401.062	471.69
401.286	484.69
401.51	473.69
401.734	477.69
401.958	474.69
402.182	512.69
402.406	501.69
402.63	481.69
402.854	474.69
403.078	476.69
403.302	487.69
403.526	529.69
403.75	520.69
403.974	521.69
404.198	536.69
404.422	521.69
404.645	524.69
404.869	543.69
405.093	557.69
405.317	572.69
405.541	623.69
405.765	570.69
405.988	558.69
406.212	532.69
406.436	520.69
406.66	537.69
406.883	546.69
407.107	572.69
407.331	594.69
407.555	640.69
407.778	638.69
408.002	610.69
408.226	571.69
408.449	547.69
408.673	549.69
408.896	542.69
409.12	557.69
409.344	549.69
409.567	527.69
409.791	511.69
410.014	509.69
410.238	495.69
410.461	510.69
410.685	491.69
410.908	505.69
411.132	530.69
411.355	516.69
411.578	545.69
411.802	511.69
412.025	514.69
412.249	546.69
412.472	541.69
412.695	545.69
412.919	552.69
413.142	517.69
413.365	495.69
413.589	498.69
413.812	468.69
414.035	466.69
414.258	464.69
414.482	472.69
414.705	467.69
414.928	485.69
415.151	472.69
415.374	460.69
415.597	471.69
415.821	455.69
416.044	467.69
416.267	454.69
416.49	473.69
416.713	451.69
416.936	458.69
417.159	465.69
417.382	467.69
417.605	469.69
417.828	465.69
418.051	474.69
418.274	458.69
418.497	459.69
418.72	489.69
418.943	449.69
419.166	505.69
419.389	511.69
419.611	514.69
419.834	528.69
420.057	504.69
420.28	495.69
420.503	501.69
420.726	495.69
420.948	483.69
421.171	517.69
421.394	552.69
421.617	470.69
421.839	495.69
422.062	492.69
422.285	499.69
422.507	521.69
422.73	548.69
422.953	536.69
423.175	522.69
423.398	505.69
423.621	484.69
423.843	529.69
424.066	504.69
424.288	501.69
424.511	535.69
424.733	538.69
424.956	593.69
425.178	591.69
425.401	535.69
425.623	575.69
425.846	513.69
426.068	497.69
426.291	467.69
426.513	474.69
426.735	475.69
426.958	495.69
427.18	563.69
427.402	609.69
427.625	687.69
427.847	615.69
428.069	552.69
428.292	515.69
428.514	470.69
428.736	445.69
428.958	461.69
429.181	461.69
429.403	442.69
429.625	433.69
429.847	479.69
430.069	496.69
430.292	520.69
430.514	418.69
430.736	424.69
430.958	442.69
431.18	429.69
431.402	439.69
431.624	449.69
431.846	412.69
432.068	430.69
432.29	433.69
432.512	433.69
432.734	435.69
432.956	426.69
433.178	424.69
433.4	427.69
433.622	443.69
433.844	435.69
434.066	425.69
434.287	426.69
434.509	461.69
434.731	460.69
434.953	458.69
435.175	461.69
435.397	483.69
435.618	477.69
435.84	500.69
436.062	556.69
436.284	572.69
436.505	486.69
436.727	471.69
436.949	445.69
437.17	441.69
437.392	448.69
437.614	428.69
437.835	464.69
438.057	482.69
438.278	555.69
438.5	583.69
438.721	597.69
438.943	581.69
439.165	513.69
439.386	468.69
439.608	459.69
439.829	453.69
440.05	495.69
440.272	489.69
440.493	470.69
440.715	444.69
440.936	457.69
441.158	476.69
441.379	439.69
441.6	456.69
441.822	488.69
442.043	531.69
442.264	552.69
442.486	562.69
442.707	520.69
442.928	488.69
443.149	475.69
443.371	481.69
443.592	544.69
443.813	580.69
444.034	640.69
444.255	567.69
444.476	513.69
444.698	526.69
444.919	531.69
445.14	614.69
445.361	551.69
445.582	520.69
445.803	553.69
446.024	587.69
446.245	610.69
446.466	550.69
446.687	495.69
446.908	437.69
447.129	428.69
447.35	423.69
447.571	432.69
447.792	432.69
448.013	416.69
448.234	453.69
448.455	460.69
448.675	520.69
448.896	622.69
449.117	513.69
449.338	484.69
449.559	559.69
449.779	609.69
450	530.69
450.221	444.69
450.442	434.69
450.662	402.69
450.883	421.69
451.104	440.69
451.324	410.69
451.545	391.69
451.766	413.69
451.986	395.69
452.207	387.69
452.428	395.69
452.648	415.69
452.869	393.69
453.089	402.69
453.31	408.69
453.53	383.69
453.751	410.69
453.971	396.69
454.192	416.69
454.412	390.69
454.633	418.69
454.853	373.69
455.073	363.69
455.294	385.69
455.514	421.69
455.734	416.69
455.955	383.69
456.175	371.69
456.395	367.69
456.616	350.69
456.836	379.69
457.056	383.69
457.276	373.69
457.497	362.69
457.717	388.69
457.937	376.69
458.157	370.69
458.377	380.69
458.598	406.69
458.818	424.69
459.038	452.69
459.258	500.69
459.478	456.69
459.698	431.69
459.918	458.69
460.138	426.69
460.358	457.69
460.578	449.69
460.798	459.69
461.018	479.69
461.238	481.69
461.458	494.69
461.678	453.69
461.898	477.69
462.118	481.69
462.338	492.69
462.558	479.69
462.777	507.69
462.997	535.69
463.217	547.69
463.437	563.69
463.657	523.69
463.876	519.69
464.096	503.69
464.316	506.69
464.536	537.69
464.755	529.69
464.975	486.69
465.195	523.69
465.414	516.69
465.634	487.69
465.854	456.69
466.073	425.69
466.293	436.69
466.512	415.69
466.732	409.69
466.951	411.69
467.171	403.69
467.391	413.69
467.61	408.69
467.829	384.69
468.049	407.69
468.268	420.69
468.488	403.69
468.707	401.69
468.927	399.69
469.146	401.69
469.365	391.69
469.585	401.69
469.804	407.69
470.023	426.69
470.243	401.69
470.462	409.69
470.681	409.69
470.901	436.69
471.12	421.69
471.339	433.69
471.558	415.69
471.777	423.69
471.997	427.69
472.216	429.69
472.435	456.69
472.654	452.69
472.873	433.69
473.092	407.69
473.311	403.69
473.53	412.69
473.749	418.69
473.968	415.69
474.187	459.69
474.406	468.69
474.625	452.69
474.844	435.69
475.063	425.69
475.282	401.69
475.501	405.69
475.72	401.69
475.939	417.69
476.158	393.69
476.377	423.69
476.596	406.69
476.814	403.69
477.033	428.69
477.252	444.69
477.471	420.69
477.69	451.69
477.908	469.69
478.127	445.69
478.346	457.69
478.564	474.69
478.783	474.69
479.002	469.69
479.22	471.69
479.439	488.69
479.658	484.69
479.876	501.69
480.095	521.69
480.313	540.69
480.532	526.69
480.751	529.69
480.969	524.69
481.188	563.69
481.406	638.69
481.624	552.69
481.843	509.69
482.061	500.69
482.28	458.69
482.498	456.69
482.717	468.69
482.935	476.69
483.153	460.69
483.372	471.69
483.59	459.69
483.808	474.69
484.027	461.69
484.245	462.69
484.463	447.69
484.681	470.69
484.9	476.69
485.118	473.69
485.336	481.69
485.554	479.69
485.772	466.69
485.99	458.69
486.209	468.69
486.427	485.69
486.645	474.69
486.863	491.69
487.081	485.69
487.299	482.69
487.517	481.69
487.735	500.69
487.953	489.69
488.171	490.69
488.389	491.69
488.607	493.69
488.825	481.69
489.043	475.69
489.261	493.69
489.479	496.69
489.696	497.69
489.914	501.69
490.132	505.69
490.35	523.69
490.568	471.69
490.786	499.69
491.003	529.69
491.221	523.69
491.439	543.69
491.657	539.69
491.874	528.69
492.092	552.69
492.31	561.69
492.527	572.69
492.745	545.69
492.963	563.69
493.18	571.69
493.398	582.69
493.615	559.69
493.833	559.69
494.05	578.69
494.268	577.69
494.485	563.69
494.703	551.69
494.92	549.69
495.138	591.69
495.355	533.69
495.573	565.69
495.79	552.69
496.008	550.69
496.225	550.69
496.442	568.69
496.66	566.69
496.877	586.69
497.094	555.69
497.312	586.69
497.529	597.69
497.746	606.69
497.963	580.69
498.181	638.69
498.398	658.69
498.615	666.69
498.832	686.69
499.049	711.69
499.267	748.69
499.484	796.69
499.701	835.69
499.918	880.69
500.135	1004.69
500.352	1073.69
500.569	1115.69
500.786	1142.69
501.003	1034.69
501.22	966.69
501.437	916.69
501.654	862.69
501.871	831.69
502.088	773.69
