Data from 1984.PennyLincolnUp.Lamp.En5.5.200Scan.071819.P1_HRD10591_16-59-56-968.txt Node
Date: Thu Jul 18 16:59:56 EDT 2019
User: cochatt
Spectrometer: HR+D1059
Trigger mode: 1
Integration Time (sec): 1.000000E-1
Scans to average: 1
Electric dark correction enabled: true
Nonlinearity correction enabled: false
Boxcar width: 0
XAxis mode: Wavelengths
Number of Pixels in Spectrum: 2048
>>>>>Begin Spectral Data<<<<<
223.165	-14.56
223.4	-14.56
223.635	-14.56
223.869	-27.56
224.104	-9.56
224.338	-10.56
224.573	-20.56
224.808	-8.56
225.042	-16.56
225.277	-5.56
225.511	6.44
225.746	-1.56
225.98	8.44
226.215	11.44
226.449	20.44
226.683	19.44
226.918	24.44
227.152	24.44
227.387	35.44
227.621	22.44
227.856	47.44
228.09	38.44
228.324	49.44
228.559	54.44
228.793	63.44
229.027	92.44
229.262	104.44
229.496	104.44
229.73	103.44
229.964	125.44
230.199	116.44
230.433	101.44
230.667	97.44
230.901	105.44
231.136	96.44
231.37	119.44
231.604	125.44
231.838	113.44
232.072	103.44
232.306	95.44
232.541	117.44
232.775	123.44
233.009	115.44
233.243	119.44
233.477	110.44
233.711	121.44
233.945	107.44
234.179	108.44
234.413	125.44
234.647	118.44
234.881	107.44
235.115	101.44
235.349	127.44
235.583	109.44
235.817	115.44
236.051	101.44
236.285	120.44
236.519	101.44
236.753	131.44
236.987	127.44
237.221	142.44
237.455	182.44
237.689	153.44
237.922	121.44
238.156	125.44
238.39	113.44
238.624	120.44
238.858	126.44
239.091	121.44
239.325	117.44
239.559	112.44
239.793	121.44
240.027	133.44
240.26	135.44
240.494	132.44
240.728	141.44
240.961	139.44
241.195	150.44
241.429	147.44
241.662	132.44
241.896	113.44
242.13	120.44
242.363	130.44
242.597	135.44
242.83	134.44
243.064	128.44
243.298	137.44
243.531	135.44
243.765	130.44
243.998	142.44
244.232	131.44
244.465	128.44
244.699	162.44
244.932	135.44
245.166	146.44
245.399	147.44
245.633	127.44
245.866	162.44
246.099	144.44
246.333	146.44
246.566	135.44
246.8	152.44
247.033	151.44
247.266	146.44
247.5	135.44
247.733	142.44
247.966	147.44
248.2	143.44
248.433	153.44
248.666	140.44
248.899	153.44
249.133	159.44
249.366	177.44
249.599	165.44
249.832	169.44
250.066	159.44
250.299	194.44
250.532	200.44
250.765	227.44
250.998	197.44
251.231	201.44
251.465	195.44
251.698	188.44
251.931	185.44
252.164	172.44
252.397	185.44
252.63	177.44
252.863	179.44
253.096	184.44
253.329	193.44
253.562	207.44
253.795	204.44
254.028	187.44
254.261	193.44
254.494	201.44
254.727	204.44
254.96	213.44
255.193	205.44
255.426	219.44
255.659	216.44
255.892	243.44
256.124	258.44
256.357	280.44
256.59	259.44
256.823	219.44
257.056	221.44
257.289	201.44
257.521	204.44
257.754	191.44
257.987	188.44
258.22	189.44
258.452	194.44
258.685	194.44
258.918	192.44
259.151	200.44
259.383	199.44
259.616	202.44
259.849	202.44
260.081	212.44
260.314	203.44
260.547	222.44
260.779	224.44
261.012	206.44
261.244	201.44
261.477	195.44
261.71	189.44
261.942	188.44
262.175	195.44
262.407	198.44
262.64	197.44
262.872	204.44
263.105	191.44
263.337	200.44
263.57	190.44
263.802	203.44
264.035	208.44
264.267	204.44
264.499	174.44
264.732	209.44
264.964	206.44
265.197	197.44
265.429	207.44
265.661	217.44
265.894	190.44
266.126	206.44
266.358	211.44
266.591	193.44
266.823	216.44
267.055	209.44
267.287	204.44
267.52	216.44
267.752	227.44
267.984	210.44
268.216	219.44
268.448	208.44
268.681	211.44
268.913	223.44
269.145	229.44
269.377	259.44
269.609	236.44
269.841	236.44
270.073	246.44
270.306	251.44
270.538	287.44
270.77	273.44
271.002	245.44
271.234	238.44
271.466	243.44
271.698	254.44
271.93	265.44
272.162	256.44
272.394	261.44
272.626	255.44
272.858	253.44
273.09	254.44
273.322	239.44
273.553	250.44
273.785	238.44
274.017	233.44
274.249	239.44
274.481	245.44
274.713	245.44
274.945	262.44
275.176	237.44
275.408	262.44
275.64	232.44
275.872	245.44
276.104	251.44
276.335	268.44
276.567	257.44
276.799	263.44
277.031	273.44
277.262	290.44
277.494	288.44
277.726	277.44
277.957	254.44
278.189	262.44
278.421	262.44
278.652	252.44
278.884	248.44
279.115	265.44
279.347	269.44
279.579	263.44
279.81	263.44
280.042	254.44
280.273	252.44
280.505	263.44
280.736	282.44
280.968	259.44
281.199	266.44
281.431	275.44
281.662	268.44
281.894	260.44
282.125	269.44
282.356	283.44
282.588	269.44
282.819	286.44
283.051	271.44
283.282	258.44
283.513	271.44
283.745	268.44
283.976	254.44
284.207	255.44
284.439	269.44
284.67	269.44
284.901	266.44
285.132	270.44
285.364	275.44
285.595	272.44
285.826	245.44
286.057	276.44
286.288	276.44
286.52	278.44
286.751	254.44
286.982	271.44
287.213	277.44
287.444	261.44
287.675	291.44
287.906	293.44
288.138	291.44
288.369	293.44
288.6	299.44
288.831	290.44
289.062	308.44
289.293	281.44
289.524	287.44
289.755	245.44
289.986	321.44
290.217	290.44
290.448	273.44
290.679	282.44
290.91	287.44
291.141	271.44
291.371	293.44
291.602	313.44
291.833	277.44
292.064	276.44
292.295	277.44
292.526	293.44
292.757	288.44
292.987	259.44
293.218	288.44
293.449	288.44
293.68	297.44
293.91	296.44
294.141	289.44
294.372	280.44
294.603	284.44
294.833	308.44
295.064	283.44
295.295	303.44
295.525	279.44
295.756	290.44
295.987	320.44
296.217	313.44
296.448	303.44
296.679	292.44
296.909	307.44
297.14	287.44
297.37	318.44
297.601	299.44
297.831	286.44
298.062	298.44
298.292	300.44
298.523	304.44
298.753	316.44
298.984	315.44
299.214	319.44
299.445	298.44
299.675	302.44
299.905	332.44
300.136	305.44
300.366	287.44
300.597	300.44
300.827	293.44
301.057	320.44
301.288	319.44
301.518	321.44
301.748	320.44
301.979	325.44
302.209	328.44
302.439	307.44
302.669	332.44
302.9	304.44
303.13	314.44
303.36	307.44
303.59	326.44
303.82	332.44
304.051	320.44
304.281	317.44
304.511	326.44
304.741	330.44
304.971	317.44
305.201	338.44
305.431	325.44
305.661	341.44
305.891	334.44
306.121	321.44
306.352	315.44
306.582	328.44
306.812	320.44
307.042	299.44
307.272	326.44
307.502	313.44
307.731	341.44
307.961	323.44
308.191	318.44
308.421	305.44
308.651	321.44
308.881	316.44
309.111	335.44
309.341	319.44
309.571	323.44
309.8	355.44
310.03	344.44
310.26	339.44
310.49	341.44
310.72	332.44
310.949	348.44
311.179	363.44
311.409	342.44
311.639	359.44
311.868	343.44
312.098	329.44
312.328	353.44
312.557	366.44
312.787	345.44
313.017	356.44
313.246	373.44
313.476	365.44
313.706	343.44
313.935	372.44
314.165	367.44
314.394	344.44
314.624	352.44
314.853	357.44
315.083	360.44
315.312	349.44
315.542	346.44
315.771	362.44
316.001	359.44
316.23	345.44
316.46	345.44
316.689	369.44
316.919	353.44
317.148	358.44
317.377	353.44
317.607	361.44
317.836	358.44
318.065	357.44
318.295	336.44
318.524	374.44
318.753	342.44
318.983	340.44
319.212	342.44
319.441	364.44
319.67	375.44
319.9	364.44
320.129	349.44
320.358	327.44
320.587	363.44
320.816	332.44
321.046	362.44
321.275	355.44
321.504	347.44
321.733	375.44
321.962	373.44
322.191	392.44
322.42	381.44
322.649	415.44
322.878	391.44
323.108	378.44
323.337	403.44
323.566	418.44
323.795	440.44
324.024	462.44
324.253	539.44
324.482	709.44
324.71	1071.44
324.939	1461.44
325.168	1244.44
325.397	673.44
325.626	520.44
325.855	469.44
326.084	437.44
326.313	450.44
326.542	425.44
326.77	461.44
326.999	536.44
327.228	674.44
327.457	980.44
327.686	1145.44
327.914	838.44
328.143	614.44
328.372	586.44
328.6	545.44
328.829	487.44
329.058	490.44
329.287	481.44
329.515	495.44
329.744	500.44
329.972	543.44
330.201	581.44
330.43	640.44
330.658	619.44
330.887	555.44
331.115	539.44
331.344	480.44
331.572	487.44
331.801	472.44
332.03	463.44
332.258	453.44
332.486	448.44
332.715	464.44
332.943	431.44
333.172	484.44
333.4	486.44
333.629	507.44
333.857	539.44
334.085	594.44
334.314	648.44
334.542	730.44
334.771	764.44
334.999	627.44
335.227	526.44
335.455	498.44
335.684	507.44
335.912	469.44
336.14	447.44
336.369	429.44
336.597	442.44
336.825	437.44
337.053	422.44
337.281	413.44
337.51	402.44
337.738	443.44
337.966	413.44
338.194	416.44
338.422	406.44
338.65	409.44
338.878	394.44
339.106	401.44
339.334	408.44
339.562	400.44
339.79	396.44
340.018	392.44
340.246	406.44
340.474	392.44
340.702	421.44
340.93	393.44
341.158	372.44
341.386	387.44
341.614	383.44
341.842	379.44
342.07	381.44
342.298	379.44
342.526	373.44
342.754	395.44
342.981	391.44
343.209	375.44
343.437	422.44
343.665	422.44
343.893	432.44
344.12	445.44
344.348	417.44
344.576	411.44
344.804	413.44
345.031	396.44
345.259	400.44
345.487	396.44
345.714	404.44
345.942	379.44
346.17	382.44
346.397	359.44
346.625	385.44
346.853	387.44
347.08	389.44
347.308	373.44
347.535	388.44
347.763	378.44
347.99	398.44
348.218	380.44
348.445	371.44
348.673	381.44
348.9	371.44
349.128	357.44
349.355	371.44
349.583	369.44
349.81	365.44
350.037	365.44
350.265	366.44
350.492	365.44
350.72	362.44
350.947	356.44
351.174	373.44
351.402	347.44
351.629	392.44
351.856	369.44
352.083	358.44
352.311	377.44
352.538	367.44
352.765	366.44
352.992	367.44
353.22	374.44
353.447	365.44
353.674	371.44
353.901	363.44
354.128	355.44
354.355	344.44
354.583	338.44
354.81	352.44
355.037	372.44
355.264	361.44
355.491	332.44
355.718	351.44
355.945	361.44
356.172	356.44
356.399	375.44
356.626	359.44
356.853	356.44
357.08	361.44
357.307	333.44
357.534	359.44
357.761	346.44
357.988	357.44
358.215	354.44
358.441	348.44
358.668	359.44
358.895	354.44
359.122	367.44
359.349	342.44
359.576	373.44
359.802	376.44
360.029	372.44
360.256	392.44
360.483	389.44
360.709	367.44
360.936	360.44
361.163	355.44
361.39	367.44
361.616	383.44
361.843	363.44
362.07	354.44
362.296	384.44
362.523	358.44
362.749	347.44
362.976	366.44
363.203	362.44
363.429	335.44
363.656	380.44
363.882	371.44
364.109	365.44
364.335	357.44
364.562	370.44
364.788	345.44
365.015	351.44
365.241	358.44
365.468	367.44
365.694	357.44
365.92	351.44
366.147	346.44
366.373	343.44
366.599	361.44
366.826	351.44
367.052	348.44
367.278	364.44
367.505	355.44
367.731	358.44
367.957	353.44
368.184	345.44
368.41	348.44
368.636	351.44
368.862	365.44
369.089	360.44
369.315	353.44
369.541	353.44
369.767	347.44
369.993	372.44
370.219	357.44
370.445	361.44
370.672	372.44
370.898	358.44
371.124	351.44
371.35	366.44
371.576	350.44
371.802	349.44
372.028	365.44
372.254	348.44
372.48	377.44
372.706	379.44
372.932	367.44
373.158	377.44
373.384	362.44
373.61	357.44
373.835	358.44
374.061	365.44
374.287	379.44
374.513	375.44
374.739	380.44
374.965	375.44
375.191	382.44
375.416	381.44
375.642	370.44
375.868	371.44
376.094	382.44
376.319	333.44
376.545	356.44
376.771	374.44
376.997	382.44
377.222	341.44
377.448	375.44
377.674	355.44
377.899	366.44
378.125	356.44
378.35	344.44
378.576	351.44
378.802	361.44
379.027	362.44
379.253	349.44
379.478	352.44
379.704	359.44
379.929	361.44
380.155	361.44
380.38	357.44
380.606	359.44
380.831	346.44
381.057	355.44
381.282	372.44
381.507	346.44
381.733	362.44
381.958	358.44
382.184	354.44
382.409	360.44
382.634	364.44
382.86	376.44
383.085	367.44
383.31	387.44
383.535	375.44
383.761	370.44
383.986	371.44
384.211	401.44
384.436	385.44
384.662	408.44
384.887	392.44
385.112	405.44
385.337	420.44
385.562	396.44
385.787	406.44
386.013	402.44
386.238	397.44
386.463	423.44
386.688	405.44
386.913	408.44
387.138	409.44
387.363	404.44
387.588	382.44
387.813	402.44
388.038	397.44
388.263	395.44
388.488	416.44
388.713	398.44
388.938	399.44
389.163	387.44
389.387	415.44
389.612	379.44
389.837	398.44
390.062	400.44
390.287	402.44
390.512	402.44
390.736	381.44
390.961	406.44
391.186	407.44
391.411	412.44
391.636	437.44
391.86	443.44
392.085	438.44
392.31	447.44
392.534	430.44
392.759	418.44
392.984	413.44
393.208	419.44
393.433	423.44
393.658	402.44
393.882	413.44
394.107	418.44
394.331	396.44
394.556	399.44
394.78	404.44
395.005	419.44
395.229	417.44
395.454	435.44
395.678	427.44
395.903	450.44
396.127	436.44
396.352	445.44
396.576	434.44
396.801	427.44
397.025	430.44
397.249	413.44
397.474	439.44
397.698	441.44
397.922	422.44
398.147	437.44
398.371	464.44
398.595	481.44
398.82	453.44
399.044	500.44
399.268	501.44
399.492	588.44
399.717	620.44
399.941	615.44
400.165	631.44
400.389	581.44
400.613	551.44
400.837	507.44
401.062	477.44
401.286	507.44
401.51	488.44
401.734	468.44
401.958	498.44
402.182	463.44
402.406	504.44
402.63	487.44
402.854	492.44
403.078	505.44
403.302	502.44
403.526	507.44
403.75	512.44
403.974	543.44
404.198	521.44
404.422	534.44
404.645	550.44
404.869	538.44
405.093	587.44
405.317	593.44
405.541	620.44
405.765	591.44
405.988	525.44
406.212	541.44
406.436	539.44
406.66	568.44
406.883	533.44
407.107	578.44
407.331	589.44
407.555	667.44
407.778	623.44
408.002	587.44
408.226	560.44
408.449	549.44
408.673	547.44
408.896	550.44
409.12	559.44
409.344	546.44
409.567	509.44
409.791	497.44
410.014	495.44
410.238	495.44
410.461	499.44
410.685	523.44
410.908	517.44
411.132	510.44
411.355	533.44
411.578	524.44
411.802	521.44
412.025	523.44
412.249	535.44
412.472	569.44
412.695	611.44
412.919	588.44
413.142	534.44
413.365	519.44
413.589	509.44
413.812	517.44
414.035	486.44
414.258	499.44
414.482	479.44
414.705	454.44
414.928	485.44
415.151	486.44
415.374	465.44
415.597	470.44
415.821	456.44
416.044	455.44
416.267	456.44
416.49	478.44
416.713	465.44
416.936	466.44
417.159	468.44
417.382	473.44
417.605	476.44
417.828	479.44
418.051	502.44
418.274	461.44
418.497	502.44
418.72	488.44
418.943	476.44
419.166	510.44
419.389	521.44
419.611	535.44
419.834	521.44
420.057	531.44
420.28	527.44
420.503	533.44
420.726	526.44
420.948	532.44
421.171	527.44
421.394	510.44
421.617	501.44
421.839	507.44
422.062	483.44
422.285	471.44
422.507	542.44
422.73	536.44
422.953	525.44
423.175	526.44
423.398	489.44
423.621	493.44
423.843	521.44
424.066	515.44
424.288	515.44
424.511	514.44
424.733	530.44
424.956	581.44
425.178	567.44
425.401	551.44
425.623	580.44
425.846	524.44
426.068	489.44
426.291	480.44
426.513	475.44
426.735	499.44
426.958	488.44
427.18	539.44
427.402	607.44
427.625	664.44
427.847	629.44
428.069	601.44
428.292	532.44
428.514	484.44
428.736	437.44
428.958	458.44
429.181	457.44
429.403	471.44
429.625	464.44
429.847	480.44
430.069	496.44
430.292	495.44
430.514	455.44
430.736	457.44
430.958	445.44
431.18	461.44
431.402	448.44
431.624	435.44
431.846	432.44
432.068	439.44
432.29	445.44
432.512	431.44
432.734	441.44
432.956	438.44
433.178	443.44
433.4	464.44
433.622	445.44
433.844	438.44
434.066	428.44
434.287	432.44
434.509	454.44
434.731	447.44
434.953	456.44
435.175	473.44
435.397	481.44
435.618	484.44
435.84	497.44
436.062	539.44
436.284	577.44
436.505	508.44
436.727	496.44
436.949	471.44
437.17	452.44
437.392	456.44
437.614	451.44
437.835	462.44
438.057	499.44
438.278	553.44
438.5	570.44
438.721	615.44
438.943	608.44
439.165	496.44
439.386	461.44
439.608	459.44
439.829	480.44
440.05	489.44
440.272	500.44
440.493	484.44
440.715	467.44
440.936	468.44
441.158	464.44
441.379	453.44
441.6	472.44
441.822	489.44
442.043	515.44
442.264	548.44
442.486	573.44
442.707	510.44
442.928	488.44
443.149	497.44
443.371	505.44
443.592	527.44
443.813	593.44
444.034	637.44
444.255	533.44
444.476	506.44
444.698	515.44
444.919	523.44
445.14	657.44
445.361	596.44
445.582	521.44
445.803	563.44
446.024	608.44
446.245	596.44
446.466	554.44
446.687	496.44
446.908	469.44
447.129	439.44
447.35	439.44
447.571	415.44
447.792	415.44
448.013	427.44
448.234	437.44
448.455	463.44
448.675	532.44
448.896	614.44
449.117	529.44
449.338	492.44
449.559	553.44
449.779	611.44
450	517.44
450.221	451.44
450.442	438.44
450.662	420.44
450.883	408.44
451.104	435.44
451.324	415.44
451.545	406.44
451.766	407.44
451.986	383.44
452.207	384.44
452.428	389.44
452.648	390.44
452.869	411.44
453.089	411.44
453.31	402.44
453.53	386.44
453.751	396.44
453.971	399.44
454.192	401.44
454.412	396.44
454.633	401.44
454.853	374.44
455.073	383.44
455.294	406.44
455.514	408.44
455.734	433.44
455.955	396.44
456.175	385.44
456.395	351.44
456.616	361.44
456.836	385.44
457.056	376.44
457.276	363.44
457.497	379.44
457.717	366.44
457.937	363.44
458.157	372.44
458.377	389.44
458.598	392.44
458.818	418.44
459.038	490.44
459.258	510.44
459.478	456.44
459.698	443.44
459.918	447.44
460.138	445.44
460.358	459.44
460.578	468.44
460.798	469.44
461.018	454.44
461.238	469.44
461.458	447.44
461.678	452.44
461.898	471.44
462.118	464.44
462.338	484.44
462.558	508.44
462.777	494.44
462.997	538.44
463.217	551.44
463.437	579.44
463.657	518.44
463.876	513.44
464.096	522.44
464.316	515.44
464.536	516.44
464.755	511.44
464.975	501.44
465.195	496.44
465.414	530.44
465.634	484.44
465.854	441.44
466.073	440.44
466.293	433.44
466.512	412.44
466.732	410.44
466.951	407.44
467.171	415.44
467.391	440.44
467.61	415.44
467.829	414.44
468.049	432.44
468.268	446.44
468.488	423.44
468.707	417.44
468.927	397.44
469.146	397.44
469.365	415.44
469.585	410.44
469.804	411.44
470.023	423.44
470.243	405.44
470.462	435.44
470.681	431.44
470.901	447.44
471.12	431.44
471.339	440.44
471.558	415.44
471.777	419.44
471.997	441.44
472.216	453.44
472.435	547.44
472.654	519.44
472.873	462.44
473.092	423.44
473.311	418.44
473.53	427.44
473.749	428.44
473.968	440.44
474.187	490.44
474.406	505.44
474.625	443.44
474.844	414.44
475.063	402.44
475.282	393.44
475.501	415.44
475.72	424.44
475.939	409.44
476.158	406.44
476.377	436.44
476.596	402.44
476.814	431.44
477.033	422.44
477.252	435.44
477.471	427.44
477.69	437.44
477.908	450.44
478.127	440.44
478.346	466.44
478.564	469.44
478.783	473.44
479.002	476.44
479.22	478.44
479.439	500.44
479.658	488.44
479.876	493.44
480.095	513.44
480.313	546.44
480.532	512.44
480.751	546.44
480.969	541.44
481.188	690.44
481.406	791.44
481.624	637.44
481.843	550.44
482.061	517.44
482.28	509.44
482.498	508.44
482.717	505.44
482.935	468.44
483.153	503.44
483.372	494.44
483.59	481.44
483.808	483.44
484.027	457.44
484.245	466.44
484.463	467.44
484.681	459.44
484.9	475.44
485.118	484.44
485.336	485.44
485.554	490.44
485.772	471.44
485.99	488.44
486.209	499.44
486.427	499.44
486.645	492.44
486.863	495.44
487.081	483.44
487.299	483.44
487.517	503.44
487.735	495.44
487.953	522.44
488.171	501.44
488.389	518.44
488.607	491.44
488.825	503.44
489.043	511.44
489.261	508.44
489.479	490.44
489.696	534.44
489.914	495.44
490.132	522.44
490.35	529.44
490.568	526.44
490.786	547.44
491.003	542.44
491.221	566.44
491.439	568.44
491.657	586.44
491.874	577.44
492.092	583.44
492.31	589.44
492.527	583.44
492.745	595.44
492.963	591.44
493.18	599.44
493.398	585.44
493.615	612.44
493.833	621.44
494.05	595.44
494.268	601.44
494.485	590.44
494.703	586.44
494.92	554.44
495.138	586.44
495.355	590.44
495.573	577.44
495.79	567.44
496.008	580.44
496.225	564.44
496.442	572.44
496.66	571.44
496.877	570.44
497.094	582.44
497.312	597.44
497.529	625.44
497.746	615.44
497.963	633.44
498.181	636.44
498.398	662.44
498.615	658.44
498.832	702.44
499.049	717.44
499.267	753.44
499.484	849.44
499.701	851.44
499.918	933.44
500.135	987.44
500.352	1069.44
500.569	1102.44
500.786	1104.44
501.003	1084.44
501.22	981.44
501.437	929.44
501.654	873.44
501.871	814.44
