Data from 1984.PennyLincolnUp.Lamp.En5.5.200Scan.071819.P1_HRD10591_16-59-45-969.txt Node
Date: Thu Jul 18 16:59:45 EDT 2019
User: cochatt
Spectrometer: HR+D1059
Trigger mode: 1
Integration Time (sec): 1.000000E-1
Scans to average: 1
Electric dark correction enabled: true
Nonlinearity correction enabled: false
Boxcar width: 0
XAxis mode: Wavelengths
Number of Pixels in Spectrum: 2048
>>>>>Begin Spectral Data<<<<<
223.165	-21.81
223.4	-21.81
223.635	-21.81
223.869	-7.81
224.104	-27.81
224.338	-14.81
224.573	-5.81
224.808	-8.81
225.042	-5.81
225.277	-17.81
225.511	7.19
225.746	16.19
225.98	7.19
226.215	12.19
226.449	3.19
226.683	15.19
226.918	29.19
227.152	20.19
227.387	34.19
227.621	33.19
227.856	41.19
228.09	40.19
228.324	44.19
228.559	56.19
228.793	70.19
229.027	81.19
229.262	94.19
229.496	85.19
229.73	113.19
229.964	125.19
230.199	123.19
230.433	104.19
230.667	116.19
230.901	96.19
231.136	112.19
231.37	113.19
231.604	104.19
231.838	106.19
232.072	119.19
232.306	96.19
232.541	110.19
232.775	107.19
233.009	121.19
233.243	115.19
233.477	103.19
233.711	115.19
233.945	115.19
234.179	109.19
234.413	108.19
234.647	122.19
234.881	119.19
235.115	107.19
235.349	98.19
235.583	122.19
235.817	122.19
236.051	128.19
236.285	125.19
236.519	110.19
236.753	119.19
236.987	123.19
237.221	127.19
237.455	163.19
237.689	161.19
237.922	140.19
238.156	129.19
238.39	113.19
238.624	115.19
238.858	122.19
239.091	124.19
239.325	117.19
239.559	122.19
239.793	122.19
240.027	117.19
240.26	138.19
240.494	116.19
240.728	127.19
240.961	120.19
241.195	130.19
241.429	119.19
241.662	133.19
241.896	118.19
242.13	118.19
242.363	141.19
242.597	128.19
242.83	134.19
243.064	138.19
243.298	132.19
243.531	132.19
243.765	129.19
243.998	118.19
244.232	124.19
244.465	129.19
244.699	134.19
244.932	134.19
245.166	144.19
245.399	139.19
245.633	127.19
245.866	143.19
246.099	135.19
246.333	130.19
246.566	141.19
246.8	142.19
247.033	147.19
247.266	144.19
247.5	136.19
247.733	155.19
247.966	151.19
248.2	150.19
248.433	151.19
248.666	159.19
248.899	157.19
249.133	159.19
249.366	162.19
249.599	161.19
249.832	165.19
250.066	187.19
250.299	181.19
250.532	198.19
250.765	202.19
250.998	205.19
251.231	192.19
251.465	191.19
251.698	177.19
251.931	164.19
252.164	186.19
252.397	185.19
252.63	179.19
252.863	170.19
253.096	183.19
253.329	193.19
253.562	175.19
253.795	191.19
254.028	193.19
254.261	183.19
254.494	196.19
254.727	216.19
254.96	209.19
255.193	226.19
255.426	219.19
255.659	212.19
255.892	230.19
256.124	260.19
256.357	283.19
256.59	243.19
256.823	214.19
257.056	205.19
257.289	202.19
257.521	210.19
257.754	188.19
257.987	195.19
258.22	211.19
258.452	188.19
258.685	168.19
258.918	186.19
259.151	205.19
259.383	193.19
259.616	192.19
259.849	197.19
260.081	200.19
260.314	213.19
260.547	227.19
260.779	210.19
261.012	207.19
261.244	195.19
261.477	190.19
261.71	195.19
261.942	199.19
262.175	205.19
262.407	210.19
262.64	197.19
262.872	201.19
263.105	188.19
263.337	199.19
263.57	204.19
263.802	202.19
264.035	222.19
264.267	210.19
264.499	189.19
264.732	189.19
264.964	215.19
265.197	217.19
265.429	203.19
265.661	218.19
265.894	205.19
266.126	212.19
266.358	206.19
266.591	185.19
266.823	228.19
267.055	204.19
267.287	207.19
267.52	223.19
267.752	206.19
267.984	224.19
268.216	230.19
268.448	223.19
268.681	233.19
268.913	231.19
269.145	235.19
269.377	246.19
269.609	230.19
269.841	232.19
270.073	231.19
270.306	253.19
270.538	261.19
270.77	257.19
271.002	266.19
271.234	243.19
271.466	261.19
271.698	269.19
271.93	263.19
272.162	252.19
272.394	272.19
272.626	240.19
272.858	262.19
273.09	259.19
273.322	238.19
273.553	233.19
273.785	258.19
274.017	259.19
274.249	249.19
274.481	252.19
274.713	259.19
274.945	267.19
275.176	258.19
275.408	256.19
275.64	244.19
275.872	250.19
276.104	234.19
276.335	250.19
276.567	239.19
276.799	263.19
277.031	283.19
277.262	270.19
277.494	275.19
277.726	285.19
277.957	286.19
278.189	277.19
278.421	266.19
278.652	246.19
278.884	269.19
279.115	266.19
279.347	273.19
279.579	269.19
279.81	269.19
280.042	258.19
280.273	279.19
280.505	269.19
280.736	261.19
280.968	268.19
281.199	253.19
281.431	273.19
281.662	266.19
281.894	266.19
282.125	265.19
282.356	266.19
282.588	289.19
282.819	286.19
283.051	257.19
283.282	257.19
283.513	284.19
283.745	269.19
283.976	262.19
284.207	268.19
284.439	276.19
284.67	279.19
284.901	278.19
285.132	268.19
285.364	281.19
285.595	267.19
285.826	272.19
286.057	285.19
286.288	272.19
286.52	278.19
286.751	265.19
286.982	270.19
287.213	282.19
287.444	282.19
287.675	283.19
287.906	287.19
288.138	297.19
288.369	263.19
288.6	273.19
288.831	284.19
289.062	281.19
289.293	306.19
289.524	283.19
289.755	273.19
289.986	266.19
290.217	283.19
290.448	293.19
290.679	274.19
290.91	296.19
291.141	296.19
291.371	282.19
291.602	287.19
291.833	290.19
292.064	284.19
292.295	272.19
292.526	296.19
292.757	284.19
292.987	273.19
293.218	295.19
293.449	289.19
293.68	285.19
293.91	271.19
294.141	276.19
294.372	267.19
294.603	262.19
294.833	292.19
295.064	294.19
295.295	293.19
295.525	300.19
295.756	278.19
295.987	310.19
296.217	297.19
296.448	321.19
296.679	286.19
296.909	293.19
297.14	294.19
297.37	309.19
297.601	290.19
297.831	301.19
298.062	295.19
298.292	289.19
298.523	314.19
298.753	303.19
298.984	300.19
299.214	302.19
299.445	298.19
299.675	293.19
299.905	313.19
300.136	310.19
300.366	311.19
300.597	314.19
300.827	305.19
301.057	338.19
301.288	323.19
301.518	307.19
301.748	335.19
301.979	322.19
302.209	317.19
302.439	316.19
302.669	325.19
302.9	305.19
303.13	327.19
303.36	332.19
303.59	329.19
303.82	318.19
304.051	306.19
304.281	327.19
304.511	330.19
304.741	310.19
304.971	309.19
305.201	320.19
305.431	322.19
305.661	321.19
305.891	321.19
306.121	332.19
306.352	310.19
306.582	301.19
306.812	304.19
307.042	321.19
307.272	331.19
307.502	327.19
307.731	338.19
307.961	331.19
308.191	321.19
308.421	315.19
308.651	322.19
308.881	309.19
309.111	327.19
309.341	306.19
309.571	341.19
309.8	343.19
310.03	329.19
310.26	339.19
310.49	340.19
310.72	336.19
310.949	358.19
311.179	371.19
311.409	327.19
311.639	371.19
311.868	352.19
312.098	355.19
312.328	361.19
312.557	350.19
312.787	345.19
313.017	348.19
313.246	350.19
313.476	360.19
313.706	363.19
313.935	350.19
314.165	358.19
314.394	369.19
314.624	369.19
314.853	351.19
315.083	361.19
315.312	346.19
315.542	353.19
315.771	351.19
316.001	365.19
316.23	351.19
316.46	355.19
316.689	351.19
316.919	340.19
317.148	338.19
317.377	336.19
317.607	363.19
317.836	357.19
318.065	353.19
318.295	364.19
318.524	353.19
318.753	350.19
318.983	346.19
319.212	362.19
319.441	358.19
319.67	356.19
319.9	379.19
320.129	361.19
320.358	346.19
320.587	360.19
320.816	349.19
321.046	371.19
321.275	381.19
321.504	353.19
321.733	371.19
321.962	374.19
322.191	381.19
322.42	385.19
322.649	412.19
322.878	406.19
323.108	413.19
323.337	437.19
323.566	432.19
323.795	460.19
324.024	473.19
324.253	540.19
324.482	752.19
324.71	1073.19
324.939	1449.19
325.168	1250.19
325.397	707.19
325.626	551.19
325.855	477.19
326.084	456.19
326.313	458.19
326.542	440.19
326.77	474.19
326.999	531.19
327.228	693.19
327.457	983.19
327.686	1188.19
327.914	817.19
328.143	615.19
328.372	582.19
328.6	528.19
328.829	497.19
329.058	492.19
329.287	525.19
329.515	481.19
329.744	507.19
329.972	565.19
330.201	587.19
330.43	661.19
330.658	641.19
330.887	549.19
331.115	551.19
331.344	495.19
331.572	471.19
331.801	482.19
332.03	459.19
332.258	463.19
332.486	436.19
332.715	472.19
332.943	472.19
333.172	490.19
333.4	482.19
333.629	532.19
333.857	529.19
334.085	591.19
334.314	668.19
334.542	733.19
334.771	755.19
334.999	633.19
335.227	541.19
335.455	508.19
335.684	496.19
335.912	469.19
336.14	469.19
336.369	448.19
336.597	449.19
336.825	455.19
337.053	446.19
337.281	446.19
337.51	435.19
337.738	413.19
337.966	423.19
338.194	398.19
338.422	405.19
338.65	398.19
338.878	401.19
339.106	411.19
339.334	398.19
339.562	383.19
339.79	390.19
340.018	392.19
340.246	403.19
340.474	381.19
340.702	403.19
340.93	400.19
341.158	392.19
341.386	392.19
341.614	392.19
341.842	395.19
342.07	386.19
342.298	398.19
342.526	379.19
342.754	380.19
342.981	403.19
343.209	394.19
343.437	415.19
343.665	404.19
343.893	423.19
344.12	417.19
344.348	414.19
344.576	401.19
344.804	435.19
345.031	403.19
345.259	414.19
345.487	406.19
345.714	389.19
345.942	375.19
346.17	371.19
346.397	382.19
346.625	387.19
346.853	387.19
347.08	372.19
347.308	390.19
347.535	372.19
347.763	395.19
347.99	380.19
348.218	360.19
348.445	387.19
348.673	393.19
348.9	367.19
349.128	358.19
349.355	371.19
349.583	374.19
349.81	371.19
350.037	365.19
350.265	353.19
350.492	369.19
350.72	361.19
350.947	355.19
351.174	377.19
351.402	374.19
351.629	359.19
351.856	379.19
352.083	389.19
352.311	397.19
352.538	355.19
352.765	377.19
352.992	377.19
353.22	350.19
353.447	357.19
353.674	351.19
353.901	352.19
354.128	346.19
354.355	367.19
354.583	379.19
354.81	349.19
355.037	353.19
355.264	353.19
355.491	360.19
355.718	345.19
355.945	370.19
356.172	352.19
356.399	369.19
356.626	360.19
356.853	356.19
357.08	359.19
357.307	361.19
357.534	346.19
357.761	352.19
357.988	380.19
358.215	349.19
358.441	353.19
358.668	355.19
358.895	370.19
359.122	362.19
359.349	356.19
359.576	365.19
359.802	366.19
360.029	377.19
360.256	391.19
360.483	379.19
360.709	369.19
360.936	381.19
361.163	370.19
361.39	354.19
361.616	373.19
361.843	364.19
362.07	345.19
362.296	370.19
362.523	385.19
362.749	372.19
362.976	370.19
363.203	365.19
363.429	354.19
363.656	357.19
363.882	365.19
364.109	359.19
364.335	346.19
364.562	349.19
364.788	358.19
365.015	341.19
365.241	354.19
365.468	346.19
365.694	353.19
365.92	350.19
366.147	368.19
366.373	374.19
366.599	356.19
366.826	347.19
367.052	365.19
367.278	377.19
367.505	351.19
367.731	367.19
367.957	361.19
368.184	359.19
368.41	362.19
368.636	369.19
368.862	361.19
369.089	366.19
369.315	342.19
369.541	366.19
369.767	363.19
369.993	356.19
370.219	348.19
370.445	346.19
370.672	366.19
370.898	341.19
371.124	351.19
371.35	364.19
371.576	386.19
371.802	366.19
372.028	358.19
372.254	357.19
372.48	383.19
372.706	371.19
372.932	361.19
373.158	361.19
373.384	390.19
373.61	364.19
373.835	353.19
374.061	363.19
374.287	347.19
374.513	367.19
374.739	378.19
374.965	383.19
375.191	391.19
375.416	378.19
375.642	378.19
375.868	390.19
376.094	374.19
376.319	377.19
376.545	363.19
376.771	358.19
376.997	354.19
377.222	339.19
377.448	348.19
377.674	380.19
377.899	373.19
378.125	346.19
378.35	358.19
378.576	373.19
378.802	342.19
379.027	349.19
379.253	365.19
379.478	373.19
379.704	363.19
379.929	345.19
380.155	360.19
380.38	350.19
380.606	378.19
380.831	373.19
381.057	379.19
381.282	371.19
381.507	379.19
381.733	372.19
381.958	376.19
382.184	371.19
382.409	349.19
382.634	366.19
382.86	380.19
383.085	380.19
383.31	376.19
383.535	380.19
383.761	392.19
383.986	402.19
384.211	381.19
384.436	391.19
384.662	393.19
384.887	398.19
385.112	403.19
385.337	414.19
385.562	401.19
385.787	390.19
386.013	412.19
386.238	419.19
386.463	397.19
386.688	416.19
386.913	396.19
387.138	417.19
387.363	410.19
387.588	375.19
387.813	385.19
388.038	413.19
388.263	415.19
388.488	409.19
388.713	403.19
388.938	406.19
389.163	401.19
389.387	412.19
389.612	405.19
389.837	399.19
390.062	390.19
390.287	415.19
390.512	388.19
390.736	411.19
390.961	387.19
391.186	417.19
391.411	406.19
391.636	409.19
391.86	424.19
392.085	463.19
392.31	459.19
392.534	415.19
392.759	419.19
392.984	411.19
393.208	405.19
393.433	428.19
393.658	397.19
393.882	405.19
394.107	407.19
394.331	415.19
394.556	436.19
394.78	411.19
395.005	409.19
395.229	398.19
395.454	421.19
395.678	454.19
395.903	447.19
396.127	446.19
396.352	415.19
396.576	428.19
396.801	439.19
397.025	423.19
397.249	434.19
397.474	467.19
397.698	429.19
397.922	461.19
398.147	449.19
398.371	485.19
398.595	466.19
398.82	462.19
399.044	510.19
399.268	494.19
399.492	571.19
399.717	612.19
399.941	646.19
400.165	628.19
400.389	627.19
400.613	525.19
400.837	519.19
401.062	504.19
401.286	486.19
401.51	479.19
401.734	475.19
401.958	483.19
402.182	500.19
402.406	488.19
402.63	494.19
402.854	513.19
403.078	500.19
403.302	515.19
403.526	526.19
403.75	507.19
403.974	510.19
404.198	528.19
404.422	541.19
404.645	540.19
404.869	529.19
405.093	557.19
405.317	605.19
405.541	643.19
405.765	574.19
405.988	573.19
406.212	546.19
406.436	535.19
406.66	546.19
406.883	522.19
407.107	585.19
407.331	605.19
407.555	649.19
407.778	642.19
408.002	568.19
408.226	563.19
408.449	579.19
408.673	524.19
408.896	578.19
409.12	567.19
409.344	569.19
409.567	522.19
409.791	529.19
410.014	521.19
410.238	535.19
410.461	509.19
410.685	501.19
410.908	503.19
411.132	532.19
411.355	534.19
411.578	530.19
411.802	505.19
412.025	521.19
412.249	527.19
412.472	579.19
412.695	607.19
412.919	585.19
413.142	547.19
413.365	521.19
413.589	511.19
413.812	485.19
414.035	489.19
414.258	495.19
414.482	478.19
414.705	486.19
414.928	473.19
415.151	492.19
415.374	477.19
415.597	480.19
415.821	468.19
416.044	457.19
416.267	475.19
416.49	454.19
416.713	461.19
416.936	472.19
417.159	472.19
417.382	487.19
417.605	444.19
417.828	469.19
418.051	494.19
418.274	485.19
418.497	466.19
418.72	469.19
418.943	471.19
419.166	493.19
419.389	535.19
419.611	522.19
419.834	523.19
420.057	507.19
420.28	543.19
420.503	519.19
420.726	502.19
420.948	503.19
421.171	522.19
421.394	531.19
421.617	509.19
421.839	486.19
422.062	501.19
422.285	487.19
422.507	525.19
422.73	579.19
422.953	569.19
423.175	528.19
423.398	521.19
423.621	490.19
423.843	526.19
424.066	533.19
424.288	511.19
424.511	516.19
424.733	562.19
424.956	572.19
425.178	570.19
425.401	550.19
425.623	567.19
425.846	521.19
426.068	530.19
426.291	486.19
426.513	490.19
426.735	506.19
426.958	503.19
427.18	537.19
427.402	635.19
427.625	712.19
427.847	626.19
428.069	567.19
428.292	519.19
428.514	485.19
428.736	465.19
428.958	436.19
429.181	450.19
429.403	443.19
429.625	476.19
429.847	470.19
430.069	504.19
430.292	508.19
430.514	446.19
430.736	441.19
430.958	447.19
431.18	431.19
431.402	431.19
431.624	448.19
431.846	437.19
432.068	469.19
432.29	421.19
432.512	429.19
432.734	424.19
432.956	436.19
433.178	431.19
433.4	439.19
433.622	426.19
433.844	449.19
434.066	436.19
434.287	454.19
434.509	440.19
434.731	473.19
434.953	475.19
435.175	481.19
435.397	481.19
435.618	459.19
435.84	508.19
436.062	563.19
436.284	557.19
436.505	505.19
436.727	479.19
436.949	464.19
437.17	442.19
437.392	434.19
437.614	449.19
437.835	458.19
438.057	490.19
438.278	559.19
438.5	561.19
438.721	611.19
438.943	586.19
439.165	503.19
439.386	476.19
439.608	475.19
439.829	470.19
440.05	482.19
440.272	511.19
440.493	469.19
440.715	470.19
440.936	462.19
441.158	467.19
441.379	468.19
441.6	473.19
441.822	517.19
442.043	536.19
442.264	554.19
442.486	576.19
442.707	505.19
442.928	498.19
443.149	507.19
443.371	491.19
443.592	540.19
443.813	574.19
444.034	615.19
444.255	547.19
444.476	517.19
444.698	515.19
444.919	561.19
445.14	590.19
445.361	565.19
445.582	522.19
445.803	530.19
446.024	601.19
446.245	583.19
446.466	560.19
446.687	467.19
446.908	467.19
447.129	452.19
447.35	446.19
447.571	451.19
447.792	425.19
448.013	459.19
448.234	431.19
448.455	461.19
448.675	538.19
448.896	596.19
449.117	509.19
449.338	492.19
449.559	549.19
449.779	619.19
450	543.19
450.221	447.19
450.442	429.19
450.662	419.19
450.883	421.19
451.104	429.19
451.324	419.19
451.545	410.19
451.766	415.19
451.986	410.19
452.207	405.19
452.428	379.19
452.648	413.19
452.869	392.19
453.089	409.19
453.31	389.19
453.53	399.19
453.751	394.19
453.971	406.19
454.192	413.19
454.412	380.19
454.633	389.19
454.853	382.19
455.073	384.19
455.294	395.19
455.514	443.19
455.734	429.19
455.955	403.19
456.175	389.19
456.395	363.19
456.616	380.19
456.836	376.19
457.056	383.19
457.276	376.19
457.497	374.19
457.717	360.19
457.937	373.19
458.157	415.19
458.377	401.19
458.598	398.19
458.818	431.19
459.038	481.19
459.258	477.19
459.478	468.19
459.698	416.19
459.918	438.19
460.138	453.19
460.358	461.19
460.578	489.19
460.798	476.19
461.018	481.19
461.238	461.19
461.458	463.19
461.678	458.19
461.898	472.19
462.118	458.19
462.338	508.19
462.558	501.19
462.777	524.19
462.997	549.19
463.217	568.19
463.437	563.19
463.657	538.19
463.876	529.19
464.096	521.19
464.316	507.19
464.536	516.19
464.755	501.19
464.975	506.19
465.195	509.19
465.414	516.19
465.634	476.19
465.854	460.19
466.073	431.19
466.293	427.19
466.512	423.19
466.732	410.19
466.951	419.19
467.171	426.19
467.391	427.19
467.61	434.19
467.829	439.19
468.049	438.19
468.268	451.19
468.488	434.19
468.707	392.19
468.927	405.19
469.146	417.19
469.365	434.19
469.585	413.19
469.804	418.19
470.023	414.19
470.243	434.19
470.462	415.19
470.681	439.19
470.901	447.19
471.12	440.19
471.339	431.19
471.558	431.19
471.777	426.19
471.997	422.19
472.216	466.19
472.435	543.19
472.654	501.19
472.873	462.19
473.092	429.19
473.311	424.19
473.53	427.19
473.749	415.19
473.968	454.19
474.187	509.19
474.406	509.19
474.625	448.19
474.844	421.19
475.063	404.19
475.282	425.19
475.501	411.19
475.72	414.19
475.939	428.19
476.158	410.19
476.377	420.19
476.596	405.19
476.814	438.19
477.033	435.19
477.252	425.19
477.471	438.19
477.69	444.19
477.908	433.19
478.127	478.19
478.346	449.19
478.564	470.19
478.783	462.19
479.002	466.19
479.22	477.19
479.439	516.19
479.658	484.19
479.876	491.19
480.095	525.19
480.313	525.19
480.532	546.19
480.751	529.19
480.969	564.19
481.188	729.19
481.406	813.19
481.624	638.19
481.843	562.19
482.061	514.19
482.28	510.19
482.498	501.19
482.717	491.19
482.935	479.19
483.153	498.19
483.372	466.19
483.59	477.19
483.808	490.19
484.027	482.19
484.245	494.19
484.463	466.19
484.681	486.19
484.9	473.19
485.118	502.19
485.336	489.19
485.554	497.19
485.772	497.19
485.99	484.19
486.209	494.19
486.427	479.19
486.645	489.19
486.863	525.19
487.081	507.19
487.299	503.19
487.517	515.19
487.735	484.19
487.953	488.19
488.171	493.19
488.389	481.19
488.607	488.19
488.825	507.19
489.043	515.19
489.261	485.19
489.479	538.19
489.696	515.19
489.914	493.19
490.132	519.19
490.35	518.19
490.568	513.19
490.786	537.19
491.003	538.19
491.221	558.19
491.439	595.19
491.657	581.19
491.874	571.19
492.092	574.19
492.31	609.19
492.527	597.19
492.745	628.19
492.963	615.19
493.18	572.19
493.398	615.19
493.615	614.19
493.833	581.19
494.05	582.19
494.268	591.19
494.485	581.19
494.703	589.19
494.92	584.19
495.138	562.19
495.355	590.19
495.573	568.19
495.79	583.19
496.008	567.19
496.225	568.19
496.442	586.19
496.66	575.19
496.877	578.19
497.094	598.19
497.312	587.19
497.529	589.19
497.746	591.19
497.963	633.19
498.181	651.19
498.398	630.19
498.615	700.19
498.832	705.19
499.049	718.19
499.267	778.19
499.484	823.19
499.701	864.19
499.918	915.19
500.135	984.19
500.352	1092.19
500.569	1107.19
500.786	1145.19
501.003	1073.19
501.22	1003.19
501.437	947.19
501.654	852.19
501.871	827.19
502.088	798.19
