Data from 1984.PennyLincolnUp.Lamp.En5.5.200Scan.071819.P1_HRD10591_16-59-15-969.txt Node
Date: Thu Jul 18 16:59:15 EDT 2019
User: cochatt
Spectrometer: HR+D1059
Trigger mode: 1
Integration Time (sec): 1.000000E-1
Scans to average: 1
Electric dark correction enabled: true
Nonlinearity correction enabled: false
Boxcar width: 0
XAxis mode: Wavelengths
Number of Pixels in Spectrum: 2048
>>>>>Begin Spectral Data<<<<<
223.165	-21.81
223.4	-21.81
223.635	-21.81
223.869	-9.81
224.104	-22.81
224.338	-19.81
224.573	-20.81
224.808	3.19
225.042	-0.81
225.277	-11.81
225.511	11.19
225.746	-0.81
225.98	5.19
226.215	12.19
226.449	13.19
226.683	9.19
226.918	23.19
227.152	31.19
227.387	28.19
227.621	41.19
227.856	47.19
228.09	44.19
228.324	65.19
228.559	54.19
228.793	57.19
229.027	73.19
229.262	110.19
229.496	100.19
229.73	109.19
229.964	122.19
230.199	118.19
230.433	100.19
230.667	104.19
230.901	107.19
231.136	113.19
231.37	97.19
231.604	108.19
231.838	109.19
232.072	116.19
232.306	109.19
232.541	117.19
232.775	106.19
233.009	102.19
233.243	125.19
233.477	98.19
233.711	115.19
233.945	110.19
234.179	104.19
234.413	109.19
234.647	126.19
234.881	120.19
235.115	114.19
235.349	120.19
235.583	120.19
235.817	113.19
236.051	102.19
236.285	125.19
236.519	108.19
236.753	123.19
236.987	133.19
237.221	132.19
237.455	167.19
237.689	163.19
237.922	118.19
238.156	121.19
238.39	134.19
238.624	117.19
238.858	129.19
239.091	116.19
239.325	118.19
239.559	110.19
239.793	115.19
240.027	113.19
240.26	122.19
240.494	142.19
240.728	128.19
240.961	135.19
241.195	127.19
241.429	122.19
241.662	130.19
241.896	119.19
242.13	132.19
242.363	126.19
242.597	128.19
242.83	139.19
243.064	130.19
243.298	134.19
243.531	133.19
243.765	138.19
243.998	122.19
244.232	130.19
244.465	135.19
244.699	129.19
244.932	137.19
245.166	137.19
245.399	145.19
245.633	142.19
245.866	136.19
246.099	136.19
246.333	137.19
246.566	134.19
246.8	147.19
247.033	134.19
247.266	129.19
247.5	146.19
247.733	150.19
247.966	157.19
248.2	148.19
248.433	162.19
248.666	175.19
248.899	167.19
249.133	183.19
249.366	166.19
249.599	183.19
249.832	166.19
250.066	166.19
250.299	181.19
250.532	183.19
250.765	207.19
250.998	206.19
251.231	187.19
251.465	191.19
251.698	182.19
251.931	188.19
252.164	183.19
252.397	191.19
252.63	184.19
252.863	188.19
253.096	179.19
253.329	189.19
253.562	201.19
253.795	188.19
254.028	205.19
254.261	190.19
254.494	189.19
254.727	226.19
254.96	223.19
255.193	204.19
255.426	214.19
255.659	208.19
255.892	217.19
256.124	247.19
256.357	262.19
256.59	244.19
256.823	201.19
257.056	194.19
257.289	197.19
257.521	193.19
257.754	192.19
257.987	189.19
258.22	198.19
258.452	192.19
258.685	197.19
258.918	196.19
259.151	205.19
259.383	196.19
259.616	198.19
259.849	210.19
260.081	223.19
260.314	217.19
260.547	210.19
260.779	217.19
261.012	209.19
261.244	199.19
261.477	207.19
261.71	186.19
261.942	205.19
262.175	217.19
262.407	205.19
262.64	208.19
262.872	199.19
263.105	202.19
263.337	190.19
263.57	184.19
263.802	199.19
264.035	174.19
264.267	194.19
264.499	204.19
264.732	207.19
264.964	194.19
265.197	204.19
265.429	195.19
265.661	203.19
265.894	186.19
266.126	193.19
266.358	185.19
266.591	202.19
266.823	212.19
267.055	209.19
267.287	198.19
267.52	197.19
267.752	212.19
267.984	216.19
268.216	207.19
268.448	217.19
268.681	201.19
268.913	229.19
269.145	221.19
269.377	246.19
269.609	222.19
269.841	241.19
270.073	231.19
270.306	253.19
270.538	266.19
270.77	257.19
271.002	247.19
271.234	250.19
271.466	241.19
271.698	255.19
271.93	250.19
272.162	268.19
272.394	262.19
272.626	252.19
272.858	247.19
273.09	254.19
273.322	249.19
273.553	247.19
273.785	250.19
274.017	238.19
274.249	261.19
274.481	259.19
274.713	255.19
274.945	241.19
275.176	242.19
275.408	247.19
275.64	238.19
275.872	246.19
276.104	245.19
276.335	246.19
276.567	249.19
276.799	282.19
277.031	284.19
277.262	278.19
277.494	291.19
277.726	259.19
277.957	284.19
278.189	275.19
278.421	259.19
278.652	251.19
278.884	261.19
279.115	269.19
279.347	243.19
279.579	255.19
279.81	258.19
280.042	253.19
280.273	261.19
280.505	265.19
280.736	260.19
280.968	274.19
281.199	246.19
281.431	247.19
281.662	262.19
281.894	270.19
282.125	251.19
282.356	284.19
282.588	301.19
282.819	290.19
283.051	284.19
283.282	271.19
283.513	279.19
283.745	279.19
283.976	279.19
284.207	255.19
284.439	275.19
284.67	277.19
284.901	279.19
285.132	284.19
285.364	289.19
285.595	271.19
285.826	275.19
286.057	268.19
286.288	286.19
286.52	265.19
286.751	287.19
286.982	275.19
287.213	285.19
287.444	277.19
287.675	264.19
287.906	277.19
288.138	289.19
288.369	284.19
288.6	301.19
288.831	269.19
289.062	284.19
289.293	284.19
289.524	275.19
289.755	286.19
289.986	285.19
290.217	271.19
290.448	292.19
290.679	269.19
290.91	283.19
291.141	287.19
291.371	284.19
291.602	292.19
291.833	292.19
292.064	291.19
292.295	281.19
292.526	298.19
292.757	289.19
292.987	277.19
293.218	292.19
293.449	306.19
293.68	278.19
293.91	290.19
294.141	286.19
294.372	291.19
294.603	291.19
294.833	288.19
295.064	313.19
295.295	297.19
295.525	280.19
295.756	294.19
295.987	287.19
296.217	305.19
296.448	325.19
296.679	284.19
296.909	297.19
297.14	293.19
297.37	271.19
297.601	306.19
297.831	307.19
298.062	310.19
298.292	321.19
298.523	303.19
298.753	297.19
298.984	295.19
299.214	295.19
299.445	318.19
299.675	310.19
299.905	299.19
300.136	305.19
300.366	309.19
300.597	307.19
300.827	315.19
301.057	294.19
301.288	317.19
301.518	319.19
301.748	332.19
301.979	322.19
302.209	334.19
302.439	308.19
302.669	320.19
302.9	322.19
303.13	308.19
303.36	314.19
303.59	302.19
303.82	341.19
304.051	321.19
304.281	329.19
304.511	331.19
304.741	334.19
304.971	329.19
305.201	320.19
305.431	340.19
305.661	331.19
305.891	327.19
306.121	330.19
306.352	322.19
306.582	319.19
306.812	315.19
307.042	327.19
307.272	310.19
307.502	324.19
307.731	325.19
307.961	322.19
308.191	315.19
308.421	317.19
308.651	291.19
308.881	318.19
309.111	325.19
309.341	325.19
309.571	337.19
309.8	335.19
310.03	330.19
310.26	334.19
310.49	339.19
310.72	342.19
310.949	353.19
311.179	357.19
311.409	341.19
311.639	338.19
311.868	331.19
312.098	349.19
312.328	344.19
312.557	352.19
312.787	367.19
313.017	364.19
313.246	350.19
313.476	348.19
313.706	349.19
313.935	351.19
314.165	361.19
314.394	359.19
314.624	375.19
314.853	357.19
315.083	359.19
315.312	360.19
315.542	351.19
315.771	341.19
316.001	334.19
316.23	326.19
316.46	337.19
316.689	348.19
316.919	339.19
317.148	356.19
317.377	354.19
317.607	355.19
317.836	356.19
318.065	337.19
318.295	347.19
318.524	359.19
318.753	354.19
318.983	344.19
319.212	343.19
319.441	345.19
319.67	356.19
319.9	341.19
320.129	345.19
320.358	361.19
320.587	350.19
320.816	354.19
321.046	331.19
321.275	348.19
321.504	358.19
321.733	356.19
321.962	357.19
322.191	356.19
322.42	388.19
322.649	389.19
322.878	392.19
323.108	392.19
323.337	425.19
323.566	419.19
323.795	428.19
324.024	467.19
324.253	539.19
324.482	737.19
324.71	1071.19
324.939	1482.19
325.168	1228.19
325.397	699.19
325.626	524.19
325.855	453.19
326.084	446.19
326.313	435.19
326.542	453.19
326.77	460.19
326.999	546.19
327.228	699.19
327.457	975.19
327.686	1143.19
327.914	791.19
328.143	584.19
328.372	549.19
328.6	508.19
328.829	476.19
329.058	481.19
329.287	493.19
329.515	483.19
329.744	494.19
329.972	493.19
330.201	543.19
330.43	590.19
330.658	577.19
330.887	531.19
331.115	503.19
331.344	477.19
331.572	466.19
331.801	462.19
332.03	438.19
332.258	450.19
332.486	458.19
332.715	463.19
332.943	467.19
333.172	469.19
333.4	487.19
333.629	517.19
333.857	539.19
334.085	550.19
334.314	613.19
334.542	678.19
334.771	677.19
334.999	583.19
335.227	497.19
335.455	484.19
335.684	482.19
335.912	466.19
336.14	450.19
336.369	437.19
336.597	472.19
336.825	426.19
337.053	419.19
337.281	417.19
337.51	423.19
337.738	419.19
337.966	409.19
338.194	417.19
338.422	417.19
338.65	411.19
338.878	397.19
339.106	390.19
339.334	411.19
339.562	411.19
339.79	392.19
340.018	398.19
340.246	413.19
340.474	388.19
340.702	391.19
340.93	406.19
341.158	383.19
341.386	377.19
341.614	397.19
341.842	405.19
342.07	381.19
342.298	389.19
342.526	389.19
342.754	380.19
342.981	387.19
343.209	381.19
343.437	407.19
343.665	418.19
343.893	442.19
344.12	421.19
344.348	405.19
344.576	419.19
344.804	413.19
345.031	398.19
345.259	397.19
345.487	400.19
345.714	394.19
345.942	372.19
346.17	379.19
346.397	367.19
346.625	383.19
346.853	384.19
347.08	362.19
347.308	389.19
347.535	385.19
347.763	390.19
347.99	375.19
348.218	388.19
348.445	390.19
348.673	389.19
348.9	373.19
349.128	381.19
349.355	379.19
349.583	366.19
349.81	358.19
350.037	355.19
350.265	373.19
350.492	352.19
350.72	365.19
350.947	358.19
351.174	358.19
351.402	385.19
351.629	375.19
351.856	382.19
352.083	387.19
352.311	384.19
352.538	345.19
352.765	383.19
352.992	358.19
353.22	353.19
353.447	378.19
353.674	375.19
353.901	365.19
354.128	343.19
354.355	363.19
354.583	360.19
354.81	371.19
355.037	353.19
355.264	342.19
355.491	369.19
355.718	358.19
355.945	351.19
356.172	347.19
356.399	342.19
356.626	353.19
356.853	363.19
357.08	339.19
357.307	343.19
357.534	355.19
357.761	335.19
357.988	351.19
358.215	355.19
358.441	373.19
358.668	337.19
358.895	346.19
359.122	362.19
359.349	359.19
359.576	373.19
359.802	381.19
360.029	377.19
360.256	387.19
360.483	387.19
360.709	372.19
360.936	362.19
361.163	358.19
361.39	355.19
361.616	345.19
361.843	365.19
362.07	370.19
362.296	363.19
362.523	356.19
362.749	380.19
362.976	352.19
363.203	364.19
363.429	347.19
363.656	354.19
363.882	355.19
364.109	351.19
364.335	335.19
364.562	365.19
364.788	357.19
365.015	365.19
365.241	351.19
365.468	361.19
365.694	335.19
365.92	349.19
366.147	354.19
366.373	363.19
366.599	355.19
366.826	355.19
367.052	359.19
367.278	365.19
367.505	357.19
367.731	356.19
367.957	346.19
368.184	349.19
368.41	351.19
368.636	366.19
368.862	370.19
369.089	359.19
369.315	354.19
369.541	363.19
369.767	358.19
369.993	335.19
370.219	372.19
370.445	374.19
370.672	361.19
370.898	375.19
371.124	377.19
371.35	361.19
371.576	371.19
371.802	354.19
372.028	369.19
372.254	371.19
372.48	380.19
372.706	376.19
372.932	387.19
373.158	357.19
373.384	364.19
373.61	363.19
373.835	377.19
374.061	371.19
374.287	375.19
374.513	367.19
374.739	377.19
374.965	371.19
375.191	395.19
375.416	371.19
375.642	370.19
375.868	387.19
376.094	354.19
376.319	356.19
376.545	374.19
376.771	358.19
376.997	356.19
377.222	349.19
377.448	373.19
377.674	347.19
377.899	355.19
378.125	362.19
378.35	364.19
378.576	332.19
378.802	342.19
379.027	347.19
379.253	338.19
379.478	358.19
379.704	342.19
379.929	342.19
380.155	361.19
380.38	355.19
380.606	365.19
380.831	363.19
381.057	364.19
381.282	370.19
381.507	370.19
381.733	372.19
381.958	369.19
382.184	357.19
382.409	364.19
382.634	377.19
382.86	372.19
383.085	373.19
383.31	375.19
383.535	398.19
383.761	375.19
383.986	376.19
384.211	372.19
384.436	404.19
384.662	402.19
384.887	399.19
385.112	398.19
385.337	409.19
385.562	412.19
385.787	399.19
386.013	427.19
386.238	389.19
386.463	440.19
386.688	413.19
386.913	383.19
387.138	397.19
387.363	390.19
387.588	402.19
387.813	424.19
388.038	402.19
388.263	398.19
388.488	396.19
388.713	398.19
388.938	393.19
389.163	394.19
389.387	409.19
389.612	387.19
389.837	405.19
390.062	413.19
390.287	388.19
390.512	392.19
390.736	391.19
390.961	397.19
391.186	392.19
391.411	407.19
391.636	417.19
391.86	427.19
392.085	425.19
392.31	447.19
392.534	437.19
392.759	431.19
392.984	416.19
393.208	419.19
393.433	389.19
393.658	398.19
393.882	413.19
394.107	426.19
394.331	408.19
394.556	423.19
394.78	415.19
395.005	426.19
395.229	413.19
395.454	423.19
395.678	414.19
395.903	450.19
396.127	450.19
396.352	455.19
396.576	422.19
396.801	427.19
397.025	430.19
397.249	427.19
397.474	441.19
397.698	433.19
397.922	470.19
398.147	466.19
398.371	476.19
398.595	471.19
398.82	478.19
399.044	498.19
399.268	519.19
399.492	581.19
399.717	628.19
399.941	629.19
400.165	621.19
400.389	589.19
400.613	527.19
400.837	500.19
401.062	503.19
401.286	471.19
401.51	473.19
401.734	454.19
401.958	465.19
402.182	478.19
402.406	503.19
402.63	486.19
402.854	509.19
403.078	509.19
403.302	487.19
403.526	524.19
403.75	524.19
403.974	522.19
404.198	535.19
404.422	541.19
404.645	542.19
404.869	547.19
405.093	585.19
405.317	611.19
405.541	632.19
405.765	588.19
405.988	548.19
406.212	540.19
406.436	547.19
406.66	547.19
406.883	537.19
407.107	577.19
407.331	597.19
407.555	636.19
407.778	639.19
408.002	584.19
408.226	573.19
408.449	561.19
408.673	536.19
408.896	555.19
409.12	575.19
409.344	558.19
409.567	535.19
409.791	532.19
410.014	506.19
410.238	517.19
410.461	502.19
410.685	497.19
410.908	512.19
411.132	510.19
411.355	528.19
411.578	518.19
411.802	491.19
412.025	493.19
412.249	501.19
412.472	550.19
412.695	587.19
412.919	585.19
413.142	535.19
413.365	516.19
413.589	502.19
413.812	498.19
414.035	481.19
414.258	480.19
414.482	486.19
414.705	481.19
414.928	472.19
415.151	470.19
415.374	457.19
415.597	455.19
415.821	466.19
416.044	477.19
416.267	491.19
416.49	461.19
416.713	501.19
416.936	459.19
417.159	446.19
417.382	439.19
417.605	482.19
417.828	483.19
418.051	492.19
418.274	503.19
418.497	479.19
418.72	472.19
418.943	485.19
419.166	501.19
419.389	530.19
419.611	537.19
419.834	493.19
420.057	506.19
420.28	534.19
420.503	530.19
420.726	519.19
420.948	502.19
421.171	537.19
421.394	537.19
421.617	491.19
421.839	489.19
422.062	492.19
422.285	489.19
422.507	553.19
422.73	555.19
422.953	580.19
423.175	527.19
423.398	505.19
423.621	497.19
423.843	521.19
424.066	523.19
424.288	515.19
424.511	534.19
424.733	540.19
424.956	590.19
425.178	578.19
425.401	570.19
425.623	571.19
425.846	493.19
426.068	475.19
426.291	482.19
426.513	484.19
426.735	488.19
426.958	524.19
427.18	569.19
427.402	638.19
427.625	684.19
427.847	588.19
428.069	574.19
428.292	508.19
428.514	462.19
428.736	479.19
428.958	465.19
429.181	436.19
429.403	419.19
429.625	451.19
429.847	485.19
430.069	498.19
430.292	501.19
430.514	465.19
430.736	441.19
430.958	434.19
431.18	430.19
431.402	437.19
431.624	444.19
431.846	431.19
432.068	435.19
432.29	452.19
432.512	462.19
432.734	443.19
432.956	427.19
433.178	444.19
433.4	453.19
433.622	451.19
433.844	426.19
434.066	424.19
434.287	437.19
434.509	442.19
434.731	476.19
434.953	466.19
435.175	474.19
435.397	485.19
435.618	472.19
435.84	497.19
436.062	561.19
436.284	588.19
436.505	504.19
436.727	458.19
436.949	463.19
437.17	454.19
437.392	436.19
437.614	458.19
437.835	463.19
438.057	536.19
438.278	587.19
438.5	579.19
438.721	622.19
438.943	600.19
439.165	492.19
439.386	471.19
439.608	468.19
439.829	489.19
440.05	469.19
440.272	504.19
440.493	482.19
440.715	477.19
440.936	464.19
441.158	458.19
441.379	473.19
441.6	479.19
441.822	482.19
442.043	523.19
442.264	561.19
442.486	566.19
442.707	539.19
442.928	488.19
443.149	525.19
443.371	511.19
443.592	527.19
443.813	586.19
444.034	603.19
444.255	542.19
444.476	513.19
444.698	515.19
444.919	541.19
445.14	616.19
445.361	558.19
445.582	511.19
445.803	562.19
446.024	605.19
446.245	599.19
446.466	549.19
446.687	477.19
446.908	478.19
447.129	463.19
447.35	435.19
447.571	439.19
447.792	433.19
448.013	442.19
448.234	436.19
448.455	462.19
448.675	536.19
448.896	629.19
449.117	519.19
449.338	525.19
449.559	554.19
449.779	627.19
450	517.19
450.221	450.19
450.442	444.19
450.662	409.19
450.883	422.19
451.104	444.19
451.324	420.19
451.545	416.19
451.766	414.19
451.986	393.19
452.207	414.19
452.428	395.19
452.648	423.19
452.869	415.19
453.089	422.19
453.31	411.19
453.53	388.19
453.751	391.19
453.971	394.19
454.192	392.19
454.412	384.19
454.633	401.19
454.853	424.19
455.073	394.19
455.294	396.19
455.514	437.19
455.734	429.19
455.955	393.19
456.175	378.19
456.395	375.19
456.616	377.19
456.836	379.19
457.056	380.19
457.276	367.19
457.497	379.19
457.717	386.19
457.937	375.19
458.157	383.19
458.377	383.19
458.598	407.19
458.818	427.19
459.038	479.19
459.258	488.19
459.478	471.19
459.698	451.19
459.918	456.19
460.138	461.19
460.358	462.19
460.578	459.19
460.798	464.19
461.018	487.19
461.238	478.19
461.458	467.19
461.678	462.19
461.898	474.19
462.118	476.19
462.338	483.19
462.558	489.19
462.777	495.19
462.997	532.19
463.217	556.19
463.437	553.19
463.657	531.19
463.876	513.19
464.096	535.19
464.316	497.19
464.536	520.19
464.755	523.19
464.975	499.19
465.195	519.19
465.414	518.19
465.634	477.19
465.854	441.19
466.073	443.19
466.293	433.19
466.512	418.19
466.732	417.19
466.951	405.19
467.171	425.19
467.391	415.19
467.61	426.19
467.829	438.19
468.049	438.19
468.268	424.19
468.488	423.19
468.707	397.19
468.927	394.19
469.146	403.19
469.365	405.19
469.585	396.19
469.804	428.19
470.023	418.19
470.243	405.19
470.462	424.19
470.681	443.19
470.901	427.19
471.12	426.19
471.339	420.19
471.558	419.19
471.777	413.19
471.997	423.19
472.216	438.19
472.435	494.19
472.654	475.19
472.873	442.19
473.092	425.19
473.311	423.19
473.53	398.19
473.749	429.19
473.968	441.19
474.187	486.19
474.406	497.19
474.625	435.19
474.844	415.19
475.063	409.19
475.282	404.19
475.501	392.19
475.72	415.19
475.939	393.19
476.158	415.19
476.377	431.19
476.596	427.19
476.814	405.19
477.033	435.19
477.252	417.19
477.471	455.19
477.69	447.19
477.908	422.19
478.127	477.19
478.346	458.19
478.564	459.19
478.783	461.19
479.002	473.19
479.22	494.19
479.439	476.19
479.658	484.19
479.876	490.19
480.095	504.19
480.313	525.19
480.532	523.19
480.751	531.19
480.969	554.19
481.188	653.19
481.406	743.19
481.624	610.19
481.843	529.19
482.061	492.19
482.28	525.19
482.498	482.19
482.717	498.19
482.935	479.19
483.153	477.19
483.372	454.19
483.59	472.19
483.808	481.19
484.027	460.19
484.245	459.19
484.463	486.19
484.681	492.19
484.9	486.19
485.118	482.19
485.336	486.19
485.554	488.19
485.772	481.19
485.99	473.19
486.209	504.19
486.427	477.19
486.645	489.19
486.863	474.19
487.081	492.19
487.299	493.19
487.517	490.19
487.735	505.19
487.953	490.19
488.171	485.19
488.389	496.19
488.607	499.19
488.825	490.19
489.043	504.19
489.261	475.19
489.479	517.19
489.696	501.19
489.914	520.19
490.132	524.19
490.35	500.19
490.568	524.19
490.786	536.19
491.003	535.19
491.221	551.19
491.439	563.19
491.657	572.19
491.874	575.19
492.092	593.19
492.31	602.19
492.527	584.19
492.745	592.19
492.963	593.19
493.18	583.19
493.398	605.19
493.615	591.19
493.833	595.19
494.05	603.19
494.268	591.19
494.485	574.19
494.703	556.19
494.92	588.19
495.138	577.19
495.355	555.19
495.573	577.19
495.79	573.19
496.008	593.19
496.225	575.19
496.442	573.19
496.66	579.19
496.877	599.19
497.094	587.19
497.312	603.19
497.529	615.19
497.746	620.19
497.963	633.19
498.181	644.19
498.398	655.19
498.615	673.19
498.832	702.19
499.049	737.19
499.267	773.19
499.484	794.19
499.701	847.19
499.918	890.19
500.135	1010.19
500.352	1056.19
500.569	1115.19
500.786	1133.19
501.003	1079.19
501.22	1015.19
501.437	911.19
501.654	862.19
501.871	836.19
