Data from 1984.PennyLincolnUp.Lamp.En5.5.200Scan.071819.P1_HRD10591_16-57-45-967.txt Node
Date: Thu Jul 18 16:57:45 EDT 2019
User: cochatt
Spectrometer: HR+D1059
Trigger mode: 1
Integration Time (sec): 1.000000E-1
Scans to average: 1
Electric dark correction enabled: true
Nonlinearity correction enabled: false
Boxcar width: 0
XAxis mode: Wavelengths
Number of Pixels in Spectrum: 2048
>>>>>Begin Spectral Data<<<<<
223.165	-5.75
223.4	-5.75
223.635	-5.75
223.869	-17.75
224.104	-21.75
224.338	-6.75
224.573	-13.75
224.808	-21.75
225.042	-18.75
225.277	6.25
225.511	-8.75
225.746	14.25
225.98	7.25
226.215	11.25
226.449	13.25
226.683	25.25
226.918	13.25
227.152	24.25
227.387	29.25
227.621	42.25
227.856	55.25
228.09	40.25
228.324	40.25
228.559	81.25
228.793	78.25
229.027	86.25
229.262	110.25
229.496	109.25
229.73	114.25
229.964	115.25
230.199	93.25
230.433	113.25
230.667	117.25
230.901	122.25
231.136	120.25
231.37	103.25
231.604	86.25
231.838	88.25
232.072	107.25
232.306	97.25
232.541	111.25
232.775	110.25
233.009	100.25
233.243	115.25
233.477	110.25
233.711	121.25
233.945	109.25
234.179	110.25
234.413	113.25
234.647	112.25
234.881	130.25
235.115	109.25
235.349	109.25
235.583	104.25
235.817	123.25
236.051	117.25
236.285	122.25
236.519	110.25
236.753	125.25
236.987	118.25
237.221	126.25
237.455	164.25
237.689	144.25
237.922	131.25
238.156	120.25
238.39	120.25
238.624	121.25
238.858	128.25
239.091	106.25
239.325	135.25
239.559	118.25
239.793	123.25
240.027	115.25
240.26	118.25
240.494	133.25
240.728	122.25
240.961	122.25
241.195	139.25
241.429	127.25
241.662	135.25
241.896	130.25
242.13	122.25
242.363	129.25
242.597	124.25
242.83	124.25
243.064	134.25
243.298	125.25
243.531	138.25
243.765	143.25
243.998	132.25
244.232	136.25
244.465	146.25
244.699	148.25
244.932	116.25
245.166	130.25
245.399	130.25
245.633	138.25
245.866	134.25
246.099	142.25
246.333	142.25
246.566	126.25
246.8	160.25
247.033	134.25
247.266	136.25
247.5	152.25
247.733	140.25
247.966	154.25
248.2	131.25
248.433	142.25
248.666	156.25
248.899	166.25
249.133	164.25
249.366	164.25
249.599	166.25
249.832	154.25
250.066	161.25
250.299	152.25
250.532	183.25
250.765	159.25
250.998	183.25
251.231	180.25
251.465	182.25
251.698	188.25
251.931	184.25
252.164	189.25
252.397	171.25
252.63	172.25
252.863	175.25
253.096	180.25
253.329	196.25
253.562	190.25
253.795	194.25
254.028	193.25
254.261	177.25
254.494	199.25
254.727	194.25
254.96	195.25
255.193	223.25
255.426	205.25
255.659	174.25
255.892	206.25
256.124	182.25
256.357	194.25
256.59	204.25
256.823	180.25
257.056	175.25
257.289	196.25
257.521	191.25
257.754	172.25
257.987	190.25
258.22	184.25
258.452	185.25
258.685	183.25
258.918	194.25
259.151	176.25
259.383	194.25
259.616	186.25
259.849	201.25
260.081	181.25
260.314	197.25
260.547	210.25
260.779	196.25
261.012	205.25
261.244	197.25
261.477	209.25
261.71	199.25
261.942	216.25
262.175	198.25
262.407	205.25
262.64	196.25
262.872	194.25
263.105	187.25
263.337	207.25
263.57	194.25
263.802	198.25
264.035	181.25
264.267	195.25
264.499	195.25
264.732	198.25
264.964	180.25
265.197	198.25
265.429	203.25
265.661	204.25
265.894	200.25
266.126	222.25
266.358	191.25
266.591	201.25
266.823	198.25
267.055	204.25
267.287	210.25
267.52	206.25
267.752	220.25
267.984	201.25
268.216	207.25
268.448	220.25
268.681	222.25
268.913	215.25
269.145	239.25
269.377	230.25
269.609	235.25
269.841	239.25
270.073	228.25
270.306	245.25
270.538	252.25
270.77	252.25
271.002	258.25
271.234	228.25
271.466	270.25
271.698	267.25
271.93	276.25
272.162	264.25
272.394	269.25
272.626	258.25
272.858	250.25
273.09	246.25
273.322	261.25
273.553	239.25
273.785	219.25
274.017	245.25
274.249	229.25
274.481	238.25
274.713	256.25
274.945	235.25
275.176	250.25
275.408	250.25
275.64	234.25
275.872	249.25
276.104	246.25
276.335	249.25
276.567	234.25
276.799	237.25
277.031	252.25
277.262	266.25
277.494	281.25
277.726	262.25
277.957	258.25
278.189	242.25
278.421	252.25
278.652	259.25
278.884	251.25
279.115	254.25
279.347	263.25
279.579	252.25
279.81	251.25
280.042	260.25
280.273	259.25
280.505	250.25
280.736	260.25
280.968	254.25
281.199	245.25
281.431	248.25
281.662	260.25
281.894	271.25
282.125	244.25
282.356	260.25
282.588	275.25
282.819	268.25
283.051	245.25
283.282	251.25
283.513	250.25
283.745	254.25
283.976	267.25
284.207	261.25
284.439	280.25
284.67	260.25
284.901	270.25
285.132	282.25
285.364	244.25
285.595	280.25
285.826	279.25
286.057	280.25
286.288	270.25
286.52	276.25
286.751	262.25
286.982	274.25
287.213	271.25
287.444	285.25
287.675	291.25
287.906	284.25
288.138	298.25
288.369	295.25
288.6	269.25
288.831	297.25
289.062	272.25
289.293	271.25
289.524	275.25
289.755	280.25
289.986	261.25
290.217	282.25
290.448	278.25
290.679	304.25
290.91	287.25
291.141	302.25
291.371	303.25
291.602	262.25
291.833	276.25
292.064	297.25
292.295	278.25
292.526	282.25
292.757	276.25
292.987	289.25
293.218	285.25
293.449	281.25
293.68	280.25
293.91	286.25
294.141	270.25
294.372	288.25
294.603	291.25
294.833	281.25
295.064	295.25
295.295	278.25
295.525	279.25
295.756	275.25
295.987	300.25
296.217	294.25
296.448	286.25
296.679	308.25
296.909	293.25
297.14	292.25
297.37	295.25
297.601	303.25
297.831	287.25
298.062	302.25
298.292	303.25
298.523	288.25
298.753	308.25
298.984	302.25
299.214	308.25
299.445	297.25
299.675	294.25
299.905	319.25
300.136	325.25
300.366	309.25
300.597	290.25
300.827	308.25
301.057	312.25
301.288	312.25
301.518	320.25
301.748	331.25
301.979	298.25
302.209	303.25
302.439	317.25
302.669	302.25
302.9	319.25
303.13	325.25
303.36	313.25
303.59	315.25
303.82	320.25
304.051	308.25
304.281	322.25
304.511	323.25
304.741	308.25
304.971	308.25
305.201	317.25
305.431	329.25
305.661	317.25
305.891	312.25
306.121	306.25
306.352	326.25
306.582	316.25
306.812	337.25
307.042	325.25
307.272	312.25
307.502	323.25
307.731	324.25
307.961	315.25
308.191	326.25
308.421	332.25
308.651	310.25
308.881	309.25
309.111	291.25
309.341	316.25
309.571	322.25
309.8	337.25
310.03	354.25
310.26	355.25
310.49	336.25
310.72	336.25
310.949	344.25
311.179	329.25
311.409	336.25
311.639	351.25
311.868	346.25
312.098	325.25
312.328	346.25
312.557	357.25
312.787	348.25
313.017	362.25
313.246	351.25
313.476	328.25
313.706	328.25
313.935	354.25
314.165	328.25
314.394	368.25
314.624	349.25
314.853	348.25
315.083	352.25
315.312	330.25
315.542	342.25
315.771	334.25
316.001	348.25
316.23	362.25
316.46	335.25
316.689	341.25
316.919	339.25
317.148	354.25
317.377	355.25
317.607	342.25
317.836	336.25
318.065	351.25
318.295	339.25
318.524	349.25
318.753	324.25
318.983	347.25
319.212	333.25
319.441	362.25
319.67	349.25
319.9	339.25
320.129	332.25
320.358	337.25
320.587	351.25
320.816	350.25
321.046	327.25
321.275	356.25
321.504	338.25
321.733	361.25
321.962	360.25
322.191	359.25
322.42	357.25
322.649	379.25
322.878	377.25
323.108	379.25
323.337	381.25
323.566	408.25
323.795	411.25
324.024	432.25
324.253	498.25
324.482	616.25
324.71	896.25
324.939	1231.25
325.168	1085.25
325.397	620.25
325.626	485.25
325.855	431.25
326.084	406.25
326.313	396.25
326.542	407.25
326.77	434.25
326.999	470.25
327.228	597.25
327.457	835.25
327.686	969.25
327.914	716.25
328.143	517.25
328.372	476.25
328.6	428.25
328.829	440.25
329.058	436.25
329.287	437.25
329.515	443.25
329.744	426.25
329.972	408.25
330.201	428.25
330.43	410.25
330.658	425.25
330.887	436.25
331.115	446.25
331.344	423.25
331.572	408.25
331.801	440.25
332.03	430.25
332.258	411.25
332.486	421.25
332.715	420.25
332.943	414.25
333.172	424.25
333.4	435.25
333.629	448.25
333.857	461.25
334.085	451.25
334.314	456.25
334.542	456.25
334.771	472.25
334.999	439.25
335.227	440.25
335.455	443.25
335.684	423.25
335.912	409.25
336.14	413.25
336.369	421.25
336.597	421.25
336.825	425.25
337.053	404.25
337.281	418.25
337.51	409.25
337.738	408.25
337.966	388.25
338.194	390.25
338.422	414.25
338.65	407.25
338.878	379.25
339.106	370.25
339.334	390.25
339.562	407.25
339.79	392.25
340.018	374.25
340.246	381.25
340.474	374.25
340.702	378.25
340.93	395.25
341.158	374.25
341.386	388.25
341.614	376.25
341.842	379.25
342.07	372.25
342.298	376.25
342.526	370.25
342.754	364.25
342.981	368.25
343.209	381.25
343.437	394.25
343.665	398.25
343.893	421.25
344.12	447.25
344.348	432.25
344.576	410.25
344.804	393.25
345.031	400.25
345.259	406.25
345.487	375.25
345.714	368.25
345.942	386.25
346.17	358.25
346.397	365.25
346.625	372.25
346.853	366.25
347.08	378.25
347.308	373.25
347.535	376.25
347.763	399.25
347.99	394.25
348.218	365.25
348.445	391.25
348.673	350.25
348.9	377.25
349.128	362.25
349.355	344.25
349.583	359.25
349.81	361.25
350.037	351.25
350.265	363.25
350.492	359.25
350.72	352.25
350.947	356.25
351.174	364.25
351.402	355.25
351.629	364.25
351.856	358.25
352.083	348.25
352.311	355.25
352.538	353.25
352.765	358.25
352.992	358.25
353.22	370.25
353.447	351.25
353.674	358.25
353.901	347.25
354.128	347.25
354.355	339.25
354.583	340.25
354.81	344.25
355.037	357.25
355.264	345.25
355.491	344.25
355.718	364.25
355.945	375.25
356.172	336.25
356.399	350.25
356.626	333.25
356.853	345.25
357.08	343.25
357.307	348.25
357.534	346.25
357.761	350.25
357.988	326.25
358.215	352.25
358.441	344.25
358.668	350.25
358.895	342.25
359.122	358.25
359.349	353.25
359.576	373.25
359.802	378.25
360.029	354.25
360.256	388.25
360.483	374.25
360.709	382.25
360.936	334.25
361.163	355.25
361.39	351.25
361.616	356.25
361.843	352.25
362.07	368.25
362.296	352.25
362.523	362.25
362.749	351.25
362.976	364.25
363.203	350.25
363.429	331.25
363.656	346.25
363.882	336.25
364.109	344.25
364.335	361.25
364.562	354.25
364.788	335.25
365.015	354.25
365.241	353.25
365.468	352.25
365.694	330.25
365.92	339.25
366.147	346.25
366.373	363.25
366.599	343.25
366.826	335.25
367.052	354.25
367.278	375.25
367.505	354.25
367.731	354.25
367.957	358.25
368.184	346.25
368.41	345.25
368.636	371.25
368.862	375.25
369.089	333.25
369.315	342.25
369.541	354.25
369.767	343.25
369.993	330.25
370.219	348.25
370.445	358.25
370.672	359.25
370.898	353.25
371.124	365.25
371.35	355.25
371.576	350.25
371.802	346.25
372.028	355.25
372.254	347.25
372.48	353.25
372.706	363.25
372.932	362.25
373.158	354.25
373.384	371.25
373.61	372.25
373.835	374.25
374.061	350.25
374.287	364.25
374.513	371.25
374.739	372.25
374.965	377.25
375.191	379.25
375.416	390.25
375.642	359.25
375.868	382.25
376.094	365.25
376.319	342.25
376.545	371.25
376.771	351.25
376.997	351.25
377.222	354.25
377.448	358.25
377.674	358.25
377.899	335.25
378.125	354.25
378.35	360.25
378.576	361.25
378.802	359.25
379.027	363.25
379.253	343.25
379.478	335.25
379.704	346.25
379.929	346.25
380.155	344.25
380.38	351.25
380.606	349.25
380.831	354.25
381.057	357.25
381.282	342.25
381.507	356.25
381.733	351.25
381.958	342.25
382.184	372.25
382.409	343.25
382.634	370.25
382.86	373.25
383.085	362.25
383.31	363.25
383.535	384.25
383.761	374.25
383.986	379.25
384.211	379.25
384.436	372.25
384.662	383.25
384.887	390.25
385.112	414.25
385.337	398.25
385.562	410.25
385.787	416.25
386.013	405.25
386.238	391.25
386.463	409.25
386.688	404.25
386.913	385.25
387.138	398.25
387.363	401.25
387.588	402.25
387.813	414.25
388.038	413.25
388.263	395.25
388.488	384.25
388.713	415.25
388.938	413.25
389.163	397.25
389.387	407.25
389.612	392.25
389.837	390.25
390.062	403.25
390.287	399.25
390.512	383.25
390.736	405.25
390.961	418.25
391.186	412.25
391.411	413.25
391.636	414.25
391.86	430.25
392.085	435.25
392.31	432.25
392.534	436.25
392.759	404.25
392.984	401.25
393.208	400.25
393.433	416.25
393.658	392.25
393.882	418.25
394.107	399.25
394.331	406.25
394.556	422.25
394.78	414.25
395.005	424.25
395.229	431.25
395.454	435.25
395.678	437.25
395.903	439.25
396.127	459.25
396.352	436.25
396.576	423.25
396.801	410.25
397.025	418.25
397.249	425.25
397.474	439.25
397.698	462.25
397.922	440.25
398.147	455.25
398.371	450.25
398.595	455.25
398.82	460.25
399.044	518.25
399.268	547.25
399.492	568.25
399.717	610.25
399.941	647.25
400.165	623.25
400.389	576.25
400.613	545.25
400.837	492.25
401.062	455.25
401.286	462.25
401.51	488.25
401.734	468.25
401.958	456.25
402.182	465.25
402.406	492.25
402.63	479.25
402.854	485.25
403.078	513.25
403.302	505.25
403.526	500.25
403.75	503.25
403.974	508.25
404.198	502.25
404.422	517.25
404.645	508.25
404.869	527.25
405.093	505.25
405.317	525.25
405.541	544.25
405.765	543.25
405.988	504.25
406.212	508.25
406.436	530.25
406.66	540.25
406.883	539.25
407.107	536.25
407.331	614.25
407.555	627.25
407.778	619.25
408.002	602.25
408.226	559.25
408.449	541.25
408.673	529.25
408.896	534.25
409.12	552.25
409.344	568.25
409.567	500.25
409.791	502.25
410.014	479.25
410.238	476.25
410.461	505.25
410.685	488.25
410.908	502.25
411.132	511.25
411.355	532.25
411.578	516.25
411.802	492.25
412.025	476.25
412.249	467.25
412.472	475.25
412.695	476.25
412.919	489.25
413.142	461.25
413.365	457.25
413.589	482.25
413.812	465.25
414.035	443.25
414.258	473.25
414.482	449.25
414.705	479.25
414.928	477.25
415.151	483.25
415.374	429.25
415.597	461.25
415.821	443.25
416.044	452.25
416.267	462.25
416.49	455.25
416.713	450.25
416.936	444.25
417.159	448.25
417.382	449.25
417.605	448.25
417.828	467.25
418.051	469.25
418.274	450.25
418.497	464.25
418.72	473.25
418.943	474.25
419.166	496.25
419.389	495.25
419.611	492.25
419.834	482.25
420.057	467.25
420.28	480.25
420.503	464.25
420.726	442.25
420.948	473.25
421.171	474.25
421.394	485.25
421.617	490.25
421.839	463.25
422.062	453.25
422.285	457.25
422.507	498.25
422.73	552.25
422.953	546.25
423.175	511.25
423.398	510.25
423.621	513.25
423.843	512.25
424.066	512.25
424.288	495.25
424.511	500.25
424.733	540.25
424.956	559.25
425.178	540.25
425.401	570.25
425.623	572.25
425.846	520.25
426.068	469.25
426.291	504.25
426.513	482.25
426.735	482.25
426.958	495.25
427.18	547.25
427.402	595.25
427.625	634.25
427.847	585.25
428.069	503.25
428.292	470.25
428.514	453.25
428.736	442.25
428.958	450.25
429.181	423.25
429.403	442.25
429.625	427.25
429.847	463.25
430.069	483.25
430.292	471.25
430.514	415.25
430.736	449.25
430.958	438.25
431.18	415.25
431.402	444.25
431.624	432.25
431.846	432.25
432.068	412.25
432.29	424.25
432.512	421.25
432.734	435.25
432.956	438.25
433.178	437.25
433.4	452.25
433.622	435.25
433.844	419.25
434.066	442.25
434.287	424.25
434.509	453.25
434.731	459.25
434.953	447.25
435.175	489.25
435.397	475.25
435.618	462.25
435.84	490.25
436.062	531.25
436.284	564.25
436.505	500.25
436.727	436.25
436.949	442.25
437.17	434.25
437.392	431.25
437.614	463.25
437.835	467.25
438.057	495.25
438.278	533.25
438.5	554.25
438.721	591.25
438.943	579.25
439.165	459.25
439.386	454.25
439.608	468.25
439.829	432.25
440.05	484.25
440.272	483.25
440.493	497.25
440.715	453.25
440.936	454.25
441.158	443.25
441.379	463.25
441.6	475.25
441.822	499.25
442.043	486.25
442.264	545.25
442.486	572.25
442.707	521.25
442.928	483.25
443.149	485.25
443.371	489.25
443.592	487.25
443.813	564.25
444.034	598.25
444.255	551.25
444.476	524.25
444.698	509.25
444.919	538.25
445.14	655.25
445.361	572.25
445.582	527.25
445.803	516.25
446.024	569.25
446.245	588.25
446.466	518.25
446.687	467.25
446.908	460.25
447.129	455.25
447.35	432.25
447.571	424.25
447.792	419.25
448.013	424.25
448.234	419.25
448.455	465.25
448.675	492.25
448.896	587.25
449.117	490.25
449.338	458.25
449.559	546.25
449.779	579.25
450	505.25
450.221	437.25
450.442	404.25
450.662	406.25
450.883	406.25
451.104	398.25
451.324	395.25
451.545	383.25
451.766	401.25
451.986	384.25
452.207	375.25
452.428	370.25
452.648	400.25
452.869	400.25
453.089	388.25
453.31	393.25
453.53	388.25
453.751	381.25
453.971	408.25
454.192	391.25
454.412	383.25
454.633	358.25
454.853	364.25
455.073	386.25
455.294	386.25
455.514	434.25
455.734	414.25
455.955	381.25
456.175	386.25
456.395	386.25
456.616	373.25
456.836	370.25
457.056	348.25
457.276	358.25
457.497	397.25
457.717	380.25
457.937	371.25
458.157	397.25
458.377	387.25
458.598	394.25
458.818	436.25
459.038	457.25
459.258	453.25
459.478	429.25
459.698	424.25
459.918	444.25
460.138	432.25
460.358	447.25
460.578	457.25
460.798	462.25
461.018	477.25
461.238	469.25
461.458	460.25
461.678	461.25
461.898	473.25
462.118	484.25
462.338	485.25
462.558	475.25
462.777	487.25
462.997	522.25
463.217	546.25
463.437	556.25
463.657	548.25
463.876	507.25
464.096	525.25
464.316	517.25
464.536	511.25
464.755	512.25
464.975	489.25
465.195	480.25
465.414	510.25
465.634	469.25
465.854	448.25
466.073	418.25
466.293	408.25
466.512	405.25
466.732	408.25
466.951	410.25
467.171	394.25
467.391	418.25
467.61	404.25
467.829	414.25
468.049	397.25
468.268	396.25
468.488	398.25
468.707	390.25
468.927	392.25
469.146	405.25
469.365	395.25
469.585	410.25
469.804	408.25
470.023	422.25
470.243	413.25
470.462	402.25
470.681	434.25
470.901	427.25
471.12	411.25
471.339	397.25
471.558	417.25
471.777	411.25
471.997	398.25
472.216	392.25
472.435	389.25
472.654	382.25
472.873	408.25
473.092	396.25
473.311	416.25
473.53	404.25
473.749	405.25
473.968	426.25
474.187	475.25
474.406	465.25
474.625	399.25
474.844	396.25
475.063	396.25
475.282	403.25
475.501	410.25
475.72	402.25
475.939	415.25
476.158	407.25
476.377	408.25
476.596	388.25
476.814	418.25
477.033	413.25
477.252	427.25
477.471	438.25
477.69	424.25
477.908	437.25
478.127	443.25
478.346	467.25
478.564	457.25
478.783	444.25
479.002	462.25
479.22	466.25
479.439	483.25
479.658	480.25
479.876	502.25
480.095	467.25
480.313	525.25
480.532	507.25
480.751	511.25
480.969	483.25
481.188	490.25
481.406	502.25
481.624	470.25
481.843	472.25
482.061	452.25
482.28	439.25
482.498	458.25
482.717	453.25
482.935	454.25
483.153	454.25
483.372	461.25
483.59	449.25
483.808	480.25
484.027	458.25
484.245	437.25
484.463	459.25
484.681	452.25
484.9	482.25
485.118	464.25
485.336	462.25
485.554	476.25
485.772	463.25
485.99	463.25
486.209	486.25
486.427	478.25
486.645	487.25
486.863	473.25
487.081	485.25
487.299	483.25
487.517	478.25
487.735	476.25
487.953	472.25
488.171	489.25
488.389	498.25
488.607	485.25
488.825	474.25
489.043	479.25
489.261	471.25
489.479	464.25
489.696	448.25
489.914	481.25
490.132	488.25
490.35	474.25
490.568	476.25
490.786	470.25
491.003	490.25
491.221	519.25
491.439	502.25
491.657	490.25
491.874	512.25
492.092	518.25
492.31	522.25
492.527	541.25
492.745	504.25
492.963	541.25
493.18	514.25
493.398	536.25
493.615	549.25
493.833	544.25
494.05	553.25
494.268	526.25
494.485	525.25
494.703	539.25
494.92	544.25
495.138	543.25
495.355	562.25
495.573	535.25
495.79	529.25
496.008	560.25
496.225	551.25
496.442	546.25
496.66	556.25
496.877	571.25
497.094	572.25
497.312	563.25
497.529	591.25
497.746	574.25
497.963	609.25
498.181	628.25
498.398	621.25
498.615	672.25
498.832	657.25
499.049	687.25
499.267	740.25
499.484	771.25
499.701	815.25
499.918	883.25
500.135	980.25
500.352	1040.25
500.569	1083.25
500.786	1080.25
501.003	1035.25
501.22	953.25
501.437	911.25
501.654	853.25
501.871	788.25
502.088	761.25
