Data from 1984.PennyLincolnUp.Lamp.En5.5.200Scan.071819.P1_HRD10591_16-57-52-968.txt Node
Date: Thu Jul 18 16:57:52 EDT 2019
User: cochatt
Spectrometer: HR+D1059
Trigger mode: 1
Integration Time (sec): 1.000000E-1
Scans to average: 1
Electric dark correction enabled: true
Nonlinearity correction enabled: false
Boxcar width: 0
XAxis mode: Wavelengths
Number of Pixels in Spectrum: 2048
>>>>>Begin Spectral Data<<<<<
223.165	-11.62
223.4	-11.62
223.635	-11.62
223.869	-20.62
224.104	-23.62
224.338	-23.62
224.573	-26.62
224.808	-10.62
225.042	-9.62
225.277	-3.62
225.511	-1.62
225.746	1.38
225.98	8.38
226.215	19.38
226.449	23.38
226.683	13.38
226.918	28.38
227.152	37.38
227.387	33.38
227.621	24.38
227.856	28.38
228.09	47.38
228.324	48.38
228.559	38.38
228.793	70.38
229.027	91.38
229.262	83.38
229.496	92.38
229.73	100.38
229.964	115.38
230.199	104.38
230.433	93.38
230.667	90.38
230.901	113.38
231.136	115.38
231.37	121.38
231.604	118.38
231.838	102.38
232.072	114.38
232.306	91.38
232.541	104.38
232.775	104.38
233.009	113.38
233.243	127.38
233.477	124.38
233.711	111.38
233.945	99.38
234.179	104.38
234.413	98.38
234.647	105.38
234.881	108.38
235.115	117.38
235.349	108.38
235.583	119.38
235.817	103.38
236.051	108.38
236.285	109.38
236.519	114.38
236.753	116.38
236.987	115.38
237.221	139.38
237.455	167.38
237.689	141.38
237.922	116.38
238.156	99.38
238.39	123.38
238.624	114.38
238.858	113.38
239.091	125.38
239.325	127.38
239.559	116.38
239.793	108.38
240.027	125.38
240.26	129.38
240.494	126.38
240.728	139.38
240.961	124.38
241.195	127.38
241.429	121.38
241.662	121.38
241.896	135.38
242.13	128.38
242.363	133.38
242.597	122.38
242.83	137.38
243.064	120.38
243.298	137.38
243.531	134.38
243.765	134.38
243.998	135.38
244.232	131.38
244.465	114.38
244.699	135.38
244.932	144.38
245.166	131.38
245.399	139.38
245.633	139.38
245.866	132.38
246.099	137.38
246.333	142.38
246.566	133.38
246.8	133.38
247.033	133.38
247.266	142.38
247.5	151.38
247.733	153.38
247.966	148.38
248.2	167.38
248.433	164.38
248.666	152.38
248.899	171.38
249.133	181.38
249.366	167.38
249.599	168.38
249.832	147.38
250.066	149.38
250.299	153.38
250.532	157.38
250.765	167.38
250.998	189.38
251.231	184.38
251.465	175.38
251.698	178.38
251.931	171.38
252.164	179.38
252.397	177.38
252.63	176.38
252.863	175.38
253.096	181.38
253.329	196.38
253.562	193.38
253.795	201.38
254.028	167.38
254.261	183.38
254.494	183.38
254.727	205.38
254.96	205.38
255.193	207.38
255.426	203.38
255.659	188.38
255.892	185.38
256.124	194.38
256.357	202.38
256.59	175.38
256.823	187.38
257.056	192.38
257.289	171.38
257.521	185.38
257.754	194.38
257.987	196.38
258.22	182.38
258.452	183.38
258.685	194.38
258.918	192.38
259.151	185.38
259.383	213.38
259.616	193.38
259.849	203.38
260.081	204.38
260.314	202.38
260.547	204.38
260.779	206.38
261.012	203.38
261.244	198.38
261.477	209.38
261.71	185.38
261.942	187.38
262.175	203.38
262.407	192.38
262.64	202.38
262.872	197.38
263.105	188.38
263.337	185.38
263.57	194.38
263.802	187.38
264.035	189.38
264.267	197.38
264.499	182.38
264.732	193.38
264.964	197.38
265.197	196.38
265.429	193.38
265.661	209.38
265.894	218.38
266.126	196.38
266.358	198.38
266.591	213.38
266.823	197.38
267.055	195.38
267.287	210.38
267.52	204.38
267.752	212.38
267.984	202.38
268.216	211.38
268.448	203.38
268.681	208.38
268.913	225.38
269.145	207.38
269.377	238.38
269.609	223.38
269.841	227.38
270.073	226.38
270.306	246.38
270.538	259.38
270.77	255.38
271.002	265.38
271.234	237.38
271.466	255.38
271.698	259.38
271.93	266.38
272.162	256.38
272.394	252.38
272.626	254.38
272.858	246.38
273.09	239.38
273.322	240.38
273.553	229.38
273.785	216.38
274.017	239.38
274.249	235.38
274.481	241.38
274.713	229.38
274.945	251.38
275.176	253.38
275.408	231.38
275.64	222.38
275.872	231.38
276.104	245.38
276.335	242.38
276.567	238.38
276.799	260.38
277.031	264.38
277.262	281.38
277.494	267.38
277.726	256.38
277.957	249.38
278.189	252.38
278.421	240.38
278.652	232.38
278.884	235.38
279.115	243.38
279.347	229.38
279.579	244.38
279.81	252.38
280.042	260.38
280.273	248.38
280.505	254.38
280.736	252.38
280.968	242.38
281.199	246.38
281.431	247.38
281.662	234.38
281.894	254.38
282.125	260.38
282.356	260.38
282.588	290.38
282.819	271.38
283.051	257.38
283.282	261.38
283.513	256.38
283.745	252.38
283.976	269.38
284.207	273.38
284.439	248.38
284.67	265.38
284.901	255.38
285.132	246.38
285.364	249.38
285.595	253.38
285.826	268.38
286.057	269.38
286.288	264.38
286.52	260.38
286.751	265.38
286.982	269.38
287.213	263.38
287.444	288.38
287.675	259.38
287.906	286.38
288.138	276.38
288.369	272.38
288.6	260.38
288.831	276.38
289.062	280.38
289.293	281.38
289.524	283.38
289.755	269.38
289.986	279.38
290.217	271.38
290.448	283.38
290.679	268.38
290.91	263.38
291.141	281.38
291.371	293.38
291.602	277.38
291.833	259.38
292.064	298.38
292.295	279.38
292.526	290.38
292.757	274.38
292.987	285.38
293.218	272.38
293.449	273.38
293.68	284.38
293.91	284.38
294.141	273.38
294.372	284.38
294.603	300.38
294.833	293.38
295.064	275.38
295.295	284.38
295.525	283.38
295.756	277.38
295.987	303.38
296.217	296.38
296.448	311.38
296.679	283.38
296.909	289.38
297.14	279.38
297.37	295.38
297.601	294.38
297.831	293.38
298.062	304.38
298.292	296.38
298.523	292.38
298.753	306.38
298.984	296.38
299.214	300.38
299.445	315.38
299.675	299.38
299.905	292.38
300.136	293.38
300.366	290.38
300.597	298.38
300.827	303.38
301.057	315.38
301.288	307.38
301.518	306.38
301.748	315.38
301.979	313.38
302.209	334.38
302.439	311.38
302.669	312.38
302.9	327.38
303.13	321.38
303.36	323.38
303.59	335.38
303.82	296.38
304.051	322.38
304.281	303.38
304.511	324.38
304.741	308.38
304.971	291.38
305.201	306.38
305.431	304.38
305.661	297.38
305.891	308.38
306.121	324.38
306.352	305.38
306.582	318.38
306.812	320.38
307.042	319.38
307.272	316.38
307.502	295.38
307.731	308.38
307.961	315.38
308.191	323.38
308.421	318.38
308.651	324.38
308.881	349.38
309.111	301.38
309.341	319.38
309.571	319.38
309.8	321.38
310.03	337.38
310.26	357.38
310.49	327.38
310.72	319.38
310.949	333.38
311.179	345.38
311.409	342.38
311.639	335.38
311.868	328.38
312.098	332.38
312.328	333.38
312.557	356.38
312.787	343.38
313.017	352.38
313.246	335.38
313.476	340.38
313.706	337.38
313.935	349.38
314.165	340.38
314.394	354.38
314.624	329.38
314.853	348.38
315.083	338.38
315.312	353.38
315.542	348.38
315.771	353.38
316.001	343.38
316.23	348.38
316.46	347.38
316.689	342.38
316.919	347.38
317.148	328.38
317.377	348.38
317.607	333.38
317.836	339.38
318.065	351.38
318.295	336.38
318.524	344.38
318.753	336.38
318.983	348.38
319.212	348.38
319.441	351.38
319.67	357.38
319.9	357.38
320.129	352.38
320.358	332.38
320.587	354.38
320.816	360.38
321.046	336.38
321.275	333.38
321.504	361.38
321.733	349.38
321.962	366.38
322.191	355.38
322.42	371.38
322.649	386.38
322.878	384.38
323.108	381.38
323.337	401.38
323.566	395.38
323.795	392.38
324.024	424.38
324.253	471.38
324.482	611.38
324.71	933.38
324.939	1250.38
325.168	1097.38
325.397	646.38
325.626	484.38
325.855	463.38
326.084	424.38
326.313	399.38
326.542	406.38
326.77	439.38
326.999	495.38
327.228	641.38
327.457	860.38
327.686	964.38
327.914	705.38
328.143	520.38
328.372	471.38
328.6	445.38
328.829	425.38
329.058	441.38
329.287	442.38
329.515	419.38
329.744	412.38
329.972	417.38
330.201	426.38
330.43	428.38
330.658	444.38
330.887	452.38
331.115	478.38
331.344	426.38
331.572	408.38
331.801	411.38
332.03	443.38
332.258	397.38
332.486	401.38
332.715	415.38
332.943	421.38
333.172	440.38
333.4	439.38
333.629	451.38
333.857	465.38
334.085	462.38
334.314	470.38
334.542	478.38
334.771	496.38
334.999	437.38
335.227	441.38
335.455	438.38
335.684	445.38
335.912	411.38
336.14	411.38
336.369	423.38
336.597	432.38
336.825	435.38
337.053	416.38
337.281	398.38
337.51	401.38
337.738	408.38
337.966	398.38
338.194	426.38
338.422	395.38
338.65	376.38
338.878	370.38
339.106	369.38
339.334	372.38
339.562	373.38
339.79	368.38
340.018	371.38
340.246	375.38
340.474	374.38
340.702	387.38
340.93	406.38
341.158	383.38
341.386	371.38
341.614	367.38
341.842	370.38
342.07	375.38
342.298	390.38
342.526	387.38
342.754	374.38
342.981	387.38
343.209	376.38
343.437	405.38
343.665	412.38
343.893	426.38
344.12	429.38
344.348	415.38
344.576	426.38
344.804	401.38
345.031	389.38
345.259	384.38
345.487	383.38
345.714	395.38
345.942	376.38
346.17	385.38
346.397	367.38
346.625	369.38
346.853	380.38
347.08	360.38
347.308	374.38
347.535	366.38
347.763	376.38
347.99	374.38
348.218	375.38
348.445	365.38
348.673	369.38
348.9	351.38
349.128	372.38
349.355	355.38
349.583	373.38
349.81	367.38
350.037	347.38
350.265	348.38
350.492	347.38
350.72	368.38
350.947	355.38
351.174	347.38
351.402	375.38
351.629	367.38
351.856	351.38
352.083	350.38
352.311	364.38
352.538	347.38
352.765	366.38
352.992	357.38
353.22	360.38
353.447	343.38
353.674	348.38
353.901	357.38
354.128	348.38
354.355	354.38
354.583	369.38
354.81	343.38
355.037	332.38
355.264	347.38
355.491	343.38
355.718	332.38
355.945	340.38
356.172	353.38
356.399	349.38
356.626	345.38
356.853	335.38
357.08	339.38
357.307	353.38
357.534	344.38
357.761	337.38
357.988	328.38
358.215	349.38
358.441	332.38
358.668	351.38
358.895	355.38
359.122	371.38
359.349	373.38
359.576	344.38
359.802	367.38
360.029	363.38
360.256	379.38
360.483	386.38
360.709	376.38
360.936	380.38
361.163	357.38
361.39	354.38
361.616	356.38
361.843	352.38
362.07	361.38
362.296	352.38
362.523	353.38
362.749	348.38
362.976	336.38
363.203	355.38
363.429	347.38
363.656	364.38
363.882	344.38
364.109	360.38
364.335	350.38
364.562	349.38
364.788	346.38
365.015	340.38
365.241	353.38
365.468	348.38
365.694	328.38
365.92	341.38
366.147	358.38
366.373	346.38
366.599	353.38
366.826	344.38
367.052	357.38
367.278	334.38
367.505	336.38
367.731	346.38
367.957	354.38
368.184	338.38
368.41	341.38
368.636	350.38
368.862	358.38
369.089	362.38
369.315	343.38
369.541	347.38
369.767	371.38
369.993	343.38
370.219	345.38
370.445	340.38
370.672	338.38
370.898	368.38
371.124	359.38
371.35	350.38
371.576	349.38
371.802	351.38
372.028	340.38
372.254	364.38
372.48	354.38
372.706	339.38
372.932	371.38
373.158	361.38
373.384	349.38
373.61	349.38
373.835	371.38
374.061	353.38
374.287	374.38
374.513	361.38
374.739	371.38
374.965	375.38
375.191	373.38
375.416	376.38
375.642	356.38
375.868	369.38
376.094	369.38
376.319	356.38
376.545	369.38
376.771	362.38
376.997	351.38
377.222	364.38
377.448	346.38
377.674	343.38
377.899	346.38
378.125	348.38
378.35	358.38
378.576	341.38
378.802	337.38
379.027	347.38
379.253	358.38
379.478	347.38
379.704	345.38
379.929	357.38
380.155	360.38
380.38	343.38
380.606	349.38
380.831	355.38
381.057	363.38
381.282	348.38
381.507	336.38
381.733	347.38
381.958	354.38
382.184	356.38
382.409	351.38
382.634	356.38
382.86	345.38
383.085	374.38
383.31	381.38
383.535	383.38
383.761	370.38
383.986	377.38
384.211	392.38
384.436	375.38
384.662	397.38
384.887	380.38
385.112	388.38
385.337	406.38
385.562	393.38
385.787	415.38
386.013	396.38
386.238	411.38
386.463	407.38
386.688	386.38
386.913	404.38
387.138	385.38
387.363	399.38
387.588	391.38
387.813	407.38
388.038	390.38
388.263	393.38
388.488	398.38
388.713	387.38
388.938	394.38
389.163	380.38
389.387	404.38
389.612	398.38
389.837	385.38
390.062	409.38
390.287	381.38
390.512	378.38
390.736	408.38
390.961	405.38
391.186	389.38
391.411	396.38
391.636	387.38
391.86	419.38
392.085	419.38
392.31	424.38
392.534	409.38
392.759	401.38
392.984	410.38
393.208	393.38
393.433	397.38
393.658	394.38
393.882	401.38
394.107	407.38
394.331	405.38
394.556	415.38
394.78	403.38
395.005	409.38
395.229	402.38
395.454	406.38
395.678	439.38
395.903	404.38
396.127	434.38
396.352	436.38
396.576	429.38
396.801	419.38
397.025	408.38
397.249	426.38
397.474	443.38
397.698	446.38
397.922	439.38
398.147	436.38
398.371	447.38
398.595	457.38
398.82	475.38
399.044	482.38
399.268	501.38
399.492	572.38
399.717	641.38
399.941	593.38
400.165	617.38
400.389	578.38
400.613	541.38
400.837	487.38
401.062	471.38
401.286	461.38
401.51	474.38
401.734	466.38
401.958	477.38
402.182	489.38
402.406	486.38
402.63	473.38
402.854	485.38
403.078	513.38
403.302	507.38
403.526	488.38
403.75	487.38
403.974	511.38
404.198	534.38
404.422	531.38
404.645	538.38
404.869	516.38
405.093	512.38
405.317	548.38
405.541	552.38
405.765	502.38
405.988	503.38
406.212	523.38
406.436	513.38
406.66	521.38
406.883	532.38
407.107	558.38
407.331	591.38
407.555	610.38
407.778	625.38
408.002	573.38
408.226	539.38
408.449	533.38
408.673	513.38
408.896	555.38
409.12	548.38
409.344	569.38
409.567	487.38
409.791	515.38
410.014	490.38
410.238	495.38
410.461	482.38
410.685	488.38
410.908	500.38
411.132	509.38
411.355	516.38
411.578	497.38
411.802	484.38
412.025	503.38
412.249	497.38
412.472	494.38
412.695	513.38
412.919	504.38
413.142	463.38
413.365	466.38
413.589	465.38
413.812	480.38
414.035	463.38
414.258	456.38
414.482	457.38
414.705	462.38
414.928	472.38
415.151	469.38
415.374	464.38
415.597	467.38
415.821	447.38
416.044	446.38
416.267	445.38
416.49	447.38
416.713	442.38
416.936	445.38
417.159	460.38
417.382	455.38
417.605	466.38
417.828	447.38
418.051	481.38
418.274	460.38
418.497	446.38
418.72	464.38
418.943	470.38
419.166	468.38
419.389	513.38
419.611	514.38
419.834	500.38
420.057	477.38
420.28	467.38
420.503	475.38
420.726	453.38
420.948	473.38
421.171	494.38
421.394	515.38
421.617	478.38
421.839	452.38
422.062	478.38
422.285	475.38
422.507	480.38
422.73	525.38
422.953	513.38
423.175	510.38
423.398	485.38
423.621	497.38
423.843	499.38
424.066	519.38
424.288	487.38
424.511	517.38
424.733	524.38
424.956	575.38
425.178	559.38
425.401	554.38
425.623	577.38
425.846	477.38
426.068	481.38
426.291	486.38
426.513	492.38
426.735	484.38
426.958	491.38
427.18	531.38
427.402	618.38
427.625	669.38
427.847	569.38
428.069	518.38
428.292	487.38
428.514	443.38
428.736	439.38
428.958	435.38
429.181	423.38
429.403	428.38
429.625	458.38
429.847	458.38
430.069	492.38
430.292	498.38
430.514	444.38
430.736	441.38
430.958	433.38
431.18	426.38
431.402	418.38
431.624	426.38
431.846	414.38
432.068	413.38
432.29	435.38
432.512	433.38
432.734	420.38
432.956	429.38
433.178	424.38
433.4	435.38
433.622	431.38
433.844	447.38
434.066	424.38
434.287	426.38
434.509	440.38
434.731	454.38
434.953	474.38
435.175	453.38
435.397	468.38
435.618	468.38
435.84	479.38
436.062	545.38
436.284	585.38
436.505	495.38
436.727	469.38
436.949	458.38
437.17	434.38
437.392	430.38
437.614	434.38
437.835	458.38
438.057	497.38
438.278	542.38
438.5	549.38
438.721	608.38
438.943	575.38
439.165	499.38
439.386	483.38
439.608	448.38
439.829	440.38
440.05	469.38
440.272	513.38
440.493	477.38
440.715	447.38
440.936	432.38
441.158	453.38
441.379	457.38
441.6	470.38
441.822	481.38
442.043	511.38
442.264	513.38
442.486	561.38
442.707	508.38
442.928	486.38
443.149	487.38
443.371	503.38
443.592	511.38
443.813	564.38
444.034	605.38
444.255	553.38
444.476	496.38
444.698	525.38
444.919	517.38
445.14	664.38
445.361	561.38
445.582	519.38
445.803	517.38
446.024	564.38
446.245	553.38
446.466	531.38
446.687	471.38
446.908	450.38
447.129	448.38
447.35	425.38
447.571	410.38
447.792	420.38
448.013	427.38
448.234	428.38
448.455	443.38
448.675	505.38
448.896	591.38
449.117	504.38
449.338	488.38
449.559	550.38
449.779	603.38
450	491.38
450.221	448.38
450.442	434.38
450.662	423.38
450.883	410.38
451.104	415.38
451.324	421.38
451.545	406.38
451.766	405.38
451.986	391.38
452.207	393.38
452.428	377.38
452.648	385.38
452.869	389.38
453.089	374.38
453.31	385.38
453.53	396.38
453.751	389.38
453.971	383.38
454.192	397.38
454.412	385.38
454.633	381.38
454.853	375.38
455.073	365.38
455.294	403.38
455.514	411.38
455.734	391.38
455.955	374.38
456.175	380.38
456.395	371.38
456.616	375.38
456.836	363.38
457.056	380.38
457.276	362.38
457.497	352.38
457.717	345.38
457.937	358.38
458.157	357.38
458.377	389.38
458.598	391.38
458.818	417.38
459.038	482.38
459.258	466.38
459.478	450.38
459.698	444.38
459.918	419.38
460.138	425.38
460.358	454.38
460.578	452.38
460.798	441.38
461.018	479.38
461.238	466.38
461.458	484.38
461.678	446.38
461.898	444.38
462.118	432.38
462.338	460.38
462.558	490.38
462.777	487.38
462.997	513.38
463.217	546.38
463.437	530.38
463.657	532.38
463.876	505.38
464.096	503.38
464.316	496.38
464.536	517.38
464.755	510.38
464.975	497.38
465.195	511.38
465.414	517.38
465.634	455.38
465.854	434.38
466.073	433.38
466.293	433.38
466.512	435.38
466.732	425.38
466.951	419.38
467.171	400.38
467.391	410.38
467.61	408.38
467.829	413.38
468.049	402.38
468.268	392.38
468.488	401.38
468.707	397.38
468.927	399.38
469.146	383.38
469.365	392.38
469.585	409.38
469.804	410.38
470.023	432.38
470.243	419.38
470.462	433.38
470.681	420.38
470.901	405.38
471.12	407.38
471.339	398.38
471.558	408.38
471.777	403.38
471.997	393.38
472.216	378.38
472.435	404.38
472.654	411.38
472.873	400.38
473.092	363.38
473.311	389.38
473.53	385.38
473.749	401.38
473.968	419.38
474.187	448.38
474.406	483.38
474.625	418.38
474.844	409.38
475.063	380.38
475.282	407.38
475.501	391.38
475.72	405.38
475.939	396.38
476.158	421.38
476.377	407.38
476.596	398.38
476.814	403.38
477.033	405.38
477.252	431.38
477.471	420.38
477.69	438.38
477.908	451.38
478.127	458.38
478.346	434.38
478.564	429.38
478.783	460.38
479.002	457.38
479.22	462.38
479.439	455.38
479.658	466.38
479.876	476.38
480.095	485.38
480.313	523.38
480.532	528.38
480.751	523.38
480.969	517.38
481.188	517.38
481.406	505.38
481.624	496.38
481.843	448.38
482.061	452.38
482.28	465.38
482.498	460.38
482.717	446.38
482.935	452.38
483.153	435.38
483.372	445.38
483.59	432.38
483.808	455.38
484.027	465.38
484.245	480.38
484.463	441.38
484.681	462.38
484.9	471.38
485.118	453.38
485.336	469.38
485.554	474.38
485.772	481.38
485.99	441.38
486.209	474.38
486.427	465.38
486.645	475.38
486.863	477.38
487.081	478.38
487.299	500.38
487.517	484.38
487.735	482.38
487.953	480.38
488.171	481.38
488.389	483.38
488.607	505.38
488.825	479.38
489.043	466.38
489.261	500.38
489.479	485.38
489.696	491.38
489.914	467.38
490.132	507.38
490.35	471.38
490.568	487.38
490.786	490.38
491.003	504.38
491.221	507.38
491.439	506.38
491.657	520.38
491.874	513.38
492.092	517.38
492.31	535.38
492.527	525.38
492.745	519.38
492.963	526.38
493.18	548.38
493.398	540.38
493.615	529.38
493.833	524.38
494.05	538.38
494.268	553.38
494.485	553.38
494.703	554.38
494.92	532.38
495.138	541.38
495.355	555.38
495.573	525.38
495.79	523.38
496.008	555.38
496.225	557.38
496.442	543.38
496.66	555.38
496.877	529.38
497.094	562.38
497.312	577.38
497.529	585.38
497.746	602.38
497.963	612.38
498.181	632.38
498.398	641.38
498.615	674.38
498.832	693.38
499.049	699.38
499.267	722.38
499.484	789.38
499.701	843.38
499.918	900.38
500.135	1007.38
500.352	1053.38
500.569	1101.38
500.786	1063.38
501.003	1028.38
501.22	984.38
501.437	891.38
501.654	839.38
501.871	785.38
502.088	729.38
