Data from 1984.PennyLincolnUp.Lamp.En5.5.200Scan.071819.P1_HRD10591_16-57-46-968.txt Node
Date: Thu Jul 18 16:57:46 EDT 2019
User: cochatt
Spectrometer: HR+D1059
Trigger mode: 1
Integration Time (sec): 1.000000E-1
Scans to average: 1
Electric dark correction enabled: true
Nonlinearity correction enabled: false
Boxcar width: 0
XAxis mode: Wavelengths
Number of Pixels in Spectrum: 2048
>>>>>Begin Spectral Data<<<<<
223.165	-25.06
223.4	-25.06
223.635	-25.06
223.869	-28.06
224.104	-20.06
224.338	-4.06
224.573	-12.06
224.808	-7.06
225.042	5.94
225.277	-19.06
225.511	5.94
225.746	-0.06
225.98	0.94
226.215	5.94
226.449	7.94
226.683	25.94
226.918	22.94
227.152	39.94
227.387	40.94
227.621	31.94
227.856	42.94
228.09	54.94
228.324	46.94
228.559	65.94
228.793	64.94
229.027	76.94
229.262	84.94
229.496	92.94
229.73	99.94
229.964	115.94
230.199	114.94
230.433	103.94
230.667	99.94
230.901	105.94
231.136	105.94
231.37	106.94
231.604	105.94
231.838	99.94
232.072	107.94
232.306	95.94
232.541	97.94
232.775	106.94
233.009	121.94
233.243	111.94
233.477	124.94
233.711	100.94
233.945	115.94
234.179	121.94
234.413	106.94
234.647	122.94
234.881	90.94
235.115	105.94
235.349	105.94
235.583	111.94
235.817	95.94
236.051	108.94
236.285	117.94
236.519	115.94
236.753	119.94
236.987	127.94
237.221	135.94
237.455	154.94
237.689	137.94
237.922	112.94
238.156	108.94
238.39	114.94
238.624	126.94
238.858	124.94
239.091	115.94
239.325	111.94
239.559	115.94
239.793	129.94
240.027	123.94
240.26	118.94
240.494	132.94
240.728	127.94
240.961	123.94
241.195	128.94
241.429	127.94
241.662	126.94
241.896	111.94
242.13	121.94
242.363	114.94
242.597	113.94
242.83	130.94
243.064	129.94
243.298	125.94
243.531	113.94
243.765	118.94
243.998	119.94
244.232	131.94
244.465	127.94
244.699	134.94
244.932	112.94
245.166	140.94
245.399	132.94
245.633	133.94
245.866	141.94
246.099	145.94
246.333	136.94
246.566	149.94
246.8	139.94
247.033	122.94
247.266	149.94
247.5	159.94
247.733	151.94
247.966	148.94
248.2	167.94
248.433	151.94
248.666	147.94
248.899	160.94
249.133	159.94
249.366	168.94
249.599	159.94
249.832	155.94
250.066	153.94
250.299	151.94
250.532	154.94
250.765	169.94
250.998	186.94
251.231	181.94
251.465	173.94
251.698	169.94
251.931	152.94
252.164	160.94
252.397	164.94
252.63	170.94
252.863	165.94
253.096	176.94
253.329	191.94
253.562	194.94
253.795	179.94
254.028	175.94
254.261	170.94
254.494	181.94
254.727	206.94
254.96	209.94
255.193	225.94
255.426	200.94
255.659	189.94
255.892	189.94
256.124	188.94
256.357	187.94
256.59	186.94
256.823	189.94
257.056	177.94
257.289	190.94
257.521	195.94
257.754	188.94
257.987	185.94
258.22	199.94
258.452	178.94
258.685	175.94
258.918	178.94
259.151	186.94
259.383	192.94
259.616	200.94
259.849	199.94
260.081	204.94
260.314	209.94
260.547	197.94
260.779	201.94
261.012	219.94
261.244	206.94
261.477	202.94
261.71	210.94
261.942	189.94
262.175	203.94
262.407	191.94
262.64	204.94
262.872	196.94
263.105	182.94
263.337	191.94
263.57	196.94
263.802	179.94
264.035	190.94
264.267	202.94
264.499	180.94
264.732	196.94
264.964	191.94
265.197	212.94
265.429	186.94
265.661	198.94
265.894	211.94
266.126	195.94
266.358	188.94
266.591	207.94
266.823	205.94
267.055	207.94
267.287	203.94
267.52	217.94
267.752	204.94
267.984	205.94
268.216	203.94
268.448	216.94
268.681	207.94
268.913	212.94
269.145	214.94
269.377	233.94
269.609	239.94
269.841	221.94
270.073	218.94
270.306	257.94
270.538	258.94
270.77	255.94
271.002	240.94
271.234	238.94
271.466	258.94
271.698	249.94
271.93	248.94
272.162	248.94
272.394	251.94
272.626	262.94
272.858	261.94
273.09	231.94
273.322	250.94
273.553	231.94
273.785	235.94
274.017	226.94
274.249	241.94
274.481	234.94
274.713	252.94
274.945	218.94
275.176	228.94
275.408	225.94
275.64	231.94
275.872	226.94
276.104	232.94
276.335	236.94
276.567	237.94
276.799	233.94
277.031	260.94
277.262	255.94
277.494	259.94
277.726	264.94
277.957	253.94
278.189	251.94
278.421	241.94
278.652	256.94
278.884	262.94
279.115	235.94
279.347	265.94
279.579	235.94
279.81	251.94
280.042	265.94
280.273	262.94
280.505	269.94
280.736	265.94
280.968	240.94
281.199	254.94
281.431	253.94
281.662	265.94
281.894	251.94
282.125	257.94
282.356	259.94
282.588	292.94
282.819	269.94
283.051	255.94
283.282	251.94
283.513	273.94
283.745	273.94
283.976	254.94
284.207	257.94
284.439	258.94
284.67	260.94
284.901	281.94
285.132	271.94
285.364	249.94
285.595	260.94
285.826	254.94
286.057	270.94
286.288	266.94
286.52	252.94
286.751	272.94
286.982	271.94
287.213	251.94
287.444	270.94
287.675	272.94
287.906	274.94
288.138	276.94
288.369	288.94
288.6	282.94
288.831	276.94
289.062	267.94
289.293	273.94
289.524	288.94
289.755	285.94
289.986	281.94
290.217	258.94
290.448	265.94
290.679	283.94
290.91	257.94
291.141	249.94
291.371	257.94
291.602	279.94
291.833	291.94
292.064	276.94
292.295	269.94
292.526	295.94
292.757	277.94
292.987	278.94
293.218	275.94
293.449	274.94
293.68	272.94
293.91	285.94
294.141	291.94
294.372	269.94
294.603	274.94
294.833	268.94
295.064	295.94
295.295	283.94
295.525	276.94
295.756	283.94
295.987	266.94
296.217	278.94
296.448	300.94
296.679	289.94
296.909	276.94
297.14	298.94
297.37	290.94
297.601	282.94
297.831	288.94
298.062	293.94
298.292	294.94
298.523	301.94
298.753	299.94
298.984	288.94
299.214	287.94
299.445	290.94
299.675	308.94
299.905	302.94
300.136	298.94
300.366	291.94
300.597	315.94
300.827	298.94
301.057	295.94
301.288	318.94
301.518	310.94
301.748	304.94
301.979	326.94
302.209	315.94
302.439	311.94
302.669	290.94
302.9	299.94
303.13	308.94
303.36	324.94
303.59	311.94
303.82	298.94
304.051	327.94
304.281	308.94
304.511	303.94
304.741	321.94
304.971	329.94
305.201	318.94
305.431	317.94
305.661	315.94
305.891	304.94
306.121	302.94
306.352	304.94
306.582	320.94
306.812	307.94
307.042	316.94
307.272	313.94
307.502	313.94
307.731	316.94
307.961	308.94
308.191	302.94
308.421	314.94
308.651	320.94
308.881	315.94
309.111	315.94
309.341	306.94
309.571	323.94
309.8	325.94
310.03	321.94
310.26	320.94
310.49	341.94
310.72	342.94
310.949	323.94
311.179	341.94
311.409	324.94
311.639	346.94
311.868	330.94
312.098	336.94
312.328	326.94
312.557	327.94
312.787	353.94
313.017	352.94
313.246	361.94
313.476	332.94
313.706	351.94
313.935	353.94
314.165	350.94
314.394	348.94
314.624	373.94
314.853	340.94
315.083	330.94
315.312	332.94
315.542	328.94
315.771	353.94
316.001	333.94
316.23	345.94
316.46	337.94
316.689	333.94
316.919	338.94
317.148	335.94
317.377	347.94
317.607	336.94
317.836	323.94
318.065	313.94
318.295	331.94
318.524	341.94
318.753	331.94
318.983	320.94
319.212	357.94
319.441	335.94
319.67	356.94
319.9	352.94
320.129	338.94
320.358	322.94
320.587	342.94
320.816	348.94
321.046	357.94
321.275	364.94
321.504	346.94
321.733	348.94
321.962	343.94
322.191	345.94
322.42	375.94
322.649	369.94
322.878	358.94
323.108	381.94
323.337	378.94
323.566	410.94
323.795	419.94
324.024	425.94
324.253	504.94
324.482	632.94
324.71	898.94
324.939	1215.94
325.168	1073.94
325.397	628.94
325.626	472.94
325.855	437.94
326.084	408.94
326.313	411.94
326.542	427.94
326.77	452.94
326.999	475.94
327.228	592.94
327.457	845.94
327.686	967.94
327.914	713.94
328.143	518.94
328.372	448.94
328.6	422.94
328.829	413.94
329.058	420.94
329.287	416.94
329.515	436.94
329.744	412.94
329.972	386.94
330.201	423.94
330.43	414.94
330.658	435.94
330.887	445.94
331.115	436.94
331.344	416.94
331.572	401.94
331.801	419.94
332.03	420.94
332.258	405.94
332.486	397.94
332.715	411.94
332.943	428.94
333.172	445.94
333.4	451.94
333.629	445.94
333.857	461.94
334.085	437.94
334.314	458.94
334.542	447.94
334.771	449.94
334.999	437.94
335.227	424.94
335.455	438.94
335.684	434.94
335.912	434.94
336.14	435.94
336.369	392.94
336.597	409.94
336.825	410.94
337.053	403.94
337.281	405.94
337.51	397.94
337.738	409.94
337.966	394.94
338.194	392.94
338.422	397.94
338.65	407.94
338.878	388.94
339.106	363.94
339.334	398.94
339.562	387.94
339.79	380.94
340.018	385.94
340.246	370.94
340.474	378.94
340.702	405.94
340.93	389.94
341.158	387.94
341.386	384.94
341.614	382.94
341.842	394.94
342.07	390.94
342.298	369.94
342.526	372.94
342.754	374.94
342.981	367.94
343.209	380.94
343.437	375.94
343.665	407.94
343.893	423.94
344.12	436.94
344.348	397.94
344.576	405.94
344.804	390.94
345.031	392.94
345.259	415.94
345.487	370.94
345.714	379.94
345.942	367.94
346.17	365.94
346.397	360.94
346.625	362.94
346.853	371.94
347.08	377.94
347.308	380.94
347.535	365.94
347.763	357.94
347.99	357.94
348.218	384.94
348.445	363.94
348.673	347.94
348.9	373.94
349.128	353.94
349.355	371.94
349.583	349.94
349.81	352.94
350.037	361.94
350.265	337.94
350.492	375.94
350.72	363.94
350.947	355.94
351.174	360.94
351.402	349.94
351.629	354.94
351.856	352.94
352.083	354.94
352.311	363.94
352.538	346.94
352.765	347.94
352.992	343.94
353.22	362.94
353.447	325.94
353.674	341.94
353.901	347.94
354.128	341.94
354.355	343.94
354.583	357.94
354.81	352.94
355.037	333.94
355.264	322.94
355.491	351.94
355.718	339.94
355.945	342.94
356.172	331.94
356.399	357.94
356.626	350.94
356.853	353.94
357.08	340.94
357.307	338.94
357.534	339.94
357.761	328.94
357.988	350.94
358.215	346.94
358.441	332.94
358.668	353.94
358.895	354.94
359.122	362.94
359.349	337.94
359.576	346.94
359.802	361.94
360.029	374.94
360.256	377.94
360.483	362.94
360.709	358.94
360.936	352.94
361.163	371.94
361.39	362.94
361.616	369.94
361.843	353.94
362.07	348.94
362.296	345.94
362.523	358.94
362.749	356.94
362.976	337.94
363.203	351.94
363.429	311.94
363.656	345.94
363.882	341.94
364.109	348.94
364.335	350.94
364.562	354.94
364.788	358.94
365.015	331.94
365.241	342.94
365.468	341.94
365.694	341.94
365.92	329.94
366.147	344.94
366.373	337.94
366.599	337.94
366.826	338.94
367.052	307.94
367.278	332.94
367.505	328.94
367.731	341.94
367.957	332.94
368.184	327.94
368.41	337.94
368.636	359.94
368.862	356.94
369.089	348.94
369.315	363.94
369.541	360.94
369.767	367.94
369.993	347.94
370.219	356.94
370.445	357.94
370.672	359.94
370.898	359.94
371.124	356.94
371.35	355.94
371.576	348.94
371.802	334.94
372.028	348.94
372.254	334.94
372.48	356.94
372.706	364.94
372.932	360.94
373.158	356.94
373.384	347.94
373.61	360.94
373.835	344.94
374.061	350.94
374.287	348.94
374.513	375.94
374.739	357.94
374.965	383.94
375.191	379.94
375.416	383.94
375.642	345.94
375.868	367.94
376.094	379.94
376.319	345.94
376.545	360.94
376.771	348.94
376.997	352.94
377.222	355.94
377.448	343.94
377.674	349.94
377.899	343.94
378.125	329.94
378.35	364.94
378.576	345.94
378.802	337.94
379.027	340.94
379.253	359.94
379.478	347.94
379.704	354.94
379.929	345.94
380.155	349.94
380.38	346.94
380.606	369.94
380.831	340.94
381.057	367.94
381.282	335.94
381.507	341.94
381.733	348.94
381.958	358.94
382.184	333.94
382.409	363.94
382.634	363.94
382.86	336.94
383.085	353.94
383.31	343.94
383.535	371.94
383.761	359.94
383.986	375.94
384.211	380.94
384.436	351.94
384.662	373.94
384.887	391.94
385.112	395.94
385.337	393.94
385.562	401.94
385.787	391.94
386.013	415.94
386.238	435.94
386.463	399.94
386.688	403.94
386.913	379.94
387.138	393.94
387.363	393.94
387.588	402.94
387.813	393.94
388.038	393.94
388.263	417.94
388.488	402.94
388.713	388.94
388.938	412.94
389.163	388.94
389.387	391.94
389.612	385.94
389.837	374.94
390.062	374.94
390.287	401.94
390.512	384.94
390.736	397.94
390.961	410.94
391.186	427.94
391.411	419.94
391.636	433.94
391.86	435.94
392.085	421.94
392.31	417.94
392.534	409.94
392.759	428.94
392.984	388.94
393.208	403.94
393.433	412.94
393.658	391.94
393.882	418.94
394.107	404.94
394.331	398.94
394.556	421.94
394.78	419.94
395.005	421.94
395.229	393.94
395.454	412.94
395.678	433.94
395.903	417.94
396.127	431.94
396.352	424.94
396.576	428.94
396.801	407.94
397.025	406.94
397.249	420.94
397.474	407.94
397.698	451.94
397.922	432.94
398.147	455.94
398.371	444.94
398.595	462.94
398.82	463.94
399.044	481.94
399.268	515.94
399.492	571.94
399.717	604.94
399.941	653.94
400.165	600.94
400.389	586.94
400.613	517.94
400.837	478.94
401.062	471.94
401.286	464.94
401.51	454.94
401.734	469.94
401.958	477.94
402.182	458.94
402.406	491.94
402.63	484.94
402.854	481.94
403.078	485.94
403.302	491.94
403.526	473.94
403.75	522.94
403.974	490.94
404.198	520.94
404.422	513.94
404.645	542.94
404.869	488.94
405.093	520.94
405.317	526.94
405.541	541.94
405.765	507.94
405.988	498.94
406.212	512.94
406.436	529.94
406.66	533.94
406.883	517.94
407.107	575.94
407.331	597.94
407.555	627.94
407.778	634.94
408.002	566.94
408.226	550.94
408.449	543.94
408.673	545.94
408.896	536.94
409.12	540.94
409.344	538.94
409.567	495.94
409.791	512.94
410.014	489.94
410.238	499.94
410.461	507.94
410.685	492.94
410.908	507.94
411.132	516.94
411.355	523.94
411.578	486.94
411.802	474.94
412.025	479.94
412.249	480.94
412.472	502.94
412.695	509.94
412.919	487.94
413.142	477.94
413.365	477.94
413.589	485.94
413.812	465.94
414.035	458.94
414.258	456.94
414.482	469.94
414.705	446.94
414.928	440.94
415.151	485.94
415.374	451.94
415.597	444.94
415.821	455.94
416.044	456.94
416.267	456.94
416.49	449.94
416.713	435.94
416.936	450.94
417.159	463.94
417.382	454.94
417.605	453.94
417.828	465.94
418.051	473.94
418.274	452.94
418.497	455.94
418.72	458.94
418.943	454.94
419.166	496.94
419.389	497.94
419.611	480.94
419.834	476.94
420.057	471.94
420.28	460.94
420.503	459.94
420.726	463.94
420.948	479.94
421.171	496.94
421.394	490.94
421.617	465.94
421.839	452.94
422.062	447.94
422.285	439.94
422.507	487.94
422.73	550.94
422.953	530.94
423.175	488.94
423.398	487.94
423.621	476.94
423.843	514.94
424.066	487.94
424.288	505.94
424.511	526.94
424.733	540.94
424.956	578.94
425.178	567.94
425.401	556.94
425.623	552.94
425.846	521.94
426.068	495.94
426.291	471.94
426.513	459.94
426.735	461.94
426.958	472.94
427.18	513.94
427.402	634.94
427.625	647.94
427.847	568.94
428.069	520.94
428.292	467.94
428.514	455.94
428.736	427.94
428.958	438.94
429.181	421.94
429.403	425.94
429.625	445.94
429.847	435.94
430.069	460.94
430.292	487.94
430.514	459.94
430.736	440.94
430.958	417.94
431.18	437.94
431.402	415.94
431.624	414.94
431.846	415.94
432.068	432.94
432.29	434.94
432.512	433.94
432.734	421.94
432.956	429.94
433.178	435.94
433.4	426.94
433.622	436.94
433.844	447.94
434.066	419.94
434.287	448.94
434.509	440.94
434.731	462.94
434.953	449.94
435.175	476.94
435.397	491.94
435.618	474.94
435.84	484.94
436.062	524.94
436.284	586.94
436.505	497.94
436.727	439.94
436.949	444.94
437.17	427.94
437.392	420.94
437.614	446.94
437.835	460.94
438.057	513.94
438.278	524.94
438.5	536.94
438.721	584.94
438.943	565.94
439.165	502.94
439.386	453.94
439.608	441.94
439.829	460.94
440.05	480.94
440.272	476.94
440.493	474.94
440.715	438.94
440.936	450.94
441.158	468.94
441.379	454.94
441.6	460.94
441.822	464.94
442.043	492.94
442.264	553.94
442.486	550.94
442.707	502.94
442.928	490.94
443.149	464.94
443.371	483.94
443.592	488.94
443.813	556.94
444.034	609.94
444.255	543.94
444.476	480.94
444.698	520.94
444.919	515.94
445.14	644.94
445.361	553.94
445.582	499.94
445.803	500.94
446.024	546.94
446.245	559.94
446.466	527.94
446.687	496.94
446.908	432.94
447.129	424.94
447.35	435.94
447.571	431.94
447.792	403.94
448.013	441.94
448.234	429.94
448.455	457.94
448.675	491.94
448.896	559.94
449.117	519.94
449.338	499.94
449.559	540.94
449.779	596.94
450	504.94
450.221	427.94
450.442	416.94
450.662	391.94
450.883	397.94
451.104	397.94
451.324	414.94
451.545	423.94
451.766	394.94
451.986	390.94
452.207	394.94
452.428	388.94
452.648	389.94
452.869	385.94
453.089	391.94
453.31	385.94
453.53	383.94
453.751	391.94
453.971	392.94
454.192	381.94
454.412	375.94
454.633	364.94
454.853	375.94
455.073	365.94
455.294	409.94
455.514	422.94
455.734	426.94
455.955	369.94
456.175	359.94
456.395	367.94
456.616	364.94
456.836	382.94
457.056	365.94
457.276	371.94
457.497	353.94
457.717	358.94
457.937	392.94
458.157	369.94
458.377	375.94
458.598	384.94
458.818	419.94
459.038	447.94
459.258	472.94
459.478	435.94
459.698	428.94
459.918	413.94
460.138	422.94
460.358	438.94
460.578	447.94
460.798	456.94
461.018	451.94
461.238	461.94
461.458	450.94
461.678	451.94
461.898	460.94
462.118	445.94
462.338	465.94
462.558	489.94
462.777	498.94
462.997	529.94
463.217	543.94
463.437	570.94
463.657	515.94
463.876	503.94
464.096	517.94
464.316	502.94
464.536	493.94
464.755	499.94
464.975	499.94
465.195	483.94
465.414	497.94
465.634	465.94
465.854	451.94
466.073	421.94
466.293	416.94
466.512	397.94
466.732	392.94
466.951	409.94
467.171	393.94
467.391	376.94
467.61	404.94
467.829	415.94
468.049	411.94
468.268	398.94
468.488	379.94
468.707	385.94
468.927	397.94
469.146	369.94
469.365	392.94
469.585	397.94
469.804	387.94
470.023	402.94
470.243	424.94
470.462	427.94
470.681	422.94
470.901	415.94
471.12	401.94
471.339	400.94
471.558	393.94
471.777	391.94
471.997	394.94
472.216	403.94
472.435	391.94
472.654	388.94
472.873	373.94
473.092	377.94
473.311	392.94
473.53	388.94
473.749	396.94
473.968	410.94
474.187	456.94
474.406	448.94
474.625	394.94
474.844	409.94
475.063	403.94
475.282	391.94
475.501	388.94
475.72	396.94
475.939	397.94
476.158	415.94
476.377	415.94
476.596	416.94
476.814	421.94
477.033	413.94
477.252	425.94
477.471	427.94
477.69	433.94
477.908	429.94
478.127	451.94
478.346	461.94
478.564	450.94
478.783	478.94
479.002	447.94
479.22	478.94
479.439	466.94
479.658	489.94
479.876	500.94
480.095	477.94
480.313	486.94
480.532	498.94
480.751	486.94
480.969	507.94
481.188	517.94
481.406	482.94
481.624	471.94
481.843	462.94
482.061	458.94
482.28	450.94
482.498	447.94
482.717	444.94
482.935	464.94
483.153	463.94
483.372	437.94
483.59	453.94
483.808	436.94
484.027	458.94
484.245	435.94
484.463	460.94
484.681	450.94
484.9	486.94
485.118	453.94
485.336	453.94
485.554	466.94
485.772	466.94
485.99	479.94
486.209	475.94
486.427	471.94
486.645	473.94
486.863	471.94
487.081	464.94
487.299	465.94
487.517	487.94
487.735	450.94
487.953	463.94
488.171	484.94
488.389	460.94
488.607	473.94
488.825	464.94
489.043	476.94
489.261	478.94
489.479	476.94
489.696	480.94
489.914	459.94
490.132	476.94
490.35	510.94
490.568	465.94
490.786	479.94
491.003	482.94
491.221	512.94
491.439	507.94
491.657	511.94
491.874	524.94
492.092	528.94
492.31	529.94
492.527	502.94
492.745	487.94
492.963	523.94
493.18	520.94
493.398	523.94
493.615	517.94
493.833	531.94
494.05	519.94
494.268	531.94
494.485	532.94
494.703	524.94
494.92	536.94
495.138	549.94
495.355	516.94
495.573	546.94
495.79	533.94
496.008	539.94
496.225	541.94
496.442	535.94
496.66	553.94
496.877	563.94
497.094	547.94
497.312	573.94
497.529	571.94
497.746	579.94
497.963	604.94
498.181	599.94
498.398	643.94
498.615	664.94
498.832	673.94
499.049	708.94
499.267	710.94
499.484	773.94
499.701	836.94
499.918	868.94
500.135	961.94
500.352	1063.94
500.569	1071.94
500.786	1065.94
501.003	1037.94
501.22	957.94
501.437	897.94
501.654	815.94
501.871	792.94
502.088	736.94
