Data from 1984.PennyLincolnUp.Lamp.En5.5.200Scan.071819.P1_HRD10591_16-59-06-968.txt Node
Date: Thu Jul 18 16:59:06 EDT 2019
User: cochatt
Spectrometer: HR+D1059
Trigger mode: 1
Integration Time (sec): 1.000000E-1
Scans to average: 1
Electric dark correction enabled: true
Nonlinearity correction enabled: false
Boxcar width: 0
XAxis mode: Wavelengths
Number of Pixels in Spectrum: 2048
>>>>>Begin Spectral Data<<<<<
223.165	-16.06
223.4	-16.06
223.635	-16.06
223.869	-10.06
224.104	-22.06
224.338	-21.06
224.573	-9.06
224.808	-18.06
225.042	-7.06
225.277	9.94
225.511	-2.06
225.746	-10.06
225.98	2.94
226.215	3.94
226.449	12.94
226.683	22.94
226.918	30.94
227.152	31.94
227.387	33.94
227.621	39.94
227.856	43.94
228.09	60.94
228.324	44.94
228.559	59.94
228.793	69.94
229.027	92.94
229.262	92.94
229.496	107.94
229.73	107.94
229.964	119.94
230.199	108.94
230.433	104.94
230.667	96.94
230.901	101.94
231.136	94.94
231.37	100.94
231.604	95.94
231.838	105.94
232.072	92.94
232.306	114.94
232.541	99.94
232.775	99.94
233.009	120.94
233.243	106.94
233.477	105.94
233.711	105.94
233.945	108.94
234.179	113.94
234.413	106.94
234.647	116.94
234.881	111.94
235.115	112.94
235.349	110.94
235.583	122.94
235.817	114.94
236.051	118.94
236.285	117.94
236.519	109.94
236.753	113.94
236.987	136.94
237.221	137.94
237.455	172.94
237.689	136.94
237.922	119.94
238.156	117.94
238.39	122.94
238.624	120.94
238.858	113.94
239.091	129.94
239.325	125.94
239.559	128.94
239.793	123.94
240.027	113.94
240.26	126.94
240.494	134.94
240.728	134.94
240.961	137.94
241.195	127.94
241.429	117.94
241.662	125.94
241.896	125.94
242.13	124.94
242.363	136.94
242.597	126.94
242.83	145.94
243.064	124.94
243.298	114.94
243.531	114.94
243.765	138.94
243.998	137.94
244.232	118.94
244.465	129.94
244.699	124.94
244.932	143.94
245.166	155.94
245.399	140.94
245.633	133.94
245.866	135.94
246.099	130.94
246.333	145.94
246.566	155.94
246.8	142.94
247.033	148.94
247.266	151.94
247.5	147.94
247.733	151.94
247.966	154.94
248.2	151.94
248.433	164.94
248.666	163.94
248.899	174.94
249.133	173.94
249.366	175.94
249.599	174.94
249.832	152.94
250.066	169.94
250.299	185.94
250.532	185.94
250.765	212.94
250.998	220.94
251.231	210.94
251.465	193.94
251.698	175.94
251.931	173.94
252.164	172.94
252.397	177.94
252.63	172.94
252.863	175.94
253.096	187.94
253.329	194.94
253.562	189.94
253.795	189.94
254.028	177.94
254.261	173.94
254.494	191.94
254.727	200.94
254.96	219.94
255.193	224.94
255.426	192.94
255.659	209.94
255.892	236.94
256.124	240.94
256.357	260.94
256.59	199.94
256.823	213.94
257.056	211.94
257.289	209.94
257.521	207.94
257.754	187.94
257.987	195.94
258.22	204.94
258.452	198.94
258.685	197.94
258.918	190.94
259.151	177.94
259.383	187.94
259.616	191.94
259.849	213.94
260.081	203.94
260.314	213.94
260.547	212.94
260.779	213.94
261.012	221.94
261.244	199.94
261.477	199.94
261.71	203.94
261.942	222.94
262.175	195.94
262.407	204.94
262.64	210.94
262.872	206.94
263.105	217.94
263.337	201.94
263.57	211.94
263.802	187.94
264.035	182.94
264.267	192.94
264.499	185.94
264.732	200.94
264.964	210.94
265.197	203.94
265.429	198.94
265.661	202.94
265.894	201.94
266.126	205.94
266.358	197.94
266.591	211.94
266.823	201.94
267.055	222.94
267.287	215.94
267.52	210.94
267.752	218.94
267.984	212.94
268.216	209.94
268.448	223.94
268.681	197.94
268.913	227.94
269.145	221.94
269.377	243.94
269.609	248.94
269.841	231.94
270.073	235.94
270.306	259.94
270.538	248.94
270.77	256.94
271.002	260.94
271.234	250.94
271.466	241.94
271.698	264.94
271.93	254.94
272.162	275.94
272.394	258.94
272.626	260.94
272.858	243.94
273.09	236.94
273.322	255.94
273.553	228.94
273.785	246.94
274.017	234.94
274.249	242.94
274.481	238.94
274.713	241.94
274.945	237.94
275.176	238.94
275.408	245.94
275.64	256.94
275.872	241.94
276.104	224.94
276.335	253.94
276.567	242.94
276.799	253.94
277.031	273.94
277.262	276.94
277.494	274.94
277.726	255.94
277.957	250.94
278.189	231.94
278.421	248.94
278.652	257.94
278.884	258.94
279.115	249.94
279.347	244.94
279.579	266.94
279.81	263.94
280.042	259.94
280.273	255.94
280.505	259.94
280.736	281.94
280.968	258.94
281.199	267.94
281.431	252.94
281.662	261.94
281.894	275.94
282.125	259.94
282.356	265.94
282.588	264.94
282.819	269.94
283.051	260.94
283.282	245.94
283.513	279.94
283.745	277.94
283.976	276.94
284.207	274.94
284.439	292.94
284.67	271.94
284.901	257.94
285.132	257.94
285.364	276.94
285.595	272.94
285.826	249.94
286.057	258.94
286.288	271.94
286.52	282.94
286.751	287.94
286.982	274.94
287.213	271.94
287.444	276.94
287.675	267.94
287.906	288.94
288.138	293.94
288.369	286.94
288.6	298.94
288.831	285.94
289.062	284.94
289.293	284.94
289.524	281.94
289.755	273.94
289.986	290.94
290.217	277.94
290.448	305.94
290.679	290.94
290.91	275.94
291.141	279.94
291.371	286.94
291.602	268.94
291.833	286.94
292.064	290.94
292.295	281.94
292.526	271.94
292.757	289.94
292.987	285.94
293.218	290.94
293.449	285.94
293.68	276.94
293.91	289.94
294.141	279.94
294.372	291.94
294.603	294.94
294.833	300.94
295.064	284.94
295.295	274.94
295.525	283.94
295.756	292.94
295.987	292.94
296.217	319.94
296.448	314.94
296.679	295.94
296.909	302.94
297.14	288.94
297.37	305.94
297.601	291.94
297.831	290.94
298.062	300.94
298.292	313.94
298.523	295.94
298.753	307.94
298.984	280.94
299.214	300.94
299.445	308.94
299.675	330.94
299.905	313.94
300.136	309.94
300.366	311.94
300.597	311.94
300.827	309.94
301.057	303.94
301.288	331.94
301.518	305.94
301.748	319.94
301.979	315.94
302.209	327.94
302.439	303.94
302.669	335.94
302.9	331.94
303.13	324.94
303.36	313.94
303.59	316.94
303.82	326.94
304.051	339.94
304.281	320.94
304.511	311.94
304.741	307.94
304.971	319.94
305.201	342.94
305.431	334.94
305.661	301.94
305.891	316.94
306.121	311.94
306.352	317.94
306.582	316.94
306.812	314.94
307.042	332.94
307.272	321.94
307.502	327.94
307.731	342.94
307.961	321.94
308.191	323.94
308.421	312.94
308.651	313.94
308.881	306.94
309.111	340.94
309.341	322.94
309.571	334.94
309.8	335.94
310.03	334.94
310.26	340.94
310.49	327.94
310.72	342.94
310.949	342.94
311.179	356.94
311.409	332.94
311.639	364.94
311.868	349.94
312.098	345.94
312.328	370.94
312.557	373.94
312.787	360.94
313.017	367.94
313.246	366.94
313.476	359.94
313.706	357.94
313.935	363.94
314.165	341.94
314.394	348.94
314.624	365.94
314.853	344.94
315.083	344.94
315.312	344.94
315.542	333.94
315.771	343.94
316.001	347.94
316.23	350.94
316.46	343.94
316.689	334.94
316.919	349.94
317.148	362.94
317.377	373.94
317.607	341.94
317.836	361.94
318.065	349.94
318.295	358.94
318.524	351.94
318.753	339.94
318.983	336.94
319.212	358.94
319.441	346.94
319.67	367.94
319.9	351.94
320.129	333.94
320.358	322.94
320.587	360.94
320.816	354.94
321.046	366.94
321.275	383.94
321.504	375.94
321.733	356.94
321.962	369.94
322.191	381.94
322.42	378.94
322.649	392.94
322.878	405.94
323.108	405.94
323.337	398.94
323.566	400.94
323.795	407.94
324.024	465.94
324.253	550.94
324.482	718.94
324.71	1034.94
324.939	1414.94
325.168	1244.94
325.397	685.94
325.626	511.94
325.855	462.94
326.084	437.94
326.313	441.94
326.542	425.94
326.77	439.94
326.999	543.94
327.228	689.94
327.457	939.94
327.686	1099.94
327.914	801.94
328.143	573.94
328.372	524.94
328.6	500.94
328.829	469.94
329.058	468.94
329.287	486.94
329.515	477.94
329.744	488.94
329.972	499.94
330.201	535.94
330.43	581.94
330.658	568.94
330.887	555.94
331.115	505.94
331.344	464.94
331.572	441.94
331.801	467.94
332.03	443.94
332.258	455.94
332.486	439.94
332.715	439.94
332.943	439.94
333.172	473.94
333.4	458.94
333.629	495.94
333.857	538.94
334.085	534.94
334.314	614.94
334.542	670.94
334.771	646.94
334.999	547.94
335.227	489.94
335.455	443.94
335.684	459.94
335.912	468.94
336.14	444.94
336.369	423.94
336.597	428.94
336.825	439.94
337.053	435.94
337.281	417.94
337.51	420.94
337.738	420.94
337.966	407.94
338.194	411.94
338.422	406.94
338.65	385.94
338.878	405.94
339.106	413.94
339.334	393.94
339.562	401.94
339.79	385.94
340.018	389.94
340.246	390.94
340.474	389.94
340.702	386.94
340.93	399.94
341.158	405.94
341.386	406.94
341.614	392.94
341.842	394.94
342.07	392.94
342.298	390.94
342.526	377.94
342.754	378.94
342.981	385.94
343.209	389.94
343.437	403.94
343.665	395.94
343.893	408.94
344.12	430.94
344.348	434.94
344.576	430.94
344.804	419.94
345.031	408.94
345.259	394.94
345.487	371.94
345.714	388.94
345.942	381.94
346.17	386.94
346.397	393.94
346.625	372.94
346.853	366.94
347.08	373.94
347.308	385.94
347.535	392.94
347.763	399.94
347.99	374.94
348.218	366.94
348.445	386.94
348.673	385.94
348.9	388.94
349.128	383.94
349.355	370.94
349.583	356.94
349.81	364.94
350.037	367.94
350.265	369.94
350.492	369.94
350.72	360.94
350.947	361.94
351.174	364.94
351.402	388.94
351.629	361.94
351.856	377.94
352.083	393.94
352.311	367.94
352.538	394.94
352.765	365.94
352.992	356.94
353.22	377.94
353.447	350.94
353.674	357.94
353.901	353.94
354.128	355.94
354.355	358.94
354.583	353.94
354.81	346.94
355.037	353.94
355.264	355.94
355.491	346.94
355.718	330.94
355.945	358.94
356.172	331.94
356.399	371.94
356.626	347.94
356.853	371.94
357.08	349.94
357.307	374.94
357.534	361.94
357.761	337.94
357.988	359.94
358.215	331.94
358.441	350.94
358.668	357.94
358.895	357.94
359.122	370.94
359.349	386.94
359.576	374.94
359.802	365.94
360.029	377.94
360.256	385.94
360.483	390.94
360.709	362.94
360.936	365.94
361.163	362.94
361.39	361.94
361.616	364.94
361.843	377.94
362.07	371.94
362.296	361.94
362.523	364.94
362.749	375.94
362.976	364.94
363.203	358.94
363.429	346.94
363.656	343.94
363.882	351.94
364.109	354.94
364.335	348.94
364.562	354.94
364.788	353.94
365.015	352.94
365.241	344.94
365.468	364.94
365.694	355.94
365.92	362.94
366.147	338.94
366.373	352.94
366.599	347.94
366.826	341.94
367.052	363.94
367.278	346.94
367.505	339.94
367.731	343.94
367.957	335.94
368.184	356.94
368.41	359.94
368.636	361.94
368.862	346.94
369.089	351.94
369.315	355.94
369.541	347.94
369.767	357.94
369.993	343.94
370.219	362.94
370.445	357.94
370.672	358.94
370.898	369.94
371.124	340.94
371.35	336.94
371.576	378.94
371.802	360.94
372.028	354.94
372.254	371.94
372.48	366.94
372.706	376.94
372.932	348.94
373.158	343.94
373.384	350.94
373.61	353.94
373.835	353.94
374.061	350.94
374.287	374.94
374.513	373.94
374.739	375.94
374.965	370.94
375.191	393.94
375.416	379.94
375.642	347.94
375.868	398.94
376.094	375.94
376.319	374.94
376.545	353.94
376.771	343.94
376.997	356.94
377.222	364.94
377.448	370.94
377.674	353.94
377.899	336.94
378.125	371.94
378.35	350.94
378.576	357.94
378.802	345.94
379.027	363.94
379.253	341.94
379.478	337.94
379.704	347.94
379.929	358.94
380.155	358.94
380.38	358.94
380.606	356.94
380.831	361.94
381.057	366.94
381.282	345.94
381.507	366.94
381.733	349.94
381.958	364.94
382.184	358.94
382.409	346.94
382.634	372.94
382.86	381.94
383.085	366.94
383.31	368.94
383.535	377.94
383.761	369.94
383.986	390.94
384.211	385.94
384.436	375.94
384.662	389.94
384.887	387.94
385.112	374.94
385.337	403.94
385.562	423.94
385.787	438.94
386.013	420.94
386.238	404.94
386.463	420.94
386.688	412.94
386.913	392.94
387.138	403.94
387.363	403.94
387.588	402.94
387.813	413.94
388.038	389.94
388.263	401.94
388.488	418.94
388.713	393.94
388.938	416.94
389.163	381.94
389.387	391.94
389.612	400.94
389.837	395.94
390.062	401.94
390.287	412.94
390.512	407.94
390.736	415.94
390.961	418.94
391.186	418.94
391.411	409.94
391.636	439.94
391.86	427.94
392.085	433.94
392.31	439.94
392.534	414.94
392.759	427.94
392.984	421.94
393.208	404.94
393.433	425.94
393.658	409.94
393.882	398.94
394.107	418.94
394.331	415.94
394.556	402.94
394.78	398.94
395.005	409.94
395.229	417.94
395.454	422.94
395.678	431.94
395.903	434.94
396.127	426.94
396.352	457.94
396.576	413.94
396.801	400.94
397.025	410.94
397.249	414.94
397.474	429.94
397.698	436.94
397.922	439.94
398.147	442.94
398.371	469.94
398.595	472.94
398.82	470.94
399.044	498.94
399.268	517.94
399.492	583.94
399.717	614.94
399.941	642.94
400.165	602.94
400.389	588.94
400.613	536.94
400.837	515.94
401.062	485.94
401.286	475.94
401.51	477.94
401.734	460.94
401.958	498.94
402.182	481.94
402.406	492.94
402.63	489.94
402.854	492.94
403.078	501.94
403.302	500.94
403.526	514.94
403.75	505.94
403.974	494.94
404.198	510.94
404.422	544.94
404.645	525.94
404.869	545.94
405.093	554.94
405.317	584.94
405.541	612.94
405.765	553.94
405.988	526.94
406.212	525.94
406.436	530.94
406.66	558.94
406.883	561.94
407.107	551.94
407.331	595.94
407.555	624.94
407.778	643.94
408.002	614.94
408.226	571.94
408.449	543.94
408.673	541.94
408.896	533.94
409.12	565.94
409.344	561.94
409.567	509.94
409.791	505.94
410.014	502.94
410.238	525.94
410.461	518.94
410.685	500.94
410.908	488.94
411.132	537.94
411.355	536.94
411.578	532.94
411.802	480.94
412.025	509.94
412.249	506.94
412.472	514.94
412.695	574.94
412.919	568.94
413.142	532.94
413.365	510.94
413.589	508.94
413.812	486.94
414.035	491.94
414.258	465.94
414.482	480.94
414.705	455.94
414.928	485.94
415.151	479.94
415.374	462.94
415.597	478.94
415.821	466.94
416.044	464.94
416.267	466.94
416.49	460.94
416.713	447.94
416.936	457.94
417.159	440.94
417.382	462.94
417.605	468.94
417.828	479.94
418.051	473.94
418.274	485.94
418.497	482.94
418.72	469.94
418.943	459.94
419.166	491.94
419.389	545.94
419.611	514.94
419.834	520.94
420.057	494.94
420.28	522.94
420.503	498.94
420.726	483.94
420.948	482.94
421.171	506.94
421.394	538.94
421.617	486.94
421.839	490.94
422.062	489.94
422.285	468.94
422.507	515.94
422.73	565.94
422.953	547.94
423.175	520.94
423.398	493.94
423.621	495.94
423.843	510.94
424.066	527.94
424.288	477.94
424.511	529.94
424.733	556.94
424.956	610.94
425.178	573.94
425.401	551.94
425.623	586.94
425.846	507.94
426.068	487.94
426.291	489.94
426.513	477.94
426.735	499.94
426.958	519.94
427.18	535.94
427.402	632.94
427.625	666.94
427.847	627.94
428.069	534.94
428.292	521.94
428.514	479.94
428.736	453.94
428.958	455.94
429.181	454.94
429.403	447.94
429.625	450.94
429.847	458.94
430.069	497.94
430.292	491.94
430.514	438.94
430.736	446.94
430.958	434.94
431.18	415.94
431.402	436.94
431.624	427.94
431.846	433.94
432.068	455.94
432.29	430.94
432.512	435.94
432.734	439.94
432.956	430.94
433.178	448.94
433.4	439.94
433.622	444.94
433.844	429.94
434.066	449.94
434.287	442.94
434.509	467.94
434.731	453.94
434.953	475.94
435.175	456.94
435.397	498.94
435.618	477.94
435.84	497.94
436.062	533.94
436.284	582.94
436.505	508.94
436.727	453.94
436.949	451.94
437.17	466.94
437.392	415.94
437.614	435.94
437.835	458.94
438.057	513.94
438.278	559.94
438.5	570.94
438.721	604.94
438.943	588.94
439.165	513.94
439.386	465.94
439.608	465.94
439.829	476.94
440.05	492.94
440.272	501.94
440.493	481.94
440.715	472.94
440.936	464.94
441.158	452.94
441.379	444.94
441.6	468.94
441.822	495.94
442.043	506.94
442.264	548.94
442.486	556.94
442.707	504.94
442.928	470.94
443.149	489.94
443.371	509.94
443.592	529.94
443.813	568.94
444.034	609.94
444.255	569.94
444.476	501.94
444.698	535.94
444.919	538.94
445.14	611.94
445.361	557.94
445.582	515.94
445.803	571.94
446.024	600.94
446.245	597.94
446.466	561.94
446.687	476.94
446.908	454.94
447.129	450.94
447.35	439.94
447.571	432.94
447.792	417.94
448.013	436.94
448.234	434.94
448.455	457.94
448.675	513.94
448.896	587.94
449.117	526.94
449.338	483.94
449.559	555.94
449.779	619.94
450	513.94
450.221	418.94
450.442	441.94
450.662	428.94
450.883	433.94
451.104	431.94
451.324	422.94
451.545	411.94
451.766	413.94
451.986	381.94
452.207	388.94
452.428	410.94
452.648	392.94
452.869	391.94
453.089	406.94
453.31	415.94
453.53	393.94
453.751	398.94
453.971	406.94
454.192	397.94
454.412	379.94
454.633	382.94
454.853	373.94
455.073	387.94
455.294	382.94
455.514	435.94
455.734	413.94
455.955	363.94
456.175	373.94
456.395	358.94
456.616	385.94
456.836	395.94
457.056	376.94
457.276	385.94
457.497	381.94
457.717	378.94
457.937	379.94
458.157	390.94
458.377	380.94
458.598	388.94
458.818	452.94
459.038	487.94
459.258	464.94
459.478	461.94
459.698	438.94
459.918	427.94
460.138	454.94
460.358	475.94
460.578	454.94
460.798	468.94
461.018	476.94
461.238	450.94
461.458	467.94
461.678	451.94
461.898	463.94
462.118	468.94
462.338	499.94
462.558	479.94
462.777	498.94
462.997	517.94
463.217	552.94
463.437	569.94
463.657	552.94
463.876	522.94
464.096	517.94
464.316	520.94
464.536	515.94
464.755	513.94
464.975	478.94
465.195	518.94
465.414	535.94
465.634	476.94
465.854	450.94
466.073	430.94
466.293	403.94
466.512	417.94
466.732	420.94
466.951	416.94
467.171	429.94
467.391	407.94
467.61	421.94
467.829	409.94
468.049	424.94
468.268	424.94
468.488	394.94
468.707	408.94
468.927	410.94
469.146	388.94
469.365	415.94
469.585	409.94
469.804	412.94
470.023	402.94
470.243	438.94
470.462	437.94
470.681	409.94
470.901	407.94
471.12	407.94
471.339	420.94
471.558	418.94
471.777	408.94
471.997	424.94
472.216	442.94
472.435	514.94
472.654	473.94
472.873	443.94
473.092	407.94
473.311	401.94
473.53	421.94
473.749	419.94
473.968	433.94
474.187	465.94
474.406	471.94
474.625	437.94
474.844	412.94
475.063	398.94
475.282	410.94
475.501	417.94
475.72	421.94
475.939	402.94
476.158	409.94
476.377	415.94
476.596	391.94
476.814	424.94
477.033	437.94
477.252	455.94
477.471	419.94
477.69	431.94
477.908	439.94
478.127	461.94
478.346	440.94
478.564	430.94
478.783	443.94
479.002	458.94
479.22	473.94
479.439	489.94
479.658	485.94
479.876	483.94
480.095	509.94
480.313	512.94
480.532	507.94
480.751	518.94
480.969	537.94
481.188	635.94
481.406	703.94
481.624	585.94
481.843	519.94
482.061	487.94
482.28	480.94
482.498	466.94
482.717	488.94
482.935	471.94
483.153	472.94
483.372	453.94
483.59	473.94
483.808	470.94
484.027	452.94
484.245	460.94
484.463	471.94
484.681	481.94
484.9	463.94
485.118	452.94
485.336	475.94
485.554	495.94
485.772	493.94
485.99	490.94
486.209	475.94
486.427	485.94
486.645	480.94
486.863	475.94
487.081	495.94
487.299	493.94
487.517	504.94
487.735	491.94
487.953	495.94
488.171	485.94
488.389	475.94
488.607	501.94
488.825	458.94
489.043	515.94
489.261	489.94
489.479	497.94
489.696	497.94
489.914	511.94
490.132	503.94
490.35	510.94
490.568	508.94
490.786	520.94
491.003	543.94
491.221	527.94
491.439	554.94
491.657	576.94
491.874	563.94
492.092	551.94
492.31	573.94
492.527	567.94
492.745	563.94
492.963	581.94
493.18	563.94
493.398	567.94
493.615	576.94
493.833	583.94
494.05	567.94
494.268	566.94
494.485	571.94
494.703	566.94
494.92	566.94
495.138	556.94
495.355	555.94
495.573	556.94
495.79	565.94
496.008	577.94
496.225	574.94
496.442	576.94
496.66	566.94
496.877	559.94
497.094	579.94
497.312	563.94
497.529	586.94
497.746	590.94
497.963	612.94
498.181	656.94
498.398	661.94
498.615	668.94
498.832	687.94
499.049	709.94
499.267	769.94
499.484	819.94
499.701	851.94
499.918	921.94
500.135	992.94
500.352	1090.94
500.569	1100.94
500.786	1082.94
501.003	1045.94
501.22	961.94
501.437	919.94
501.654	831.94
501.871	839.94
502.088	782.94
