Data from 1984.PennyLincolnUp.Lamp.En5.5.200Scan.071819.P1_HRD10591_16-57-50-967.txt Node
Date: Thu Jul 18 16:57:50 EDT 2019
User: cochatt
Spectrometer: HR+D1059
Trigger mode: 1
Integration Time (sec): 1.000000E-1
Scans to average: 1
Electric dark correction enabled: true
Nonlinearity correction enabled: false
Boxcar width: 0
XAxis mode: Wavelengths
Number of Pixels in Spectrum: 2048
>>>>>Begin Spectral Data<<<<<
223.165	-14.38
223.4	-14.38
223.635	-14.38
223.869	-8.38
224.104	-29.38
224.338	-34.38
224.573	-11.38
224.808	-11.38
225.042	-10.38
225.277	-1.38
225.511	-0.38
225.746	18.62
225.98	0.62
226.215	12.62
226.449	20.62
226.683	11.62
226.918	29.62
227.152	27.62
227.387	30.62
227.621	37.62
227.856	62.62
228.09	54.62
228.324	50.62
228.559	49.62
228.793	56.62
229.027	77.62
229.262	98.62
229.496	102.62
229.73	111.62
229.964	116.62
230.199	110.62
230.433	99.62
230.667	98.62
230.901	103.62
231.136	113.62
231.37	107.62
231.604	107.62
231.838	100.62
232.072	115.62
232.306	109.62
232.541	105.62
232.775	111.62
233.009	114.62
233.243	114.62
233.477	101.62
233.711	100.62
233.945	111.62
234.179	107.62
234.413	109.62
234.647	128.62
234.881	96.62
235.115	110.62
235.349	126.62
235.583	128.62
235.817	120.62
236.051	118.62
236.285	114.62
236.519	127.62
236.753	129.62
236.987	120.62
237.221	132.62
237.455	169.62
237.689	142.62
237.922	135.62
238.156	128.62
238.39	125.62
238.624	131.62
238.858	130.62
239.091	107.62
239.325	115.62
239.559	120.62
239.793	120.62
240.027	125.62
240.26	118.62
240.494	133.62
240.728	127.62
240.961	142.62
241.195	140.62
241.429	125.62
241.662	120.62
241.896	120.62
242.13	118.62
242.363	130.62
242.597	128.62
242.83	130.62
243.064	123.62
243.298	127.62
243.531	139.62
243.765	141.62
243.998	123.62
244.232	126.62
244.465	143.62
244.699	144.62
244.932	146.62
245.166	136.62
245.399	142.62
245.633	135.62
245.866	132.62
246.099	135.62
246.333	135.62
246.566	147.62
246.8	153.62
247.033	148.62
247.266	126.62
247.5	134.62
247.733	158.62
247.966	158.62
248.2	151.62
248.433	135.62
248.666	158.62
248.899	165.62
249.133	169.62
249.366	172.62
249.599	175.62
249.832	157.62
250.066	165.62
250.299	155.62
250.532	174.62
250.765	175.62
250.998	184.62
251.231	184.62
251.465	175.62
251.698	168.62
251.931	184.62
252.164	177.62
252.397	180.62
252.63	172.62
252.863	180.62
253.096	183.62
253.329	189.62
253.562	187.62
253.795	198.62
254.028	178.62
254.261	203.62
254.494	199.62
254.727	201.62
254.96	210.62
255.193	218.62
255.426	205.62
255.659	196.62
255.892	194.62
256.124	200.62
256.357	198.62
256.59	190.62
256.823	191.62
257.056	183.62
257.289	198.62
257.521	188.62
257.754	170.62
257.987	175.62
258.22	180.62
258.452	190.62
258.685	189.62
258.918	193.62
259.151	182.62
259.383	200.62
259.616	203.62
259.849	182.62
260.081	212.62
260.314	222.62
260.547	221.62
260.779	208.62
261.012	204.62
261.244	201.62
261.477	202.62
261.71	196.62
261.942	205.62
262.175	211.62
262.407	196.62
262.64	187.62
262.872	179.62
263.105	196.62
263.337	199.62
263.57	185.62
263.802	186.62
264.035	196.62
264.267	196.62
264.499	175.62
264.732	190.62
264.964	192.62
265.197	184.62
265.429	185.62
265.661	194.62
265.894	208.62
266.126	217.62
266.358	214.62
266.591	187.62
266.823	202.62
267.055	193.62
267.287	199.62
267.52	202.62
267.752	204.62
267.984	199.62
268.216	204.62
268.448	214.62
268.681	230.62
268.913	220.62
269.145	206.62
269.377	239.62
269.609	244.62
269.841	253.62
270.073	236.62
270.306	239.62
270.538	247.62
270.77	249.62
271.002	266.62
271.234	254.62
271.466	260.62
271.698	240.62
271.93	262.62
272.162	262.62
272.394	244.62
272.626	241.62
272.858	250.62
273.09	261.62
273.322	239.62
273.553	230.62
273.785	232.62
274.017	255.62
274.249	228.62
274.481	234.62
274.713	236.62
274.945	238.62
275.176	231.62
275.408	239.62
275.64	235.62
275.872	246.62
276.104	241.62
276.335	232.62
276.567	218.62
276.799	250.62
277.031	251.62
277.262	263.62
277.494	290.62
277.726	251.62
277.957	255.62
278.189	262.62
278.421	267.62
278.652	248.62
278.884	253.62
279.115	260.62
279.347	247.62
279.579	247.62
279.81	252.62
280.042	235.62
280.273	270.62
280.505	251.62
280.736	239.62
280.968	255.62
281.199	253.62
281.431	247.62
281.662	248.62
281.894	256.62
282.125	252.62
282.356	275.62
282.588	272.62
282.819	278.62
283.051	245.62
283.282	247.62
283.513	256.62
283.745	255.62
283.976	275.62
284.207	278.62
284.439	269.62
284.67	266.62
284.901	271.62
285.132	247.62
285.364	257.62
285.595	285.62
285.826	271.62
286.057	264.62
286.288	281.62
286.52	276.62
286.751	247.62
286.982	286.62
287.213	264.62
287.444	265.62
287.675	260.62
287.906	274.62
288.138	270.62
288.369	288.62
288.6	274.62
288.831	285.62
289.062	290.62
289.293	286.62
289.524	298.62
289.755	272.62
289.986	265.62
290.217	277.62
290.448	264.62
290.679	275.62
290.91	248.62
291.141	286.62
291.371	271.62
291.602	262.62
291.833	274.62
292.064	284.62
292.295	272.62
292.526	279.62
292.757	287.62
292.987	295.62
293.218	271.62
293.449	290.62
293.68	292.62
293.91	283.62
294.141	290.62
294.372	273.62
294.603	295.62
294.833	289.62
295.064	286.62
295.295	287.62
295.525	286.62
295.756	286.62
295.987	279.62
296.217	281.62
296.448	325.62
296.679	297.62
296.909	308.62
297.14	316.62
297.37	300.62
297.601	307.62
297.831	275.62
298.062	284.62
298.292	298.62
298.523	305.62
298.753	291.62
298.984	320.62
299.214	295.62
299.445	294.62
299.675	313.62
299.905	297.62
300.136	309.62
300.366	289.62
300.597	294.62
300.827	324.62
301.057	318.62
301.288	326.62
301.518	311.62
301.748	308.62
301.979	307.62
302.209	323.62
302.439	326.62
302.669	333.62
302.9	319.62
303.13	326.62
303.36	320.62
303.59	324.62
303.82	324.62
304.051	313.62
304.281	320.62
304.511	310.62
304.741	305.62
304.971	316.62
305.201	312.62
305.431	333.62
305.661	306.62
305.891	314.62
306.121	316.62
306.352	319.62
306.582	304.62
306.812	305.62
307.042	319.62
307.272	321.62
307.502	318.62
307.731	303.62
307.961	333.62
308.191	311.62
308.421	324.62
308.651	308.62
308.881	303.62
309.111	330.62
309.341	321.62
309.571	324.62
309.8	337.62
310.03	324.62
310.26	336.62
310.49	317.62
310.72	329.62
310.949	357.62
311.179	341.62
311.409	358.62
311.639	335.62
311.868	361.62
312.098	322.62
312.328	344.62
312.557	347.62
312.787	341.62
313.017	346.62
313.246	356.62
313.476	357.62
313.706	350.62
313.935	342.62
314.165	355.62
314.394	346.62
314.624	374.62
314.853	340.62
315.083	354.62
315.312	347.62
315.542	357.62
315.771	346.62
316.001	332.62
316.23	321.62
316.46	352.62
316.689	347.62
316.919	348.62
317.148	354.62
317.377	349.62
317.607	354.62
317.836	336.62
318.065	344.62
318.295	342.62
318.524	347.62
318.753	359.62
318.983	337.62
319.212	336.62
319.441	363.62
319.67	350.62
319.9	364.62
320.129	354.62
320.358	360.62
320.587	345.62
320.816	336.62
321.046	347.62
321.275	349.62
321.504	338.62
321.733	357.62
321.962	359.62
322.191	366.62
322.42	376.62
322.649	376.62
322.878	381.62
323.108	380.62
323.337	400.62
323.566	392.62
323.795	419.62
324.024	431.62
324.253	489.62
324.482	640.62
324.71	930.62
324.939	1291.62
325.168	1114.62
325.397	626.62
325.626	485.62
325.855	423.62
326.084	418.62
326.313	407.62
326.542	416.62
326.77	438.62
326.999	496.62
327.228	617.62
327.457	841.62
327.686	1005.62
327.914	706.62
328.143	516.62
328.372	469.62
328.6	444.62
328.829	446.62
329.058	425.62
329.287	445.62
329.515	413.62
329.744	427.62
329.972	421.62
330.201	419.62
330.43	436.62
330.658	432.62
330.887	452.62
331.115	430.62
331.344	440.62
331.572	416.62
331.801	435.62
332.03	429.62
332.258	432.62
332.486	407.62
332.715	438.62
332.943	418.62
333.172	450.62
333.4	458.62
333.629	444.62
333.857	469.62
334.085	465.62
334.314	469.62
334.542	473.62
334.771	479.62
334.999	440.62
335.227	443.62
335.455	450.62
335.684	415.62
335.912	434.62
336.14	415.62
336.369	419.62
336.597	405.62
336.825	429.62
337.053	404.62
337.281	420.62
337.51	391.62
337.738	407.62
337.966	404.62
338.194	392.62
338.422	416.62
338.65	408.62
338.878	392.62
339.106	408.62
339.334	394.62
339.562	383.62
339.79	393.62
340.018	396.62
340.246	381.62
340.474	384.62
340.702	398.62
340.93	393.62
341.158	379.62
341.386	418.62
341.614	378.62
341.842	392.62
342.07	378.62
342.298	374.62
342.526	359.62
342.754	369.62
342.981	375.62
343.209	385.62
343.437	400.62
343.665	375.62
343.893	428.62
344.12	426.62
344.348	422.62
344.576	415.62
344.804	399.62
345.031	386.62
345.259	403.62
345.487	381.62
345.714	367.62
345.942	368.62
346.17	367.62
346.397	381.62
346.625	376.62
346.853	365.62
347.08	348.62
347.308	366.62
347.535	375.62
347.763	374.62
347.99	365.62
348.218	361.62
348.445	371.62
348.673	376.62
348.9	366.62
349.128	359.62
349.355	359.62
349.583	349.62
349.81	352.62
350.037	349.62
350.265	362.62
350.492	359.62
350.72	359.62
350.947	356.62
351.174	357.62
351.402	352.62
351.629	365.62
351.856	368.62
352.083	376.62
352.311	374.62
352.538	351.62
352.765	361.62
352.992	351.62
353.22	363.62
353.447	374.62
353.674	366.62
353.901	352.62
354.128	358.62
354.355	359.62
354.583	366.62
354.81	347.62
355.037	370.62
355.264	356.62
355.491	342.62
355.718	323.62
355.945	355.62
356.172	344.62
356.399	349.62
356.626	337.62
356.853	340.62
357.08	342.62
357.307	338.62
357.534	347.62
357.761	335.62
357.988	345.62
358.215	328.62
358.441	338.62
358.668	363.62
358.895	357.62
359.122	333.62
359.349	340.62
359.576	352.62
359.802	356.62
360.029	367.62
360.256	384.62
360.483	367.62
360.709	351.62
360.936	362.62
361.163	344.62
361.39	359.62
361.616	359.62
361.843	346.62
362.07	347.62
362.296	362.62
362.523	338.62
362.749	356.62
362.976	358.62
363.203	354.62
363.429	341.62
363.656	344.62
363.882	354.62
364.109	334.62
364.335	342.62
364.562	360.62
364.788	346.62
365.015	354.62
365.241	360.62
365.468	348.62
365.694	359.62
365.92	351.62
366.147	359.62
366.373	337.62
366.599	341.62
366.826	341.62
367.052	351.62
367.278	327.62
367.505	358.62
367.731	346.62
367.957	345.62
368.184	333.62
368.41	349.62
368.636	351.62
368.862	364.62
369.089	359.62
369.315	344.62
369.541	362.62
369.767	382.62
369.993	337.62
370.219	348.62
370.445	330.62
370.672	354.62
370.898	351.62
371.124	340.62
371.35	346.62
371.576	355.62
371.802	357.62
372.028	346.62
372.254	353.62
372.48	373.62
372.706	376.62
372.932	368.62
373.158	359.62
373.384	378.62
373.61	368.62
373.835	375.62
374.061	354.62
374.287	372.62
374.513	367.62
374.739	345.62
374.965	380.62
375.191	370.62
375.416	376.62
375.642	370.62
375.868	374.62
376.094	351.62
376.319	364.62
376.545	354.62
376.771	366.62
376.997	355.62
377.222	362.62
377.448	359.62
377.674	347.62
377.899	334.62
378.125	347.62
378.35	347.62
378.576	357.62
378.802	358.62
379.027	362.62
379.253	348.62
379.478	359.62
379.704	346.62
379.929	356.62
380.155	366.62
380.38	351.62
380.606	356.62
380.831	344.62
381.057	352.62
381.282	379.62
381.507	349.62
381.733	351.62
381.958	366.62
382.184	368.62
382.409	363.62
382.634	388.62
382.86	356.62
383.085	369.62
383.31	361.62
383.535	386.62
383.761	373.62
383.986	376.62
384.211	385.62
384.436	390.62
384.662	384.62
384.887	378.62
385.112	386.62
385.337	400.62
385.562	405.62
385.787	381.62
386.013	396.62
386.238	395.62
386.463	396.62
386.688	403.62
386.913	409.62
387.138	396.62
387.363	414.62
387.588	414.62
387.813	388.62
388.038	391.62
388.263	381.62
388.488	392.62
388.713	413.62
388.938	397.62
389.163	388.62
389.387	376.62
389.612	383.62
389.837	386.62
390.062	390.62
390.287	406.62
390.512	386.62
390.736	393.62
390.961	399.62
391.186	400.62
391.411	392.62
391.636	408.62
391.86	410.62
392.085	439.62
392.31	440.62
392.534	414.62
392.759	438.62
392.984	420.62
393.208	406.62
393.433	403.62
393.658	406.62
393.882	424.62
394.107	414.62
394.331	421.62
394.556	409.62
394.78	430.62
395.005	409.62
395.229	403.62
395.454	412.62
395.678	438.62
395.903	442.62
396.127	447.62
396.352	434.62
396.576	418.62
396.801	414.62
397.025	429.62
397.249	422.62
397.474	427.62
397.698	439.62
397.922	435.62
398.147	444.62
398.371	446.62
398.595	440.62
398.82	488.62
399.044	510.62
399.268	532.62
399.492	571.62
399.717	597.62
399.941	638.62
400.165	627.62
400.389	594.62
400.613	542.62
400.837	494.62
401.062	473.62
401.286	493.62
401.51	480.62
401.734	463.62
401.958	489.62
402.182	485.62
402.406	482.62
402.63	492.62
402.854	488.62
403.078	498.62
403.302	511.62
403.526	508.62
403.75	507.62
403.974	534.62
404.198	490.62
404.422	505.62
404.645	535.62
404.869	518.62
405.093	526.62
405.317	534.62
405.541	560.62
405.765	535.62
405.988	520.62
406.212	518.62
406.436	517.62
406.66	532.62
406.883	540.62
407.107	541.62
407.331	591.62
407.555	619.62
407.778	626.62
408.002	581.62
408.226	543.62
408.449	521.62
408.673	533.62
408.896	542.62
409.12	558.62
409.344	519.62
409.567	528.62
409.791	514.62
410.014	493.62
410.238	498.62
410.461	488.62
410.685	492.62
410.908	506.62
411.132	520.62
411.355	528.62
411.578	506.62
411.802	496.62
412.025	498.62
412.249	488.62
412.472	502.62
412.695	514.62
412.919	473.62
413.142	487.62
413.365	471.62
413.589	476.62
413.812	484.62
414.035	469.62
414.258	452.62
414.482	464.62
414.705	477.62
414.928	483.62
415.151	471.62
415.374	468.62
415.597	455.62
415.821	454.62
416.044	460.62
416.267	441.62
416.49	438.62
416.713	456.62
416.936	467.62
417.159	446.62
417.382	471.62
417.605	449.62
417.828	460.62
418.051	461.62
418.274	466.62
418.497	474.62
418.72	471.62
418.943	476.62
419.166	478.62
419.389	522.62
419.611	490.62
419.834	515.62
420.057	475.62
420.28	465.62
420.503	486.62
420.726	474.62
420.948	461.62
421.171	491.62
421.394	525.62
421.617	477.62
421.839	483.62
422.062	470.62
422.285	467.62
422.507	506.62
422.73	559.62
422.953	511.62
423.175	540.62
423.398	513.62
423.621	484.62
423.843	512.62
424.066	492.62
424.288	490.62
424.511	519.62
424.733	534.62
424.956	580.62
425.178	579.62
425.401	571.62
425.623	566.62
425.846	503.62
426.068	487.62
426.291	481.62
426.513	489.62
426.735	503.62
426.958	478.62
427.18	542.62
427.402	607.62
427.625	656.62
427.847	579.62
428.069	504.62
428.292	474.62
428.514	464.62
428.736	430.62
428.958	448.62
429.181	430.62
429.403	437.62
429.625	454.62
429.847	459.62
430.069	474.62
430.292	470.62
430.514	431.62
430.736	460.62
430.958	435.62
431.18	423.62
431.402	430.62
431.624	414.62
431.846	430.62
432.068	419.62
432.29	414.62
432.512	414.62
432.734	447.62
432.956	429.62
433.178	453.62
433.4	423.62
433.622	443.62
433.844	429.62
434.066	424.62
434.287	445.62
434.509	453.62
434.731	459.62
434.953	458.62
435.175	468.62
435.397	490.62
435.618	454.62
435.84	494.62
436.062	536.62
436.284	582.62
436.505	507.62
436.727	469.62
436.949	444.62
437.17	433.62
437.392	442.62
437.614	406.62
437.835	435.62
438.057	492.62
438.278	555.62
438.5	531.62
438.721	593.62
438.943	593.62
439.165	479.62
439.386	459.62
439.608	468.62
439.829	501.62
440.05	476.62
440.272	485.62
440.493	476.62
440.715	456.62
440.936	436.62
441.158	463.62
441.379	454.62
441.6	498.62
441.822	490.62
442.043	490.62
442.264	522.62
442.486	568.62
442.707	528.62
442.928	493.62
443.149	474.62
443.371	480.62
443.592	524.62
443.813	545.62
444.034	600.62
444.255	529.62
444.476	527.62
444.698	540.62
444.919	528.62
445.14	685.62
445.361	571.62
445.582	519.62
445.803	510.62
446.024	554.62
446.245	554.62
446.466	531.62
446.687	468.62
446.908	458.62
447.129	448.62
447.35	437.62
447.571	421.62
447.792	422.62
448.013	411.62
448.234	450.62
448.455	449.62
448.675	514.62
448.896	580.62
449.117	536.62
449.338	486.62
449.559	564.62
449.779	599.62
450	517.62
450.221	428.62
450.442	411.62
450.662	403.62
450.883	417.62
451.104	418.62
451.324	404.62
451.545	403.62
451.766	386.62
451.986	408.62
452.207	382.62
452.428	393.62
452.648	376.62
452.869	384.62
453.089	397.62
453.31	401.62
453.53	391.62
453.751	394.62
453.971	394.62
454.192	397.62
454.412	362.62
454.633	384.62
454.853	377.62
455.073	370.62
455.294	392.62
455.514	441.62
455.734	401.62
455.955	381.62
456.175	358.62
456.395	357.62
456.616	378.62
456.836	369.62
457.056	352.62
457.276	363.62
457.497	376.62
457.717	380.62
457.937	357.62
458.157	396.62
458.377	380.62
458.598	404.62
458.818	418.62
459.038	451.62
459.258	486.62
459.478	449.62
459.698	440.62
459.918	426.62
460.138	426.62
460.358	466.62
460.578	462.62
460.798	454.62
461.018	468.62
461.238	459.62
461.458	440.62
461.678	462.62
461.898	452.62
462.118	453.62
462.338	483.62
462.558	485.62
462.777	500.62
462.997	532.62
463.217	549.62
463.437	551.62
463.657	538.62
463.876	503.62
464.096	508.62
464.316	525.62
464.536	521.62
464.755	509.62
464.975	495.62
465.195	485.62
465.414	511.62
465.634	464.62
465.854	460.62
466.073	431.62
466.293	427.62
466.512	405.62
466.732	391.62
466.951	391.62
467.171	407.62
467.391	424.62
467.61	392.62
467.829	401.62
468.049	418.62
468.268	405.62
468.488	381.62
468.707	387.62
468.927	410.62
469.146	386.62
469.365	385.62
469.585	395.62
469.804	391.62
470.023	419.62
470.243	416.62
470.462	408.62
470.681	419.62
470.901	424.62
471.12	394.62
471.339	403.62
471.558	407.62
471.777	388.62
471.997	401.62
472.216	393.62
472.435	406.62
472.654	391.62
472.873	390.62
473.092	383.62
473.311	393.62
473.53	408.62
473.749	423.62
473.968	431.62
474.187	468.62
474.406	471.62
474.625	402.62
474.844	404.62
475.063	390.62
475.282	404.62
475.501	396.62
475.72	402.62
475.939	426.62
476.158	407.62
476.377	420.62
476.596	404.62
476.814	411.62
477.033	420.62
477.252	401.62
477.471	404.62
477.69	416.62
477.908	413.62
478.127	431.62
478.346	441.62
478.564	467.62
478.783	451.62
479.002	464.62
479.22	463.62
479.439	472.62
479.658	469.62
479.876	490.62
480.095	499.62
480.313	500.62
480.532	498.62
480.751	495.62
480.969	490.62
481.188	519.62
481.406	514.62
481.624	492.62
481.843	479.62
482.061	442.62
482.28	452.62
482.498	463.62
482.717	456.62
482.935	446.62
483.153	464.62
483.372	456.62
483.59	437.62
483.808	450.62
484.027	467.62
484.245	474.62
484.463	447.62
484.681	476.62
484.9	466.62
485.118	465.62
485.336	472.62
485.554	474.62
485.772	495.62
485.99	483.62
486.209	468.62
486.427	489.62
486.645	487.62
486.863	487.62
487.081	475.62
487.299	461.62
487.517	478.62
487.735	451.62
487.953	476.62
488.171	484.62
488.389	476.62
488.607	484.62
488.825	497.62
489.043	488.62
489.261	499.62
489.479	492.62
489.696	484.62
489.914	488.62
490.132	502.62
490.35	490.62
490.568	491.62
490.786	511.62
491.003	508.62
491.221	523.62
491.439	526.62
491.657	511.62
491.874	542.62
492.092	505.62
492.31	509.62
492.527	543.62
492.745	537.62
492.963	526.62
493.18	543.62
493.398	533.62
493.615	548.62
493.833	554.62
494.05	523.62
494.268	565.62
494.485	542.62
494.703	546.62
494.92	558.62
495.138	537.62
495.355	571.62
495.573	563.62
495.79	572.62
496.008	560.62
496.225	553.62
496.442	555.62
496.66	575.62
496.877	580.62
497.094	582.62
497.312	585.62
497.529	578.62
497.746	601.62
497.963	596.62
498.181	636.62
498.398	644.62
498.615	665.62
498.832	683.62
499.049	696.62
499.267	782.62
499.484	786.62
499.701	858.62
499.918	896.62
500.135	975.62
500.352	1074.62
500.569	1103.62
500.786	1099.62
501.003	1044.62
501.22	953.62
501.437	917.62
501.654	852.62
501.871	795.62
