Data from 1984.PennyLincolnUp.Lamp.En5.5.200Scan.071819.P1_HRD10591_16-59-33-969.txt Node
Date: Thu Jul 18 16:59:33 EDT 2019
User: cochatt
Spectrometer: HR+D1059
Trigger mode: 1
Integration Time (sec): 1.000000E-1
Scans to average: 1
Electric dark correction enabled: true
Nonlinearity correction enabled: false
Boxcar width: 0
XAxis mode: Wavelengths
Number of Pixels in Spectrum: 2048
>>>>>Begin Spectral Data<<<<<
223.165	-17.06
223.4	-17.06
223.635	-17.06
223.869	-23.06
224.104	-19.06
224.338	-11.06
224.573	-14.06
224.808	-18.06
225.042	-5.06
225.277	-6.06
225.511	-0.06
225.746	3.94
225.98	7.94
226.215	2.94
226.449	14.94
226.683	23.94
226.918	23.94
227.152	35.94
227.387	27.94
227.621	23.94
227.856	44.94
228.09	38.94
228.324	51.94
228.559	56.94
228.793	59.94
229.027	93.94
229.262	95.94
229.496	93.94
229.73	106.94
229.964	111.94
230.199	124.94
230.433	113.94
230.667	113.94
230.901	101.94
231.136	105.94
231.37	102.94
231.604	102.94
231.838	105.94
232.072	102.94
232.306	105.94
232.541	120.94
232.775	109.94
233.009	106.94
233.243	105.94
233.477	114.94
233.711	110.94
233.945	106.94
234.179	109.94
234.413	118.94
234.647	116.94
234.881	105.94
235.115	104.94
235.349	107.94
235.583	105.94
235.817	108.94
236.051	109.94
236.285	114.94
236.519	109.94
236.753	96.94
236.987	113.94
237.221	149.94
237.455	164.94
237.689	155.94
237.922	110.94
238.156	113.94
238.39	131.94
238.624	122.94
238.858	117.94
239.091	115.94
239.325	115.94
239.559	107.94
239.793	124.94
240.027	127.94
240.26	119.94
240.494	122.94
240.728	138.94
240.961	117.94
241.195	127.94
241.429	118.94
241.662	115.94
241.896	132.94
242.13	139.94
242.363	132.94
242.597	125.94
242.83	127.94
243.064	116.94
243.298	127.94
243.531	136.94
243.765	143.94
243.998	127.94
244.232	141.94
244.465	131.94
244.699	141.94
244.932	129.94
245.166	140.94
245.399	149.94
245.633	134.94
245.866	147.94
246.099	144.94
246.333	122.94
246.566	134.94
246.8	127.94
247.033	127.94
247.266	148.94
247.5	139.94
247.733	163.94
247.966	159.94
248.2	162.94
248.433	155.94
248.666	158.94
248.899	161.94
249.133	177.94
249.366	178.94
249.599	169.94
249.832	161.94
250.066	175.94
250.299	180.94
250.532	221.94
250.765	210.94
250.998	207.94
251.231	209.94
251.465	174.94
251.698	165.94
251.931	175.94
252.164	163.94
252.397	175.94
252.63	182.94
252.863	195.94
253.096	190.94
253.329	181.94
253.562	193.94
253.795	181.94
254.028	172.94
254.261	191.94
254.494	203.94
254.727	216.94
254.96	214.94
255.193	221.94
255.426	202.94
255.659	215.94
255.892	231.94
256.124	280.94
256.357	274.94
256.59	259.94
256.823	210.94
257.056	205.94
257.289	195.94
257.521	204.94
257.754	199.94
257.987	208.94
258.22	199.94
258.452	187.94
258.685	185.94
258.918	181.94
259.151	194.94
259.383	204.94
259.616	208.94
259.849	201.94
260.081	199.94
260.314	235.94
260.547	214.94
260.779	210.94
261.012	188.94
261.244	208.94
261.477	211.94
261.71	203.94
261.942	204.94
262.175	206.94
262.407	194.94
262.64	194.94
262.872	211.94
263.105	190.94
263.337	201.94
263.57	198.94
263.802	196.94
264.035	201.94
264.267	177.94
264.499	204.94
264.732	215.94
264.964	185.94
265.197	198.94
265.429	197.94
265.661	196.94
265.894	197.94
266.126	195.94
266.358	203.94
266.591	206.94
266.823	184.94
267.055	213.94
267.287	202.94
267.52	175.94
267.752	209.94
267.984	228.94
268.216	206.94
268.448	224.94
268.681	233.94
268.913	219.94
269.145	229.94
269.377	245.94
269.609	253.94
269.841	244.94
270.073	243.94
270.306	245.94
270.538	247.94
270.77	258.94
271.002	259.94
271.234	244.94
271.466	271.94
271.698	259.94
271.93	260.94
272.162	269.94
272.394	270.94
272.626	262.94
272.858	248.94
273.09	245.94
273.322	251.94
273.553	243.94
273.785	251.94
274.017	249.94
274.249	252.94
274.481	243.94
274.713	230.94
274.945	247.94
275.176	273.94
275.408	243.94
275.64	248.94
275.872	247.94
276.104	239.94
276.335	241.94
276.567	262.94
276.799	270.94
277.031	279.94
277.262	271.94
277.494	287.94
277.726	275.94
277.957	277.94
278.189	260.94
278.421	267.94
278.652	244.94
278.884	256.94
279.115	268.94
279.347	253.94
279.579	259.94
279.81	251.94
280.042	238.94
280.273	269.94
280.505	256.94
280.736	263.94
280.968	247.94
281.199	255.94
281.431	250.94
281.662	266.94
281.894	259.94
282.125	268.94
282.356	284.94
282.588	299.94
282.819	285.94
283.051	262.94
283.282	276.94
283.513	263.94
283.745	271.94
283.976	264.94
284.207	260.94
284.439	291.94
284.67	269.94
284.901	259.94
285.132	284.94
285.364	271.94
285.595	279.94
285.826	274.94
286.057	268.94
286.288	269.94
286.52	268.94
286.751	276.94
286.982	287.94
287.213	286.94
287.444	268.94
287.675	290.94
287.906	295.94
288.138	273.94
288.369	305.94
288.6	290.94
288.831	276.94
289.062	293.94
289.293	287.94
289.524	273.94
289.755	283.94
289.986	281.94
290.217	266.94
290.448	275.94
290.679	269.94
290.91	292.94
291.141	285.94
291.371	298.94
291.602	272.94
291.833	280.94
292.064	297.94
292.295	276.94
292.526	300.94
292.757	302.94
292.987	281.94
293.218	264.94
293.449	276.94
293.68	284.94
293.91	298.94
294.141	319.94
294.372	283.94
294.603	288.94
294.833	289.94
295.064	303.94
295.295	278.94
295.525	287.94
295.756	297.94
295.987	309.94
296.217	320.94
296.448	324.94
296.679	301.94
296.909	289.94
297.14	294.94
297.37	280.94
297.601	285.94
297.831	300.94
298.062	301.94
298.292	313.94
298.523	303.94
298.753	303.94
298.984	329.94
299.214	303.94
299.445	294.94
299.675	282.94
299.905	310.94
300.136	331.94
300.366	325.94
300.597	318.94
300.827	318.94
301.057	334.94
301.288	311.94
301.518	318.94
301.748	349.94
301.979	332.94
302.209	314.94
302.439	326.94
302.669	343.94
302.9	331.94
303.13	317.94
303.36	326.94
303.59	314.94
303.82	339.94
304.051	325.94
304.281	313.94
304.511	317.94
304.741	322.94
304.971	305.94
305.201	316.94
305.431	317.94
305.661	320.94
305.891	307.94
306.121	323.94
306.352	325.94
306.582	333.94
306.812	313.94
307.042	322.94
307.272	310.94
307.502	322.94
307.731	325.94
307.961	328.94
308.191	330.94
308.421	323.94
308.651	317.94
308.881	321.94
309.111	315.94
309.341	331.94
309.571	318.94
309.8	353.94
310.03	351.94
310.26	348.94
310.49	336.94
310.72	365.94
310.949	371.94
311.179	372.94
311.409	350.94
311.639	330.94
311.868	350.94
312.098	362.94
312.328	358.94
312.557	354.94
312.787	358.94
313.017	365.94
313.246	351.94
313.476	343.94
313.706	362.94
313.935	359.94
314.165	357.94
314.394	365.94
314.624	354.94
314.853	354.94
315.083	350.94
315.312	346.94
315.542	345.94
315.771	355.94
316.001	346.94
316.23	338.94
316.46	348.94
316.689	343.94
316.919	363.94
317.148	341.94
317.377	357.94
317.607	353.94
317.836	357.94
318.065	365.94
318.295	358.94
318.524	359.94
318.753	339.94
318.983	360.94
319.212	338.94
319.441	350.94
319.67	356.94
319.9	356.94
320.129	340.94
320.358	359.94
320.587	354.94
320.816	349.94
321.046	370.94
321.275	375.94
321.504	364.94
321.733	371.94
321.962	359.94
322.191	364.94
322.42	387.94
322.649	371.94
322.878	389.94
323.108	415.94
323.337	422.94
323.566	430.94
323.795	431.94
324.024	454.94
324.253	549.94
324.482	739.94
324.71	1052.94
324.939	1493.94
325.168	1237.94
325.397	703.94
325.626	536.94
325.855	453.94
326.084	452.94
326.313	452.94
326.542	457.94
326.77	475.94
326.999	522.94
327.228	693.94
327.457	977.94
327.686	1151.94
327.914	821.94
328.143	600.94
328.372	532.94
328.6	530.94
328.829	491.94
329.058	486.94
329.287	508.94
329.515	507.94
329.744	497.94
329.972	526.94
330.201	573.94
330.43	659.94
330.658	603.94
330.887	554.94
331.115	519.94
331.344	492.94
331.572	451.94
331.801	467.94
332.03	481.94
332.258	463.94
332.486	461.94
332.715	471.94
332.943	468.94
333.172	459.94
333.4	489.94
333.629	513.94
333.857	539.94
334.085	560.94
334.314	628.94
334.542	723.94
334.771	721.94
334.999	602.94
335.227	503.94
335.455	503.94
335.684	484.94
335.912	459.94
336.14	436.94
336.369	444.94
336.597	433.94
336.825	440.94
337.053	423.94
337.281	412.94
337.51	435.94
337.738	416.94
337.966	417.94
338.194	424.94
338.422	417.94
338.65	422.94
338.878	394.94
339.106	397.94
339.334	422.94
339.562	414.94
339.79	401.94
340.018	413.94
340.246	405.94
340.474	410.94
340.702	403.94
340.93	396.94
341.158	395.94
341.386	407.94
341.614	375.94
341.842	399.94
342.07	386.94
342.298	388.94
342.526	392.94
342.754	383.94
342.981	371.94
343.209	381.94
343.437	419.94
343.665	401.94
343.893	415.94
344.12	431.94
344.348	412.94
344.576	414.94
344.804	419.94
345.031	410.94
345.259	405.94
345.487	410.94
345.714	395.94
345.942	379.94
346.17	387.94
346.397	380.94
346.625	391.94
346.853	367.94
347.08	374.94
347.308	374.94
347.535	393.94
347.763	387.94
347.99	378.94
348.218	398.94
348.445	364.94
348.673	361.94
348.9	374.94
349.128	369.94
349.355	361.94
349.583	358.94
349.81	364.94
350.037	362.94
350.265	365.94
350.492	369.94
350.72	353.94
350.947	357.94
351.174	369.94
351.402	380.94
351.629	356.94
351.856	383.94
352.083	366.94
352.311	372.94
352.538	358.94
352.765	377.94
352.992	365.94
353.22	364.94
353.447	359.94
353.674	369.94
353.901	377.94
354.128	346.94
354.355	361.94
354.583	353.94
354.81	336.94
355.037	363.94
355.264	345.94
355.491	341.94
355.718	363.94
355.945	345.94
356.172	359.94
356.399	349.94
356.626	354.94
356.853	351.94
357.08	369.94
357.307	331.94
357.534	346.94
357.761	330.94
357.988	347.94
358.215	346.94
358.441	340.94
358.668	354.94
358.895	346.94
359.122	356.94
359.349	352.94
359.576	358.94
359.802	355.94
360.029	399.94
360.256	393.94
360.483	381.94
360.709	376.94
360.936	362.94
361.163	362.94
361.39	380.94
361.616	361.94
361.843	355.94
362.07	353.94
362.296	365.94
362.523	342.94
362.749	380.94
362.976	359.94
363.203	353.94
363.429	351.94
363.656	361.94
363.882	347.94
364.109	356.94
364.335	360.94
364.562	347.94
364.788	348.94
365.015	345.94
365.241	340.94
365.468	358.94
365.694	343.94
365.92	357.94
366.147	369.94
366.373	350.94
366.599	371.94
366.826	337.94
367.052	341.94
367.278	356.94
367.505	362.94
367.731	340.94
367.957	348.94
368.184	356.94
368.41	359.94
368.636	358.94
368.862	366.94
369.089	373.94
369.315	366.94
369.541	348.94
369.767	359.94
369.993	375.94
370.219	335.94
370.445	360.94
370.672	363.94
370.898	356.94
371.124	348.94
371.35	374.94
371.576	345.94
371.802	351.94
372.028	356.94
372.254	364.94
372.48	353.94
372.706	369.94
372.932	375.94
373.158	363.94
373.384	364.94
373.61	366.94
373.835	343.94
374.061	350.94
374.287	357.94
374.513	373.94
374.739	375.94
374.965	372.94
375.191	372.94
375.416	396.94
375.642	366.94
375.868	375.94
376.094	372.94
376.319	366.94
376.545	366.94
376.771	361.94
376.997	360.94
377.222	350.94
377.448	358.94
377.674	371.94
377.899	369.94
378.125	346.94
378.35	348.94
378.576	355.94
378.802	340.94
379.027	353.94
379.253	362.94
379.478	357.94
379.704	348.94
379.929	363.94
380.155	369.94
380.38	390.94
380.606	362.94
380.831	360.94
381.057	371.94
381.282	361.94
381.507	346.94
381.733	356.94
381.958	370.94
382.184	369.94
382.409	368.94
382.634	367.94
382.86	356.94
383.085	379.94
383.31	387.94
383.535	371.94
383.761	381.94
383.986	397.94
384.211	400.94
384.436	375.94
384.662	384.94
384.887	409.94
385.112	398.94
385.337	401.94
385.562	397.94
385.787	409.94
386.013	392.94
386.238	407.94
386.463	415.94
386.688	392.94
386.913	398.94
387.138	404.94
387.363	397.94
387.588	399.94
387.813	407.94
388.038	403.94
388.263	410.94
388.488	394.94
388.713	417.94
388.938	414.94
389.163	413.94
389.387	399.94
389.612	387.94
389.837	403.94
390.062	405.94
390.287	383.94
390.512	420.94
390.736	405.94
390.961	406.94
391.186	423.94
391.411	401.94
391.636	408.94
391.86	424.94
392.085	439.94
392.31	423.94
392.534	424.94
392.759	428.94
392.984	428.94
393.208	434.94
393.433	421.94
393.658	422.94
393.882	415.94
394.107	379.94
394.331	420.94
394.556	414.94
394.78	437.94
395.005	409.94
395.229	410.94
395.454	428.94
395.678	428.94
395.903	442.94
396.127	445.94
396.352	438.94
396.576	411.94
396.801	409.94
397.025	433.94
397.249	433.94
397.474	442.94
397.698	450.94
397.922	459.94
398.147	447.94
398.371	458.94
398.595	463.94
398.82	488.94
399.044	482.94
399.268	523.94
399.492	582.94
399.717	620.94
399.941	638.94
400.165	602.94
400.389	592.94
400.613	546.94
400.837	490.94
401.062	502.94
401.286	476.94
401.51	489.94
401.734	485.94
401.958	473.94
402.182	484.94
402.406	491.94
402.63	483.94
402.854	480.94
403.078	496.94
403.302	512.94
403.526	512.94
403.75	530.94
403.974	524.94
404.198	522.94
404.422	535.94
404.645	541.94
404.869	546.94
405.093	553.94
405.317	599.94
405.541	627.94
405.765	583.94
405.988	539.94
406.212	543.94
406.436	537.94
406.66	556.94
406.883	551.94
407.107	565.94
407.331	595.94
407.555	645.94
407.778	630.94
408.002	616.94
408.226	574.94
408.449	576.94
408.673	544.94
408.896	556.94
409.12	574.94
409.344	554.94
409.567	531.94
409.791	505.94
410.014	511.94
410.238	481.94
410.461	490.94
410.685	519.94
410.908	510.94
411.132	541.94
411.355	542.94
411.578	534.94
411.802	504.94
412.025	503.94
412.249	522.94
412.472	570.94
412.695	600.94
412.919	583.94
413.142	540.94
413.365	525.94
413.589	505.94
413.812	497.94
414.035	473.94
414.258	457.94
414.482	493.94
414.705	502.94
414.928	484.94
415.151	486.94
415.374	481.94
415.597	480.94
415.821	466.94
416.044	473.94
416.267	485.94
416.49	480.94
416.713	472.94
416.936	461.94
417.159	462.94
417.382	477.94
417.605	466.94
417.828	471.94
418.051	484.94
418.274	481.94
418.497	474.94
418.72	452.94
418.943	472.94
419.166	500.94
419.389	533.94
419.611	516.94
419.834	519.94
420.057	515.94
420.28	534.94
420.503	548.94
420.726	524.94
420.948	533.94
421.171	521.94
421.394	526.94
421.617	493.94
421.839	479.94
422.062	468.94
422.285	503.94
422.507	536.94
422.73	551.94
422.953	550.94
423.175	498.94
423.398	517.94
423.621	496.94
423.843	498.94
424.066	520.94
424.288	503.94
424.511	525.94
424.733	557.94
424.956	589.94
425.178	566.94
425.401	563.94
425.623	548.94
425.846	513.94
426.068	502.94
426.291	507.94
426.513	489.94
426.735	499.94
426.958	503.94
427.18	545.94
427.402	612.94
427.625	700.94
427.847	596.94
428.069	598.94
428.292	526.94
428.514	474.94
428.736	454.94
428.958	467.94
429.181	435.94
429.403	456.94
429.625	444.94
429.847	473.94
430.069	494.94
430.292	501.94
430.514	442.94
430.736	454.94
430.958	429.94
431.18	418.94
431.402	428.94
431.624	439.94
431.846	439.94
432.068	441.94
432.29	407.94
432.512	428.94
432.734	421.94
432.956	441.94
433.178	429.94
433.4	429.94
433.622	436.94
433.844	413.94
434.066	433.94
434.287	437.94
434.509	444.94
434.731	441.94
434.953	447.94
435.175	460.94
435.397	469.94
435.618	476.94
435.84	497.94
436.062	538.94
436.284	581.94
436.505	515.94
436.727	459.94
436.949	443.94
437.17	425.94
437.392	436.94
437.614	453.94
437.835	446.94
438.057	525.94
438.278	563.94
438.5	571.94
438.721	611.94
438.943	584.94
439.165	520.94
439.386	451.94
439.608	459.94
439.829	458.94
440.05	485.94
440.272	521.94
440.493	479.94
440.715	467.94
440.936	467.94
441.158	452.94
441.379	465.94
441.6	467.94
441.822	497.94
442.043	520.94
442.264	526.94
442.486	600.94
442.707	508.94
442.928	483.94
443.149	491.94
443.371	507.94
443.592	535.94
443.813	585.94
444.034	619.94
444.255	556.94
444.476	533.94
444.698	529.94
444.919	524.94
445.14	628.94
445.361	539.94
445.582	543.94
445.803	543.94
446.024	602.94
446.245	595.94
446.466	536.94
446.687	486.94
446.908	447.94
447.129	454.94
447.35	424.94
447.571	435.94
447.792	405.94
448.013	417.94
448.234	434.94
448.455	451.94
448.675	520.94
448.896	587.94
449.117	537.94
449.338	501.94
449.559	559.94
449.779	639.94
450	516.94
450.221	463.94
450.442	437.94
450.662	421.94
450.883	398.94
451.104	408.94
451.324	427.94
451.545	415.94
451.766	414.94
451.986	381.94
452.207	404.94
452.428	381.94
452.648	391.94
452.869	390.94
453.089	390.94
453.31	407.94
453.53	381.94
453.751	358.94
453.971	393.94
454.192	411.94
454.412	395.94
454.633	397.94
454.853	377.94
455.073	375.94
455.294	381.94
455.514	424.94
455.734	413.94
455.955	387.94
456.175	388.94
456.395	383.94
456.616	363.94
456.836	389.94
457.056	389.94
457.276	364.94
457.497	381.94
457.717	363.94
457.937	391.94
458.157	362.94
458.377	372.94
458.598	425.94
458.818	441.94
459.038	458.94
459.258	474.94
459.478	461.94
459.698	429.94
459.918	434.94
460.138	447.94
460.358	473.94
460.578	452.94
460.798	462.94
461.018	467.94
461.238	449.94
461.458	463.94
461.678	460.94
461.898	461.94
462.118	458.94
462.338	476.94
462.558	496.94
462.777	503.94
462.997	527.94
463.217	553.94
463.437	561.94
463.657	516.94
463.876	516.94
464.096	523.94
464.316	525.94
464.536	503.94
464.755	522.94
464.975	499.94
465.195	517.94
465.414	547.94
465.634	462.94
465.854	438.94
466.073	437.94
466.293	439.94
466.512	417.94
466.732	409.94
466.951	405.94
467.171	410.94
467.391	412.94
467.61	403.94
467.829	417.94
468.049	401.94
468.268	441.94
468.488	407.94
468.707	397.94
468.927	419.94
469.146	385.94
469.365	393.94
469.585	405.94
469.804	393.94
470.023	412.94
470.243	421.94
470.462	417.94
470.681	427.94
470.901	442.94
471.12	415.94
471.339	427.94
471.558	427.94
471.777	414.94
471.997	412.94
472.216	444.94
472.435	534.94
472.654	515.94
472.873	455.94
473.092	441.94
473.311	421.94
473.53	431.94
473.749	442.94
473.968	438.94
474.187	489.94
474.406	515.94
474.625	433.94
474.844	419.94
475.063	394.94
475.282	417.94
475.501	405.94
475.72	417.94
475.939	427.94
476.158	435.94
476.377	421.94
476.596	422.94
476.814	397.94
477.033	437.94
477.252	421.94
477.471	423.94
477.69	443.94
477.908	458.94
478.127	461.94
478.346	456.94
478.564	461.94
478.783	475.94
479.002	488.94
479.22	504.94
479.439	477.94
479.658	486.94
479.876	493.94
480.095	514.94
480.313	533.94
480.532	535.94
480.751	538.94
480.969	551.94
481.188	684.94
481.406	750.94
481.624	603.94
481.843	540.94
482.061	522.94
482.28	503.94
482.498	487.94
482.717	482.94
482.935	457.94
483.153	500.94
483.372	494.94
483.59	464.94
483.808	459.94
484.027	489.94
484.245	492.94
484.463	461.94
484.681	490.94
484.9	459.94
485.118	477.94
485.336	453.94
485.554	490.94
485.772	487.94
485.99	478.94
486.209	491.94
486.427	463.94
486.645	489.94
486.863	501.94
487.081	501.94
487.299	492.94
487.517	489.94
487.735	471.94
487.953	499.94
488.171	510.94
488.389	505.94
488.607	485.94
488.825	517.94
489.043	494.94
489.261	516.94
489.479	483.94
489.696	523.94
489.914	517.94
490.132	518.94
490.35	545.94
490.568	519.94
490.786	540.94
491.003	525.94
491.221	559.94
491.439	563.94
491.657	561.94
491.874	566.94
492.092	571.94
492.31	588.94
492.527	581.94
492.745	566.94
492.963	594.94
493.18	577.94
493.398	609.94
493.615	586.94
493.833	585.94
494.05	590.94
494.268	602.94
494.485	577.94
494.703	578.94
494.92	570.94
495.138	594.94
495.355	588.94
495.573	570.94
495.79	578.94
496.008	590.94
496.225	578.94
496.442	585.94
496.66	589.94
496.877	570.94
497.094	601.94
497.312	593.94
497.529	574.94
497.746	614.94
497.963	625.94
498.181	638.94
498.398	686.94
498.615	691.94
498.832	727.94
499.049	732.94
499.267	796.94
499.484	825.94
499.701	861.94
499.918	884.94
500.135	983.94
500.352	1068.94
500.569	1097.94
500.786	1117.94
501.003	1079.94
501.22	987.94
501.437	899.94
501.654	894.94
501.871	828.94
