Data from 1984.PennyLincolnUp.Lamp.En5.5.200Scan.071819.P1_HRD10591_16-58-58-977.txt Node
Date: Thu Jul 18 16:58:58 EDT 2019
User: cochatt
Spectrometer: HR+D1059
Trigger mode: 1
Integration Time (sec): 1.000000E-1
Scans to average: 1
Electric dark correction enabled: true
Nonlinearity correction enabled: false
Boxcar width: 0
XAxis mode: Wavelengths
Number of Pixels in Spectrum: 2048
>>>>>Begin Spectral Data<<<<<
223.165	-14.56
223.4	-14.56
223.635	-14.56
223.869	-10.56
224.104	-14.56
224.338	-14.56
224.573	-5.56
224.808	-19.56
225.042	-19.56
225.277	-5.56
225.511	-7.56
225.746	9.44
225.98	0.44
226.215	7.44
226.449	13.44
226.683	13.44
226.918	26.44
227.152	41.44
227.387	40.44
227.621	45.44
227.856	42.44
228.09	50.44
228.324	55.44
228.559	52.44
228.793	62.44
229.027	88.44
229.262	95.44
229.496	103.44
229.73	117.44
229.964	129.44
230.199	124.44
230.433	112.44
230.667	112.44
230.901	116.44
231.136	98.44
231.37	101.44
231.604	109.44
231.838	124.44
232.072	118.44
232.306	110.44
232.541	119.44
232.775	119.44
233.009	125.44
233.243	110.44
233.477	132.44
233.711	123.44
233.945	99.44
234.179	119.44
234.413	102.44
234.647	120.44
234.881	123.44
235.115	124.44
235.349	121.44
235.583	109.44
235.817	110.44
236.051	117.44
236.285	126.44
236.519	121.44
236.753	109.44
236.987	137.44
237.221	148.44
237.455	183.44
237.689	140.44
237.922	132.44
238.156	125.44
238.39	108.44
238.624	113.44
238.858	123.44
239.091	114.44
239.325	117.44
239.559	136.44
239.793	126.44
240.027	133.44
240.26	136.44
240.494	145.44
240.728	147.44
240.961	132.44
241.195	128.44
241.429	128.44
241.662	119.44
241.896	128.44
242.13	134.44
242.363	117.44
242.597	131.44
242.83	136.44
243.064	133.44
243.298	144.44
243.531	137.44
243.765	119.44
243.998	141.44
244.232	119.44
244.465	144.44
244.699	132.44
244.932	138.44
245.166	128.44
245.399	143.44
245.633	125.44
245.866	148.44
246.099	151.44
246.333	146.44
246.566	144.44
246.8	139.44
247.033	145.44
247.266	161.44
247.5	158.44
247.733	158.44
247.966	151.44
248.2	141.44
248.433	146.44
248.666	169.44
248.899	166.44
249.133	185.44
249.366	179.44
249.599	175.44
249.832	180.44
250.066	162.44
250.299	164.44
250.532	167.44
250.765	186.44
250.998	204.44
251.231	194.44
251.465	187.44
251.698	197.44
251.931	181.44
252.164	182.44
252.397	174.44
252.63	186.44
252.863	186.44
253.096	171.44
253.329	188.44
253.562	182.44
253.795	194.44
254.028	187.44
254.261	188.44
254.494	182.44
254.727	213.44
254.96	225.44
255.193	221.44
255.426	199.44
255.659	208.44
255.892	215.44
256.124	230.44
256.357	258.44
256.59	233.44
256.823	215.44
257.056	208.44
257.289	200.44
257.521	196.44
257.754	209.44
257.987	200.44
258.22	196.44
258.452	197.44
258.685	191.44
258.918	196.44
259.151	190.44
259.383	195.44
259.616	208.44
259.849	193.44
260.081	227.44
260.314	226.44
260.547	211.44
260.779	217.44
261.012	204.44
261.244	201.44
261.477	191.44
261.71	200.44
261.942	200.44
262.175	192.44
262.407	197.44
262.64	190.44
262.872	207.44
263.105	196.44
263.337	197.44
263.57	197.44
263.802	205.44
264.035	189.44
264.267	207.44
264.499	219.44
264.732	215.44
264.964	194.44
265.197	200.44
265.429	216.44
265.661	212.44
265.894	216.44
266.126	220.44
266.358	194.44
266.591	190.44
266.823	202.44
267.055	212.44
267.287	211.44
267.52	203.44
267.752	216.44
267.984	212.44
268.216	217.44
268.448	220.44
268.681	226.44
268.913	230.44
269.145	232.44
269.377	258.44
269.609	241.44
269.841	232.44
270.073	251.44
270.306	240.44
270.538	265.44
270.77	247.44
271.002	246.44
271.234	239.44
271.466	277.44
271.698	283.44
271.93	264.44
272.162	291.44
272.394	277.44
272.626	254.44
272.858	248.44
273.09	234.44
273.322	236.44
273.553	256.44
273.785	246.44
274.017	222.44
274.249	242.44
274.481	238.44
274.713	241.44
274.945	254.44
275.176	242.44
275.408	248.44
275.64	250.44
275.872	229.44
276.104	246.44
276.335	264.44
276.567	242.44
276.799	269.44
277.031	272.44
277.262	284.44
277.494	282.44
277.726	276.44
277.957	278.44
278.189	270.44
278.421	244.44
278.652	278.44
278.884	262.44
279.115	255.44
279.347	252.44
279.579	255.44
279.81	260.44
280.042	262.44
280.273	252.44
280.505	261.44
280.736	269.44
280.968	263.44
281.199	264.44
281.431	260.44
281.662	252.44
281.894	269.44
282.125	277.44
282.356	275.44
282.588	274.44
282.819	264.44
283.051	265.44
283.282	261.44
283.513	266.44
283.745	274.44
283.976	271.44
284.207	266.44
284.439	268.44
284.67	270.44
284.901	268.44
285.132	274.44
285.364	274.44
285.595	275.44
285.826	276.44
286.057	285.44
286.288	281.44
286.52	289.44
286.751	272.44
286.982	280.44
287.213	264.44
287.444	281.44
287.675	290.44
287.906	264.44
288.138	280.44
288.369	289.44
288.6	296.44
288.831	288.44
289.062	279.44
289.293	281.44
289.524	281.44
289.755	293.44
289.986	286.44
290.217	285.44
290.448	276.44
290.679	279.44
290.91	277.44
291.141	272.44
291.371	277.44
291.602	282.44
291.833	293.44
292.064	286.44
292.295	271.44
292.526	280.44
292.757	283.44
292.987	277.44
293.218	286.44
293.449	264.44
293.68	302.44
293.91	289.44
294.141	294.44
294.372	272.44
294.603	292.44
294.833	278.44
295.064	273.44
295.295	273.44
295.525	300.44
295.756	294.44
295.987	308.44
296.217	325.44
296.448	326.44
296.679	313.44
296.909	296.44
297.14	301.44
297.37	306.44
297.601	289.44
297.831	303.44
298.062	289.44
298.292	292.44
298.523	288.44
298.753	292.44
298.984	311.44
299.214	294.44
299.445	306.44
299.675	310.44
299.905	299.44
300.136	334.44
300.366	309.44
300.597	315.44
300.827	336.44
301.057	310.44
301.288	301.44
301.518	296.44
301.748	304.44
301.979	305.44
302.209	319.44
302.439	312.44
302.669	322.44
302.9	316.44
303.13	329.44
303.36	341.44
303.59	320.44
303.82	326.44
304.051	344.44
304.281	317.44
304.511	305.44
304.741	321.44
304.971	310.44
305.201	319.44
305.431	305.44
305.661	317.44
305.891	324.44
306.121	325.44
306.352	315.44
306.582	346.44
306.812	333.44
307.042	316.44
307.272	334.44
307.502	332.44
307.731	312.44
307.961	332.44
308.191	320.44
308.421	326.44
308.651	335.44
308.881	310.44
309.111	333.44
309.341	337.44
309.571	318.44
309.8	344.44
310.03	336.44
310.26	336.44
310.49	356.44
310.72	340.44
310.949	357.44
311.179	342.44
311.409	354.44
311.639	356.44
311.868	331.44
312.098	342.44
312.328	349.44
312.557	380.44
312.787	355.44
313.017	352.44
313.246	342.44
313.476	350.44
313.706	348.44
313.935	351.44
314.165	358.44
314.394	379.44
314.624	344.44
314.853	350.44
315.083	361.44
315.312	332.44
315.542	353.44
315.771	335.44
316.001	354.44
316.23	361.44
316.46	359.44
316.689	345.44
316.919	343.44
317.148	353.44
317.377	356.44
317.607	350.44
317.836	367.44
318.065	344.44
318.295	352.44
318.524	342.44
318.753	329.44
318.983	339.44
319.212	354.44
319.441	376.44
319.67	360.44
319.9	362.44
320.129	354.44
320.358	366.44
320.587	355.44
320.816	368.44
321.046	365.44
321.275	337.44
321.504	353.44
321.733	378.44
321.962	349.44
322.191	378.44
322.42	372.44
322.649	375.44
322.878	401.44
323.108	403.44
323.337	402.44
323.566	417.44
323.795	422.44
324.024	479.44
324.253	530.44
324.482	696.44
324.71	997.44
324.939	1363.44
325.168	1187.44
325.397	654.44
325.626	529.44
325.855	460.44
326.084	431.44
326.313	429.44
326.542	462.44
326.77	471.44
326.999	520.44
327.228	652.44
327.457	909.44
327.686	1094.44
327.914	761.44
328.143	585.44
328.372	529.44
328.6	495.44
328.829	465.44
329.058	484.44
329.287	479.44
329.515	476.44
329.744	484.44
329.972	469.44
330.201	502.44
330.43	555.44
330.658	543.44
330.887	534.44
331.115	511.44
331.344	454.44
331.572	418.44
331.801	447.44
332.03	456.44
332.258	442.44
332.486	461.44
332.715	465.44
332.943	449.44
333.172	460.44
333.4	485.44
333.629	455.44
333.857	497.44
334.085	535.44
334.314	551.44
334.542	598.44
334.771	614.44
334.999	552.44
335.227	497.44
335.455	453.44
335.684	454.44
335.912	440.44
336.14	424.44
336.369	430.44
336.597	448.44
336.825	441.44
337.053	432.44
337.281	410.44
337.51	424.44
337.738	405.44
337.966	408.44
338.194	401.44
338.422	412.44
338.65	408.44
338.878	411.44
339.106	426.44
339.334	401.44
339.562	386.44
339.79	381.44
340.018	392.44
340.246	397.44
340.474	401.44
340.702	393.44
340.93	405.44
341.158	383.44
341.386	406.44
341.614	392.44
341.842	381.44
342.07	390.44
342.298	395.44
342.526	384.44
342.754	374.44
342.981	390.44
343.209	374.44
343.437	402.44
343.665	409.44
343.893	434.44
344.12	427.44
344.348	436.44
344.576	406.44
344.804	427.44
345.031	411.44
345.259	383.44
345.487	389.44
345.714	396.44
345.942	373.44
346.17	391.44
346.397	386.44
346.625	370.44
346.853	372.44
347.08	382.44
347.308	368.44
347.535	369.44
347.763	386.44
347.99	389.44
348.218	378.44
348.445	402.44
348.673	372.44
348.9	378.44
349.128	377.44
349.355	376.44
349.583	366.44
349.81	362.44
350.037	372.44
350.265	357.44
350.492	372.44
350.72	361.44
350.947	371.44
351.174	376.44
351.402	365.44
351.629	390.44
351.856	374.44
352.083	382.44
352.311	356.44
352.538	357.44
352.765	372.44
352.992	365.44
353.22	380.44
353.447	376.44
353.674	339.44
353.901	346.44
354.128	351.44
354.355	356.44
354.583	357.44
354.81	348.44
355.037	344.44
355.264	349.44
355.491	346.44
355.718	349.44
355.945	359.44
356.172	356.44
356.399	332.44
356.626	357.44
356.853	349.44
357.08	346.44
357.307	355.44
357.534	338.44
357.761	329.44
357.988	366.44
358.215	364.44
358.441	358.44
358.668	330.44
358.895	349.44
359.122	356.44
359.349	361.44
359.576	334.44
359.802	394.44
360.029	394.44
360.256	379.44
360.483	392.44
360.709	375.44
360.936	367.44
361.163	361.44
361.39	356.44
361.616	353.44
361.843	354.44
362.07	343.44
362.296	362.44
362.523	369.44
362.749	351.44
362.976	361.44
363.203	356.44
363.429	356.44
363.656	342.44
363.882	359.44
364.109	359.44
364.335	354.44
364.562	346.44
364.788	358.44
365.015	357.44
365.241	364.44
365.468	338.44
365.694	358.44
365.92	350.44
366.147	346.44
366.373	357.44
366.599	347.44
366.826	336.44
367.052	368.44
367.278	357.44
367.505	356.44
367.731	347.44
367.957	329.44
368.184	337.44
368.41	343.44
368.636	353.44
368.862	385.44
369.089	356.44
369.315	346.44
369.541	348.44
369.767	344.44
369.993	356.44
370.219	348.44
370.445	384.44
370.672	356.44
370.898	361.44
371.124	357.44
371.35	365.44
371.576	367.44
371.802	371.44
372.028	360.44
372.254	352.44
372.48	361.44
372.706	378.44
372.932	374.44
373.158	381.44
373.384	369.44
373.61	358.44
373.835	352.44
374.061	367.44
374.287	349.44
374.513	369.44
374.739	370.44
374.965	400.44
375.191	382.44
375.416	381.44
375.642	373.44
375.868	386.44
376.094	369.44
376.319	356.44
376.545	361.44
376.771	374.44
376.997	345.44
377.222	350.44
377.448	344.44
377.674	363.44
377.899	375.44
378.125	348.44
378.35	332.44
378.576	360.44
378.802	322.44
379.027	344.44
379.253	361.44
379.478	359.44
379.704	350.44
379.929	357.44
380.155	361.44
380.38	345.44
380.606	352.44
380.831	362.44
381.057	355.44
381.282	354.44
381.507	359.44
381.733	359.44
381.958	357.44
382.184	364.44
382.409	365.44
382.634	354.44
382.86	360.44
383.085	379.44
383.31	362.44
383.535	378.44
383.761	402.44
383.986	381.44
384.211	398.44
384.436	379.44
384.662	400.44
384.887	389.44
385.112	391.44
385.337	384.44
385.562	398.44
385.787	403.44
386.013	411.44
386.238	382.44
386.463	402.44
386.688	407.44
386.913	422.44
387.138	390.44
387.363	406.44
387.588	415.44
387.813	406.44
388.038	425.44
388.263	414.44
388.488	397.44
388.713	402.44
388.938	395.44
389.163	414.44
389.387	393.44
389.612	408.44
389.837	386.44
390.062	400.44
390.287	414.44
390.512	405.44
390.736	395.44
390.961	392.44
391.186	407.44
391.411	409.44
391.636	398.44
391.86	404.44
392.085	436.44
392.31	432.44
392.534	436.44
392.759	410.44
392.984	421.44
393.208	408.44
393.433	417.44
393.658	404.44
393.882	426.44
394.107	392.44
394.331	416.44
394.556	422.44
394.78	431.44
395.005	402.44
395.229	406.44
395.454	416.44
395.678	431.44
395.903	446.44
396.127	443.44
396.352	442.44
396.576	416.44
396.801	440.44
397.025	423.44
397.249	422.44
397.474	422.44
397.698	429.44
397.922	445.44
398.147	451.44
398.371	471.44
398.595	477.44
398.82	474.44
399.044	468.44
399.268	505.44
399.492	578.44
399.717	612.44
399.941	638.44
400.165	610.44
400.389	590.44
400.613	568.44
400.837	500.44
401.062	478.44
401.286	487.44
401.51	502.44
401.734	476.44
401.958	474.44
402.182	485.44
402.406	500.44
402.63	465.44
402.854	500.44
403.078	493.44
403.302	512.44
403.526	513.44
403.75	518.44
403.974	519.44
404.198	510.44
404.422	520.44
404.645	528.44
404.869	519.44
405.093	550.44
405.317	576.44
405.541	600.44
405.765	554.44
405.988	521.44
406.212	560.44
406.436	553.44
406.66	565.44
406.883	536.44
407.107	557.44
407.331	611.44
407.555	644.44
407.778	632.44
408.002	582.44
408.226	565.44
408.449	545.44
408.673	536.44
408.896	561.44
409.12	589.44
409.344	566.44
409.567	524.44
409.791	503.44
410.014	511.44
410.238	512.44
410.461	509.44
410.685	519.44
410.908	502.44
411.132	536.44
411.355	541.44
411.578	532.44
411.802	496.44
412.025	491.44
412.249	520.44
412.472	516.44
412.695	552.44
412.919	553.44
413.142	525.44
413.365	515.44
413.589	472.44
413.812	493.44
414.035	476.44
414.258	483.44
414.482	459.44
414.705	481.44
414.928	470.44
415.151	478.44
415.374	453.44
415.597	474.44
415.821	444.44
416.044	447.44
416.267	463.44
416.49	469.44
416.713	466.44
416.936	470.44
417.159	456.44
417.382	471.44
417.605	452.44
417.828	475.44
418.051	485.44
418.274	473.44
418.497	473.44
418.72	471.44
418.943	470.44
419.166	490.44
419.389	506.44
419.611	516.44
419.834	492.44
420.057	508.44
420.28	524.44
420.503	521.44
420.726	495.44
420.948	512.44
421.171	525.44
421.394	529.44
421.617	497.44
421.839	484.44
422.062	481.44
422.285	476.44
422.507	520.44
422.73	567.44
422.953	557.44
423.175	513.44
423.398	493.44
423.621	519.44
423.843	518.44
424.066	484.44
424.288	503.44
424.511	510.44
424.733	545.44
424.956	575.44
425.178	548.44
425.401	548.44
425.623	577.44
425.846	530.44
426.068	482.44
426.291	479.44
426.513	472.44
426.735	480.44
426.958	497.44
427.18	559.44
427.402	636.44
427.625	684.44
427.847	589.44
428.069	548.44
428.292	496.44
428.514	482.44
428.736	468.44
428.958	457.44
429.181	426.44
429.403	441.44
429.625	452.44
429.847	462.44
430.069	506.44
430.292	506.44
430.514	445.44
430.736	439.44
430.958	436.44
431.18	442.44
431.402	424.44
431.624	428.44
431.846	438.44
432.068	440.44
432.29	423.44
432.512	423.44
432.734	439.44
432.956	434.44
433.178	438.44
433.4	460.44
433.622	427.44
433.844	426.44
434.066	427.44
434.287	432.44
434.509	457.44
434.731	470.44
434.953	460.44
435.175	461.44
435.397	486.44
435.618	490.44
435.84	490.44
436.062	557.44
436.284	577.44
436.505	488.44
436.727	464.44
436.949	461.44
437.17	444.44
437.392	438.44
437.614	464.44
437.835	461.44
438.057	494.44
438.278	580.44
438.5	554.44
438.721	602.44
438.943	592.44
439.165	489.44
439.386	484.44
439.608	462.44
439.829	447.44
440.05	487.44
440.272	516.44
440.493	484.44
440.715	474.44
440.936	474.44
441.158	456.44
441.379	447.44
441.6	468.44
441.822	475.44
442.043	536.44
442.264	537.44
442.486	574.44
442.707	509.44
442.928	508.44
443.149	480.44
443.371	498.44
443.592	537.44
443.813	565.44
444.034	609.44
444.255	555.44
444.476	531.44
444.698	514.44
444.919	553.44
445.14	594.44
445.361	578.44
445.582	540.44
445.803	539.44
446.024	585.44
446.245	585.44
446.466	544.44
446.687	495.44
446.908	483.44
447.129	441.44
447.35	447.44
447.571	447.44
447.792	427.44
448.013	417.44
448.234	415.44
448.455	485.44
448.675	528.44
448.896	596.44
449.117	508.44
449.338	490.44
449.559	557.44
449.779	611.44
450	516.44
450.221	453.44
450.442	423.44
450.662	406.44
450.883	422.44
451.104	420.44
451.324	401.44
451.545	411.44
451.766	401.44
451.986	410.44
452.207	401.44
452.428	386.44
452.648	406.44
452.869	389.44
453.089	404.44
453.31	438.44
453.53	397.44
453.751	385.44
453.971	386.44
454.192	428.44
454.412	386.44
454.633	375.44
454.853	394.44
455.073	383.44
455.294	395.44
455.514	424.44
455.734	433.44
455.955	412.44
456.175	379.44
456.395	372.44
456.616	375.44
456.836	378.44
457.056	372.44
457.276	382.44
457.497	382.44
457.717	378.44
457.937	367.44
458.157	384.44
458.377	390.44
458.598	395.44
458.818	438.44
459.038	467.44
459.258	488.44
459.478	466.44
459.698	436.44
459.918	437.44
460.138	429.44
460.358	466.44
460.578	474.44
460.798	460.44
461.018	494.44
461.238	492.44
461.458	450.44
461.678	441.44
461.898	466.44
462.118	461.44
462.338	493.44
462.558	498.44
462.777	497.44
462.997	537.44
463.217	560.44
463.437	540.44
463.657	535.44
463.876	520.44
464.096	554.44
464.316	527.44
464.536	509.44
464.755	495.44
464.975	495.44
465.195	494.44
465.414	504.44
465.634	484.44
465.854	445.44
466.073	448.44
466.293	411.44
466.512	422.44
466.732	422.44
466.951	424.44
467.171	405.44
467.391	416.44
467.61	411.44
467.829	413.44
468.049	428.44
468.268	439.44
468.488	417.44
468.707	413.44
468.927	409.44
469.146	405.44
469.365	392.44
469.585	394.44
469.804	406.44
470.023	424.44
470.243	417.44
470.462	442.44
470.681	456.44
470.901	441.44
471.12	418.44
471.339	418.44
471.558	403.44
471.777	431.44
471.997	431.44
472.216	440.44
472.435	475.44
472.654	453.44
472.873	441.44
473.092	414.44
473.311	400.44
473.53	402.44
473.749	402.44
473.968	433.44
474.187	447.44
474.406	493.44
474.625	444.44
474.844	414.44
475.063	400.44
475.282	426.44
475.501	413.44
475.72	416.44
475.939	412.44
476.158	428.44
476.377	420.44
476.596	410.44
476.814	428.44
477.033	412.44
477.252	421.44
477.471	444.44
477.69	447.44
477.908	455.44
478.127	461.44
478.346	454.44
478.564	447.44
478.783	490.44
479.002	470.44
479.22	490.44
479.439	507.44
479.658	478.44
479.876	494.44
480.095	516.44
480.313	530.44
480.532	530.44
480.751	536.44
480.969	548.44
481.188	600.44
481.406	652.44
481.624	564.44
481.843	529.44
482.061	490.44
482.28	497.44
482.498	471.44
482.717	479.44
482.935	469.44
483.153	474.44
483.372	478.44
483.59	465.44
483.808	460.44
484.027	481.44
484.245	472.44
484.463	461.44
484.681	460.44
484.9	501.44
485.118	474.44
485.336	486.44
485.554	489.44
485.772	485.44
485.99	480.44
486.209	482.44
486.427	489.44
486.645	489.44
486.863	496.44
487.081	519.44
487.299	497.44
487.517	504.44
487.735	496.44
487.953	491.44
488.171	482.44
488.389	477.44
488.607	503.44
488.825	507.44
489.043	507.44
489.261	489.44
489.479	502.44
489.696	516.44
489.914	507.44
490.132	511.44
490.35	518.44
490.568	520.44
490.786	535.44
491.003	571.44
491.221	550.44
491.439	554.44
491.657	545.44
491.874	544.44
492.092	562.44
492.31	581.44
492.527	582.44
492.745	612.44
492.963	604.44
493.18	593.44
493.398	577.44
493.615	568.44
493.833	573.44
494.05	556.44
494.268	592.44
494.485	576.44
494.703	564.44
494.92	567.44
495.138	560.44
495.355	579.44
495.573	567.44
495.79	566.44
496.008	567.44
496.225	555.44
496.442	554.44
496.66	561.44
496.877	584.44
497.094	600.44
497.312	581.44
497.529	578.44
497.746	615.44
497.963	606.44
498.181	630.44
498.398	646.44
498.615	681.44
498.832	685.44
499.049	717.44
499.267	745.44
499.484	800.44
499.701	852.44
499.918	902.44
500.135	988.44
500.352	1067.44
500.569	1103.44
500.786	1131.44
501.003	1060.44
501.22	974.44
501.437	923.44
501.654	863.44
501.871	810.44
