Data from 1984.PennyLincolnUp.Lamp.En5.5.200Scan.071819.P1_HRD10591_16-59-46-968.txt Node
Date: Thu Jul 18 16:59:46 EDT 2019
User: cochatt
Spectrometer: HR+D1059
Trigger mode: 1
Integration Time (sec): 1.000000E-1
Scans to average: 1
Electric dark correction enabled: true
Nonlinearity correction enabled: false
Boxcar width: 0
XAxis mode: Wavelengths
Number of Pixels in Spectrum: 2048
>>>>>Begin Spectral Data<<<<<
223.165	-13.38
223.4	-13.38
223.635	-13.38
223.869	-25.38
224.104	-19.38
224.338	-10.38
224.573	-13.38
224.808	-10.38
225.042	2.62
225.277	-0.38
225.511	-10.38
225.746	3.62
225.98	3.62
226.215	7.62
226.449	13.62
226.683	11.62
226.918	23.62
227.152	36.62
227.387	25.62
227.621	46.62
227.856	49.62
228.09	55.62
228.324	41.62
228.559	43.62
228.793	61.62
229.027	69.62
229.262	99.62
229.496	93.62
229.73	115.62
229.964	125.62
230.199	113.62
230.433	113.62
230.667	114.62
230.901	104.62
231.136	104.62
231.37	108.62
231.604	103.62
231.838	103.62
232.072	114.62
232.306	109.62
232.541	111.62
232.775	109.62
233.009	125.62
233.243	113.62
233.477	102.62
233.711	119.62
233.945	106.62
234.179	113.62
234.413	131.62
234.647	134.62
234.881	110.62
235.115	103.62
235.349	117.62
235.583	112.62
235.817	121.62
236.051	106.62
236.285	117.62
236.519	121.62
236.753	132.62
236.987	136.62
237.221	146.62
237.455	165.62
237.689	153.62
237.922	129.62
238.156	129.62
238.39	118.62
238.624	120.62
238.858	104.62
239.091	128.62
239.325	119.62
239.559	125.62
239.793	127.62
240.027	130.62
240.26	133.62
240.494	134.62
240.728	143.62
240.961	141.62
241.195	119.62
241.429	138.62
241.662	129.62
241.896	120.62
242.13	125.62
242.363	145.62
242.597	125.62
242.83	128.62
243.064	148.62
243.298	131.62
243.531	129.62
243.765	136.62
243.998	122.62
244.232	128.62
244.465	133.62
244.699	137.62
244.932	126.62
245.166	130.62
245.399	140.62
245.633	139.62
245.866	155.62
246.099	148.62
246.333	141.62
246.566	136.62
246.8	156.62
247.033	137.62
247.266	148.62
247.5	148.62
247.733	161.62
247.966	147.62
248.2	159.62
248.433	140.62
248.666	146.62
248.899	164.62
249.133	158.62
249.366	179.62
249.599	185.62
249.832	170.62
250.066	184.62
250.299	168.62
250.532	201.62
250.765	229.62
250.998	211.62
251.231	211.62
251.465	185.62
251.698	193.62
251.931	187.62
252.164	171.62
252.397	188.62
252.63	173.62
252.863	173.62
253.096	187.62
253.329	202.62
253.562	195.62
253.795	205.62
254.028	180.62
254.261	184.62
254.494	211.62
254.727	203.62
254.96	221.62
255.193	216.62
255.426	212.62
255.659	210.62
255.892	232.62
256.124	278.62
256.357	289.62
256.59	272.62
256.823	227.62
257.056	228.62
257.289	203.62
257.521	196.62
257.754	193.62
257.987	187.62
258.22	181.62
258.452	196.62
258.685	174.62
258.918	190.62
259.151	198.62
259.383	197.62
259.616	209.62
259.849	214.62
260.081	199.62
260.314	222.62
260.547	202.62
260.779	214.62
261.012	207.62
261.244	199.62
261.477	207.62
261.71	201.62
261.942	205.62
262.175	212.62
262.407	212.62
262.64	193.62
262.872	200.62
263.105	197.62
263.337	196.62
263.57	204.62
263.802	204.62
264.035	203.62
264.267	190.62
264.499	200.62
264.732	207.62
264.964	190.62
265.197	213.62
265.429	200.62
265.661	204.62
265.894	209.62
266.126	195.62
266.358	202.62
266.591	224.62
266.823	228.62
267.055	228.62
267.287	217.62
267.52	206.62
267.752	218.62
267.984	209.62
268.216	215.62
268.448	219.62
268.681	234.62
268.913	223.62
269.145	221.62
269.377	263.62
269.609	239.62
269.841	244.62
270.073	245.62
270.306	254.62
270.538	262.62
270.77	258.62
271.002	253.62
271.234	263.62
271.466	270.62
271.698	267.62
271.93	258.62
272.162	261.62
272.394	266.62
272.626	277.62
272.858	243.62
273.09	255.62
273.322	243.62
273.553	233.62
273.785	243.62
274.017	259.62
274.249	246.62
274.481	243.62
274.713	249.62
274.945	263.62
275.176	267.62
275.408	262.62
275.64	250.62
275.872	246.62
276.104	259.62
276.335	249.62
276.567	249.62
276.799	263.62
277.031	273.62
277.262	278.62
277.494	281.62
277.726	283.62
277.957	267.62
278.189	262.62
278.421	249.62
278.652	263.62
278.884	251.62
279.115	269.62
279.347	268.62
279.579	250.62
279.81	244.62
280.042	252.62
280.273	273.62
280.505	268.62
280.736	277.62
280.968	263.62
281.199	274.62
281.431	248.62
281.662	250.62
281.894	272.62
282.125	281.62
282.356	273.62
282.588	263.62
282.819	277.62
283.051	281.62
283.282	259.62
283.513	270.62
283.745	297.62
283.976	271.62
284.207	283.62
284.439	277.62
284.67	276.62
284.901	285.62
285.132	282.62
285.364	266.62
285.595	281.62
285.826	271.62
286.057	293.62
286.288	274.62
286.52	288.62
286.751	269.62
286.982	261.62
287.213	295.62
287.444	308.62
287.675	300.62
287.906	280.62
288.138	285.62
288.369	301.62
288.6	306.62
288.831	269.62
289.062	290.62
289.293	302.62
289.524	315.62
289.755	312.62
289.986	290.62
290.217	283.62
290.448	294.62
290.679	299.62
290.91	289.62
291.141	294.62
291.371	294.62
291.602	299.62
291.833	298.62
292.064	301.62
292.295	302.62
292.526	292.62
292.757	283.62
292.987	289.62
293.218	283.62
293.449	300.62
293.68	281.62
293.91	279.62
294.141	289.62
294.372	281.62
294.603	286.62
294.833	289.62
295.064	307.62
295.295	290.62
295.525	289.62
295.756	300.62
295.987	273.62
296.217	305.62
296.448	312.62
296.679	320.62
296.909	300.62
297.14	295.62
297.37	306.62
297.601	300.62
297.831	293.62
298.062	314.62
298.292	298.62
298.523	296.62
298.753	300.62
298.984	317.62
299.214	310.62
299.445	291.62
299.675	294.62
299.905	301.62
300.136	289.62
300.366	312.62
300.597	302.62
300.827	331.62
301.057	324.62
301.288	326.62
301.518	323.62
301.748	329.62
301.979	320.62
302.209	320.62
302.439	341.62
302.669	326.62
302.9	341.62
303.13	322.62
303.36	323.62
303.59	335.62
303.82	334.62
304.051	308.62
304.281	323.62
304.511	331.62
304.741	322.62
304.971	318.62
305.201	314.62
305.431	330.62
305.661	327.62
305.891	315.62
306.121	315.62
306.352	336.62
306.582	335.62
306.812	309.62
307.042	331.62
307.272	328.62
307.502	338.62
307.731	321.62
307.961	319.62
308.191	324.62
308.421	330.62
308.651	335.62
308.881	319.62
309.111	313.62
309.341	339.62
309.571	344.62
309.8	362.62
310.03	350.62
310.26	356.62
310.49	337.62
310.72	356.62
310.949	362.62
311.179	373.62
311.409	349.62
311.639	347.62
311.868	350.62
312.098	364.62
312.328	364.62
312.557	380.62
312.787	380.62
313.017	365.62
313.246	374.62
313.476	344.62
313.706	358.62
313.935	384.62
314.165	380.62
314.394	350.62
314.624	379.62
314.853	367.62
315.083	367.62
315.312	357.62
315.542	336.62
315.771	361.62
316.001	364.62
316.23	364.62
316.46	349.62
316.689	359.62
316.919	358.62
317.148	334.62
317.377	354.62
317.607	355.62
317.836	349.62
318.065	362.62
318.295	371.62
318.524	341.62
318.753	344.62
318.983	363.62
319.212	365.62
319.441	348.62
319.67	369.62
319.9	350.62
320.129	358.62
320.358	366.62
320.587	328.62
320.816	335.62
321.046	346.62
321.275	347.62
321.504	351.62
321.733	363.62
321.962	378.62
322.191	385.62
322.42	386.62
322.649	392.62
322.878	396.62
323.108	406.62
323.337	427.62
323.566	426.62
323.795	443.62
324.024	480.62
324.253	551.62
324.482	732.62
324.71	1067.62
324.939	1467.62
325.168	1258.62
325.397	706.62
325.626	546.62
325.855	472.62
326.084	443.62
326.313	451.62
326.542	450.62
326.77	480.62
326.999	559.62
327.228	730.62
327.457	1008.62
327.686	1174.62
327.914	853.62
328.143	627.62
328.372	575.62
328.6	554.62
328.829	513.62
329.058	486.62
329.287	517.62
329.515	507.62
329.744	502.62
329.972	544.62
330.201	598.62
330.43	683.62
330.658	626.62
330.887	573.62
331.115	543.62
331.344	519.62
331.572	484.62
331.801	460.62
332.03	473.62
332.258	455.62
332.486	461.62
332.715	454.62
332.943	484.62
333.172	487.62
333.4	477.62
333.629	515.62
333.857	566.62
334.085	597.62
334.314	686.62
334.542	782.62
334.771	795.62
334.999	624.62
335.227	523.62
335.455	489.62
335.684	462.62
335.912	467.62
336.14	447.62
336.369	460.62
336.597	465.62
336.825	441.62
337.053	447.62
337.281	434.62
337.51	425.62
337.738	423.62
337.966	437.62
338.194	440.62
338.422	419.62
338.65	430.62
338.878	413.62
339.106	400.62
339.334	399.62
339.562	429.62
339.79	414.62
340.018	417.62
340.246	389.62
340.474	402.62
340.702	401.62
340.93	415.62
341.158	405.62
341.386	393.62
341.614	401.62
341.842	408.62
342.07	392.62
342.298	391.62
342.526	376.62
342.754	386.62
342.981	387.62
343.209	415.62
343.437	399.62
343.665	413.62
343.893	429.62
344.12	456.62
344.348	423.62
344.576	420.62
344.804	420.62
345.031	400.62
345.259	409.62
345.487	387.62
345.714	378.62
345.942	385.62
346.17	395.62
346.397	399.62
346.625	383.62
346.853	380.62
347.08	374.62
347.308	388.62
347.535	376.62
347.763	390.62
347.99	394.62
348.218	393.62
348.445	394.62
348.673	387.62
348.9	379.62
349.128	372.62
349.355	382.62
349.583	378.62
349.81	372.62
350.037	358.62
350.265	363.62
350.492	365.62
350.72	377.62
350.947	380.62
351.174	374.62
351.402	387.62
351.629	387.62
351.856	375.62
352.083	359.62
352.311	391.62
352.538	383.62
352.765	387.62
352.992	382.62
353.22	372.62
353.447	353.62
353.674	387.62
353.901	363.62
354.128	354.62
354.355	350.62
354.583	347.62
354.81	364.62
355.037	349.62
355.264	362.62
355.491	364.62
355.718	365.62
355.945	342.62
356.172	345.62
356.399	369.62
356.626	369.62
356.853	358.62
357.08	341.62
357.307	372.62
357.534	377.62
357.761	374.62
357.988	377.62
358.215	350.62
358.441	347.62
358.668	375.62
358.895	366.62
359.122	362.62
359.349	365.62
359.576	365.62
359.802	399.62
360.029	390.62
360.256	404.62
360.483	398.62
360.709	363.62
360.936	379.62
361.163	369.62
361.39	354.62
361.616	369.62
361.843	380.62
362.07	355.62
362.296	387.62
362.523	362.62
362.749	377.62
362.976	369.62
363.203	365.62
363.429	359.62
363.656	370.62
363.882	358.62
364.109	347.62
364.335	366.62
364.562	350.62
364.788	328.62
365.015	336.62
365.241	346.62
365.468	357.62
365.694	355.62
365.92	361.62
366.147	359.62
366.373	353.62
366.599	358.62
366.826	348.62
367.052	339.62
367.278	367.62
367.505	347.62
367.731	344.62
367.957	352.62
368.184	357.62
368.41	366.62
368.636	384.62
368.862	370.62
369.089	378.62
369.315	378.62
369.541	362.62
369.767	366.62
369.993	362.62
370.219	363.62
370.445	378.62
370.672	363.62
370.898	350.62
371.124	374.62
371.35	369.62
371.576	363.62
371.802	359.62
372.028	363.62
372.254	366.62
372.48	365.62
372.706	370.62
372.932	369.62
373.158	366.62
373.384	383.62
373.61	378.62
373.835	374.62
374.061	359.62
374.287	352.62
374.513	358.62
374.739	365.62
374.965	377.62
375.191	395.62
375.416	394.62
375.642	364.62
375.868	364.62
376.094	360.62
376.319	357.62
376.545	366.62
376.771	351.62
376.997	351.62
377.222	362.62
377.448	377.62
377.674	378.62
377.899	361.62
378.125	354.62
378.35	361.62
378.576	339.62
378.802	358.62
379.027	374.62
379.253	353.62
379.478	359.62
379.704	344.62
379.929	350.62
380.155	362.62
380.38	359.62
380.606	363.62
380.831	356.62
381.057	375.62
381.282	369.62
381.507	361.62
381.733	347.62
381.958	362.62
382.184	374.62
382.409	385.62
382.634	379.62
382.86	404.62
383.085	366.62
383.31	389.62
383.535	393.62
383.761	382.62
383.986	391.62
384.211	392.62
384.436	419.62
384.662	414.62
384.887	426.62
385.112	411.62
385.337	429.62
385.562	407.62
385.787	393.62
386.013	427.62
386.238	413.62
386.463	428.62
386.688	418.62
386.913	423.62
387.138	411.62
387.363	399.62
387.588	401.62
387.813	406.62
388.038	397.62
388.263	387.62
388.488	419.62
388.713	414.62
388.938	416.62
389.163	411.62
389.387	409.62
389.612	391.62
389.837	414.62
390.062	400.62
390.287	418.62
390.512	407.62
390.736	413.62
390.961	411.62
391.186	427.62
391.411	434.62
391.636	429.62
391.86	431.62
392.085	428.62
392.31	447.62
392.534	436.62
392.759	418.62
392.984	437.62
393.208	419.62
393.433	436.62
393.658	439.62
393.882	402.62
394.107	428.62
394.331	420.62
394.556	415.62
394.78	411.62
395.005	419.62
395.229	423.62
395.454	441.62
395.678	425.62
395.903	433.62
396.127	447.62
396.352	446.62
396.576	452.62
396.801	438.62
397.025	426.62
397.249	435.62
397.474	447.62
397.698	442.62
397.922	462.62
398.147	464.62
398.371	461.62
398.595	468.62
398.82	481.62
399.044	502.62
399.268	523.62
399.492	584.62
399.717	617.62
399.941	651.62
400.165	635.62
400.389	595.62
400.613	531.62
400.837	524.62
401.062	491.62
401.286	493.62
401.51	502.62
401.734	476.62
401.958	481.62
402.182	511.62
402.406	500.62
402.63	504.62
402.854	493.62
403.078	493.62
403.302	498.62
403.526	529.62
403.75	525.62
403.974	507.62
404.198	535.62
404.422	532.62
404.645	553.62
404.869	541.62
405.093	577.62
405.317	606.62
405.541	643.62
405.765	587.62
405.988	555.62
406.212	537.62
406.436	561.62
406.66	567.62
406.883	550.62
407.107	569.62
407.331	591.62
407.555	654.62
407.778	643.62
408.002	597.62
408.226	579.62
408.449	542.62
408.673	557.62
408.896	546.62
409.12	577.62
409.344	568.62
409.567	523.62
409.791	503.62
410.014	501.62
410.238	517.62
410.461	503.62
410.685	513.62
410.908	513.62
411.132	552.62
411.355	539.62
411.578	547.62
411.802	527.62
412.025	502.62
412.249	550.62
412.472	564.62
412.695	605.62
412.919	602.62
413.142	565.62
413.365	538.62
413.589	531.62
413.812	502.62
414.035	479.62
414.258	457.62
414.482	483.62
414.705	499.62
414.928	478.62
415.151	470.62
415.374	441.62
415.597	470.62
415.821	479.62
416.044	457.62
416.267	465.62
416.49	497.62
416.713	456.62
416.936	479.62
417.159	499.62
417.382	467.62
417.605	497.62
417.828	493.62
418.051	489.62
418.274	482.62
418.497	469.62
418.72	483.62
418.943	485.62
419.166	501.62
419.389	550.62
419.611	524.62
419.834	536.62
420.057	538.62
420.28	544.62
420.503	543.62
420.726	528.62
420.948	528.62
421.171	546.62
421.394	549.62
421.617	490.62
421.839	466.62
422.062	488.62
422.285	523.62
422.507	526.62
422.73	583.62
422.953	581.62
423.175	523.62
423.398	507.62
423.621	518.62
423.843	527.62
424.066	499.62
424.288	526.62
424.511	527.62
424.733	577.62
424.956	577.62
425.178	565.62
425.401	565.62
425.623	587.62
425.846	523.62
426.068	490.62
426.291	500.62
426.513	492.62
426.735	501.62
426.958	502.62
427.18	540.62
427.402	658.62
427.625	714.62
427.847	631.62
428.069	573.62
428.292	535.62
428.514	489.62
428.736	456.62
428.958	450.62
429.181	445.62
429.403	435.62
429.625	462.62
429.847	467.62
430.069	489.62
430.292	498.62
430.514	447.62
430.736	428.62
430.958	446.62
431.18	460.62
431.402	429.62
431.624	435.62
431.846	449.62
432.068	429.62
432.29	441.62
432.512	445.62
432.734	462.62
432.956	443.62
433.178	453.62
433.4	457.62
433.622	445.62
433.844	449.62
434.066	445.62
434.287	455.62
434.509	453.62
434.731	469.62
434.953	463.62
435.175	467.62
435.397	493.62
435.618	498.62
435.84	522.62
436.062	555.62
436.284	597.62
436.505	517.62
436.727	486.62
436.949	482.62
437.17	456.62
437.392	451.62
437.614	451.62
437.835	472.62
438.057	536.62
438.278	578.62
438.5	579.62
438.721	610.62
438.943	603.62
439.165	515.62
439.386	475.62
439.608	468.62
439.829	484.62
440.05	488.62
440.272	509.62
440.493	482.62
440.715	476.62
440.936	466.62
441.158	447.62
441.379	457.62
441.6	494.62
441.822	482.62
442.043	509.62
442.264	521.62
442.486	578.62
442.707	521.62
442.928	492.62
443.149	518.62
443.371	527.62
443.592	525.62
443.813	602.62
444.034	641.62
444.255	567.62
444.476	531.62
444.698	542.62
444.919	568.62
445.14	617.62
445.361	551.62
445.582	527.62
445.803	543.62
446.024	606.62
446.245	599.62
446.466	570.62
446.687	509.62
446.908	472.62
447.129	457.62
447.35	435.62
447.571	423.62
447.792	423.62
448.013	428.62
448.234	442.62
448.455	471.62
448.675	543.62
448.896	588.62
449.117	537.62
449.338	491.62
449.559	561.62
449.779	632.62
450	534.62
450.221	450.62
450.442	435.62
450.662	410.62
450.883	438.62
451.104	433.62
451.324	414.62
451.545	411.62
451.766	420.62
451.986	409.62
452.207	386.62
452.428	381.62
452.648	389.62
452.869	411.62
453.089	386.62
453.31	405.62
453.53	394.62
453.751	389.62
453.971	405.62
454.192	400.62
454.412	386.62
454.633	398.62
454.853	386.62
455.073	396.62
455.294	406.62
455.514	437.62
455.734	425.62
455.955	399.62
456.175	347.62
456.395	376.62
456.616	362.62
456.836	353.62
457.056	372.62
457.276	374.62
457.497	374.62
457.717	362.62
457.937	391.62
458.157	413.62
458.377	402.62
458.598	399.62
458.818	430.62
459.038	482.62
459.258	510.62
459.478	452.62
459.698	442.62
459.918	443.62
460.138	427.62
460.358	464.62
460.578	473.62
460.798	466.62
461.018	476.62
461.238	488.62
461.458	467.62
461.678	463.62
461.898	452.62
462.118	479.62
462.338	484.62
462.558	489.62
462.777	498.62
462.997	525.62
463.217	535.62
463.437	562.62
463.657	547.62
463.876	507.62
464.096	520.62
464.316	521.62
464.536	513.62
464.755	506.62
464.975	483.62
465.195	530.62
465.414	542.62
465.634	487.62
465.854	470.62
466.073	454.62
466.293	444.62
466.512	434.62
466.732	431.62
466.951	409.62
467.171	425.62
467.391	435.62
467.61	441.62
467.829	445.62
468.049	423.62
468.268	451.62
468.488	416.62
468.707	426.62
468.927	413.62
469.146	413.62
469.365	403.62
469.585	400.62
469.804	427.62
470.023	431.62
470.243	426.62
470.462	463.62
470.681	438.62
470.901	450.62
471.12	424.62
471.339	415.62
471.558	419.62
471.777	425.62
471.997	434.62
472.216	471.62
472.435	559.62
472.654	521.62
472.873	471.62
473.092	455.62
473.311	428.62
473.53	413.62
473.749	415.62
473.968	443.62
474.187	516.62
474.406	515.62
474.625	439.62
474.844	447.62
475.063	414.62
475.282	422.62
475.501	411.62
475.72	398.62
475.939	417.62
476.158	422.62
476.377	420.62
476.596	425.62
476.814	438.62
477.033	427.62
477.252	475.62
477.471	445.62
477.69	447.62
477.908	458.62
478.127	467.62
478.346	452.62
478.564	482.62
478.783	439.62
479.002	479.62
479.22	487.62
479.439	501.62
479.658	515.62
479.876	501.62
480.095	521.62
480.313	522.62
480.532	531.62
480.751	534.62
480.969	566.62
481.188	725.62
481.406	782.62
481.624	634.62
481.843	555.62
482.061	538.62
482.28	522.62
482.498	509.62
482.717	502.62
482.935	484.62
483.153	489.62
483.372	492.62
483.59	486.62
483.808	471.62
484.027	476.62
484.245	485.62
484.463	470.62
484.681	478.62
484.9	489.62
485.118	477.62
485.336	486.62
485.554	467.62
485.772	501.62
485.99	499.62
486.209	491.62
486.427	523.62
486.645	502.62
486.863	529.62
487.081	491.62
487.299	514.62
487.517	489.62
487.735	505.62
487.953	508.62
488.171	508.62
488.389	520.62
488.607	502.62
488.825	503.62
489.043	522.62
489.261	525.62
489.479	498.62
489.696	518.62
489.914	535.62
490.132	504.62
490.35	541.62
490.568	549.62
490.786	547.62
491.003	548.62
491.221	565.62
491.439	565.62
491.657	585.62
491.874	594.62
492.092	597.62
492.31	592.62
492.527	631.62
492.745	590.62
492.963	606.62
493.18	602.62
493.398	620.62
493.615	612.62
493.833	618.62
494.05	598.62
494.268	597.62
494.485	625.62
494.703	597.62
494.92	607.62
495.138	586.62
495.355	589.62
495.573	562.62
495.79	567.62
496.008	586.62
496.225	587.62
496.442	598.62
496.66	596.62
496.877	590.62
497.094	586.62
497.312	606.62
497.529	620.62
497.746	603.62
497.963	639.62
498.181	650.62
498.398	675.62
498.615	680.62
498.832	735.62
499.049	731.62
499.267	754.62
499.484	815.62
499.701	844.62
499.918	908.62
500.135	969.62
500.352	1065.62
500.569	1128.62
500.786	1142.62
501.003	1102.62
501.22	997.62
501.437	923.62
501.654	881.62
501.871	826.62
