Data from 1984.PennyLincolnUp.Lamp.En5.5.200Scan.071819.P1_HRD10591_16-57-14-967.txt Node
Date: Thu Jul 18 16:57:14 EDT 2019
User: cochatt
Spectrometer: HR+D1059
Trigger mode: 1
Integration Time (sec): 1.000000E-1
Scans to average: 1
Electric dark correction enabled: true
Nonlinearity correction enabled: false
Boxcar width: 0
XAxis mode: Wavelengths
Number of Pixels in Spectrum: 2048
>>>>>Begin Spectral Data<<<<<
223.165	-13.88
223.4	-13.88
223.635	-13.88
223.869	-10.88
224.104	-22.88
224.338	-3.88
224.573	-7.88
224.808	-13.88
225.042	-21.88
225.277	2.12
225.511	4.12
225.746	0.12
225.98	5.12
226.215	0.12
226.449	12.12
226.683	18.12
226.918	27.12
227.152	26.12
227.387	30.12
227.621	32.12
227.856	52.12
228.09	39.12
228.324	49.12
228.559	60.12
228.793	72.12
229.027	84.12
229.262	87.12
229.496	89.12
229.73	95.12
229.964	111.12
230.199	100.12
230.433	86.12
230.667	84.12
230.901	106.12
231.136	95.12
231.37	102.12
231.604	106.12
231.838	95.12
232.072	102.12
232.306	102.12
232.541	99.12
232.775	100.12
233.009	119.12
233.243	102.12
233.477	108.12
233.711	100.12
233.945	110.12
234.179	103.12
234.413	118.12
234.647	102.12
234.881	108.12
235.115	107.12
235.349	100.12
235.583	105.12
235.817	97.12
236.051	109.12
236.285	113.12
236.519	100.12
236.753	107.12
236.987	116.12
237.221	116.12
237.455	119.12
237.689	131.12
237.922	122.12
238.156	106.12
238.39	94.12
238.624	100.12
238.858	114.12
239.091	118.12
239.325	107.12
239.559	114.12
239.793	93.12
240.027	123.12
240.26	131.12
240.494	129.12
240.728	133.12
240.961	131.12
241.195	129.12
241.429	118.12
241.662	117.12
241.896	112.12
242.13	123.12
242.363	112.12
242.597	116.12
242.83	113.12
243.064	119.12
243.298	125.12
243.531	117.12
243.765	128.12
243.998	136.12
244.232	126.12
244.465	123.12
244.699	124.12
244.932	115.12
245.166	137.12
245.399	130.12
245.633	141.12
245.866	124.12
246.099	140.12
246.333	125.12
246.566	130.12
246.8	130.12
247.033	145.12
247.266	124.12
247.5	131.12
247.733	157.12
247.966	142.12
248.2	144.12
248.433	137.12
248.666	133.12
248.899	148.12
249.133	133.12
249.366	148.12
249.599	164.12
249.832	149.12
250.066	166.12
250.299	156.12
250.532	161.12
250.765	161.12
250.998	154.12
251.231	158.12
251.465	166.12
251.698	156.12
251.931	155.12
252.164	180.12
252.397	153.12
252.63	154.12
252.863	162.12
253.096	165.12
253.329	147.12
253.562	158.12
253.795	172.12
254.028	162.12
254.261	170.12
254.494	162.12
254.727	184.12
254.96	191.12
255.193	173.12
255.426	168.12
255.659	177.12
255.892	170.12
256.124	169.12
256.357	167.12
256.59	164.12
256.823	172.12
257.056	168.12
257.289	173.12
257.521	178.12
257.754	162.12
257.987	171.12
258.22	177.12
258.452	170.12
258.685	178.12
258.918	177.12
259.151	170.12
259.383	170.12
259.616	185.12
259.849	182.12
260.081	178.12
260.314	186.12
260.547	178.12
260.779	175.12
261.012	182.12
261.244	202.12
261.477	186.12
261.71	186.12
261.942	181.12
262.175	182.12
262.407	169.12
262.64	178.12
262.872	187.12
263.105	192.12
263.337	183.12
263.57	181.12
263.802	195.12
264.035	168.12
264.267	185.12
264.499	186.12
264.732	189.12
264.964	176.12
265.197	189.12
265.429	194.12
265.661	178.12
265.894	196.12
266.126	183.12
266.358	183.12
266.591	181.12
266.823	189.12
267.055	190.12
267.287	181.12
267.52	176.12
267.752	213.12
267.984	188.12
268.216	201.12
268.448	204.12
268.681	189.12
268.913	198.12
269.145	198.12
269.377	196.12
269.609	211.12
269.841	201.12
270.073	207.12
270.306	230.12
270.538	207.12
270.77	234.12
271.002	225.12
271.234	214.12
271.466	212.12
271.698	216.12
271.93	237.12
272.162	211.12
272.394	236.12
272.626	224.12
272.858	207.12
273.09	197.12
273.322	218.12
273.553	215.12
273.785	213.12
274.017	220.12
274.249	221.12
274.481	231.12
274.713	208.12
274.945	245.12
275.176	226.12
275.408	217.12
275.64	206.12
275.872	216.12
276.104	216.12
276.335	230.12
276.567	222.12
276.799	218.12
277.031	218.12
277.262	237.12
277.494	249.12
277.726	243.12
277.957	227.12
278.189	215.12
278.421	234.12
278.652	237.12
278.884	245.12
279.115	235.12
279.347	214.12
279.579	211.12
279.81	228.12
280.042	225.12
280.273	234.12
280.505	234.12
280.736	229.12
280.968	229.12
281.199	225.12
281.431	246.12
281.662	231.12
281.894	241.12
282.125	246.12
282.356	266.12
282.588	249.12
282.819	256.12
283.051	249.12
283.282	224.12
283.513	233.12
283.745	244.12
283.976	250.12
284.207	243.12
284.439	257.12
284.67	235.12
284.901	251.12
285.132	252.12
285.364	261.12
285.595	252.12
285.826	249.12
286.057	249.12
286.288	249.12
286.52	255.12
286.751	241.12
286.982	258.12
287.213	250.12
287.444	267.12
287.675	262.12
287.906	245.12
288.138	261.12
288.369	263.12
288.6	259.12
288.831	278.12
289.062	264.12
289.293	266.12
289.524	263.12
289.755	259.12
289.986	268.12
290.217	269.12
290.448	267.12
290.679	235.12
290.91	262.12
291.141	267.12
291.371	264.12
291.602	281.12
291.833	264.12
292.064	255.12
292.295	257.12
292.526	248.12
292.757	266.12
292.987	245.12
293.218	270.12
293.449	276.12
293.68	249.12
293.91	270.12
294.141	245.12
294.372	266.12
294.603	261.12
294.833	279.12
295.064	250.12
295.295	280.12
295.525	281.12
295.756	261.12
295.987	260.12
296.217	287.12
296.448	266.12
296.679	281.12
296.909	266.12
297.14	271.12
297.37	279.12
297.601	286.12
297.831	289.12
298.062	276.12
298.292	289.12
298.523	282.12
298.753	305.12
298.984	296.12
299.214	286.12
299.445	282.12
299.675	263.12
299.905	276.12
300.136	292.12
300.366	299.12
300.597	287.12
300.827	292.12
301.057	302.12
301.288	302.12
301.518	301.12
301.748	311.12
301.979	310.12
302.209	306.12
302.439	299.12
302.669	294.12
302.9	298.12
303.13	304.12
303.36	280.12
303.59	297.12
303.82	294.12
304.051	319.12
304.281	291.12
304.511	298.12
304.741	300.12
304.971	284.12
305.201	318.12
305.431	309.12
305.661	283.12
305.891	307.12
306.121	290.12
306.352	287.12
306.582	294.12
306.812	297.12
307.042	299.12
307.272	292.12
307.502	299.12
307.731	301.12
307.961	293.12
308.191	292.12
308.421	290.12
308.651	304.12
308.881	296.12
309.111	304.12
309.341	292.12
309.571	288.12
309.8	312.12
310.03	301.12
310.26	301.12
310.49	320.12
310.72	302.12
310.949	308.12
311.179	311.12
311.409	293.12
311.639	308.12
311.868	316.12
312.098	304.12
312.328	321.12
312.557	319.12
312.787	329.12
313.017	319.12
313.246	338.12
313.476	316.12
313.706	299.12
313.935	325.12
314.165	329.12
314.394	312.12
314.624	330.12
314.853	312.12
315.083	305.12
315.312	332.12
315.542	316.12
315.771	315.12
316.001	321.12
316.23	317.12
316.46	314.12
316.689	318.12
316.919	329.12
317.148	315.12
317.377	312.12
317.607	280.12
317.836	321.12
318.065	302.12
318.295	323.12
318.524	306.12
318.753	308.12
318.983	324.12
319.212	308.12
319.441	323.12
319.67	304.12
319.9	330.12
320.129	318.12
320.358	328.12
320.587	315.12
320.816	331.12
321.046	341.12
321.275	327.12
321.504	326.12
321.733	334.12
321.962	338.12
322.191	323.12
322.42	312.12
322.649	330.12
322.878	332.12
323.108	335.12
323.337	343.12
323.566	346.12
323.795	352.12
324.024	366.12
324.253	397.12
324.482	464.12
324.71	616.12
324.939	803.12
325.168	709.12
325.397	451.12
325.626	397.12
325.855	375.12
326.084	368.12
326.313	343.12
326.542	354.12
326.77	373.12
326.999	392.12
327.228	451.12
327.457	585.12
327.686	660.12
327.914	484.12
328.143	411.12
328.372	386.12
328.6	394.12
328.829	377.12
329.058	370.12
329.287	363.12
329.515	360.12
329.744	377.12
329.972	361.12
330.201	357.12
330.43	392.12
330.658	362.12
330.887	379.12
331.115	380.12
331.344	370.12
331.572	385.12
331.801	384.12
332.03	374.12
332.258	379.12
332.486	392.12
332.715	394.12
332.943	404.12
333.172	418.12
333.4	407.12
333.629	428.12
333.857	425.12
334.085	422.12
334.314	396.12
334.542	398.12
334.771	426.12
334.999	413.12
335.227	409.12
335.455	409.12
335.684	408.12
335.912	396.12
336.14	402.12
336.369	407.12
336.597	392.12
336.825	380.12
337.053	405.12
337.281	375.12
337.51	377.12
337.738	404.12
337.966	380.12
338.194	395.12
338.422	375.12
338.65	376.12
338.878	365.12
339.106	374.12
339.334	360.12
339.562	362.12
339.79	354.12
340.018	349.12
340.246	372.12
340.474	359.12
340.702	357.12
340.93	365.12
341.158	362.12
341.386	358.12
341.614	336.12
341.842	347.12
342.07	347.12
342.298	349.12
342.526	333.12
342.754	347.12
342.981	347.12
343.209	366.12
343.437	385.12
343.665	382.12
343.893	374.12
344.12	415.12
344.348	387.12
344.576	376.12
344.804	393.12
345.031	370.12
345.259	342.12
345.487	347.12
345.714	368.12
345.942	356.12
346.17	358.12
346.397	368.12
346.625	353.12
346.853	322.12
347.08	340.12
347.308	347.12
347.535	333.12
347.763	339.12
347.99	346.12
348.218	340.12
348.445	340.12
348.673	337.12
348.9	344.12
349.128	345.12
349.355	326.12
349.583	339.12
349.81	333.12
350.037	333.12
350.265	329.12
350.492	345.12
350.72	329.12
350.947	349.12
351.174	330.12
351.402	334.12
351.629	325.12
351.856	357.12
352.083	309.12
352.311	327.12
352.538	356.12
352.765	333.12
352.992	330.12
353.22	330.12
353.447	329.12
353.674	321.12
353.901	341.12
354.128	319.12
354.355	324.12
354.583	312.12
354.81	318.12
355.037	355.12
355.264	318.12
355.491	328.12
355.718	349.12
355.945	334.12
356.172	308.12
356.399	318.12
356.626	343.12
356.853	334.12
357.08	331.12
357.307	317.12
357.534	323.12
357.761	330.12
357.988	320.12
358.215	314.12
358.441	328.12
358.668	320.12
358.895	327.12
359.122	313.12
359.349	339.12
359.576	315.12
359.802	339.12
360.029	333.12
360.256	350.12
360.483	341.12
360.709	321.12
360.936	332.12
361.163	325.12
361.39	356.12
361.616	338.12
361.843	333.12
362.07	332.12
362.296	320.12
362.523	315.12
362.749	306.12
362.976	346.12
363.203	324.12
363.429	332.12
363.656	325.12
363.882	314.12
364.109	321.12
364.335	330.12
364.562	330.12
364.788	320.12
365.015	319.12
365.241	305.12
365.468	347.12
365.694	330.12
365.92	336.12
366.147	322.12
366.373	328.12
366.599	324.12
366.826	314.12
367.052	326.12
367.278	341.12
367.505	332.12
367.731	321.12
367.957	323.12
368.184	330.12
368.41	333.12
368.636	322.12
368.862	327.12
369.089	347.12
369.315	333.12
369.541	329.12
369.767	326.12
369.993	323.12
370.219	340.12
370.445	337.12
370.672	338.12
370.898	318.12
371.124	360.12
371.35	356.12
371.576	328.12
371.802	330.12
372.028	332.12
372.254	335.12
372.48	320.12
372.706	352.12
372.932	361.12
373.158	345.12
373.384	332.12
373.61	338.12
373.835	344.12
374.061	327.12
374.287	332.12
374.513	353.12
374.739	346.12
374.965	362.12
375.191	361.12
375.416	353.12
375.642	356.12
375.868	361.12
376.094	352.12
376.319	355.12
376.545	344.12
376.771	334.12
376.997	335.12
377.222	342.12
377.448	347.12
377.674	348.12
377.899	353.12
378.125	350.12
378.35	328.12
378.576	332.12
378.802	336.12
379.027	330.12
379.253	347.12
379.478	337.12
379.704	344.12
379.929	341.12
380.155	328.12
380.38	340.12
380.606	324.12
380.831	333.12
381.057	345.12
381.282	344.12
381.507	335.12
381.733	326.12
381.958	341.12
382.184	352.12
382.409	358.12
382.634	339.12
382.86	336.12
383.085	354.12
383.31	354.12
383.535	359.12
383.761	360.12
383.986	356.12
384.211	371.12
384.436	382.12
384.662	381.12
384.887	388.12
385.112	372.12
385.337	386.12
385.562	387.12
385.787	399.12
386.013	388.12
386.238	418.12
386.463	379.12
386.688	388.12
386.913	376.12
387.138	382.12
387.363	366.12
387.588	376.12
387.813	399.12
388.038	384.12
388.263	384.12
388.488	385.12
388.713	387.12
388.938	388.12
389.163	381.12
389.387	374.12
389.612	372.12
389.837	376.12
390.062	378.12
390.287	368.12
390.512	387.12
390.736	363.12
390.961	382.12
391.186	396.12
391.411	384.12
391.636	406.12
391.86	392.12
392.085	409.12
392.31	416.12
392.534	408.12
392.759	403.12
392.984	382.12
393.208	397.12
393.433	398.12
393.658	402.12
393.882	394.12
394.107	384.12
394.331	375.12
394.556	397.12
394.78	391.12
395.005	384.12
395.229	398.12
395.454	393.12
395.678	424.12
395.903	403.12
396.127	394.12
396.352	387.12
396.576	393.12
396.801	374.12
397.025	408.12
397.249	398.12
397.474	427.12
397.698	416.12
397.922	418.12
398.147	428.12
398.371	460.12
398.595	446.12
398.82	462.12
399.044	459.12
399.268	510.12
399.492	554.12
399.717	571.12
399.941	583.12
400.165	582.12
400.389	537.12
400.613	499.12
400.837	456.12
401.062	452.12
401.286	445.12
401.51	463.12
401.734	447.12
401.958	449.12
402.182	470.12
402.406	465.12
402.63	455.12
402.854	433.12
403.078	466.12
403.302	472.12
403.526	480.12
403.75	475.12
403.974	499.12
404.198	490.12
404.422	488.12
404.645	486.12
404.869	485.12
405.093	487.12
405.317	491.12
405.541	492.12
405.765	470.12
405.988	492.12
406.212	502.12
406.436	485.12
406.66	505.12
406.883	484.12
407.107	514.12
407.331	558.12
407.555	562.12
407.778	574.12
408.002	531.12
408.226	530.12
408.449	502.12
408.673	514.12
408.896	490.12
409.12	516.12
409.344	499.12
409.567	474.12
409.791	481.12
410.014	454.12
410.238	480.12
410.461	478.12
410.685	472.12
410.908	483.12
411.132	484.12
411.355	495.12
411.578	462.12
411.802	476.12
412.025	443.12
412.249	441.12
412.472	446.12
412.695	463.12
412.919	462.12
413.142	427.12
413.365	447.12
413.589	454.12
413.812	445.12
414.035	450.12
414.258	456.12
414.482	448.12
414.705	436.12
414.928	436.12
415.151	450.12
415.374	456.12
415.597	424.12
415.821	435.12
416.044	427.12
416.267	442.12
416.49	429.12
416.713	422.12
416.936	426.12
417.159	437.12
417.382	430.12
417.605	437.12
417.828	426.12
418.051	461.12
418.274	458.12
418.497	425.12
418.72	419.12
418.943	442.12
419.166	472.12
419.389	491.12
419.611	489.12
419.834	469.12
420.057	459.12
420.28	437.12
420.503	432.12
420.726	419.12
420.948	435.12
421.171	446.12
421.394	469.12
421.617	452.12
421.839	462.12
422.062	436.12
422.285	454.12
422.507	501.12
422.73	484.12
422.953	483.12
423.175	451.12
423.398	449.12
423.621	449.12
423.843	466.12
424.066	464.12
424.288	477.12
424.511	462.12
424.733	498.12
424.956	516.12
425.178	491.12
425.401	477.12
425.623	511.12
425.846	470.12
426.068	436.12
426.291	455.12
426.513	419.12
426.735	424.12
426.958	436.12
427.18	483.12
427.402	537.12
427.625	541.12
427.847	488.12
428.069	456.12
428.292	436.12
428.514	412.12
428.736	416.12
428.958	411.12
429.181	412.12
429.403	407.12
429.625	405.12
429.847	411.12
430.069	428.12
430.292	453.12
430.514	409.12
430.736	419.12
430.958	404.12
431.18	396.12
431.402	376.12
431.624	403.12
431.846	370.12
432.068	385.12
432.29	411.12
432.512	409.12
432.734	409.12
432.956	405.12
433.178	403.12
433.4	403.12
433.622	413.12
433.844	397.12
434.066	395.12
434.287	389.12
434.509	411.12
434.731	441.12
434.953	421.12
435.175	442.12
435.397	426.12
435.618	432.12
435.84	449.12
436.062	457.12
436.284	476.12
436.505	433.12
436.727	426.12
436.949	401.12
437.17	411.12
437.392	414.12
437.614	396.12
437.835	394.12
438.057	437.12
438.278	460.12
438.5	478.12
438.721	515.12
438.943	514.12
439.165	446.12
439.386	424.12
439.608	418.12
439.829	397.12
440.05	432.12
440.272	440.12
440.493	425.12
440.715	428.12
440.936	427.12
441.158	418.12
441.379	408.12
441.6	436.12
441.822	452.12
442.043	466.12
442.264	481.12
442.486	500.12
442.707	444.12
442.928	432.12
443.149	452.12
443.371	476.12
443.592	461.12
443.813	512.12
444.034	530.12
444.255	483.12
444.476	468.12
444.698	482.12
444.919	478.12
445.14	568.12
445.361	535.12
445.582	488.12
445.803	467.12
446.024	498.12
446.245	484.12
446.466	468.12
446.687	436.12
446.908	414.12
447.129	397.12
447.35	398.12
447.571	389.12
447.792	382.12
448.013	387.12
448.234	393.12
448.455	390.12
448.675	446.12
448.896	494.12
449.117	468.12
449.338	433.12
449.559	473.12
449.779	513.12
450	444.12
450.221	406.12
450.442	409.12
450.662	396.12
450.883	368.12
451.104	376.12
451.324	369.12
451.545	375.12
451.766	368.12
451.986	350.12
452.207	342.12
452.428	359.12
452.648	354.12
452.869	355.12
453.089	350.12
453.31	353.12
453.53	381.12
453.751	345.12
453.971	350.12
454.192	366.12
454.412	349.12
454.633	362.12
454.853	353.12
455.073	351.12
455.294	371.12
455.514	366.12
455.734	373.12
455.955	365.12
456.175	369.12
456.395	328.12
456.616	366.12
456.836	365.12
457.056	337.12
457.276	354.12
457.497	354.12
457.717	349.12
457.937	352.12
458.157	364.12
458.377	348.12
458.598	353.12
458.818	368.12
459.038	405.12
459.258	426.12
459.478	402.12
459.698	415.12
459.918	425.12
460.138	411.12
460.358	444.12
460.578	425.12
460.798	430.12
461.018	445.12
461.238	438.12
461.458	432.12
461.678	430.12
461.898	448.12
462.118	419.12
462.338	467.12
462.558	467.12
462.777	486.12
462.997	483.12
463.217	546.12
463.437	532.12
463.657	502.12
463.876	491.12
464.096	476.12
464.316	475.12
464.536	496.12
464.755	467.12
464.975	464.12
465.195	457.12
465.414	452.12
465.634	420.12
465.854	427.12
466.073	410.12
466.293	398.12
466.512	384.12
466.732	389.12
466.951	390.12
467.171	380.12
467.391	379.12
467.61	387.12
467.829	379.12
468.049	387.12
468.268	368.12
468.488	353.12
468.707	361.12
468.927	366.12
469.146	356.12
469.365	379.12
469.585	382.12
469.804	381.12
470.023	385.12
470.243	395.12
470.462	401.12
470.681	414.12
470.901	398.12
471.12	380.12
471.339	392.12
471.558	372.12
471.777	395.12
471.997	398.12
472.216	377.12
472.435	381.12
472.654	369.12
472.873	356.12
473.092	373.12
473.311	374.12
473.53	379.12
473.749	399.12
473.968	390.12
474.187	409.12
474.406	397.12
474.625	384.12
474.844	381.12
475.063	378.12
475.282	364.12
475.501	380.12
475.72	372.12
475.939	377.12
476.158	369.12
476.377	375.12
476.596	387.12
476.814	395.12
477.033	373.12
477.252	396.12
477.471	393.12
477.69	404.12
477.908	414.12
478.127	427.12
478.346	433.12
478.564	436.12
478.783	443.12
479.002	437.12
479.22	446.12
479.439	432.12
479.658	460.12
479.876	457.12
480.095	473.12
480.313	471.12
480.532	463.12
480.751	482.12
480.969	466.12
481.188	456.12
481.406	450.12
481.624	454.12
481.843	423.12
482.061	431.12
482.28	423.12
482.498	411.12
482.717	429.12
482.935	428.12
483.153	430.12
483.372	410.12
483.59	412.12
483.808	421.12
484.027	447.12
484.245	424.12
484.463	437.12
484.681	448.12
484.9	441.12
485.118	427.12
485.336	451.12
485.554	450.12
485.772	453.12
485.99	451.12
486.209	452.12
486.427	458.12
486.645	452.12
486.863	469.12
487.081	430.12
487.299	460.12
487.517	467.12
487.735	442.12
487.953	456.12
488.171	451.12
488.389	449.12
488.607	429.12
488.825	455.12
489.043	439.12
489.261	456.12
489.479	440.12
489.696	452.12
489.914	465.12
490.132	452.12
490.35	483.12
490.568	468.12
490.786	463.12
491.003	468.12
491.221	467.12
491.439	464.12
491.657	461.12
491.874	442.12
492.092	472.12
492.31	488.12
492.527	493.12
492.745	458.12
492.963	466.12
493.18	479.12
493.398	470.12
493.615	494.12
493.833	471.12
494.05	507.12
494.268	529.12
494.485	509.12
494.703	487.12
494.92	491.12
495.138	500.12
495.355	499.12
495.573	513.12
495.79	489.12
496.008	500.12
496.225	491.12
496.442	514.12
496.66	503.12
496.877	504.12
497.094	504.12
497.312	526.12
497.529	533.12
497.746	540.12
497.963	545.12
498.181	557.12
498.398	588.12
498.615	615.12
498.832	645.12
499.049	652.12
499.267	686.12
499.484	746.12
499.701	790.12
499.918	850.12
500.135	934.12
500.352	1010.12
500.569	1036.12
500.786	1053.12
501.003	986.12
501.22	904.12
501.437	852.12
501.654	809.12
501.871	727.12
502.088	703.12
