Data from 1984.PennyLincolnUp.Lamp.En5.5.200Scan.071819.P1_HRD10591_16-59-08-969.txt Node
Date: Thu Jul 18 16:59:08 EDT 2019
User: cochatt
Spectrometer: HR+D1059
Trigger mode: 1
Integration Time (sec): 1.000000E-1
Scans to average: 1
Electric dark correction enabled: true
Nonlinearity correction enabled: false
Boxcar width: 0
XAxis mode: Wavelengths
Number of Pixels in Spectrum: 2048
>>>>>Begin Spectral Data<<<<<
223.165	-19.12
223.4	-19.12
223.635	-19.12
223.869	-15.12
224.104	-18.12
224.338	-10.12
224.573	-15.12
224.808	-3.12
225.042	-10.12
225.277	-7.12
225.511	1.88
225.746	4.88
225.98	6.88
226.215	-3.12
226.449	22.88
226.683	22.88
226.918	18.88
227.152	22.88
227.387	33.88
227.621	38.88
227.856	48.88
228.09	46.88
228.324	51.88
228.559	56.88
228.793	58.88
229.027	88.88
229.262	88.88
229.496	91.88
229.73	98.88
229.964	125.88
230.199	118.88
230.433	109.88
230.667	102.88
230.901	100.88
231.136	88.88
231.37	102.88
231.604	108.88
231.838	122.88
232.072	119.88
232.306	113.88
232.541	111.88
232.775	104.88
233.009	121.88
233.243	111.88
233.477	111.88
233.711	118.88
233.945	120.88
234.179	112.88
234.413	114.88
234.647	105.88
234.881	102.88
235.115	110.88
235.349	117.88
235.583	118.88
235.817	111.88
236.051	118.88
236.285	125.88
236.519	120.88
236.753	108.88
236.987	116.88
237.221	148.88
237.455	157.88
237.689	154.88
237.922	126.88
238.156	119.88
238.39	128.88
238.624	117.88
238.858	122.88
239.091	120.88
239.325	123.88
239.559	109.88
239.793	125.88
240.027	120.88
240.26	137.88
240.494	132.88
240.728	118.88
240.961	131.88
241.195	136.88
241.429	126.88
241.662	133.88
241.896	121.88
242.13	129.88
242.363	135.88
242.597	142.88
242.83	130.88
243.064	136.88
243.298	139.88
243.531	136.88
243.765	135.88
243.998	130.88
244.232	115.88
244.465	137.88
244.699	127.88
244.932	142.88
245.166	140.88
245.399	131.88
245.633	156.88
245.866	132.88
246.099	140.88
246.333	142.88
246.566	144.88
246.8	147.88
247.033	122.88
247.266	136.88
247.5	147.88
247.733	158.88
247.966	146.88
248.2	141.88
248.433	146.88
248.666	158.88
248.899	153.88
249.133	171.88
249.366	166.88
249.599	178.88
249.832	153.88
250.066	164.88
250.299	173.88
250.532	195.88
250.765	194.88
250.998	203.88
251.231	186.88
251.465	164.88
251.698	168.88
251.931	190.88
252.164	166.88
252.397	170.88
252.63	162.88
252.863	167.88
253.096	188.88
253.329	187.88
253.562	190.88
253.795	188.88
254.028	185.88
254.261	182.88
254.494	198.88
254.727	203.88
254.96	204.88
255.193	219.88
255.426	207.88
255.659	196.88
255.892	230.88
256.124	263.88
256.357	261.88
256.59	233.88
256.823	206.88
257.056	205.88
257.289	198.88
257.521	179.88
257.754	187.88
257.987	191.88
258.22	195.88
258.452	190.88
258.685	195.88
258.918	184.88
259.151	196.88
259.383	191.88
259.616	206.88
259.849	185.88
260.081	205.88
260.314	208.88
260.547	204.88
260.779	207.88
261.012	200.88
261.244	194.88
261.477	200.88
261.71	196.88
261.942	203.88
262.175	194.88
262.407	211.88
262.64	190.88
262.872	196.88
263.105	197.88
263.337	194.88
263.57	202.88
263.802	197.88
264.035	202.88
264.267	201.88
264.499	200.88
264.732	204.88
264.964	203.88
265.197	210.88
265.429	198.88
265.661	182.88
265.894	190.88
266.126	212.88
266.358	207.88
266.591	208.88
266.823	214.88
267.055	221.88
267.287	215.88
267.52	231.88
267.752	214.88
267.984	210.88
268.216	219.88
268.448	215.88
268.681	214.88
268.913	242.88
269.145	229.88
269.377	228.88
269.609	240.88
269.841	238.88
270.073	227.88
270.306	247.88
270.538	270.88
270.77	258.88
271.002	257.88
271.234	250.88
271.466	236.88
271.698	267.88
271.93	276.88
272.162	289.88
272.394	261.88
272.626	282.88
272.858	234.88
273.09	234.88
273.322	251.88
273.553	230.88
273.785	235.88
274.017	218.88
274.249	220.88
274.481	244.88
274.713	232.88
274.945	235.88
275.176	258.88
275.408	226.88
275.64	247.88
275.872	238.88
276.104	232.88
276.335	238.88
276.567	244.88
276.799	270.88
277.031	271.88
277.262	284.88
277.494	288.88
277.726	284.88
277.957	259.88
278.189	258.88
278.421	260.88
278.652	252.88
278.884	256.88
279.115	232.88
279.347	270.88
279.579	262.88
279.81	263.88
280.042	267.88
280.273	234.88
280.505	256.88
280.736	262.88
280.968	261.88
281.199	252.88
281.431	247.88
281.662	246.88
281.894	260.88
282.125	258.88
282.356	281.88
282.588	276.88
282.819	281.88
283.051	263.88
283.282	264.88
283.513	256.88
283.745	266.88
283.976	280.88
284.207	281.88
284.439	278.88
284.67	263.88
284.901	270.88
285.132	267.88
285.364	257.88
285.595	275.88
285.826	272.88
286.057	287.88
286.288	269.88
286.52	271.88
286.751	267.88
286.982	263.88
287.213	281.88
287.444	268.88
287.675	278.88
287.906	290.88
288.138	310.88
288.369	287.88
288.6	285.88
288.831	278.88
289.062	277.88
289.293	296.88
289.524	287.88
289.755	294.88
289.986	279.88
290.217	295.88
290.448	291.88
290.679	255.88
290.91	269.88
291.141	294.88
291.371	286.88
291.602	282.88
291.833	283.88
292.064	294.88
292.295	292.88
292.526	289.88
292.757	288.88
292.987	285.88
293.218	272.88
293.449	285.88
293.68	287.88
293.91	291.88
294.141	267.88
294.372	268.88
294.603	271.88
294.833	287.88
295.064	288.88
295.295	287.88
295.525	279.88
295.756	290.88
295.987	308.88
296.217	298.88
296.448	310.88
296.679	300.88
296.909	286.88
297.14	308.88
297.37	286.88
297.601	308.88
297.831	296.88
298.062	301.88
298.292	300.88
298.523	302.88
298.753	300.88
298.984	310.88
299.214	307.88
299.445	319.88
299.675	298.88
299.905	315.88
300.136	315.88
300.366	292.88
300.597	295.88
300.827	301.88
301.057	313.88
301.288	295.88
301.518	315.88
301.748	327.88
301.979	323.88
302.209	338.88
302.439	326.88
302.669	341.88
302.9	320.88
303.13	303.88
303.36	329.88
303.59	327.88
303.82	334.88
304.051	318.88
304.281	325.88
304.511	318.88
304.741	305.88
304.971	301.88
305.201	331.88
305.431	309.88
305.661	310.88
305.891	307.88
306.121	314.88
306.352	323.88
306.582	316.88
306.812	329.88
307.042	314.88
307.272	338.88
307.502	319.88
307.731	323.88
307.961	310.88
308.191	317.88
308.421	296.88
308.651	326.88
308.881	320.88
309.111	330.88
309.341	342.88
309.571	326.88
309.8	331.88
310.03	323.88
310.26	330.88
310.49	332.88
310.72	351.88
310.949	349.88
311.179	354.88
311.409	341.88
311.639	353.88
311.868	329.88
312.098	348.88
312.328	356.88
312.557	356.88
312.787	347.88
313.017	374.88
313.246	361.88
313.476	359.88
313.706	362.88
313.935	333.88
314.165	359.88
314.394	355.88
314.624	376.88
314.853	354.88
315.083	346.88
315.312	363.88
315.542	341.88
315.771	323.88
316.001	344.88
316.23	338.88
316.46	353.88
316.689	345.88
316.919	346.88
317.148	362.88
317.377	348.88
317.607	346.88
317.836	345.88
318.065	360.88
318.295	345.88
318.524	328.88
318.753	333.88
318.983	361.88
319.212	358.88
319.441	356.88
319.67	338.88
319.9	355.88
320.129	359.88
320.358	332.88
320.587	345.88
320.816	365.88
321.046	353.88
321.275	345.88
321.504	355.88
321.733	360.88
321.962	371.88
322.191	385.88
322.42	375.88
322.649	391.88
322.878	389.88
323.108	385.88
323.337	397.88
323.566	416.88
323.795	420.88
324.024	457.88
324.253	523.88
324.482	721.88
324.71	1059.88
324.939	1445.88
325.168	1212.88
325.397	670.88
325.626	488.88
325.855	455.88
326.084	462.88
326.313	454.88
326.542	429.88
326.77	474.88
326.999	527.88
327.228	678.88
327.457	952.88
327.686	1126.88
327.914	775.88
328.143	566.88
328.372	541.88
328.6	510.88
328.829	477.88
329.058	472.88
329.287	476.88
329.515	467.88
329.744	472.88
329.972	491.88
330.201	512.88
330.43	559.88
330.658	553.88
330.887	524.88
331.115	487.88
331.344	442.88
331.572	431.88
331.801	464.88
332.03	458.88
332.258	453.88
332.486	427.88
332.715	444.88
332.943	460.88
333.172	465.88
333.4	478.88
333.629	491.88
333.857	516.88
334.085	554.88
334.314	575.88
334.542	642.88
334.771	648.88
334.999	560.88
335.227	495.88
335.455	489.88
335.684	456.88
335.912	448.88
336.14	425.88
336.369	444.88
336.597	420.88
336.825	434.88
337.053	414.88
337.281	416.88
337.51	412.88
337.738	414.88
337.966	413.88
338.194	414.88
338.422	411.88
338.65	412.88
338.878	398.88
339.106	418.88
339.334	419.88
339.562	400.88
339.79	400.88
340.018	394.88
340.246	383.88
340.474	386.88
340.702	387.88
340.93	379.88
341.158	374.88
341.386	396.88
341.614	389.88
341.842	381.88
342.07	365.88
342.298	383.88
342.526	405.88
342.754	378.88
342.981	395.88
343.209	383.88
343.437	392.88
343.665	403.88
343.893	403.88
344.12	428.88
344.348	418.88
344.576	420.88
344.804	396.88
345.031	400.88
345.259	421.88
345.487	396.88
345.714	374.88
345.942	378.88
346.17	370.88
346.397	375.88
346.625	376.88
346.853	376.88
347.08	364.88
347.308	367.88
347.535	385.88
347.763	382.88
347.99	379.88
348.218	382.88
348.445	387.88
348.673	365.88
348.9	367.88
349.128	362.88
349.355	370.88
349.583	351.88
349.81	348.88
350.037	367.88
350.265	362.88
350.492	359.88
350.72	360.88
350.947	352.88
351.174	355.88
351.402	345.88
351.629	386.88
351.856	364.88
352.083	363.88
352.311	370.88
352.538	357.88
352.765	370.88
352.992	346.88
353.22	363.88
353.447	374.88
353.674	358.88
353.901	351.88
354.128	341.88
354.355	329.88
354.583	342.88
354.81	338.88
355.037	351.88
355.264	363.88
355.491	348.88
355.718	340.88
355.945	358.88
356.172	360.88
356.399	357.88
356.626	343.88
356.853	350.88
357.08	340.88
357.307	341.88
357.534	367.88
357.761	324.88
357.988	352.88
358.215	345.88
358.441	336.88
358.668	358.88
358.895	350.88
359.122	344.88
359.349	359.88
359.576	367.88
359.802	353.88
360.029	390.88
360.256	392.88
360.483	386.88
360.709	360.88
360.936	367.88
361.163	376.88
361.39	354.88
361.616	342.88
361.843	351.88
362.07	373.88
362.296	348.88
362.523	360.88
362.749	380.88
362.976	373.88
363.203	355.88
363.429	350.88
363.656	355.88
363.882	343.88
364.109	361.88
364.335	361.88
364.562	339.88
364.788	342.88
365.015	342.88
365.241	355.88
365.468	357.88
365.694	345.88
365.92	346.88
366.147	352.88
366.373	325.88
366.599	346.88
366.826	329.88
367.052	355.88
367.278	365.88
367.505	365.88
367.731	356.88
367.957	350.88
368.184	350.88
368.41	360.88
368.636	360.88
368.862	363.88
369.089	355.88
369.315	350.88
369.541	335.88
369.767	356.88
369.993	375.88
370.219	354.88
370.445	351.88
370.672	363.88
370.898	339.88
371.124	372.88
371.35	366.88
371.576	355.88
371.802	350.88
372.028	357.88
372.254	344.88
372.48	382.88
372.706	354.88
372.932	362.88
373.158	391.88
373.384	356.88
373.61	364.88
373.835	342.88
374.061	361.88
374.287	378.88
374.513	374.88
374.739	374.88
374.965	390.88
375.191	382.88
375.416	370.88
375.642	387.88
375.868	375.88
376.094	364.88
376.319	361.88
376.545	376.88
376.771	349.88
376.997	370.88
377.222	358.88
377.448	344.88
377.674	370.88
377.899	326.88
378.125	334.88
378.35	370.88
378.576	342.88
378.802	368.88
379.027	351.88
379.253	350.88
379.478	332.88
379.704	351.88
379.929	358.88
380.155	363.88
380.38	354.88
380.606	342.88
380.831	348.88
381.057	370.88
381.282	354.88
381.507	367.88
381.733	357.88
381.958	367.88
382.184	363.88
382.409	360.88
382.634	372.88
382.86	374.88
383.085	377.88
383.31	374.88
383.535	388.88
383.761	382.88
383.986	387.88
384.211	374.88
384.436	380.88
384.662	384.88
384.887	391.88
385.112	396.88
385.337	403.88
385.562	410.88
385.787	406.88
386.013	412.88
386.238	394.88
386.463	403.88
386.688	415.88
386.913	407.88
387.138	385.88
387.363	393.88
387.588	410.88
387.813	401.88
388.038	394.88
388.263	403.88
388.488	408.88
388.713	415.88
388.938	388.88
389.163	378.88
389.387	398.88
389.612	390.88
389.837	405.88
390.062	399.88
390.287	398.88
390.512	396.88
390.736	400.88
390.961	392.88
391.186	418.88
391.411	427.88
391.636	413.88
391.86	425.88
392.085	432.88
392.31	412.88
392.534	412.88
392.759	435.88
392.984	393.88
393.208	398.88
393.433	386.88
393.658	403.88
393.882	399.88
394.107	420.88
394.331	402.88
394.556	404.88
394.78	429.88
395.005	432.88
395.229	404.88
395.454	406.88
395.678	444.88
395.903	457.88
396.127	454.88
396.352	433.88
396.576	428.88
396.801	420.88
397.025	429.88
397.249	445.88
397.474	445.88
397.698	441.88
397.922	443.88
398.147	454.88
398.371	459.88
398.595	432.88
398.82	479.88
399.044	491.88
399.268	491.88
399.492	550.88
399.717	607.88
399.941	632.88
400.165	604.88
400.389	582.88
400.613	537.88
400.837	514.88
401.062	488.88
401.286	487.88
401.51	472.88
401.734	464.88
401.958	482.88
402.182	462.88
402.406	492.88
402.63	488.88
402.854	500.88
403.078	499.88
403.302	503.88
403.526	503.88
403.75	489.88
403.974	516.88
404.198	520.88
404.422	526.88
404.645	511.88
404.869	535.88
405.093	557.88
405.317	578.88
405.541	598.88
405.765	575.88
405.988	526.88
406.212	519.88
406.436	534.88
406.66	536.88
406.883	550.88
407.107	541.88
407.331	591.88
407.555	652.88
407.778	644.88
408.002	605.88
408.226	542.88
408.449	559.88
408.673	542.88
408.896	556.88
409.12	570.88
409.344	536.88
409.567	487.88
409.791	522.88
410.014	503.88
410.238	485.88
410.461	503.88
410.685	487.88
410.908	490.88
411.132	523.88
411.355	524.88
411.578	520.88
411.802	501.88
412.025	494.88
412.249	513.88
412.472	521.88
412.695	578.88
412.919	544.88
413.142	505.88
413.365	501.88
413.589	503.88
413.812	501.88
414.035	503.88
414.258	468.88
414.482	485.88
414.705	471.88
414.928	481.88
415.151	475.88
415.374	467.88
415.597	480.88
415.821	462.88
416.044	448.88
416.267	446.88
416.49	471.88
416.713	450.88
416.936	452.88
417.159	477.88
417.382	474.88
417.605	484.88
417.828	475.88
418.051	478.88
418.274	476.88
418.497	470.88
418.72	487.88
418.943	480.88
419.166	510.88
419.389	527.88
419.611	506.88
419.834	508.88
420.057	524.88
420.28	509.88
420.503	515.88
420.726	508.88
420.948	502.88
421.171	521.88
421.394	535.88
421.617	491.88
421.839	473.88
422.062	481.88
422.285	483.88
422.507	499.88
422.73	569.88
422.953	534.88
423.175	520.88
423.398	494.88
423.621	510.88
423.843	506.88
424.066	495.88
424.288	492.88
424.511	502.88
424.733	522.88
424.956	565.88
425.178	574.88
425.401	549.88
425.623	571.88
425.846	514.88
426.068	487.88
426.291	473.88
426.513	462.88
426.735	486.88
426.958	499.88
427.18	536.88
427.402	611.88
427.625	653.88
427.847	603.88
428.069	542.88
428.292	502.88
428.514	468.88
428.736	442.88
428.958	452.88
429.181	432.88
429.403	440.88
429.625	460.88
429.847	462.88
430.069	485.88
430.292	486.88
430.514	441.88
430.736	443.88
430.958	430.88
431.18	435.88
431.402	415.88
431.624	432.88
431.846	431.88
432.068	430.88
432.29	429.88
432.512	435.88
432.734	436.88
432.956	425.88
433.178	437.88
433.4	442.88
433.622	454.88
433.844	425.88
434.066	444.88
434.287	450.88
434.509	449.88
434.731	464.88
434.953	462.88
435.175	474.88
435.397	485.88
435.618	477.88
435.84	487.88
436.062	536.88
436.284	572.88
436.505	501.88
436.727	451.88
436.949	441.88
437.17	454.88
437.392	426.88
437.614	446.88
437.835	463.88
438.057	522.88
438.278	564.88
438.5	573.88
438.721	621.88
438.943	603.88
439.165	493.88
439.386	468.88
439.608	452.88
439.829	466.88
440.05	485.88
440.272	497.88
440.493	476.88
440.715	446.88
440.936	447.88
441.158	463.88
441.379	485.88
441.6	478.88
441.822	468.88
442.043	480.88
442.264	532.88
442.486	547.88
442.707	520.88
442.928	482.88
443.149	490.88
443.371	502.88
443.592	517.88
443.813	577.88
444.034	606.88
444.255	525.88
444.476	474.88
444.698	520.88
444.919	541.88
445.14	615.88
445.361	543.88
445.582	503.88
445.803	539.88
446.024	581.88
446.245	590.88
446.466	523.88
446.687	492.88
446.908	464.88
447.129	446.88
447.35	434.88
447.571	432.88
447.792	420.88
448.013	425.88
448.234	442.88
448.455	447.88
448.675	534.88
448.896	592.88
449.117	514.88
449.338	515.88
449.559	559.88
449.779	610.88
450	538.88
450.221	438.88
450.442	411.88
450.662	400.88
450.883	413.88
451.104	414.88
451.324	428.88
451.545	414.88
451.766	386.88
451.986	400.88
452.207	415.88
452.428	395.88
452.648	406.88
452.869	376.88
453.089	380.88
453.31	407.88
453.53	394.88
453.751	396.88
453.971	375.88
454.192	405.88
454.412	404.88
454.633	393.88
454.853	394.88
455.073	383.88
455.294	412.88
455.514	427.88
455.734	432.88
455.955	387.88
456.175	387.88
456.395	347.88
456.616	376.88
456.836	380.88
457.056	354.88
457.276	349.88
457.497	370.88
457.717	372.88
457.937	378.88
458.157	382.88
458.377	397.88
458.598	383.88
458.818	415.88
459.038	478.88
459.258	480.88
459.478	450.88
459.698	427.88
459.918	437.88
460.138	454.88
460.358	447.88
460.578	461.88
460.798	466.88
461.018	471.88
461.238	463.88
461.458	470.88
461.678	471.88
461.898	462.88
462.118	494.88
462.338	488.88
462.558	510.88
462.777	504.88
462.997	521.88
463.217	544.88
463.437	548.88
463.657	554.88
463.876	522.88
464.096	531.88
464.316	497.88
464.536	506.88
464.755	515.88
464.975	509.88
465.195	502.88
465.414	514.88
465.634	478.88
465.854	434.88
466.073	445.88
466.293	415.88
466.512	421.88
466.732	402.88
466.951	395.88
467.171	428.88
467.391	411.88
467.61	412.88
467.829	419.88
468.049	406.88
468.268	431.88
468.488	422.88
468.707	431.88
468.927	388.88
469.146	389.88
469.365	406.88
469.585	374.88
469.804	415.88
470.023	439.88
470.243	446.88
470.462	411.88
470.681	440.88
470.901	437.88
471.12	411.88
471.339	408.88
471.558	427.88
471.777	398.88
471.997	400.88
472.216	441.88
472.435	486.88
472.654	462.88
472.873	423.88
473.092	412.88
473.311	412.88
473.53	395.88
473.749	408.88
473.968	430.88
474.187	488.88
474.406	470.88
474.625	420.88
474.844	412.88
475.063	395.88
475.282	414.88
475.501	389.88
475.72	395.88
475.939	403.88
476.158	422.88
476.377	408.88
476.596	404.88
476.814	423.88
477.033	427.88
477.252	426.88
477.471	443.88
477.69	444.88
477.908	461.88
478.127	450.88
478.346	469.88
478.564	470.88
478.783	464.88
479.002	468.88
479.22	486.88
479.439	457.88
479.658	468.88
479.876	506.88
480.095	500.88
480.313	537.88
480.532	523.88
480.751	510.88
480.969	551.88
481.188	618.88
481.406	676.88
481.624	567.88
481.843	525.88
482.061	491.88
482.28	475.88
482.498	486.88
482.717	464.88
482.935	468.88
483.153	462.88
483.372	458.88
483.59	492.88
483.808	451.88
484.027	465.88
484.245	461.88
484.463	457.88
484.681	459.88
484.9	484.88
485.118	482.88
485.336	464.88
485.554	490.88
485.772	463.88
485.99	483.88
486.209	492.88
486.427	487.88
486.645	495.88
486.863	501.88
487.081	499.88
487.299	499.88
487.517	500.88
487.735	491.88
487.953	466.88
488.171	463.88
488.389	487.88
488.607	504.88
488.825	499.88
489.043	503.88
489.261	493.88
489.479	512.88
489.696	495.88
489.914	488.88
490.132	501.88
490.35	500.88
490.568	513.88
490.786	524.88
491.003	526.88
491.221	521.88
491.439	536.88
491.657	542.88
491.874	555.88
492.092	558.88
492.31	576.88
492.527	586.88
492.745	600.88
492.963	583.88
493.18	575.88
493.398	595.88
493.615	578.88
493.833	570.88
494.05	582.88
494.268	575.88
494.485	562.88
494.703	549.88
494.92	528.88
495.138	571.88
495.355	569.88
495.573	563.88
495.79	570.88
496.008	562.88
496.225	560.88
496.442	549.88
496.66	572.88
496.877	554.88
497.094	573.88
497.312	604.88
497.529	593.88
497.746	621.88
497.963	610.88
498.181	625.88
498.398	637.88
498.615	674.88
498.832	695.88
499.049	732.88
499.267	763.88
499.484	792.88
499.701	843.88
499.918	917.88
500.135	958.88
500.352	1049.88
500.569	1097.88
500.786	1070.88
501.003	1090.88
501.22	992.88
501.437	922.88
501.654	868.88
501.871	828.88
