Data from 1984.PennyLincolnUp.Lamp.En5.5.200Scan.071819.P1_HRD10591_16-58-06-968.txt Node
Date: Thu Jul 18 16:58:06 EDT 2019
User: cochatt
Spectrometer: HR+D1059
Trigger mode: 1
Integration Time (sec): 1.000000E-1
Scans to average: 1
Electric dark correction enabled: true
Nonlinearity correction enabled: false
Boxcar width: 0
XAxis mode: Wavelengths
Number of Pixels in Spectrum: 2048
>>>>>Begin Spectral Data<<<<<
223.165	-21.06
223.4	-21.06
223.635	-21.06
223.869	-27.06
224.104	-20.06
224.338	-11.06
224.573	-14.06
224.808	-14.06
225.042	-12.06
225.277	-6.06
225.511	0.94
225.746	4.94
225.98	0.94
226.215	10.94
226.449	16.94
226.683	18.94
226.918	28.94
227.152	42.94
227.387	41.94
227.621	45.94
227.856	37.94
228.09	40.94
228.324	62.94
228.559	55.94
228.793	58.94
229.027	78.94
229.262	94.94
229.496	89.94
229.73	107.94
229.964	133.94
230.199	100.94
230.433	106.94
230.667	94.94
230.901	83.94
231.136	104.94
231.37	96.94
231.604	97.94
231.838	108.94
232.072	97.94
232.306	102.94
232.541	106.94
232.775	115.94
233.009	99.94
233.243	120.94
233.477	101.94
233.711	105.94
233.945	110.94
234.179	118.94
234.413	111.94
234.647	108.94
234.881	113.94
235.115	105.94
235.349	113.94
235.583	115.94
235.817	118.94
236.051	115.94
236.285	114.94
236.519	111.94
236.753	115.94
236.987	127.94
237.221	145.94
237.455	167.94
237.689	132.94
237.922	122.94
238.156	109.94
238.39	118.94
238.624	125.94
238.858	124.94
239.091	110.94
239.325	122.94
239.559	130.94
239.793	106.94
240.027	120.94
240.26	119.94
240.494	138.94
240.728	121.94
240.961	123.94
241.195	126.94
241.429	123.94
241.662	115.94
241.896	117.94
242.13	125.94
242.363	128.94
242.597	116.94
242.83	117.94
243.064	135.94
243.298	142.94
243.531	121.94
243.765	131.94
243.998	133.94
244.232	129.94
244.465	132.94
244.699	127.94
244.932	127.94
245.166	142.94
245.399	138.94
245.633	142.94
245.866	135.94
246.099	136.94
246.333	144.94
246.566	130.94
246.8	137.94
247.033	137.94
247.266	141.94
247.5	145.94
247.733	150.94
247.966	167.94
248.2	163.94
248.433	137.94
248.666	144.94
248.899	159.94
249.133	158.94
249.366	172.94
249.599	168.94
249.832	159.94
250.066	153.94
250.299	136.94
250.532	158.94
250.765	193.94
250.998	189.94
251.231	185.94
251.465	163.94
251.698	179.94
251.931	174.94
252.164	166.94
252.397	180.94
252.63	182.94
252.863	182.94
253.096	169.94
253.329	197.94
253.562	180.94
253.795	178.94
254.028	210.94
254.261	185.94
254.494	158.94
254.727	205.94
254.96	209.94
255.193	222.94
255.426	207.94
255.659	195.94
255.892	213.94
256.124	217.94
256.357	204.94
256.59	220.94
256.823	189.94
257.056	166.94
257.289	167.94
257.521	173.94
257.754	174.94
257.987	184.94
258.22	191.94
258.452	180.94
258.685	189.94
258.918	183.94
259.151	180.94
259.383	202.94
259.616	191.94
259.849	183.94
260.081	197.94
260.314	204.94
260.547	213.94
260.779	191.94
261.012	187.94
261.244	183.94
261.477	190.94
261.71	185.94
261.942	192.94
262.175	203.94
262.407	204.94
262.64	196.94
262.872	189.94
263.105	191.94
263.337	193.94
263.57	203.94
263.802	186.94
264.035	206.94
264.267	189.94
264.499	190.94
264.732	198.94
264.964	206.94
265.197	184.94
265.429	210.94
265.661	199.94
265.894	203.94
266.126	205.94
266.358	202.94
266.591	198.94
266.823	204.94
267.055	193.94
267.287	202.94
267.52	211.94
267.752	209.94
267.984	212.94
268.216	195.94
268.448	204.94
268.681	212.94
268.913	221.94
269.145	225.94
269.377	225.94
269.609	224.94
269.841	226.94
270.073	230.94
270.306	223.94
270.538	249.94
270.77	250.94
271.002	250.94
271.234	226.94
271.466	248.94
271.698	255.94
271.93	260.94
272.162	242.94
272.394	249.94
272.626	256.94
272.858	230.94
273.09	248.94
273.322	254.94
273.553	244.94
273.785	237.94
274.017	229.94
274.249	244.94
274.481	245.94
274.713	234.94
274.945	245.94
275.176	235.94
275.408	245.94
275.64	231.94
275.872	231.94
276.104	243.94
276.335	236.94
276.567	244.94
276.799	232.94
277.031	261.94
277.262	266.94
277.494	284.94
277.726	252.94
277.957	272.94
278.189	242.94
278.421	243.94
278.652	255.94
278.884	250.94
279.115	244.94
279.347	247.94
279.579	246.94
279.81	249.94
280.042	251.94
280.273	249.94
280.505	245.94
280.736	258.94
280.968	254.94
281.199	244.94
281.431	256.94
281.662	244.94
281.894	258.94
282.125	254.94
282.356	279.94
282.588	275.94
282.819	269.94
283.051	268.94
283.282	253.94
283.513	263.94
283.745	255.94
283.976	267.94
284.207	267.94
284.439	263.94
284.67	256.94
284.901	264.94
285.132	280.94
285.364	269.94
285.595	269.94
285.826	264.94
286.057	281.94
286.288	269.94
286.52	277.94
286.751	253.94
286.982	247.94
287.213	268.94
287.444	273.94
287.675	287.94
287.906	277.94
288.138	269.94
288.369	279.94
288.6	284.94
288.831	261.94
289.062	271.94
289.293	289.94
289.524	261.94
289.755	292.94
289.986	268.94
290.217	268.94
290.448	278.94
290.679	277.94
290.91	281.94
291.141	269.94
291.371	275.94
291.602	260.94
291.833	278.94
292.064	285.94
292.295	281.94
292.526	287.94
292.757	271.94
292.987	279.94
293.218	285.94
293.449	269.94
293.68	265.94
293.91	279.94
294.141	264.94
294.372	263.94
294.603	298.94
294.833	283.94
295.064	295.94
295.295	288.94
295.525	283.94
295.756	271.94
295.987	285.94
296.217	277.94
296.448	294.94
296.679	297.94
296.909	285.94
297.14	280.94
297.37	300.94
297.601	281.94
297.831	284.94
298.062	284.94
298.292	284.94
298.523	279.94
298.753	298.94
298.984	298.94
299.214	293.94
299.445	289.94
299.675	299.94
299.905	323.94
300.136	284.94
300.366	301.94
300.597	303.94
300.827	299.94
301.057	328.94
301.288	327.94
301.518	324.94
301.748	321.94
301.979	313.94
302.209	309.94
302.439	311.94
302.669	310.94
302.9	314.94
303.13	320.94
303.36	329.94
303.59	301.94
303.82	319.94
304.051	328.94
304.281	309.94
304.511	300.94
304.741	331.94
304.971	309.94
305.201	307.94
305.431	286.94
305.661	303.94
305.891	295.94
306.121	292.94
306.352	301.94
306.582	307.94
306.812	303.94
307.042	311.94
307.272	308.94
307.502	319.94
307.731	317.94
307.961	320.94
308.191	311.94
308.421	329.94
308.651	322.94
308.881	303.94
309.111	301.94
309.341	310.94
309.571	321.94
309.8	344.94
310.03	322.94
310.26	321.94
310.49	343.94
310.72	346.94
310.949	342.94
311.179	346.94
311.409	334.94
311.639	346.94
311.868	347.94
312.098	342.94
312.328	341.94
312.557	338.94
312.787	355.94
313.017	348.94
313.246	349.94
313.476	335.94
313.706	345.94
313.935	337.94
314.165	354.94
314.394	345.94
314.624	366.94
314.853	347.94
315.083	356.94
315.312	328.94
315.542	346.94
315.771	348.94
316.001	357.94
316.23	332.94
316.46	334.94
316.689	328.94
316.919	359.94
317.148	362.94
317.377	333.94
317.607	330.94
317.836	345.94
318.065	348.94
318.295	351.94
318.524	341.94
318.753	343.94
318.983	327.94
319.212	335.94
319.441	357.94
319.67	347.94
319.9	338.94
320.129	340.94
320.358	343.94
320.587	333.94
320.816	356.94
321.046	360.94
321.275	367.94
321.504	349.94
321.733	356.94
321.962	358.94
322.191	363.94
322.42	356.94
322.649	389.94
322.878	354.94
323.108	383.94
323.337	395.94
323.566	420.94
323.795	420.94
324.024	431.94
324.253	519.94
324.482	668.94
324.71	937.94
324.939	1288.94
325.168	1121.94
325.397	646.94
325.626	501.94
325.855	426.94
326.084	423.94
326.313	415.94
326.542	389.94
326.77	428.94
326.999	503.94
327.228	612.94
327.457	874.94
327.686	1001.94
327.914	725.94
328.143	517.94
328.372	481.94
328.6	472.94
328.829	435.94
329.058	423.94
329.287	450.94
329.515	434.94
329.744	422.94
329.972	417.94
330.201	437.94
330.43	469.94
330.658	464.94
330.887	462.94
331.115	451.94
331.344	433.94
331.572	402.94
331.801	421.94
332.03	450.94
332.258	429.94
332.486	422.94
332.715	418.94
332.943	431.94
333.172	433.94
333.4	439.94
333.629	444.94
333.857	453.94
334.085	489.94
334.314	503.94
334.542	486.94
334.771	512.94
334.999	476.94
335.227	448.94
335.455	455.94
335.684	452.94
335.912	422.94
336.14	427.94
336.369	417.94
336.597	423.94
336.825	415.94
337.053	396.94
337.281	397.94
337.51	403.94
337.738	394.94
337.966	411.94
338.194	420.94
338.422	407.94
338.65	405.94
338.878	407.94
339.106	406.94
339.334	402.94
339.562	381.94
339.79	378.94
340.018	372.94
340.246	387.94
340.474	374.94
340.702	392.94
340.93	388.94
341.158	365.94
341.386	379.94
341.614	378.94
341.842	377.94
342.07	384.94
342.298	379.94
342.526	370.94
342.754	376.94
342.981	387.94
343.209	380.94
343.437	380.94
343.665	403.94
343.893	432.94
344.12	412.94
344.348	413.94
344.576	408.94
344.804	388.94
345.031	373.94
345.259	375.94
345.487	393.94
345.714	390.94
345.942	363.94
346.17	351.94
346.397	363.94
346.625	356.94
346.853	352.94
347.08	351.94
347.308	370.94
347.535	362.94
347.763	374.94
347.99	387.94
348.218	366.94
348.445	353.94
348.673	362.94
348.9	361.94
349.128	364.94
349.355	371.94
349.583	361.94
349.81	349.94
350.037	358.94
350.265	342.94
350.492	342.94
350.72	360.94
350.947	373.94
351.174	353.94
351.402	353.94
351.629	352.94
351.856	351.94
352.083	365.94
352.311	353.94
352.538	364.94
352.765	356.94
352.992	356.94
353.22	366.94
353.447	352.94
353.674	347.94
353.901	329.94
354.128	349.94
354.355	363.94
354.583	338.94
354.81	361.94
355.037	341.94
355.264	356.94
355.491	325.94
355.718	348.94
355.945	329.94
356.172	340.94
356.399	327.94
356.626	334.94
356.853	335.94
357.08	337.94
357.307	335.94
357.534	346.94
357.761	333.94
357.988	329.94
358.215	325.94
358.441	353.94
358.668	342.94
358.895	343.94
359.122	349.94
359.349	334.94
359.576	340.94
359.802	366.94
360.029	365.94
360.256	400.94
360.483	339.94
360.709	360.94
360.936	357.94
361.163	333.94
361.39	366.94
361.616	353.94
361.843	357.94
362.07	359.94
362.296	357.94
362.523	362.94
362.749	356.94
362.976	347.94
363.203	337.94
363.429	340.94
363.656	350.94
363.882	341.94
364.109	353.94
364.335	348.94
364.562	331.94
364.788	351.94
365.015	340.94
365.241	342.94
365.468	358.94
365.694	344.94
365.92	345.94
366.147	351.94
366.373	335.94
366.599	350.94
366.826	347.94
367.052	341.94
367.278	355.94
367.505	347.94
367.731	349.94
367.957	331.94
368.184	339.94
368.41	350.94
368.636	341.94
368.862	350.94
369.089	352.94
369.315	334.94
369.541	358.94
369.767	335.94
369.993	319.94
370.219	325.94
370.445	352.94
370.672	344.94
370.898	337.94
371.124	366.94
371.35	358.94
371.576	349.94
371.802	349.94
372.028	349.94
372.254	338.94
372.48	350.94
372.706	375.94
372.932	349.94
373.158	366.94
373.384	360.94
373.61	341.94
373.835	358.94
374.061	357.94
374.287	372.94
374.513	373.94
374.739	372.94
374.965	371.94
375.191	379.94
375.416	377.94
375.642	373.94
375.868	363.94
376.094	348.94
376.319	359.94
376.545	351.94
376.771	330.94
376.997	360.94
377.222	357.94
377.448	338.94
377.674	351.94
377.899	341.94
378.125	358.94
378.35	344.94
378.576	330.94
378.802	350.94
379.027	345.94
379.253	333.94
379.478	361.94
379.704	358.94
379.929	338.94
380.155	349.94
380.38	347.94
380.606	355.94
380.831	355.94
381.057	361.94
381.282	346.94
381.507	336.94
381.733	338.94
381.958	349.94
382.184	375.94
382.409	363.94
382.634	357.94
382.86	348.94
383.085	363.94
383.31	363.94
383.535	385.94
383.761	362.94
383.986	367.94
384.211	361.94
384.436	346.94
384.662	380.94
384.887	386.94
385.112	385.94
385.337	392.94
385.562	394.94
385.787	395.94
386.013	398.94
386.238	395.94
386.463	413.94
386.688	425.94
386.913	392.94
387.138	406.94
387.363	395.94
387.588	399.94
387.813	366.94
388.038	398.94
388.263	400.94
388.488	379.94
388.713	408.94
388.938	397.94
389.163	393.94
389.387	399.94
389.612	378.94
389.837	379.94
390.062	382.94
390.287	379.94
390.512	406.94
390.736	418.94
390.961	406.94
391.186	433.94
391.411	409.94
391.636	406.94
391.86	423.94
392.085	421.94
392.31	424.94
392.534	440.94
392.759	427.94
392.984	404.94
393.208	404.94
393.433	406.94
393.658	400.94
393.882	407.94
394.107	406.94
394.331	412.94
394.556	399.94
394.78	407.94
395.005	429.94
395.229	402.94
395.454	427.94
395.678	427.94
395.903	422.94
396.127	444.94
396.352	449.94
396.576	410.94
396.801	405.94
397.025	400.94
397.249	421.94
397.474	416.94
397.698	427.94
397.922	449.94
398.147	432.94
398.371	441.94
398.595	460.94
398.82	464.94
399.044	447.94
399.268	527.94
399.492	578.94
399.717	628.94
399.941	633.94
400.165	596.94
400.389	577.94
400.613	520.94
400.837	509.94
401.062	467.94
401.286	455.94
401.51	445.94
401.734	484.94
401.958	472.94
402.182	471.94
402.406	450.94
402.63	498.94
402.854	497.94
403.078	484.94
403.302	492.94
403.526	524.94
403.75	505.94
403.974	501.94
404.198	519.94
404.422	509.94
404.645	495.94
404.869	516.94
405.093	542.94
405.317	548.94
405.541	555.94
405.765	514.94
405.988	508.94
406.212	513.94
406.436	529.94
406.66	517.94
406.883	523.94
407.107	540.94
407.331	579.94
407.555	615.94
407.778	610.94
408.002	594.94
408.226	554.94
408.449	541.94
408.673	523.94
408.896	537.94
409.12	526.94
409.344	535.94
409.567	463.94
409.791	497.94
410.014	497.94
410.238	472.94
410.461	490.94
410.685	486.94
410.908	521.94
411.132	513.94
411.355	506.94
411.578	509.94
411.802	502.94
412.025	498.94
412.249	493.94
412.472	494.94
412.695	524.94
412.919	502.94
413.142	477.94
413.365	480.94
413.589	471.94
413.812	451.94
414.035	457.94
414.258	458.94
414.482	449.94
414.705	465.94
414.928	464.94
415.151	469.94
415.374	471.94
415.597	461.94
415.821	437.94
416.044	425.94
416.267	443.94
416.49	454.94
416.713	456.94
416.936	450.94
417.159	441.94
417.382	450.94
417.605	434.94
417.828	457.94
418.051	465.94
418.274	450.94
418.497	450.94
418.72	447.94
418.943	475.94
419.166	499.94
419.389	538.94
419.611	505.94
419.834	473.94
420.057	484.94
420.28	484.94
420.503	474.94
420.726	478.94
420.948	476.94
421.171	484.94
421.394	490.94
421.617	493.94
421.839	484.94
422.062	471.94
422.285	461.94
422.507	493.94
422.73	530.94
422.953	545.94
423.175	504.94
423.398	482.94
423.621	477.94
423.843	497.94
424.066	487.94
424.288	486.94
424.511	504.94
424.733	550.94
424.956	556.94
425.178	544.94
425.401	539.94
425.623	550.94
425.846	508.94
426.068	485.94
426.291	446.94
426.513	448.94
426.735	464.94
426.958	490.94
427.18	510.94
427.402	605.94
427.625	640.94
427.847	577.94
428.069	515.94
428.292	462.94
428.514	461.94
428.736	437.94
428.958	434.94
429.181	439.94
429.403	414.94
429.625	421.94
429.847	439.94
430.069	462.94
430.292	467.94
430.514	422.94
430.736	433.94
430.958	433.94
431.18	414.94
431.402	433.94
431.624	437.94
431.846	421.94
432.068	417.94
432.29	427.94
432.512	423.94
432.734	437.94
432.956	391.94
433.178	441.94
433.4	433.94
433.622	420.94
433.844	412.94
434.066	407.94
434.287	430.94
434.509	432.94
434.731	447.94
434.953	461.94
435.175	472.94
435.397	475.94
435.618	446.94
435.84	484.94
436.062	532.94
436.284	579.94
436.505	477.94
436.727	451.94
436.949	440.94
437.17	428.94
437.392	419.94
437.614	430.94
437.835	433.94
438.057	491.94
438.278	551.94
438.5	571.94
438.721	590.94
438.943	579.94
439.165	488.94
439.386	443.94
439.608	433.94
439.829	454.94
440.05	468.94
440.272	482.94
440.493	447.94
440.715	445.94
440.936	451.94
441.158	429.94
441.379	438.94
441.6	449.94
441.822	475.94
442.043	494.94
442.264	543.94
442.486	535.94
442.707	493.94
442.928	481.94
443.149	467.94
443.371	482.94
443.592	507.94
443.813	575.94
444.034	591.94
444.255	531.94
444.476	520.94
444.698	499.94
444.919	520.94
445.14	571.94
445.361	525.94
445.582	516.94
445.803	501.94
446.024	551.94
446.245	565.94
446.466	532.94
446.687	467.94
446.908	445.94
447.129	450.94
447.35	401.94
447.571	419.94
447.792	407.94
448.013	428.94
448.234	415.94
448.455	453.94
448.675	490.94
448.896	556.94
449.117	500.94
449.338	478.94
449.559	539.94
449.779	577.94
450	533.94
450.221	447.94
450.442	417.94
450.662	430.94
450.883	410.94
451.104	409.94
451.324	394.94
451.545	387.94
451.766	382.94
451.986	391.94
452.207	378.94
452.428	391.94
452.648	385.94
452.869	382.94
453.089	374.94
453.31	393.94
453.53	394.94
453.751	384.94
453.971	399.94
454.192	365.94
454.412	369.94
454.633	377.94
454.853	380.94
455.073	361.94
455.294	393.94
455.514	410.94
455.734	409.94
455.955	380.94
456.175	386.94
456.395	364.94
456.616	369.94
456.836	367.94
457.056	373.94
457.276	355.94
457.497	376.94
457.717	377.94
457.937	355.94
458.157	354.94
458.377	397.94
458.598	387.94
458.818	415.94
459.038	443.94
459.258	468.94
459.478	455.94
459.698	437.94
459.918	425.94
460.138	447.94
460.358	425.94
460.578	445.94
460.798	437.94
461.018	451.94
461.238	452.94
461.458	431.94
461.678	441.94
461.898	458.94
462.118	454.94
462.338	469.94
462.558	474.94
462.777	494.94
462.997	521.94
463.217	575.94
463.437	544.94
463.657	518.94
463.876	494.94
464.096	486.94
464.316	500.94
464.536	503.94
464.755	489.94
464.975	474.94
465.195	474.94
465.414	491.94
465.634	468.94
465.854	475.94
466.073	421.94
466.293	403.94
466.512	421.94
466.732	401.94
466.951	417.94
467.171	401.94
467.391	393.94
467.61	385.94
467.829	379.94
468.049	408.94
468.268	393.94
468.488	393.94
468.707	395.94
468.927	384.94
469.146	403.94
469.365	390.94
469.585	378.94
469.804	396.94
470.023	402.94
470.243	403.94
470.462	405.94
470.681	439.94
470.901	407.94
471.12	419.94
471.339	397.94
471.558	398.94
471.777	417.94
471.997	377.94
472.216	390.94
472.435	413.94
472.654	415.94
472.873	407.94
473.092	394.94
473.311	384.94
473.53	387.94
473.749	388.94
473.968	419.94
474.187	457.94
474.406	470.94
474.625	433.94
474.844	396.94
475.063	404.94
475.282	394.94
475.501	401.94
475.72	403.94
475.939	402.94
476.158	377.94
476.377	407.94
476.596	396.94
476.814	423.94
477.033	411.94
477.252	404.94
477.471	417.94
477.69	416.94
477.908	440.94
478.127	443.94
478.346	446.94
478.564	451.94
478.783	465.94
479.002	468.94
479.22	475.94
479.439	465.94
479.658	471.94
479.876	481.94
480.095	484.94
480.313	501.94
480.532	497.94
480.751	509.94
480.969	505.94
481.188	519.94
481.406	541.94
481.624	495.94
481.843	468.94
482.061	478.94
482.28	468.94
482.498	446.94
482.717	450.94
482.935	455.94
483.153	438.94
483.372	466.94
483.59	446.94
483.808	442.94
484.027	446.94
484.245	468.94
484.463	435.94
484.681	454.94
484.9	463.94
485.118	463.94
485.336	455.94
485.554	474.94
485.772	471.94
485.99	483.94
486.209	481.94
486.427	468.94
486.645	474.94
486.863	483.94
487.081	458.94
487.299	484.94
487.517	482.94
487.735	469.94
487.953	457.94
488.171	478.94
488.389	465.94
488.607	469.94
488.825	469.94
489.043	462.94
489.261	462.94
489.479	491.94
489.696	461.94
489.914	465.94
490.132	483.94
490.35	486.94
490.568	499.94
490.786	485.94
491.003	512.94
491.221	505.94
491.439	510.94
491.657	513.94
491.874	524.94
492.092	536.94
492.31	521.94
492.527	528.94
492.745	556.94
492.963	528.94
493.18	520.94
493.398	523.94
493.615	532.94
493.833	563.94
494.05	563.94
494.268	539.94
494.485	531.94
494.703	562.94
494.92	531.94
495.138	537.94
495.355	544.94
495.573	545.94
495.79	550.94
496.008	556.94
496.225	557.94
496.442	554.94
496.66	552.94
496.877	535.94
497.094	557.94
497.312	541.94
497.529	567.94
497.746	584.94
497.963	594.94
498.181	608.94
498.398	626.94
498.615	645.94
498.832	637.94
499.049	698.94
499.267	742.94
499.484	771.94
499.701	785.94
499.918	859.94
500.135	965.94
500.352	1017.94
500.569	1082.94
500.786	1062.94
501.003	1045.94
501.22	963.94
501.437	887.94
501.654	852.94
501.871	795.94
502.088	742.94
