Data from 1984.PennyLincolnUp.Lamp.En5.5.200Scan.071819.P1_HRD10591_16-58-59-968.txt Node
Date: Thu Jul 18 16:58:59 EDT 2019
User: cochatt
Spectrometer: HR+D1059
Trigger mode: 1
Integration Time (sec): 1.000000E-1
Scans to average: 1
Electric dark correction enabled: true
Nonlinearity correction enabled: false
Boxcar width: 0
XAxis mode: Wavelengths
Number of Pixels in Spectrum: 2048
>>>>>Begin Spectral Data<<<<<
223.165	-9.56
223.4	-9.56
223.635	-9.56
223.869	-17.56
224.104	-17.56
224.338	-24.56
224.573	-14.56
224.808	-17.56
225.042	-3.56
225.277	0.44
225.511	5.44
225.746	-3.56
225.98	-1.56
226.215	6.44
226.449	17.44
226.683	29.44
226.918	25.44
227.152	25.44
227.387	35.44
227.621	36.44
227.856	44.44
228.09	27.44
228.324	37.44
228.559	59.44
228.793	60.44
229.027	76.44
229.262	92.44
229.496	89.44
229.73	106.44
229.964	122.44
230.199	116.44
230.433	100.44
230.667	99.44
230.901	102.44
231.136	101.44
231.37	103.44
231.604	81.44
231.838	110.44
232.072	105.44
232.306	99.44
232.541	117.44
232.775	96.44
233.009	106.44
233.243	104.44
233.477	117.44
233.711	107.44
233.945	105.44
234.179	109.44
234.413	118.44
234.647	123.44
234.881	125.44
235.115	102.44
235.349	102.44
235.583	107.44
235.817	119.44
236.051	103.44
236.285	94.44
236.519	120.44
236.753	117.44
236.987	109.44
237.221	140.44
237.455	166.44
237.689	144.44
237.922	135.44
238.156	113.44
238.39	112.44
238.624	112.44
238.858	116.44
239.091	126.44
239.325	129.44
239.559	120.44
239.793	126.44
240.027	128.44
240.26	125.44
240.494	153.44
240.728	132.44
240.961	112.44
241.195	121.44
241.429	123.44
241.662	113.44
241.896	132.44
242.13	111.44
242.363	127.44
242.597	122.44
242.83	144.44
243.064	129.44
243.298	125.44
243.531	123.44
243.765	119.44
243.998	126.44
244.232	127.44
244.465	129.44
244.699	131.44
244.932	120.44
245.166	118.44
245.399	125.44
245.633	128.44
245.866	132.44
246.099	139.44
246.333	155.44
246.566	140.44
246.8	145.44
247.033	122.44
247.266	126.44
247.5	141.44
247.733	139.44
247.966	168.44
248.2	146.44
248.433	138.44
248.666	145.44
248.899	143.44
249.133	175.44
249.366	170.44
249.599	183.44
249.832	161.44
250.066	174.44
250.299	162.44
250.532	165.44
250.765	190.44
250.998	186.44
251.231	191.44
251.465	193.44
251.698	179.44
251.931	191.44
252.164	179.44
252.397	180.44
252.63	165.44
252.863	192.44
253.096	182.44
253.329	190.44
253.562	184.44
253.795	178.44
254.028	174.44
254.261	186.44
254.494	199.44
254.727	194.44
254.96	211.44
255.193	222.44
255.426	203.44
255.659	189.44
255.892	200.44
256.124	249.44
256.357	254.44
256.59	220.44
256.823	206.44
257.056	179.44
257.289	185.44
257.521	206.44
257.754	195.44
257.987	187.44
258.22	196.44
258.452	199.44
258.685	187.44
258.918	200.44
259.151	179.44
259.383	191.44
259.616	188.44
259.849	204.44
260.081	200.44
260.314	205.44
260.547	202.44
260.779	188.44
261.012	210.44
261.244	196.44
261.477	190.44
261.71	191.44
261.942	207.44
262.175	219.44
262.407	190.44
262.64	189.44
262.872	207.44
263.105	199.44
263.337	198.44
263.57	197.44
263.802	201.44
264.035	198.44
264.267	203.44
264.499	179.44
264.732	196.44
264.964	192.44
265.197	183.44
265.429	187.44
265.661	193.44
265.894	200.44
266.126	200.44
266.358	205.44
266.591	187.44
266.823	191.44
267.055	202.44
267.287	206.44
267.52	209.44
267.752	215.44
267.984	222.44
268.216	230.44
268.448	209.44
268.681	222.44
268.913	212.44
269.145	219.44
269.377	247.44
269.609	243.44
269.841	217.44
270.073	233.44
270.306	267.44
270.538	262.44
270.77	250.44
271.002	244.44
271.234	240.44
271.466	255.44
271.698	261.44
271.93	255.44
272.162	271.44
272.394	253.44
272.626	262.44
272.858	253.44
273.09	248.44
273.322	230.44
273.553	248.44
273.785	241.44
274.017	256.44
274.249	246.44
274.481	232.44
274.713	232.44
274.945	245.44
275.176	260.44
275.408	241.44
275.64	244.44
275.872	239.44
276.104	254.44
276.335	248.44
276.567	245.44
276.799	267.44
277.031	263.44
277.262	281.44
277.494	289.44
277.726	246.44
277.957	253.44
278.189	266.44
278.421	250.44
278.652	258.44
278.884	250.44
279.115	241.44
279.347	259.44
279.579	258.44
279.81	259.44
280.042	264.44
280.273	259.44
280.505	248.44
280.736	247.44
280.968	257.44
281.199	233.44
281.431	255.44
281.662	260.44
281.894	259.44
282.125	261.44
282.356	248.44
282.588	281.44
282.819	283.44
283.051	262.44
283.282	258.44
283.513	276.44
283.745	265.44
283.976	279.44
284.207	263.44
284.439	262.44
284.67	256.44
284.901	266.44
285.132	263.44
285.364	263.44
285.595	254.44
285.826	268.44
286.057	272.44
286.288	274.44
286.52	274.44
286.751	272.44
286.982	255.44
287.213	290.44
287.444	273.44
287.675	285.44
287.906	286.44
288.138	273.44
288.369	286.44
288.6	296.44
288.831	303.44
289.062	285.44
289.293	289.44
289.524	279.44
289.755	279.44
289.986	280.44
290.217	265.44
290.448	276.44
290.679	293.44
290.91	281.44
291.141	265.44
291.371	287.44
291.602	290.44
291.833	271.44
292.064	277.44
292.295	282.44
292.526	271.44
292.757	275.44
292.987	271.44
293.218	289.44
293.449	282.44
293.68	294.44
293.91	285.44
294.141	280.44
294.372	275.44
294.603	301.44
294.833	298.44
295.064	281.44
295.295	273.44
295.525	280.44
295.756	294.44
295.987	277.44
296.217	301.44
296.448	317.44
296.679	293.44
296.909	290.44
297.14	297.44
297.37	293.44
297.601	295.44
297.831	302.44
298.062	287.44
298.292	293.44
298.523	305.44
298.753	317.44
298.984	303.44
299.214	286.44
299.445	286.44
299.675	315.44
299.905	301.44
300.136	289.44
300.366	310.44
300.597	311.44
300.827	329.44
301.057	322.44
301.288	339.44
301.518	307.44
301.748	321.44
301.979	328.44
302.209	319.44
302.439	310.44
302.669	307.44
302.9	337.44
303.13	327.44
303.36	330.44
303.59	315.44
303.82	319.44
304.051	325.44
304.281	343.44
304.511	328.44
304.741	317.44
304.971	302.44
305.201	325.44
305.431	306.44
305.661	337.44
305.891	302.44
306.121	308.44
306.352	304.44
306.582	317.44
306.812	323.44
307.042	331.44
307.272	310.44
307.502	304.44
307.731	301.44
307.961	320.44
308.191	326.44
308.421	321.44
308.651	310.44
308.881	317.44
309.111	333.44
309.341	329.44
309.571	320.44
309.8	321.44
310.03	355.44
310.26	335.44
310.49	330.44
310.72	341.44
310.949	329.44
311.179	349.44
311.409	362.44
311.639	332.44
311.868	335.44
312.098	343.44
312.328	335.44
312.557	342.44
312.787	351.44
313.017	358.44
313.246	334.44
313.476	344.44
313.706	346.44
313.935	377.44
314.165	353.44
314.394	379.44
314.624	331.44
314.853	344.44
315.083	352.44
315.312	349.44
315.542	357.44
315.771	350.44
316.001	352.44
316.23	339.44
316.46	338.44
316.689	358.44
316.919	354.44
317.148	360.44
317.377	349.44
317.607	340.44
317.836	343.44
318.065	356.44
318.295	343.44
318.524	326.44
318.753	342.44
318.983	345.44
319.212	356.44
319.441	349.44
319.67	354.44
319.9	342.44
320.129	347.44
320.358	366.44
320.587	339.44
320.816	358.44
321.046	355.44
321.275	359.44
321.504	370.44
321.733	347.44
321.962	361.44
322.191	354.44
322.42	393.44
322.649	405.44
322.878	402.44
323.108	384.44
323.337	398.44
323.566	413.44
323.795	441.44
324.024	473.44
324.253	531.44
324.482	714.44
324.71	1057.44
324.939	1407.44
325.168	1189.44
325.397	678.44
325.626	508.44
325.855	473.44
326.084	453.44
326.313	443.44
326.542	437.44
326.77	480.44
326.999	535.44
327.228	665.44
327.457	918.44
327.686	1120.44
327.914	798.44
328.143	586.44
328.372	521.44
328.6	511.44
328.829	477.44
329.058	498.44
329.287	492.44
329.515	475.44
329.744	461.44
329.972	482.44
330.201	509.44
330.43	557.44
330.658	567.44
330.887	534.44
331.115	499.44
331.344	456.44
331.572	448.44
331.801	446.44
332.03	446.44
332.258	443.44
332.486	425.44
332.715	446.44
332.943	458.44
333.172	451.44
333.4	480.44
333.629	475.44
333.857	528.44
334.085	565.44
334.314	580.44
334.542	639.44
334.771	631.44
334.999	554.44
335.227	465.44
335.455	465.44
335.684	445.44
335.912	455.44
336.14	455.44
336.369	438.44
336.597	431.44
336.825	433.44
337.053	431.44
337.281	431.44
337.51	425.44
337.738	409.44
337.966	407.44
338.194	410.44
338.422	409.44
338.65	408.44
338.878	411.44
339.106	388.44
339.334	401.44
339.562	393.44
339.79	404.44
340.018	388.44
340.246	390.44
340.474	389.44
340.702	397.44
340.93	377.44
341.158	386.44
341.386	374.44
341.614	397.44
341.842	393.44
342.07	389.44
342.298	378.44
342.526	394.44
342.754	375.44
342.981	375.44
343.209	386.44
343.437	385.44
343.665	383.44
343.893	440.44
344.12	421.44
344.348	407.44
344.576	433.44
344.804	401.44
345.031	426.44
345.259	407.44
345.487	392.44
345.714	378.44
345.942	373.44
346.17	369.44
346.397	365.44
346.625	390.44
346.853	376.44
347.08	372.44
347.308	381.44
347.535	360.44
347.763	379.44
347.99	375.44
348.218	366.44
348.445	381.44
348.673	365.44
348.9	368.44
349.128	374.44
349.355	365.44
349.583	346.44
349.81	357.44
350.037	376.44
350.265	358.44
350.492	374.44
350.72	361.44
350.947	368.44
351.174	385.44
351.402	373.44
351.629	375.44
351.856	374.44
352.083	357.44
352.311	375.44
352.538	367.44
352.765	365.44
352.992	370.44
353.22	371.44
353.447	372.44
353.674	359.44
353.901	359.44
354.128	351.44
354.355	349.44
354.583	338.44
354.81	337.44
355.037	366.44
355.264	351.44
355.491	349.44
355.718	339.44
355.945	357.44
356.172	344.44
356.399	341.44
356.626	327.44
356.853	358.44
357.08	358.44
357.307	351.44
357.534	351.44
357.761	353.44
357.988	349.44
358.215	350.44
358.441	349.44
358.668	351.44
358.895	348.44
359.122	345.44
359.349	352.44
359.576	358.44
359.802	361.44
360.029	399.44
360.256	397.44
360.483	378.44
360.709	362.44
360.936	369.44
361.163	360.44
361.39	362.44
361.616	352.44
361.843	367.44
362.07	367.44
362.296	354.44
362.523	353.44
362.749	343.44
362.976	371.44
363.203	352.44
363.429	349.44
363.656	347.44
363.882	357.44
364.109	349.44
364.335	342.44
364.562	336.44
364.788	341.44
365.015	358.44
365.241	353.44
365.468	360.44
365.694	349.44
365.92	341.44
366.147	347.44
366.373	342.44
366.599	335.44
366.826	353.44
367.052	352.44
367.278	358.44
367.505	345.44
367.731	351.44
367.957	357.44
368.184	341.44
368.41	343.44
368.636	368.44
368.862	345.44
369.089	359.44
369.315	342.44
369.541	348.44
369.767	331.44
369.993	371.44
370.219	361.44
370.445	354.44
370.672	361.44
370.898	362.44
371.124	362.44
371.35	384.44
371.576	359.44
371.802	356.44
372.028	338.44
372.254	369.44
372.48	368.44
372.706	369.44
372.932	349.44
373.158	350.44
373.384	371.44
373.61	378.44
373.835	363.44
374.061	362.44
374.287	378.44
374.513	360.44
374.739	373.44
374.965	364.44
375.191	373.44
375.416	398.44
375.642	362.44
375.868	382.44
376.094	363.44
376.319	371.44
376.545	357.44
376.771	369.44
376.997	333.44
377.222	341.44
377.448	350.44
377.674	371.44
377.899	367.44
378.125	359.44
378.35	334.44
378.576	346.44
378.802	373.44
379.027	365.44
379.253	357.44
379.478	362.44
379.704	350.44
379.929	348.44
380.155	350.44
380.38	352.44
380.606	343.44
380.831	336.44
381.057	359.44
381.282	350.44
381.507	349.44
381.733	359.44
381.958	350.44
382.184	362.44
382.409	373.44
382.634	352.44
382.86	363.44
383.085	356.44
383.31	369.44
383.535	368.44
383.761	368.44
383.986	361.44
384.211	389.44
384.436	394.44
384.662	383.44
384.887	409.44
385.112	401.44
385.337	424.44
385.562	387.44
385.787	399.44
386.013	405.44
386.238	406.44
386.463	409.44
386.688	406.44
386.913	392.44
387.138	394.44
387.363	391.44
387.588	386.44
387.813	409.44
388.038	392.44
388.263	403.44
388.488	394.44
388.713	411.44
388.938	417.44
389.163	379.44
389.387	391.44
389.612	389.44
389.837	396.44
390.062	377.44
390.287	381.44
390.512	389.44
390.736	399.44
390.961	390.44
391.186	396.44
391.411	414.44
391.636	421.44
391.86	408.44
392.085	405.44
392.31	430.44
392.534	416.44
392.759	425.44
392.984	423.44
393.208	411.44
393.433	417.44
393.658	406.44
393.882	410.44
394.107	414.44
394.331	420.44
394.556	413.44
394.78	415.44
395.005	403.44
395.229	417.44
395.454	417.44
395.678	410.44
395.903	448.44
396.127	433.44
396.352	440.44
396.576	423.44
396.801	413.44
397.025	419.44
397.249	424.44
397.474	416.44
397.698	416.44
397.922	435.44
398.147	458.44
398.371	467.44
398.595	445.44
398.82	462.44
399.044	517.44
399.268	529.44
399.492	569.44
399.717	619.44
399.941	642.44
400.165	608.44
400.389	585.44
400.613	525.44
400.837	506.44
401.062	480.44
401.286	475.44
401.51	465.44
401.734	463.44
401.958	507.44
402.182	489.44
402.406	477.44
402.63	471.44
402.854	488.44
403.078	491.44
403.302	510.44
403.526	523.44
403.75	516.44
403.974	522.44
404.198	499.44
404.422	521.44
404.645	546.44
404.869	527.44
405.093	566.44
405.317	559.44
405.541	614.44
405.765	565.44
405.988	542.44
406.212	539.44
406.436	541.44
406.66	536.44
406.883	523.44
407.107	563.44
407.331	605.44
407.555	629.44
407.778	646.44
408.002	586.44
408.226	565.44
408.449	552.44
408.673	568.44
408.896	561.44
409.12	568.44
409.344	569.44
409.567	528.44
409.791	507.44
410.014	487.44
410.238	517.44
410.461	493.44
410.685	504.44
410.908	510.44
411.132	515.44
411.355	527.44
411.578	506.44
411.802	507.44
412.025	495.44
412.249	522.44
412.472	555.44
412.695	571.44
412.919	550.44
413.142	538.44
413.365	514.44
413.589	485.44
413.812	459.44
414.035	469.44
414.258	477.44
414.482	478.44
414.705	465.44
414.928	463.44
415.151	466.44
415.374	470.44
415.597	466.44
415.821	454.44
416.044	459.44
416.267	469.44
416.49	435.44
416.713	446.44
416.936	469.44
417.159	467.44
417.382	472.44
417.605	478.44
417.828	478.44
418.051	477.44
418.274	483.44
418.497	459.44
418.72	478.44
418.943	485.44
419.166	490.44
419.389	523.44
419.611	487.44
419.834	523.44
420.057	499.44
420.28	513.44
420.503	514.44
420.726	519.44
420.948	501.44
421.171	535.44
421.394	535.44
421.617	486.44
421.839	477.44
422.062	463.44
422.285	482.44
422.507	509.44
422.73	577.44
422.953	568.44
423.175	524.44
423.398	490.44
423.621	505.44
423.843	484.44
424.066	507.44
424.288	505.44
424.511	512.44
424.733	521.44
424.956	601.44
425.178	567.44
425.401	567.44
425.623	576.44
425.846	522.44
426.068	475.44
426.291	473.44
426.513	486.44
426.735	481.44
426.958	512.44
427.18	567.44
427.402	622.44
427.625	665.44
427.847	602.44
428.069	571.44
428.292	507.44
428.514	474.44
428.736	455.44
428.958	464.44
429.181	447.44
429.403	433.44
429.625	437.44
429.847	468.44
430.069	466.44
430.292	481.44
430.514	442.44
430.736	445.44
430.958	429.44
431.18	437.44
431.402	427.44
431.624	425.44
431.846	438.44
432.068	424.44
432.29	437.44
432.512	430.44
432.734	406.44
432.956	435.44
433.178	421.44
433.4	429.44
433.622	431.44
433.844	416.44
434.066	410.44
434.287	418.44
434.509	450.44
434.731	431.44
434.953	460.44
435.175	471.44
435.397	494.44
435.618	479.44
435.84	495.44
436.062	537.44
436.284	584.44
436.505	498.44
436.727	454.44
436.949	466.44
437.17	448.44
437.392	421.44
437.614	424.44
437.835	448.44
438.057	524.44
438.278	559.44
438.5	575.44
438.721	604.44
438.943	614.44
439.165	500.44
439.386	469.44
439.608	457.44
439.829	467.44
440.05	469.44
440.272	503.44
440.493	496.44
440.715	450.44
440.936	455.44
441.158	469.44
441.379	441.44
441.6	467.44
441.822	462.44
442.043	499.44
442.264	558.44
442.486	547.44
442.707	527.44
442.928	509.44
443.149	490.44
443.371	520.44
443.592	527.44
443.813	595.44
444.034	609.44
444.255	554.44
444.476	528.44
444.698	541.44
444.919	522.44
445.14	622.44
445.361	566.44
445.582	514.44
445.803	541.44
446.024	581.44
446.245	595.44
446.466	556.44
446.687	459.44
446.908	443.44
447.129	457.44
447.35	425.44
447.571	430.44
447.792	412.44
448.013	446.44
448.234	437.44
448.455	461.44
448.675	553.44
448.896	579.44
449.117	532.44
449.338	496.44
449.559	554.44
449.779	634.44
450	528.44
450.221	437.44
450.442	415.44
450.662	417.44
450.883	429.44
451.104	424.44
451.324	405.44
451.545	403.44
451.766	402.44
451.986	393.44
452.207	415.44
452.428	402.44
452.648	394.44
452.869	387.44
453.089	395.44
453.31	395.44
453.53	390.44
453.751	388.44
453.971	390.44
454.192	407.44
454.412	408.44
454.633	385.44
454.853	384.44
455.073	372.44
455.294	409.44
455.514	437.44
455.734	449.44
455.955	387.44
456.175	373.44
456.395	353.44
456.616	374.44
456.836	362.44
457.056	391.44
457.276	362.44
457.497	378.44
457.717	372.44
457.937	388.44
458.157	381.44
458.377	377.44
458.598	391.44
458.818	409.44
459.038	462.44
459.258	496.44
459.478	456.44
459.698	414.44
459.918	457.44
460.138	451.44
460.358	463.44
460.578	443.44
460.798	458.44
461.018	469.44
461.238	457.44
461.458	443.44
461.678	462.44
461.898	459.44
462.118	466.44
462.338	492.44
462.558	485.44
462.777	493.44
462.997	530.44
463.217	569.44
463.437	565.44
463.657	531.44
463.876	507.44
464.096	530.44
464.316	513.44
464.536	510.44
464.755	524.44
464.975	476.44
465.195	504.44
465.414	507.44
465.634	478.44
465.854	449.44
466.073	428.44
466.293	411.44
466.512	427.44
466.732	402.44
466.951	412.44
467.171	408.44
467.391	401.44
467.61	435.44
467.829	423.44
468.049	426.44
468.268	416.44
468.488	419.44
468.707	409.44
468.927	401.44
469.146	375.44
469.365	393.44
469.585	392.44
469.804	408.44
470.023	402.44
470.243	396.44
470.462	429.44
470.681	425.44
470.901	414.44
471.12	423.44
471.339	416.44
471.558	409.44
471.777	414.44
471.997	406.44
472.216	439.44
472.435	488.44
472.654	487.44
472.873	425.44
473.092	423.44
473.311	418.44
473.53	392.44
473.749	399.44
473.968	421.44
474.187	478.44
474.406	478.44
474.625	416.44
474.844	392.44
475.063	424.44
475.282	385.44
475.501	416.44
475.72	410.44
475.939	408.44
476.158	416.44
476.377	398.44
476.596	396.44
476.814	418.44
477.033	426.44
477.252	422.44
477.471	423.44
477.69	440.44
477.908	437.44
478.127	453.44
478.346	449.44
478.564	453.44
478.783	457.44
479.002	473.44
479.22	485.44
479.439	474.44
479.658	474.44
479.876	490.44
480.095	489.44
480.313	515.44
480.532	513.44
480.751	519.44
480.969	527.44
481.188	610.44
481.406	667.44
481.624	578.44
481.843	533.44
482.061	527.44
482.28	478.44
482.498	476.44
482.717	457.44
482.935	456.44
483.153	453.44
483.372	465.44
483.59	471.44
483.808	481.44
484.027	461.44
484.245	475.44
484.463	463.44
484.681	475.44
484.9	473.44
485.118	479.44
485.336	470.44
485.554	482.44
485.772	493.44
485.99	478.44
486.209	485.44
486.427	475.44
486.645	509.44
486.863	468.44
487.081	485.44
487.299	487.44
487.517	491.44
487.735	483.44
487.953	497.44
488.171	495.44
488.389	508.44
488.607	497.44
488.825	497.44
489.043	489.44
489.261	494.44
489.479	500.44
489.696	509.44
489.914	495.44
490.132	501.44
490.35	528.44
490.568	516.44
490.786	512.44
491.003	550.44
491.221	530.44
491.439	524.44
491.657	555.44
491.874	562.44
492.092	569.44
492.31	576.44
492.527	571.44
492.745	581.44
492.963	578.44
493.18	590.44
493.398	561.44
493.615	580.44
493.833	583.44
494.05	582.44
494.268	585.44
494.485	597.44
494.703	545.44
494.92	573.44
495.138	567.44
495.355	561.44
495.573	543.44
495.79	561.44
496.008	558.44
496.225	568.44
496.442	577.44
496.66	568.44
496.877	586.44
497.094	569.44
497.312	568.44
497.529	615.44
497.746	618.44
497.963	613.44
498.181	641.44
498.398	642.44
498.615	668.44
498.832	690.44
499.049	706.44
499.267	742.44
499.484	813.44
499.701	874.44
499.918	891.44
500.135	978.44
500.352	1074.44
500.569	1098.44
500.786	1106.44
501.003	1085.44
501.22	1029.44
501.437	931.44
501.654	886.44
501.871	821.44
502.088	775.44
