Data from 1984.PennyLincolnUp.Lamp.En5.5.200Scan.071819.P1_HRD10591_16-57-31-967.txt Node
Date: Thu Jul 18 16:57:31 EDT 2019
User: cochatt
Spectrometer: HR+D1059
Trigger mode: 1
Integration Time (sec): 1.000000E-1
Scans to average: 1
Electric dark correction enabled: true
Nonlinearity correction enabled: false
Boxcar width: 0
XAxis mode: Wavelengths
Number of Pixels in Spectrum: 2048
>>>>>Begin Spectral Data<<<<<
223.165	-11.94
223.4	-11.94
223.635	-11.94
223.869	-16.94
224.104	-22.94
224.338	-16.94
224.573	1.06
224.808	-6.94
225.042	-9.94
225.277	-14.94
225.511	-2.94
225.746	-0.94
225.98	11.06
226.215	13.06
226.449	14.06
226.683	14.06
226.918	29.06
227.152	22.06
227.387	33.06
227.621	37.06
227.856	39.06
228.09	47.06
228.324	30.06
228.559	54.06
228.793	64.06
229.027	73.06
229.262	83.06
229.496	100.06
229.73	113.06
229.964	114.06
230.199	91.06
230.433	92.06
230.667	99.06
230.901	96.06
231.136	97.06
231.37	111.06
231.604	99.06
231.838	90.06
232.072	106.06
232.306	93.06
232.541	97.06
232.775	98.06
233.009	110.06
233.243	104.06
233.477	116.06
233.711	97.06
233.945	109.06
234.179	97.06
234.413	100.06
234.647	107.06
234.881	106.06
235.115	115.06
235.349	92.06
235.583	91.06
235.817	102.06
236.051	101.06
236.285	116.06
236.519	114.06
236.753	106.06
236.987	131.06
237.221	134.06
237.455	170.06
237.689	130.06
237.922	118.06
238.156	121.06
238.39	120.06
238.624	110.06
238.858	111.06
239.091	114.06
239.325	108.06
239.559	101.06
239.793	114.06
240.027	105.06
240.26	105.06
240.494	126.06
240.728	137.06
240.961	121.06
241.195	110.06
241.429	121.06
241.662	127.06
241.896	126.06
242.13	112.06
242.363	134.06
242.597	110.06
242.83	121.06
243.064	121.06
243.298	134.06
243.531	114.06
243.765	137.06
243.998	117.06
244.232	134.06
244.465	137.06
244.699	123.06
244.932	129.06
245.166	133.06
245.399	139.06
245.633	133.06
245.866	127.06
246.099	123.06
246.333	131.06
246.566	127.06
246.8	120.06
247.033	121.06
247.266	134.06
247.5	146.06
247.733	151.06
247.966	143.06
248.2	139.06
248.433	145.06
248.666	156.06
248.899	160.06
249.133	163.06
249.366	169.06
249.599	163.06
249.832	152.06
250.066	161.06
250.299	151.06
250.532	151.06
250.765	170.06
250.998	170.06
251.231	175.06
251.465	157.06
251.698	157.06
251.931	177.06
252.164	157.06
252.397	168.06
252.63	150.06
252.863	173.06
253.096	158.06
253.329	173.06
253.562	173.06
253.795	166.06
254.028	177.06
254.261	173.06
254.494	175.06
254.727	192.06
254.96	191.06
255.193	188.06
255.426	185.06
255.659	185.06
255.892	172.06
256.124	170.06
256.357	172.06
256.59	181.06
256.823	168.06
257.056	173.06
257.289	155.06
257.521	176.06
257.754	161.06
257.987	177.06
258.22	151.06
258.452	166.06
258.685	185.06
258.918	186.06
259.151	170.06
259.383	179.06
259.616	194.06
259.849	185.06
260.081	183.06
260.314	201.06
260.547	208.06
260.779	175.06
261.012	185.06
261.244	198.06
261.477	193.06
261.71	189.06
261.942	200.06
262.175	196.06
262.407	191.06
262.64	181.06
262.872	179.06
263.105	185.06
263.337	191.06
263.57	184.06
263.802	195.06
264.035	179.06
264.267	184.06
264.499	188.06
264.732	195.06
264.964	173.06
265.197	199.06
265.429	192.06
265.661	171.06
265.894	200.06
266.126	201.06
266.358	185.06
266.591	188.06
266.823	188.06
267.055	193.06
267.287	202.06
267.52	202.06
267.752	204.06
267.984	199.06
268.216	213.06
268.448	207.06
268.681	212.06
268.913	205.06
269.145	229.06
269.377	220.06
269.609	218.06
269.841	205.06
270.073	232.06
270.306	239.06
270.538	248.06
270.77	242.06
271.002	230.06
271.234	234.06
271.466	249.06
271.698	231.06
271.93	251.06
272.162	251.06
272.394	258.06
272.626	238.06
272.858	224.06
273.09	230.06
273.322	245.06
273.553	223.06
273.785	229.06
274.017	221.06
274.249	240.06
274.481	237.06
274.713	233.06
274.945	230.06
275.176	234.06
275.408	238.06
275.64	243.06
275.872	221.06
276.104	237.06
276.335	242.06
276.567	216.06
276.799	234.06
277.031	242.06
277.262	263.06
277.494	271.06
277.726	242.06
277.957	251.06
278.189	247.06
278.421	242.06
278.652	240.06
278.884	241.06
279.115	238.06
279.347	257.06
279.579	244.06
279.81	231.06
280.042	243.06
280.273	229.06
280.505	247.06
280.736	218.06
280.968	243.06
281.199	244.06
281.431	233.06
281.662	243.06
281.894	241.06
282.125	257.06
282.356	252.06
282.588	276.06
282.819	256.06
283.051	243.06
283.282	256.06
283.513	266.06
283.745	237.06
283.976	249.06
284.207	259.06
284.439	267.06
284.67	260.06
284.901	270.06
285.132	259.06
285.364	249.06
285.595	269.06
285.826	239.06
286.057	255.06
286.288	277.06
286.52	282.06
286.751	263.06
286.982	271.06
287.213	270.06
287.444	266.06
287.675	281.06
287.906	271.06
288.138	289.06
288.369	263.06
288.6	289.06
288.831	267.06
289.062	268.06
289.293	297.06
289.524	281.06
289.755	296.06
289.986	273.06
290.217	257.06
290.448	271.06
290.679	299.06
290.91	259.06
291.141	262.06
291.371	265.06
291.602	281.06
291.833	268.06
292.064	284.06
292.295	267.06
292.526	274.06
292.757	272.06
292.987	268.06
293.218	271.06
293.449	285.06
293.68	285.06
293.91	273.06
294.141	272.06
294.372	268.06
294.603	292.06
294.833	264.06
295.064	274.06
295.295	275.06
295.525	261.06
295.756	297.06
295.987	287.06
296.217	286.06
296.448	313.06
296.679	278.06
296.909	273.06
297.14	290.06
297.37	280.06
297.601	311.06
297.831	289.06
298.062	303.06
298.292	282.06
298.523	297.06
298.753	305.06
298.984	286.06
299.214	281.06
299.445	285.06
299.675	282.06
299.905	304.06
300.136	299.06
300.366	290.06
300.597	318.06
300.827	286.06
301.057	294.06
301.288	304.06
301.518	327.06
301.748	303.06
301.979	311.06
302.209	312.06
302.439	286.06
302.669	313.06
302.9	310.06
303.13	312.06
303.36	301.06
303.59	331.06
303.82	305.06
304.051	312.06
304.281	295.06
304.511	306.06
304.741	314.06
304.971	309.06
305.201	323.06
305.431	309.06
305.661	302.06
305.891	313.06
306.121	317.06
306.352	299.06
306.582	294.06
306.812	303.06
307.042	325.06
307.272	307.06
307.502	312.06
307.731	307.06
307.961	320.06
308.191	301.06
308.421	317.06
308.651	322.06
308.881	302.06
309.111	308.06
309.341	288.06
309.571	323.06
309.8	326.06
310.03	331.06
310.26	330.06
310.49	326.06
310.72	323.06
310.949	313.06
311.179	341.06
311.409	336.06
311.639	324.06
311.868	324.06
312.098	327.06
312.328	311.06
312.557	335.06
312.787	333.06
313.017	348.06
313.246	346.06
313.476	329.06
313.706	340.06
313.935	337.06
314.165	339.06
314.394	368.06
314.624	345.06
314.853	332.06
315.083	323.06
315.312	319.06
315.542	339.06
315.771	342.06
316.001	321.06
316.23	335.06
316.46	339.06
316.689	327.06
316.919	325.06
317.148	337.06
317.377	329.06
317.607	351.06
317.836	322.06
318.065	341.06
318.295	317.06
318.524	339.06
318.753	319.06
318.983	322.06
319.212	320.06
319.441	323.06
319.67	353.06
319.9	342.06
320.129	329.06
320.358	334.06
320.587	330.06
320.816	349.06
321.046	366.06
321.275	346.06
321.504	338.06
321.733	352.06
321.962	341.06
322.191	361.06
322.42	343.06
322.649	377.06
322.878	369.06
323.108	380.06
323.337	368.06
323.566	379.06
323.795	404.06
324.024	395.06
324.253	461.06
324.482	583.06
324.71	847.06
324.939	1105.06
325.168	983.06
325.397	557.06
325.626	427.06
325.855	428.06
326.084	416.06
326.313	392.06
326.542	389.06
326.77	424.06
326.999	446.06
327.228	593.06
327.457	738.06
327.686	873.06
327.914	634.06
328.143	499.06
328.372	466.06
328.6	423.06
328.829	396.06
329.058	407.06
329.287	403.06
329.515	416.06
329.744	418.06
329.972	391.06
330.201	400.06
330.43	389.06
330.658	392.06
330.887	425.06
331.115	439.06
331.344	417.06
331.572	399.06
331.801	392.06
332.03	410.06
332.258	424.06
332.486	391.06
332.715	404.06
332.943	417.06
333.172	416.06
333.4	447.06
333.629	451.06
333.857	434.06
334.085	431.06
334.314	444.06
334.542	440.06
334.771	429.06
334.999	411.06
335.227	411.06
335.455	415.06
335.684	423.06
335.912	420.06
336.14	394.06
336.369	405.06
336.597	407.06
336.825	403.06
337.053	408.06
337.281	377.06
337.51	398.06
337.738	410.06
337.966	399.06
338.194	411.06
338.422	389.06
338.65	383.06
338.878	371.06
339.106	366.06
339.334	380.06
339.562	382.06
339.79	364.06
340.018	375.06
340.246	379.06
340.474	365.06
340.702	367.06
340.93	366.06
341.158	381.06
341.386	354.06
341.614	373.06
341.842	377.06
342.07	388.06
342.298	377.06
342.526	370.06
342.754	367.06
342.981	366.06
343.209	373.06
343.437	396.06
343.665	394.06
343.893	415.06
344.12	415.06
344.348	419.06
344.576	389.06
344.804	405.06
345.031	386.06
345.259	381.06
345.487	369.06
345.714	353.06
345.942	380.06
346.17	343.06
346.397	364.06
346.625	351.06
346.853	365.06
347.08	345.06
347.308	367.06
347.535	361.06
347.763	361.06
347.99	339.06
348.218	374.06
348.445	363.06
348.673	362.06
348.9	356.06
349.128	330.06
349.355	345.06
349.583	340.06
349.81	369.06
350.037	351.06
350.265	337.06
350.492	339.06
350.72	349.06
350.947	345.06
351.174	362.06
351.402	370.06
351.629	357.06
351.856	345.06
352.083	346.06
352.311	359.06
352.538	340.06
352.765	341.06
352.992	351.06
353.22	352.06
353.447	339.06
353.674	348.06
353.901	341.06
354.128	355.06
354.355	345.06
354.583	345.06
354.81	347.06
355.037	339.06
355.264	334.06
355.491	330.06
355.718	340.06
355.945	330.06
356.172	330.06
356.399	345.06
356.626	355.06
356.853	346.06
357.08	340.06
357.307	339.06
357.534	331.06
357.761	342.06
357.988	351.06
358.215	353.06
358.441	320.06
358.668	339.06
358.895	315.06
359.122	336.06
359.349	317.06
359.576	345.06
359.802	352.06
360.029	359.06
360.256	359.06
360.483	361.06
360.709	331.06
360.936	353.06
361.163	361.06
361.39	336.06
361.616	318.06
361.843	357.06
362.07	336.06
362.296	354.06
362.523	336.06
362.749	347.06
362.976	353.06
363.203	345.06
363.429	341.06
363.656	341.06
363.882	344.06
364.109	334.06
364.335	341.06
364.562	329.06
364.788	348.06
365.015	329.06
365.241	329.06
365.468	326.06
365.694	327.06
365.92	328.06
366.147	343.06
366.373	343.06
366.599	340.06
366.826	346.06
367.052	318.06
367.278	329.06
367.505	342.06
367.731	344.06
367.957	322.06
368.184	352.06
368.41	339.06
368.636	333.06
368.862	352.06
369.089	339.06
369.315	330.06
369.541	339.06
369.767	325.06
369.993	334.06
370.219	327.06
370.445	327.06
370.672	329.06
370.898	337.06
371.124	328.06
371.35	351.06
371.576	354.06
371.802	340.06
372.028	342.06
372.254	351.06
372.48	347.06
372.706	334.06
372.932	370.06
373.158	370.06
373.384	350.06
373.61	359.06
373.835	347.06
374.061	365.06
374.287	347.06
374.513	372.06
374.739	358.06
374.965	369.06
375.191	381.06
375.416	371.06
375.642	365.06
375.868	351.06
376.094	355.06
376.319	348.06
376.545	354.06
376.771	361.06
376.997	355.06
377.222	354.06
377.448	353.06
377.674	347.06
377.899	343.06
378.125	332.06
378.35	341.06
378.576	336.06
378.802	354.06
379.027	326.06
379.253	348.06
379.478	362.06
379.704	322.06
379.929	324.06
380.155	325.06
380.38	329.06
380.606	328.06
380.831	357.06
381.057	354.06
381.282	342.06
381.507	347.06
381.733	373.06
381.958	347.06
382.184	345.06
382.409	353.06
382.634	347.06
382.86	347.06
383.085	366.06
383.31	368.06
383.535	386.06
383.761	377.06
383.986	391.06
384.211	373.06
384.436	377.06
384.662	391.06
384.887	389.06
385.112	392.06
385.337	395.06
385.562	402.06
385.787	388.06
386.013	409.06
386.238	411.06
386.463	387.06
386.688	367.06
386.913	398.06
387.138	393.06
387.363	381.06
387.588	398.06
387.813	402.06
388.038	397.06
388.263	372.06
388.488	381.06
388.713	397.06
388.938	387.06
389.163	396.06
389.387	394.06
389.612	375.06
389.837	401.06
390.062	402.06
390.287	380.06
390.512	385.06
390.736	399.06
390.961	387.06
391.186	385.06
391.411	422.06
391.636	402.06
391.86	401.06
392.085	406.06
392.31	423.06
392.534	416.06
392.759	430.06
392.984	408.06
393.208	417.06
393.433	404.06
393.658	400.06
393.882	406.06
394.107	414.06
394.331	402.06
394.556	386.06
394.78	416.06
395.005	401.06
395.229	415.06
395.454	424.06
395.678	406.06
395.903	436.06
396.127	427.06
396.352	422.06
396.576	423.06
396.801	425.06
397.025	409.06
397.249	416.06
397.474	409.06
397.698	417.06
397.922	421.06
398.147	437.06
398.371	453.06
398.595	459.06
398.82	459.06
399.044	483.06
399.268	513.06
399.492	565.06
399.717	617.06
399.941	625.06
400.165	603.06
400.389	599.06
400.613	534.06
400.837	510.06
401.062	478.06
401.286	473.06
401.51	459.06
401.734	451.06
401.958	464.06
402.182	459.06
402.406	471.06
402.63	473.06
402.854	494.06
403.078	507.06
403.302	480.06
403.526	484.06
403.75	515.06
403.974	497.06
404.198	496.06
404.422	515.06
404.645	495.06
404.869	504.06
405.093	498.06
405.317	487.06
405.541	527.06
405.765	502.06
405.988	509.06
406.212	502.06
406.436	506.06
406.66	505.06
406.883	519.06
407.107	544.06
407.331	577.06
407.555	628.06
407.778	617.06
408.002	564.06
408.226	538.06
408.449	537.06
408.673	524.06
408.896	538.06
409.12	545.06
409.344	540.06
409.567	503.06
409.791	495.06
410.014	468.06
410.238	493.06
410.461	481.06
410.685	499.06
410.908	491.06
411.132	498.06
411.355	495.06
411.578	507.06
411.802	491.06
412.025	463.06
412.249	467.06
412.472	462.06
412.695	452.06
412.919	477.06
413.142	455.06
413.365	426.06
413.589	466.06
413.812	481.06
414.035	447.06
414.258	465.06
414.482	481.06
414.705	450.06
414.928	459.06
415.151	453.06
415.374	477.06
415.597	442.06
415.821	450.06
416.044	449.06
416.267	440.06
416.49	445.06
416.713	438.06
416.936	450.06
417.159	441.06
417.382	454.06
417.605	418.06
417.828	452.06
418.051	466.06
418.274	457.06
418.497	454.06
418.72	446.06
418.943	461.06
419.166	467.06
419.389	493.06
419.611	515.06
419.834	452.06
420.057	475.06
420.28	465.06
420.503	454.06
420.726	456.06
420.948	463.06
421.171	474.06
421.394	500.06
421.617	464.06
421.839	458.06
422.062	468.06
422.285	465.06
422.507	496.06
422.73	531.06
422.953	522.06
423.175	489.06
423.398	501.06
423.621	486.06
423.843	522.06
424.066	497.06
424.288	482.06
424.511	509.06
424.733	501.06
424.956	565.06
425.178	536.06
425.401	523.06
425.623	536.06
425.846	502.06
426.068	481.06
426.291	455.06
426.513	459.06
426.735	469.06
426.958	491.06
427.18	532.06
427.402	598.06
427.625	637.06
427.847	536.06
428.069	498.06
428.292	446.06
428.514	440.06
428.736	433.06
428.958	413.06
429.181	421.06
429.403	433.06
429.625	443.06
429.847	443.06
430.069	490.06
430.292	464.06
430.514	445.06
430.736	404.06
430.958	444.06
431.18	429.06
431.402	415.06
431.624	438.06
431.846	419.06
432.068	416.06
432.29	431.06
432.512	417.06
432.734	414.06
432.956	405.06
433.178	411.06
433.4	415.06
433.622	427.06
433.844	435.06
434.066	410.06
434.287	423.06
434.509	426.06
434.731	449.06
434.953	431.06
435.175	448.06
435.397	469.06
435.618	471.06
435.84	473.06
436.062	495.06
436.284	540.06
436.505	491.06
436.727	445.06
436.949	419.06
437.17	430.06
437.392	424.06
437.614	443.06
437.835	453.06
438.057	457.06
438.278	529.06
438.5	536.06
438.721	579.06
438.943	551.06
439.165	471.06
439.386	437.06
439.608	443.06
439.829	446.06
440.05	437.06
440.272	454.06
440.493	477.06
440.715	476.06
440.936	447.06
441.158	433.06
441.379	449.06
441.6	463.06
441.822	482.06
442.043	498.06
442.264	547.06
442.486	541.06
442.707	497.06
442.928	461.06
443.149	456.06
443.371	485.06
443.592	497.06
443.813	541.06
444.034	589.06
444.255	541.06
444.476	503.06
444.698	481.06
444.919	505.06
445.14	641.06
445.361	523.06
445.582	501.06
445.803	524.06
446.024	544.06
446.245	527.06
446.466	529.06
446.687	483.06
446.908	439.06
447.129	447.06
447.35	412.06
447.571	411.06
447.792	405.06
448.013	408.06
448.234	413.06
448.455	435.06
448.675	489.06
448.896	541.06
449.117	487.06
449.338	473.06
449.559	538.06
449.779	592.06
450	501.06
450.221	421.06
450.442	403.06
450.662	402.06
450.883	391.06
451.104	419.06
451.324	402.06
451.545	379.06
451.766	386.06
451.986	377.06
452.207	369.06
452.428	372.06
452.648	375.06
452.869	387.06
453.089	397.06
453.31	396.06
453.53	391.06
453.751	385.06
453.971	375.06
454.192	371.06
454.412	362.06
454.633	376.06
454.853	374.06
455.073	345.06
455.294	384.06
455.514	425.06
455.734	407.06
455.955	376.06
456.175	368.06
456.395	359.06
456.616	373.06
456.836	379.06
457.056	365.06
457.276	351.06
457.497	348.06
457.717	367.06
457.937	361.06
458.157	389.06
458.377	385.06
458.598	371.06
458.818	400.06
459.038	424.06
459.258	462.06
459.478	434.06
459.698	417.06
459.918	436.06
460.138	419.06
460.358	443.06
460.578	481.06
460.798	441.06
461.018	442.06
461.238	471.06
461.458	445.06
461.678	469.06
461.898	457.06
462.118	458.06
462.338	474.06
462.558	461.06
462.777	505.06
462.997	529.06
463.217	531.06
463.437	545.06
463.657	505.06
463.876	495.06
464.096	488.06
464.316	505.06
464.536	505.06
464.755	489.06
464.975	476.06
465.195	465.06
465.414	483.06
465.634	447.06
465.854	438.06
466.073	411.06
466.293	383.06
466.512	415.06
466.732	402.06
466.951	396.06
467.171	388.06
467.391	388.06
467.61	394.06
467.829	408.06
468.049	385.06
468.268	377.06
468.488	387.06
468.707	367.06
468.927	375.06
469.146	381.06
469.365	392.06
469.585	380.06
469.804	383.06
470.023	391.06
470.243	386.06
470.462	401.06
470.681	399.06
470.901	413.06
471.12	416.06
471.339	414.06
471.558	413.06
471.777	393.06
471.997	406.06
472.216	397.06
472.435	397.06
472.654	390.06
472.873	378.06
473.092	377.06
473.311	386.06
473.53	388.06
473.749	381.06
473.968	402.06
474.187	441.06
474.406	455.06
474.625	409.06
474.844	405.06
475.063	383.06
475.282	377.06
475.501	371.06
475.72	400.06
475.939	382.06
476.158	402.06
476.377	410.06
476.596	402.06
476.814	395.06
477.033	415.06
477.252	407.06
477.471	416.06
477.69	395.06
477.908	435.06
478.127	448.06
478.346	427.06
478.564	445.06
478.783	424.06
479.002	451.06
479.22	458.06
479.439	462.06
479.658	469.06
479.876	468.06
480.095	459.06
480.313	500.06
480.532	495.06
480.751	479.06
480.969	467.06
481.188	479.06
481.406	480.06
481.624	460.06
481.843	441.06
482.061	437.06
482.28	444.06
482.498	437.06
482.717	447.06
482.935	429.06
483.153	450.06
483.372	435.06
483.59	440.06
483.808	455.06
484.027	457.06
484.245	435.06
484.463	448.06
484.681	448.06
484.9	471.06
485.118	460.06
485.336	447.06
485.554	467.06
485.772	480.06
485.99	463.06
486.209	458.06
486.427	447.06
486.645	462.06
486.863	480.06
487.081	462.06
487.299	450.06
487.517	473.06
487.735	470.06
487.953	474.06
488.171	472.06
488.389	492.06
488.607	461.06
488.825	458.06
489.043	471.06
489.261	478.06
489.479	491.06
489.696	457.06
489.914	477.06
490.132	474.06
490.35	481.06
490.568	469.06
490.786	458.06
491.003	471.06
491.221	470.06
491.439	489.06
491.657	486.06
491.874	513.06
492.092	483.06
492.31	507.06
492.527	503.06
492.745	485.06
492.963	521.06
493.18	517.06
493.398	517.06
493.615	530.06
493.833	537.06
494.05	528.06
494.268	539.06
494.485	520.06
494.703	517.06
494.92	522.06
495.138	515.06
495.355	545.06
495.573	534.06
495.79	539.06
496.008	532.06
496.225	521.06
496.442	536.06
496.66	552.06
496.877	553.06
497.094	562.06
497.312	571.06
497.529	567.06
497.746	589.06
497.963	590.06
498.181	611.06
498.398	612.06
498.615	635.06
498.832	663.06
499.049	697.06
499.267	766.06
499.484	777.06
499.701	825.06
499.918	879.06
500.135	934.06
500.352	1023.06
500.569	1098.06
500.786	1068.06
501.003	1048.06
501.22	954.06
501.437	874.06
501.654	832.06
501.871	795.06
502.088	740.06
