Data from 1984.PennyLincolnUp.Lamp.En5.5.200Scan.071819.P1_HRD10591_16-58-50-968.txt Node
Date: Thu Jul 18 16:58:50 EDT 2019
User: cochatt
Spectrometer: HR+D1059
Trigger mode: 1
Integration Time (sec): 1.000000E-1
Scans to average: 1
Electric dark correction enabled: true
Nonlinearity correction enabled: false
Boxcar width: 0
XAxis mode: Wavelengths
Number of Pixels in Spectrum: 2048
>>>>>Begin Spectral Data<<<<<
223.165	-9.94
223.4	-9.94
223.635	-9.94
223.869	-23.94
224.104	-28.94
224.338	-30.94
224.573	-16.94
224.808	-11.94
225.042	3.06
225.277	12.06
225.511	-3.94
225.746	6.06
225.98	-8.94
226.215	20.06
226.449	18.06
226.683	16.06
226.918	25.06
227.152	35.06
227.387	47.06
227.621	31.06
227.856	32.06
228.09	39.06
228.324	48.06
228.559	44.06
228.793	53.06
229.027	90.06
229.262	96.06
229.496	97.06
229.73	101.06
229.964	109.06
230.199	102.06
230.433	95.06
230.667	113.06
230.901	106.06
231.136	96.06
231.37	117.06
231.604	96.06
231.838	102.06
232.072	100.06
232.306	108.06
232.541	104.06
232.775	96.06
233.009	125.06
233.243	112.06
233.477	126.06
233.711	107.06
233.945	115.06
234.179	112.06
234.413	114.06
234.647	123.06
234.881	123.06
235.115	116.06
235.349	106.06
235.583	107.06
235.817	124.06
236.051	104.06
236.285	107.06
236.519	97.06
236.753	117.06
236.987	121.06
237.221	145.06
237.455	186.06
237.689	141.06
237.922	120.06
238.156	124.06
238.39	131.06
238.624	115.06
238.858	117.06
239.091	111.06
239.325	119.06
239.559	126.06
239.793	123.06
240.027	117.06
240.26	122.06
240.494	133.06
240.728	125.06
240.961	132.06
241.195	130.06
241.429	140.06
241.662	121.06
241.896	105.06
242.13	115.06
242.363	125.06
242.597	128.06
242.83	126.06
243.064	132.06
243.298	133.06
243.531	153.06
243.765	121.06
243.998	136.06
244.232	126.06
244.465	128.06
244.699	151.06
244.932	140.06
245.166	125.06
245.399	132.06
245.633	143.06
245.866	141.06
246.099	142.06
246.333	135.06
246.566	151.06
246.8	147.06
247.033	136.06
247.266	149.06
247.5	152.06
247.733	146.06
247.966	155.06
248.2	152.06
248.433	136.06
248.666	140.06
248.899	160.06
249.133	157.06
249.366	178.06
249.599	163.06
249.832	151.06
250.066	166.06
250.299	169.06
250.532	182.06
250.765	199.06
250.998	190.06
251.231	187.06
251.465	182.06
251.698	170.06
251.931	172.06
252.164	173.06
252.397	181.06
252.63	160.06
252.863	173.06
253.096	171.06
253.329	187.06
253.562	187.06
253.795	163.06
254.028	187.06
254.261	179.06
254.494	193.06
254.727	198.06
254.96	223.06
255.193	203.06
255.426	204.06
255.659	198.06
255.892	199.06
256.124	223.06
256.357	243.06
256.59	220.06
256.823	200.06
257.056	202.06
257.289	189.06
257.521	192.06
257.754	189.06
257.987	177.06
258.22	181.06
258.452	180.06
258.685	176.06
258.918	199.06
259.151	198.06
259.383	204.06
259.616	189.06
259.849	196.06
260.081	203.06
260.314	206.06
260.547	219.06
260.779	223.06
261.012	195.06
261.244	188.06
261.477	198.06
261.71	210.06
261.942	202.06
262.175	203.06
262.407	197.06
262.64	201.06
262.872	195.06
263.105	188.06
263.337	193.06
263.57	197.06
263.802	176.06
264.035	200.06
264.267	197.06
264.499	184.06
264.732	204.06
264.964	198.06
265.197	214.06
265.429	195.06
265.661	203.06
265.894	206.06
266.126	196.06
266.358	202.06
266.591	196.06
266.823	207.06
267.055	197.06
267.287	221.06
267.52	202.06
267.752	205.06
267.984	218.06
268.216	198.06
268.448	201.06
268.681	216.06
268.913	230.06
269.145	237.06
269.377	212.06
269.609	230.06
269.841	231.06
270.073	235.06
270.306	254.06
270.538	249.06
270.77	253.06
271.002	247.06
271.234	266.06
271.466	233.06
271.698	253.06
271.93	266.06
272.162	258.06
272.394	263.06
272.626	252.06
272.858	263.06
273.09	272.06
273.322	247.06
273.553	240.06
273.785	240.06
274.017	220.06
274.249	226.06
274.481	253.06
274.713	234.06
274.945	251.06
275.176	239.06
275.408	231.06
275.64	235.06
275.872	233.06
276.104	247.06
276.335	239.06
276.567	245.06
276.799	261.06
277.031	256.06
277.262	263.06
277.494	267.06
277.726	253.06
277.957	262.06
278.189	260.06
278.421	250.06
278.652	244.06
278.884	249.06
279.115	247.06
279.347	248.06
279.579	263.06
279.81	253.06
280.042	258.06
280.273	262.06
280.505	276.06
280.736	254.06
280.968	244.06
281.199	254.06
281.431	247.06
281.662	245.06
281.894	260.06
282.125	261.06
282.356	272.06
282.588	272.06
282.819	261.06
283.051	273.06
283.282	267.06
283.513	248.06
283.745	278.06
283.976	251.06
284.207	262.06
284.439	278.06
284.67	276.06
284.901	267.06
285.132	277.06
285.364	285.06
285.595	263.06
285.826	274.06
286.057	283.06
286.288	287.06
286.52	272.06
286.751	273.06
286.982	272.06
287.213	283.06
287.444	289.06
287.675	287.06
287.906	276.06
288.138	288.06
288.369	300.06
288.6	294.06
288.831	293.06
289.062	288.06
289.293	285.06
289.524	276.06
289.755	284.06
289.986	269.06
290.217	285.06
290.448	286.06
290.679	282.06
290.91	283.06
291.141	257.06
291.371	282.06
291.602	286.06
291.833	270.06
292.064	285.06
292.295	272.06
292.526	287.06
292.757	288.06
292.987	272.06
293.218	283.06
293.449	290.06
293.68	287.06
293.91	265.06
294.141	269.06
294.372	281.06
294.603	268.06
294.833	281.06
295.064	293.06
295.295	284.06
295.525	282.06
295.756	300.06
295.987	298.06
296.217	302.06
296.448	319.06
296.679	297.06
296.909	283.06
297.14	295.06
297.37	309.06
297.601	293.06
297.831	304.06
298.062	293.06
298.292	288.06
298.523	279.06
298.753	301.06
298.984	299.06
299.214	302.06
299.445	286.06
299.675	308.06
299.905	317.06
300.136	300.06
300.366	312.06
300.597	302.06
300.827	308.06
301.057	311.06
301.288	336.06
301.518	314.06
301.748	319.06
301.979	331.06
302.209	328.06
302.439	331.06
302.669	322.06
302.9	301.06
303.13	320.06
303.36	324.06
303.59	291.06
303.82	306.06
304.051	349.06
304.281	318.06
304.511	296.06
304.741	310.06
304.971	329.06
305.201	320.06
305.431	310.06
305.661	287.06
305.891	302.06
306.121	315.06
306.352	320.06
306.582	309.06
306.812	297.06
307.042	325.06
307.272	305.06
307.502	313.06
307.731	323.06
307.961	318.06
308.191	319.06
308.421	311.06
308.651	314.06
308.881	316.06
309.111	316.06
309.341	316.06
309.571	311.06
309.8	325.06
310.03	329.06
310.26	345.06
310.49	342.06
310.72	355.06
310.949	332.06
311.179	338.06
311.409	338.06
311.639	332.06
311.868	327.06
312.098	327.06
312.328	353.06
312.557	349.06
312.787	347.06
313.017	351.06
313.246	353.06
313.476	347.06
313.706	345.06
313.935	361.06
314.165	337.06
314.394	378.06
314.624	373.06
314.853	357.06
315.083	346.06
315.312	336.06
315.542	359.06
315.771	341.06
316.001	349.06
316.23	348.06
316.46	363.06
316.689	356.06
316.919	344.06
317.148	333.06
317.377	345.06
317.607	321.06
317.836	360.06
318.065	328.06
318.295	361.06
318.524	331.06
318.753	342.06
318.983	339.06
319.212	333.06
319.441	364.06
319.67	350.06
319.9	343.06
320.129	341.06
320.358	339.06
320.587	343.06
320.816	352.06
321.046	345.06
321.275	355.06
321.504	348.06
321.733	356.06
321.962	363.06
322.191	361.06
322.42	364.06
322.649	384.06
322.878	383.06
323.108	390.06
323.337	413.06
323.566	422.06
323.795	437.06
324.024	461.06
324.253	534.06
324.482	685.06
324.71	1007.06
324.939	1340.06
325.168	1160.06
325.397	681.06
325.626	531.06
325.855	476.06
326.084	416.06
326.313	425.06
326.542	435.06
326.77	432.06
326.999	515.06
327.228	668.06
327.457	934.06
327.686	1056.06
327.914	736.06
328.143	529.06
328.372	528.06
328.6	505.06
328.829	487.06
329.058	475.06
329.287	476.06
329.515	478.06
329.744	453.06
329.972	480.06
330.201	509.06
330.43	543.06
330.658	532.06
330.887	502.06
331.115	502.06
331.344	470.06
331.572	462.06
331.801	437.06
332.03	444.06
332.258	426.06
332.486	417.06
332.715	423.06
332.943	443.06
333.172	432.06
333.4	449.06
333.629	464.06
333.857	506.06
334.085	539.06
334.314	559.06
334.542	620.06
334.771	625.06
334.999	538.06
335.227	473.06
335.455	447.06
335.684	443.06
335.912	446.06
336.14	436.06
336.369	436.06
336.597	423.06
336.825	425.06
337.053	412.06
337.281	431.06
337.51	412.06
337.738	392.06
337.966	415.06
338.194	419.06
338.422	419.06
338.65	396.06
338.878	405.06
339.106	397.06
339.334	404.06
339.562	396.06
339.79	384.06
340.018	404.06
340.246	391.06
340.474	391.06
340.702	391.06
340.93	393.06
341.158	402.06
341.386	399.06
341.614	391.06
341.842	384.06
342.07	381.06
342.298	364.06
342.526	351.06
342.754	386.06
342.981	383.06
343.209	399.06
343.437	393.06
343.665	410.06
343.893	417.06
344.12	446.06
344.348	433.06
344.576	403.06
344.804	396.06
345.031	413.06
345.259	381.06
345.487	378.06
345.714	399.06
345.942	393.06
346.17	380.06
346.397	360.06
346.625	359.06
346.853	371.06
347.08	361.06
347.308	355.06
347.535	374.06
347.763	363.06
347.99	386.06
348.218	377.06
348.445	361.06
348.673	389.06
348.9	379.06
349.128	372.06
349.355	371.06
349.583	361.06
349.81	351.06
350.037	356.06
350.265	370.06
350.492	347.06
350.72	361.06
350.947	360.06
351.174	367.06
351.402	356.06
351.629	368.06
351.856	376.06
352.083	363.06
352.311	376.06
352.538	373.06
352.765	361.06
352.992	381.06
353.22	373.06
353.447	376.06
353.674	379.06
353.901	353.06
354.128	340.06
354.355	339.06
354.583	352.06
354.81	349.06
355.037	344.06
355.264	355.06
355.491	365.06
355.718	329.06
355.945	337.06
356.172	361.06
356.399	352.06
356.626	354.06
356.853	333.06
357.08	351.06
357.307	362.06
357.534	337.06
357.761	353.06
357.988	354.06
358.215	345.06
358.441	337.06
358.668	352.06
358.895	365.06
359.122	367.06
359.349	357.06
359.576	356.06
359.802	358.06
360.029	385.06
360.256	360.06
360.483	393.06
360.709	364.06
360.936	362.06
361.163	376.06
361.39	353.06
361.616	363.06
361.843	356.06
362.07	359.06
362.296	349.06
362.523	371.06
362.749	364.06
362.976	349.06
363.203	353.06
363.429	357.06
363.656	350.06
363.882	342.06
364.109	347.06
364.335	356.06
364.562	364.06
364.788	338.06
365.015	345.06
365.241	351.06
365.468	342.06
365.694	350.06
365.92	351.06
366.147	348.06
366.373	347.06
366.599	350.06
366.826	336.06
367.052	348.06
367.278	344.06
367.505	357.06
367.731	345.06
367.957	352.06
368.184	347.06
368.41	352.06
368.636	354.06
368.862	353.06
369.089	366.06
369.315	334.06
369.541	353.06
369.767	353.06
369.993	358.06
370.219	371.06
370.445	340.06
370.672	348.06
370.898	353.06
371.124	359.06
371.35	344.06
371.576	351.06
371.802	360.06
372.028	354.06
372.254	359.06
372.48	345.06
372.706	352.06
372.932	349.06
373.158	361.06
373.384	331.06
373.61	349.06
373.835	365.06
374.061	354.06
374.287	356.06
374.513	355.06
374.739	367.06
374.965	385.06
375.191	393.06
375.416	372.06
375.642	351.06
375.868	347.06
376.094	365.06
376.319	350.06
376.545	356.06
376.771	356.06
376.997	345.06
377.222	357.06
377.448	347.06
377.674	337.06
377.899	347.06
378.125	346.06
378.35	355.06
378.576	368.06
378.802	344.06
379.027	339.06
379.253	359.06
379.478	358.06
379.704	355.06
379.929	364.06
380.155	350.06
380.38	358.06
380.606	353.06
380.831	347.06
381.057	354.06
381.282	365.06
381.507	359.06
381.733	361.06
381.958	339.06
382.184	361.06
382.409	357.06
382.634	367.06
382.86	350.06
383.085	378.06
383.31	371.06
383.535	380.06
383.761	388.06
383.986	377.06
384.211	399.06
384.436	381.06
384.662	397.06
384.887	377.06
385.112	390.06
385.337	396.06
385.562	394.06
385.787	383.06
386.013	421.06
386.238	395.06
386.463	412.06
386.688	407.06
386.913	408.06
387.138	395.06
387.363	387.06
387.588	394.06
387.813	399.06
388.038	413.06
388.263	391.06
388.488	398.06
388.713	394.06
388.938	394.06
389.163	395.06
389.387	397.06
389.612	381.06
389.837	383.06
390.062	393.06
390.287	387.06
390.512	392.06
390.736	403.06
390.961	402.06
391.186	401.06
391.411	416.06
391.636	395.06
391.86	419.06
392.085	426.06
392.31	432.06
392.534	408.06
392.759	413.06
392.984	423.06
393.208	409.06
393.433	398.06
393.658	420.06
393.882	398.06
394.107	407.06
394.331	407.06
394.556	407.06
394.78	394.06
395.005	416.06
395.229	411.06
395.454	430.06
395.678	419.06
395.903	416.06
396.127	443.06
396.352	435.06
396.576	428.06
396.801	411.06
397.025	411.06
397.249	456.06
397.474	415.06
397.698	435.06
397.922	420.06
398.147	462.06
398.371	445.06
398.595	448.06
398.82	459.06
399.044	503.06
399.268	511.06
399.492	567.06
399.717	584.06
399.941	617.06
400.165	586.06
400.389	555.06
400.613	517.06
400.837	497.06
401.062	468.06
401.286	451.06
401.51	475.06
401.734	483.06
401.958	456.06
402.182	465.06
402.406	491.06
402.63	477.06
402.854	477.06
403.078	483.06
403.302	497.06
403.526	506.06
403.75	512.06
403.974	490.06
404.198	505.06
404.422	499.06
404.645	526.06
404.869	531.06
405.093	552.06
405.317	593.06
405.541	600.06
405.765	559.06
405.988	530.06
406.212	507.06
406.436	531.06
406.66	538.06
406.883	513.06
407.107	570.06
407.331	554.06
407.555	612.06
407.778	645.06
408.002	586.06
408.226	559.06
408.449	539.06
408.673	504.06
408.896	537.06
409.12	553.06
409.344	535.06
409.567	496.06
409.791	481.06
410.014	480.06
410.238	499.06
410.461	497.06
410.685	503.06
410.908	490.06
411.132	533.06
411.355	531.06
411.578	520.06
411.802	503.06
412.025	480.06
412.249	487.06
412.472	539.06
412.695	545.06
412.919	557.06
413.142	496.06
413.365	512.06
413.589	507.06
413.812	469.06
414.035	448.06
414.258	465.06
414.482	468.06
414.705	467.06
414.928	452.06
415.151	457.06
415.374	455.06
415.597	468.06
415.821	453.06
416.044	451.06
416.267	475.06
416.49	439.06
416.713	449.06
416.936	449.06
417.159	460.06
417.382	468.06
417.605	445.06
417.828	456.06
418.051	469.06
418.274	474.06
418.497	469.06
418.72	475.06
418.943	488.06
419.166	507.06
419.389	515.06
419.611	501.06
419.834	499.06
420.057	501.06
420.28	510.06
420.503	515.06
420.726	496.06
420.948	468.06
421.171	505.06
421.394	519.06
421.617	500.06
421.839	462.06
422.062	474.06
422.285	455.06
422.507	501.06
422.73	536.06
422.953	545.06
423.175	510.06
423.398	480.06
423.621	489.06
423.843	510.06
424.066	523.06
424.288	484.06
424.511	506.06
424.733	537.06
424.956	576.06
425.178	557.06
425.401	536.06
425.623	576.06
425.846	514.06
426.068	489.06
426.291	479.06
426.513	463.06
426.735	466.06
426.958	482.06
427.18	542.06
427.402	621.06
427.625	663.06
427.847	589.06
428.069	554.06
428.292	517.06
428.514	453.06
428.736	463.06
428.958	439.06
429.181	435.06
429.403	431.06
429.625	453.06
429.847	451.06
430.069	482.06
430.292	473.06
430.514	429.06
430.736	418.06
430.958	449.06
431.18	411.06
431.402	430.06
431.624	420.06
431.846	429.06
432.068	429.06
432.29	410.06
432.512	439.06
432.734	429.06
432.956	429.06
433.178	439.06
433.4	431.06
433.622	436.06
433.844	426.06
434.066	443.06
434.287	422.06
434.509	444.06
434.731	440.06
434.953	449.06
435.175	471.06
435.397	485.06
435.618	459.06
435.84	512.06
436.062	555.06
436.284	597.06
436.505	505.06
436.727	452.06
436.949	423.06
437.17	417.06
437.392	427.06
437.614	428.06
437.835	437.06
438.057	501.06
438.278	552.06
438.5	556.06
438.721	626.06
438.943	570.06
439.165	485.06
439.386	470.06
439.608	459.06
439.829	463.06
440.05	471.06
440.272	504.06
440.493	479.06
440.715	459.06
440.936	450.06
441.158	442.06
441.379	473.06
441.6	493.06
441.822	483.06
442.043	507.06
442.264	528.06
442.486	576.06
442.707	509.06
442.928	480.06
443.149	472.06
443.371	504.06
443.592	519.06
443.813	565.06
444.034	612.06
444.255	533.06
444.476	521.06
444.698	500.06
444.919	524.06
445.14	598.06
445.361	525.06
445.582	517.06
445.803	544.06
446.024	599.06
446.245	579.06
446.466	546.06
446.687	483.06
446.908	445.06
447.129	450.06
447.35	418.06
447.571	439.06
447.792	425.06
448.013	412.06
448.234	446.06
448.455	464.06
448.675	523.06
448.896	576.06
449.117	512.06
449.338	476.06
449.559	536.06
449.779	575.06
450	496.06
450.221	432.06
450.442	459.06
450.662	400.06
450.883	416.06
451.104	407.06
451.324	422.06
451.545	400.06
451.766	404.06
451.986	407.06
452.207	386.06
452.428	390.06
452.648	372.06
452.869	398.06
453.089	387.06
453.31	390.06
453.53	386.06
453.751	401.06
453.971	403.06
454.192	398.06
454.412	391.06
454.633	381.06
454.853	375.06
455.073	368.06
455.294	373.06
455.514	404.06
455.734	432.06
455.955	380.06
456.175	377.06
456.395	368.06
456.616	359.06
456.836	400.06
457.056	377.06
457.276	352.06
457.497	377.06
457.717	361.06
457.937	370.06
458.157	377.06
458.377	375.06
458.598	398.06
458.818	428.06
459.038	469.06
459.258	474.06
459.478	454.06
459.698	431.06
459.918	427.06
460.138	446.06
460.358	449.06
460.578	464.06
460.798	454.06
461.018	460.06
461.238	475.06
461.458	447.06
461.678	472.06
461.898	453.06
462.118	478.06
462.338	488.06
462.558	486.06
462.777	504.06
462.997	533.06
463.217	547.06
463.437	553.06
463.657	516.06
463.876	493.06
464.096	495.06
464.316	489.06
464.536	522.06
464.755	504.06
464.975	512.06
465.195	503.06
465.414	497.06
465.634	465.06
465.854	450.06
466.073	441.06
466.293	407.06
466.512	407.06
466.732	400.06
466.951	389.06
467.171	383.06
467.391	419.06
467.61	391.06
467.829	384.06
468.049	406.06
468.268	451.06
468.488	400.06
468.707	408.06
468.927	392.06
469.146	394.06
469.365	397.06
469.585	398.06
469.804	415.06
470.023	409.06
470.243	409.06
470.462	416.06
470.681	434.06
470.901	408.06
471.12	408.06
471.339	408.06
471.558	404.06
471.777	398.06
471.997	408.06
472.216	432.06
472.435	471.06
472.654	446.06
472.873	420.06
473.092	409.06
473.311	399.06
473.53	394.06
473.749	414.06
473.968	438.06
474.187	465.06
474.406	480.06
474.625	402.06
474.844	402.06
475.063	410.06
475.282	393.06
475.501	392.06
475.72	406.06
475.939	388.06
476.158	390.06
476.377	415.06
476.596	401.06
476.814	398.06
477.033	415.06
477.252	407.06
477.471	396.06
477.69	431.06
477.908	436.06
478.127	449.06
478.346	449.06
478.564	451.06
478.783	460.06
479.002	473.06
479.22	473.06
479.439	484.06
479.658	489.06
479.876	462.06
480.095	490.06
480.313	499.06
480.532	519.06
480.751	519.06
480.969	534.06
481.188	596.06
481.406	623.06
481.624	563.06
481.843	518.06
482.061	491.06
482.28	492.06
482.498	473.06
482.717	454.06
482.935	475.06
483.153	456.06
483.372	448.06
483.59	451.06
483.808	452.06
484.027	461.06
484.245	469.06
484.463	444.06
484.681	457.06
484.9	473.06
485.118	471.06
485.336	467.06
485.554	472.06
485.772	500.06
485.99	464.06
486.209	470.06
486.427	488.06
486.645	477.06
486.863	481.06
487.081	487.06
487.299	494.06
487.517	487.06
487.735	480.06
487.953	469.06
488.171	492.06
488.389	479.06
488.607	464.06
488.825	495.06
489.043	494.06
489.261	479.06
489.479	506.06
489.696	488.06
489.914	492.06
490.132	488.06
490.35	483.06
490.568	495.06
490.786	501.06
491.003	511.06
491.221	555.06
491.439	544.06
491.657	541.06
491.874	528.06
492.092	550.06
492.31	557.06
492.527	547.06
492.745	566.06
492.963	543.06
493.18	549.06
493.398	565.06
493.615	566.06
493.833	553.06
494.05	569.06
494.268	555.06
494.485	585.06
494.703	584.06
494.92	564.06
495.138	537.06
495.355	578.06
495.573	557.06
495.79	565.06
496.008	549.06
496.225	562.06
496.442	575.06
496.66	572.06
496.877	571.06
497.094	576.06
497.312	576.06
497.529	570.06
497.746	593.06
497.963	593.06
498.181	617.06
498.398	621.06
498.615	651.06
498.832	680.06
499.049	714.06
499.267	759.06
499.484	791.06
499.701	831.06
499.918	894.06
500.135	972.06
500.352	1038.06
500.569	1084.06
500.786	1085.06
501.003	1063.06
501.22	941.06
501.437	909.06
501.654	821.06
501.871	805.06
502.088	736.06
