Data from 1984.PennyLincolnUp.Lamp.En5.5.200Scan.071819.P1_HRD10591_16-59-14-976.txt Node
Date: Thu Jul 18 16:59:14 EDT 2019
User: cochatt
Spectrometer: HR+D1059
Trigger mode: 1
Integration Time (sec): 1.000000E-1
Scans to average: 1
Electric dark correction enabled: true
Nonlinearity correction enabled: false
Boxcar width: 0
XAxis mode: Wavelengths
Number of Pixels in Spectrum: 2048
>>>>>Begin Spectral Data<<<<<
223.165	-9.31
223.4	-9.31
223.635	-9.31
223.869	-17.31
224.104	-30.31
224.338	-24.31
224.573	3.69
224.808	-20.31
225.042	-17.31
225.277	7.69
225.511	-12.31
225.746	4.69
225.98	12.69
226.215	10.69
226.449	30.69
226.683	8.69
226.918	24.69
227.152	27.69
227.387	27.69
227.621	36.69
227.856	44.69
228.09	46.69
228.324	54.69
228.559	58.69
228.793	54.69
229.027	89.69
229.262	87.69
229.496	86.69
229.73	106.69
229.964	111.69
230.199	126.69
230.433	89.69
230.667	106.69
230.901	108.69
231.136	98.69
231.37	110.69
231.604	108.69
231.838	110.69
232.072	116.69
232.306	105.69
232.541	106.69
232.775	109.69
233.009	102.69
233.243	114.69
233.477	103.69
233.711	106.69
233.945	104.69
234.179	105.69
234.413	107.69
234.647	117.69
234.881	108.69
235.115	112.69
235.349	132.69
235.583	107.69
235.817	110.69
236.051	107.69
236.285	96.69
236.519	100.69
236.753	114.69
236.987	135.69
237.221	165.69
237.455	181.69
237.689	138.69
237.922	118.69
238.156	111.69
238.39	119.69
238.624	116.69
238.858	107.69
239.091	115.69
239.325	120.69
239.559	123.69
239.793	114.69
240.027	126.69
240.26	122.69
240.494	141.69
240.728	118.69
240.961	152.69
241.195	131.69
241.429	119.69
241.662	134.69
241.896	138.69
242.13	117.69
242.363	125.69
242.597	132.69
242.83	126.69
243.064	118.69
243.298	127.69
243.531	128.69
243.765	133.69
243.998	126.69
244.232	124.69
244.465	142.69
244.699	133.69
244.932	134.69
245.166	129.69
245.399	134.69
245.633	123.69
245.866	136.69
246.099	138.69
246.333	115.69
246.566	140.69
246.8	132.69
247.033	153.69
247.266	146.69
247.5	147.69
247.733	150.69
247.966	135.69
248.2	136.69
248.433	156.69
248.666	147.69
248.899	155.69
249.133	175.69
249.366	176.69
249.599	171.69
249.832	157.69
250.066	165.69
250.299	155.69
250.532	197.69
250.765	191.69
250.998	199.69
251.231	200.69
251.465	178.69
251.698	176.69
251.931	183.69
252.164	177.69
252.397	186.69
252.63	178.69
252.863	166.69
253.096	181.69
253.329	171.69
253.562	190.69
253.795	179.69
254.028	170.69
254.261	188.69
254.494	186.69
254.727	202.69
254.96	204.69
255.193	204.69
255.426	208.69
255.659	199.69
255.892	224.69
256.124	261.69
256.357	252.69
256.59	225.69
256.823	217.69
257.056	207.69
257.289	197.69
257.521	180.69
257.754	199.69
257.987	183.69
258.22	199.69
258.452	186.69
258.685	187.69
258.918	200.69
259.151	190.69
259.383	196.69
259.616	198.69
259.849	209.69
260.081	197.69
260.314	212.69
260.547	230.69
260.779	211.69
261.012	185.69
261.244	186.69
261.477	200.69
261.71	199.69
261.942	206.69
262.175	194.69
262.407	198.69
262.64	201.69
262.872	192.69
263.105	190.69
263.337	197.69
263.57	194.69
263.802	190.69
264.035	201.69
264.267	187.69
264.499	200.69
264.732	186.69
264.964	201.69
265.197	207.69
265.429	203.69
265.661	180.69
265.894	182.69
266.126	199.69
266.358	206.69
266.591	187.69
266.823	212.69
267.055	211.69
267.287	220.69
267.52	204.69
267.752	198.69
267.984	199.69
268.216	204.69
268.448	205.69
268.681	222.69
268.913	219.69
269.145	238.69
269.377	231.69
269.609	242.69
269.841	235.69
270.073	229.69
270.306	235.69
270.538	266.69
270.77	262.69
271.002	258.69
271.234	241.69
271.466	250.69
271.698	249.69
271.93	257.69
272.162	247.69
272.394	251.69
272.626	267.69
272.858	246.69
273.09	255.69
273.322	231.69
273.553	217.69
273.785	242.69
274.017	235.69
274.249	258.69
274.481	252.69
274.713	252.69
274.945	261.69
275.176	245.69
275.408	236.69
275.64	227.69
275.872	226.69
276.104	258.69
276.335	246.69
276.567	246.69
276.799	242.69
277.031	258.69
277.262	282.69
277.494	298.69
277.726	281.69
277.957	256.69
278.189	236.69
278.421	246.69
278.652	233.69
278.884	262.69
279.115	250.69
279.347	232.69
279.579	236.69
279.81	243.69
280.042	246.69
280.273	251.69
280.505	272.69
280.736	244.69
280.968	278.69
281.199	235.69
281.431	268.69
281.662	267.69
281.894	244.69
282.125	258.69
282.356	264.69
282.588	265.69
282.819	283.69
283.051	260.69
283.282	253.69
283.513	259.69
283.745	271.69
283.976	269.69
284.207	275.69
284.439	276.69
284.67	258.69
284.901	265.69
285.132	258.69
285.364	255.69
285.595	275.69
285.826	259.69
286.057	266.69
286.288	279.69
286.52	268.69
286.751	289.69
286.982	254.69
287.213	266.69
287.444	264.69
287.675	272.69
287.906	288.69
288.138	283.69
288.369	295.69
288.6	284.69
288.831	293.69
289.062	270.69
289.293	274.69
289.524	284.69
289.755	291.69
289.986	283.69
290.217	272.69
290.448	278.69
290.679	294.69
290.91	288.69
291.141	289.69
291.371	278.69
291.602	284.69
291.833	265.69
292.064	282.69
292.295	278.69
292.526	280.69
292.757	272.69
292.987	279.69
293.218	280.69
293.449	285.69
293.68	266.69
293.91	268.69
294.141	269.69
294.372	272.69
294.603	289.69
294.833	291.69
295.064	280.69
295.295	291.69
295.525	275.69
295.756	283.69
295.987	272.69
296.217	315.69
296.448	274.69
296.679	304.69
296.909	280.69
297.14	297.69
297.37	295.69
297.601	303.69
297.831	322.69
298.062	287.69
298.292	302.69
298.523	297.69
298.753	278.69
298.984	288.69
299.214	314.69
299.445	283.69
299.675	308.69
299.905	293.69
300.136	307.69
300.366	297.69
300.597	306.69
300.827	306.69
301.057	310.69
301.288	312.69
301.518	315.69
301.748	314.69
301.979	329.69
302.209	307.69
302.439	310.69
302.669	297.69
302.9	307.69
303.13	311.69
303.36	330.69
303.59	318.69
303.82	327.69
304.051	327.69
304.281	327.69
304.511	302.69
304.741	317.69
304.971	298.69
305.201	302.69
305.431	306.69
305.661	306.69
305.891	310.69
306.121	314.69
306.352	307.69
306.582	317.69
306.812	303.69
307.042	314.69
307.272	306.69
307.502	323.69
307.731	327.69
307.961	315.69
308.191	307.69
308.421	314.69
308.651	325.69
308.881	319.69
309.111	319.69
309.341	318.69
309.571	328.69
309.8	328.69
310.03	343.69
310.26	335.69
310.49	341.69
310.72	333.69
310.949	344.69
311.179	343.69
311.409	338.69
311.639	355.69
311.868	345.69
312.098	326.69
312.328	352.69
312.557	362.69
312.787	358.69
313.017	344.69
313.246	352.69
313.476	329.69
313.706	334.69
313.935	366.69
314.165	352.69
314.394	361.69
314.624	365.69
314.853	350.69
315.083	352.69
315.312	351.69
315.542	350.69
315.771	338.69
316.001	345.69
316.23	342.69
316.46	343.69
316.689	343.69
316.919	357.69
317.148	330.69
317.377	349.69
317.607	352.69
317.836	337.69
318.065	333.69
318.295	346.69
318.524	344.69
318.753	354.69
318.983	340.69
319.212	330.69
319.441	344.69
319.67	346.69
319.9	342.69
320.129	363.69
320.358	335.69
320.587	338.69
320.816	351.69
321.046	374.69
321.275	352.69
321.504	356.69
321.733	356.69
321.962	366.69
322.191	367.69
322.42	361.69
322.649	382.69
322.878	390.69
323.108	383.69
323.337	396.69
323.566	426.69
323.795	440.69
324.024	473.69
324.253	514.69
324.482	716.69
324.71	1018.69
324.939	1431.69
325.168	1216.69
325.397	677.69
325.626	515.69
325.855	450.69
326.084	427.69
326.313	419.69
326.542	422.69
326.77	477.69
326.999	524.69
327.228	688.69
327.457	939.69
327.686	1134.69
327.914	780.69
328.143	582.69
328.372	524.69
328.6	519.69
328.829	448.69
329.058	483.69
329.287	474.69
329.515	473.69
329.744	458.69
329.972	487.69
330.201	550.69
330.43	584.69
330.658	560.69
330.887	539.69
331.115	486.69
331.344	444.69
331.572	451.69
331.801	430.69
332.03	447.69
332.258	446.69
332.486	448.69
332.715	418.69
332.943	438.69
333.172	464.69
333.4	469.69
333.629	483.69
333.857	528.69
334.085	549.69
334.314	589.69
334.542	671.69
334.771	682.69
334.999	568.69
335.227	501.69
335.455	463.69
335.684	443.69
335.912	428.69
336.14	419.69
336.369	434.69
336.597	424.69
336.825	426.69
337.053	424.69
337.281	396.69
337.51	410.69
337.738	416.69
337.966	403.69
338.194	414.69
338.422	408.69
338.65	399.69
338.878	418.69
339.106	401.69
339.334	394.69
339.562	415.69
339.79	401.69
340.018	391.69
340.246	383.69
340.474	402.69
340.702	375.69
340.93	407.69
341.158	386.69
341.386	392.69
341.614	393.69
341.842	389.69
342.07	374.69
342.298	373.69
342.526	365.69
342.754	379.69
342.981	372.69
343.209	370.69
343.437	385.69
343.665	411.69
343.893	411.69
344.12	444.69
344.348	414.69
344.576	415.69
344.804	395.69
345.031	400.69
345.259	388.69
345.487	398.69
345.714	374.69
345.942	377.69
346.17	368.69
346.397	362.69
346.625	360.69
346.853	353.69
347.08	364.69
347.308	354.69
347.535	380.69
347.763	376.69
347.99	357.69
348.218	379.69
348.445	376.69
348.673	378.69
348.9	355.69
349.128	354.69
349.355	354.69
349.583	379.69
349.81	359.69
350.037	359.69
350.265	372.69
350.492	336.69
350.72	354.69
350.947	347.69
351.174	359.69
351.402	360.69
351.629	363.69
351.856	368.69
352.083	378.69
352.311	367.69
352.538	372.69
352.765	384.69
352.992	369.69
353.22	338.69
353.447	354.69
353.674	367.69
353.901	358.69
354.128	349.69
354.355	344.69
354.583	340.69
354.81	353.69
355.037	347.69
355.264	337.69
355.491	345.69
355.718	333.69
355.945	355.69
356.172	360.69
356.399	337.69
356.626	358.69
356.853	347.69
357.08	359.69
357.307	363.69
357.534	355.69
357.761	330.69
357.988	350.69
358.215	338.69
358.441	334.69
358.668	356.69
358.895	355.69
359.122	350.69
359.349	344.69
359.576	328.69
359.802	354.69
360.029	379.69
360.256	382.69
360.483	379.69
360.709	359.69
360.936	370.69
361.163	352.69
361.39	346.69
361.616	344.69
361.843	360.69
362.07	352.69
362.296	346.69
362.523	353.69
362.749	352.69
362.976	343.69
363.203	343.69
363.429	339.69
363.656	352.69
363.882	362.69
364.109	340.69
364.335	332.69
364.562	362.69
364.788	353.69
365.015	345.69
365.241	333.69
365.468	339.69
365.694	352.69
365.92	351.69
366.147	339.69
366.373	348.69
366.599	347.69
366.826	340.69
367.052	342.69
367.278	331.69
367.505	362.69
367.731	341.69
367.957	338.69
368.184	349.69
368.41	336.69
368.636	363.69
368.862	357.69
369.089	346.69
369.315	355.69
369.541	366.69
369.767	364.69
369.993	344.69
370.219	342.69
370.445	363.69
370.672	351.69
370.898	350.69
371.124	342.69
371.35	352.69
371.576	345.69
371.802	372.69
372.028	355.69
372.254	360.69
372.48	361.69
372.706	360.69
372.932	372.69
373.158	361.69
373.384	367.69
373.61	354.69
373.835	357.69
374.061	361.69
374.287	360.69
374.513	366.69
374.739	381.69
374.965	397.69
375.191	374.69
375.416	366.69
375.642	374.69
375.868	370.69
376.094	370.69
376.319	353.69
376.545	345.69
376.771	339.69
376.997	359.69
377.222	351.69
377.448	340.69
377.674	370.69
377.899	336.69
378.125	342.69
378.35	361.69
378.576	343.69
378.802	344.69
379.027	370.69
379.253	340.69
379.478	336.69
379.704	355.69
379.929	358.69
380.155	356.69
380.38	343.69
380.606	358.69
380.831	350.69
381.057	359.69
381.282	369.69
381.507	374.69
381.733	379.69
381.958	350.69
382.184	351.69
382.409	372.69
382.634	362.69
382.86	355.69
383.085	379.69
383.31	370.69
383.535	376.69
383.761	363.69
383.986	382.69
384.211	362.69
384.436	392.69
384.662	393.69
384.887	395.69
385.112	382.69
385.337	411.69
385.562	402.69
385.787	389.69
386.013	404.69
386.238	398.69
386.463	392.69
386.688	390.69
386.913	391.69
387.138	386.69
387.363	394.69
387.588	398.69
387.813	391.69
388.038	379.69
388.263	399.69
388.488	427.69
388.713	398.69
388.938	387.69
389.163	397.69
389.387	400.69
389.612	389.69
389.837	400.69
390.062	378.69
390.287	381.69
390.512	392.69
390.736	396.69
390.961	404.69
391.186	400.69
391.411	399.69
391.636	403.69
391.86	442.69
392.085	428.69
392.31	425.69
392.534	440.69
392.759	414.69
392.984	408.69
393.208	405.69
393.433	396.69
393.658	397.69
393.882	396.69
394.107	406.69
394.331	403.69
394.556	411.69
394.78	420.69
395.005	423.69
395.229	400.69
395.454	414.69
395.678	415.69
395.903	427.69
396.127	439.69
396.352	430.69
396.576	416.69
396.801	408.69
397.025	407.69
397.249	433.69
397.474	449.69
397.698	452.69
397.922	443.69
398.147	460.69
398.371	466.69
398.595	440.69
398.82	471.69
399.044	491.69
399.268	516.69
399.492	567.69
399.717	623.69
399.941	636.69
400.165	607.69
400.389	570.69
400.613	537.69
400.837	505.69
401.062	481.69
401.286	482.69
401.51	476.69
401.734	474.69
401.958	472.69
402.182	474.69
402.406	469.69
402.63	486.69
402.854	487.69
403.078	497.69
403.302	528.69
403.526	516.69
403.75	497.69
403.974	535.69
404.198	515.69
404.422	539.69
404.645	541.69
404.869	539.69
405.093	543.69
405.317	590.69
405.541	598.69
405.765	550.69
405.988	529.69
406.212	529.69
406.436	541.69
406.66	511.69
406.883	515.69
407.107	549.69
407.331	588.69
407.555	618.69
407.778	630.69
408.002	587.69
408.226	562.69
408.449	535.69
408.673	528.69
408.896	537.69
409.12	570.69
409.344	578.69
409.567	490.69
409.791	522.69
410.014	505.69
410.238	476.69
410.461	510.69
410.685	510.69
410.908	510.69
411.132	519.69
411.355	530.69
411.578	530.69
411.802	496.69
412.025	478.69
412.249	510.69
412.472	524.69
412.695	555.69
412.919	564.69
413.142	528.69
413.365	486.69
413.589	490.69
413.812	472.69
414.035	467.69
414.258	462.69
414.482	460.69
414.705	484.69
414.928	477.69
415.151	461.69
415.374	465.69
415.597	471.69
415.821	463.69
416.044	466.69
416.267	457.69
416.49	472.69
416.713	458.69
416.936	475.69
417.159	460.69
417.382	452.69
417.605	458.69
417.828	469.69
418.051	482.69
418.274	471.69
418.497	488.69
418.72	479.69
418.943	476.69
419.166	509.69
419.389	511.69
419.611	504.69
419.834	486.69
420.057	491.69
420.28	509.69
420.503	496.69
420.726	484.69
420.948	497.69
421.171	495.69
421.394	500.69
421.617	471.69
421.839	490.69
422.062	457.69
422.285	470.69
422.507	515.69
422.73	540.69
422.953	542.69
423.175	497.69
423.398	498.69
423.621	510.69
423.843	506.69
424.066	512.69
424.288	506.69
424.511	502.69
424.733	514.69
424.956	554.69
425.178	553.69
425.401	581.69
425.623	580.69
425.846	514.69
426.068	478.69
426.291	455.69
426.513	446.69
426.735	480.69
426.958	507.69
427.18	528.69
427.402	624.69
427.625	678.69
427.847	597.69
428.069	539.69
428.292	501.69
428.514	474.69
428.736	437.69
428.958	443.69
429.181	445.69
429.403	430.69
429.625	444.69
429.847	468.69
430.069	494.69
430.292	512.69
430.514	459.69
430.736	455.69
430.958	421.69
431.18	403.69
431.402	405.69
431.624	439.69
431.846	424.69
432.068	419.69
432.29	437.69
432.512	442.69
432.734	441.69
432.956	444.69
433.178	434.69
433.4	450.69
433.622	424.69
433.844	431.69
434.066	425.69
434.287	424.69
434.509	441.69
434.731	440.69
434.953	436.69
435.175	474.69
435.397	473.69
435.618	477.69
435.84	492.69
436.062	548.69
436.284	576.69
436.505	508.69
436.727	460.69
436.949	443.69
437.17	438.69
437.392	443.69
437.614	438.69
437.835	458.69
438.057	498.69
438.278	563.69
438.5	550.69
438.721	610.69
438.943	584.69
439.165	488.69
439.386	476.69
439.608	452.69
439.829	472.69
440.05	484.69
440.272	508.69
440.493	484.69
440.715	468.69
440.936	456.69
441.158	469.69
441.379	472.69
441.6	458.69
441.822	494.69
442.043	488.69
442.264	551.69
442.486	581.69
442.707	486.69
442.928	478.69
443.149	480.69
443.371	483.69
443.592	506.69
443.813	567.69
444.034	614.69
444.255	550.69
444.476	499.69
444.698	514.69
444.919	523.69
445.14	593.69
445.361	530.69
445.582	506.69
445.803	519.69
446.024	582.69
446.245	581.69
446.466	530.69
446.687	491.69
446.908	466.69
447.129	437.69
447.35	445.69
447.571	448.69
447.792	402.69
448.013	436.69
448.234	431.69
448.455	453.69
448.675	532.69
448.896	582.69
449.117	497.69
449.338	497.69
449.559	526.69
449.779	605.69
450	512.69
450.221	447.69
450.442	420.69
450.662	396.69
450.883	434.69
451.104	400.69
451.324	412.69
451.545	422.69
451.766	407.69
451.986	379.69
452.207	387.69
452.428	381.69
452.648	386.69
452.869	371.69
453.089	394.69
453.31	406.69
453.53	404.69
453.751	366.69
453.971	388.69
454.192	382.69
454.412	372.69
454.633	372.69
454.853	373.69
455.073	366.69
455.294	392.69
455.514	430.69
455.734	402.69
455.955	360.69
456.175	348.69
456.395	378.69
456.616	363.69
456.836	376.69
457.056	377.69
457.276	359.69
457.497	363.69
457.717	373.69
457.937	372.69
458.157	370.69
458.377	340.69
458.598	400.69
458.818	446.69
459.038	474.69
459.258	483.69
459.478	427.69
459.698	431.69
459.918	434.69
460.138	436.69
460.358	451.69
460.578	465.69
460.798	466.69
461.018	488.69
461.238	442.69
461.458	456.69
461.678	440.69
461.898	456.69
462.118	460.69
462.338	464.69
462.558	491.69
462.777	498.69
462.997	539.69
463.217	550.69
463.437	555.69
463.657	516.69
463.876	499.69
464.096	516.69
464.316	502.69
464.536	517.69
464.755	479.69
464.975	482.69
465.195	480.69
465.414	511.69
465.634	473.69
465.854	448.69
466.073	420.69
466.293	419.69
466.512	409.69
466.732	394.69
466.951	392.69
467.171	404.69
467.391	400.69
467.61	415.69
467.829	402.69
468.049	434.69
468.268	409.69
468.488	399.69
468.707	380.69
468.927	402.69
469.146	404.69
469.365	383.69
469.585	400.69
469.804	424.69
470.023	414.69
470.243	407.69
470.462	408.69
470.681	426.69
470.901	423.69
471.12	430.69
471.339	427.69
471.558	425.69
471.777	415.69
471.997	404.69
472.216	422.69
472.435	483.69
472.654	489.69
472.873	417.69
473.092	392.69
473.311	408.69
473.53	408.69
473.749	404.69
473.968	416.69
474.187	474.69
474.406	469.69
474.625	433.69
474.844	417.69
475.063	401.69
475.282	392.69
475.501	423.69
475.72	413.69
475.939	395.69
476.158	420.69
476.377	397.69
476.596	400.69
476.814	407.69
477.033	420.69
477.252	403.69
477.471	432.69
477.69	437.69
477.908	443.69
478.127	461.69
478.346	464.69
478.564	444.69
478.783	445.69
479.002	448.69
479.22	467.69
479.439	476.69
479.658	492.69
479.876	485.69
480.095	498.69
480.313	530.69
480.532	531.69
480.751	530.69
480.969	539.69
481.188	665.69
481.406	702.69
481.624	579.69
481.843	537.69
482.061	474.69
482.28	490.69
482.498	471.69
482.717	467.69
482.935	461.69
483.153	477.69
483.372	482.69
483.59	463.69
483.808	447.69
484.027	464.69
484.245	458.69
484.463	453.69
484.681	481.69
484.9	467.69
485.118	463.69
485.336	479.69
485.554	454.69
485.772	473.69
485.99	477.69
486.209	488.69
486.427	475.69
486.645	491.69
486.863	498.69
487.081	501.69
487.299	491.69
487.517	485.69
487.735	472.69
487.953	494.69
488.171	486.69
488.389	487.69
488.607	478.69
488.825	478.69
489.043	510.69
489.261	517.69
489.479	490.69
489.696	487.69
489.914	471.69
490.132	514.69
490.35	512.69
490.568	516.69
490.786	496.69
491.003	545.69
491.221	538.69
491.439	528.69
491.657	538.69
491.874	548.69
492.092	564.69
492.31	564.69
492.527	543.69
492.745	587.69
492.963	564.69
493.18	569.69
493.398	568.69
493.615	552.69
493.833	576.69
494.05	582.69
494.268	575.69
494.485	554.69
494.703	576.69
494.92	564.69
495.138	578.69
495.355	563.69
495.573	555.69
495.79	588.69
496.008	550.69
496.225	571.69
496.442	560.69
496.66	559.69
496.877	543.69
497.094	591.69
497.312	566.69
497.529	570.69
497.746	600.69
497.963	587.69
498.181	607.69
498.398	659.69
498.615	679.69
498.832	698.69
499.049	709.69
499.267	734.69
499.484	792.69
499.701	832.69
499.918	886.69
500.135	974.69
500.352	1059.69
500.569	1116.69
500.786	1089.69
501.003	1047.69
501.22	987.69
501.437	922.69
501.654	866.69
501.871	801.69
502.088	766.69
