Data from 1984.PennyLincolnUp.Lamp.En5.5.200Scan.071819.P1_HRD10591_16-57-12-967.txt Node
Date: Thu Jul 18 16:57:12 EDT 2019
User: cochatt
Spectrometer: HR+D1059
Trigger mode: 1
Integration Time (sec): 1.000000E-1
Scans to average: 1
Electric dark correction enabled: true
Nonlinearity correction enabled: false
Boxcar width: 0
XAxis mode: Wavelengths
Number of Pixels in Spectrum: 2048
>>>>>Begin Spectral Data<<<<<
223.165	-11.56
223.4	-11.56
223.635	-11.56
223.869	-16.56
224.104	-15.56
224.338	-9.56
224.573	-20.56
224.808	-16.56
225.042	-14.56
225.277	-12.56
225.511	-10.56
225.746	8.44
225.98	19.44
226.215	21.44
226.449	13.44
226.683	19.44
226.918	21.44
227.152	24.44
227.387	34.44
227.621	44.44
227.856	30.44
228.09	54.44
228.324	37.44
228.559	65.44
228.793	71.44
229.027	79.44
229.262	92.44
229.496	75.44
229.73	99.44
229.964	102.44
230.199	120.44
230.433	95.44
230.667	91.44
230.901	87.44
231.136	105.44
231.37	101.44
231.604	105.44
231.838	103.44
232.072	114.44
232.306	115.44
232.541	111.44
232.775	105.44
233.009	89.44
233.243	93.44
233.477	98.44
233.711	115.44
233.945	115.44
234.179	108.44
234.413	114.44
234.647	113.44
234.881	120.44
235.115	100.44
235.349	100.44
235.583	103.44
235.817	117.44
236.051	114.44
236.285	99.44
236.519	112.44
236.753	104.44
236.987	109.44
237.221	109.44
237.455	146.44
237.689	129.44
237.922	115.44
238.156	101.44
238.39	120.44
238.624	113.44
238.858	114.44
239.091	111.44
239.325	101.44
239.559	104.44
239.793	120.44
240.027	105.44
240.26	123.44
240.494	115.44
240.728	121.44
240.961	115.44
241.195	118.44
241.429	107.44
241.662	121.44
241.896	127.44
242.13	122.44
242.363	119.44
242.597	125.44
242.83	124.44
243.064	123.44
243.298	139.44
243.531	111.44
243.765	130.44
243.998	129.44
244.232	122.44
244.465	112.44
244.699	113.44
244.932	119.44
245.166	138.44
245.399	141.44
245.633	139.44
245.866	139.44
246.099	132.44
246.333	133.44
246.566	118.44
246.8	119.44
247.033	127.44
247.266	127.44
247.5	142.44
247.733	145.44
247.966	134.44
248.2	139.44
248.433	143.44
248.666	129.44
248.899	144.44
249.133	143.44
249.366	155.44
249.599	147.44
249.832	155.44
250.066	140.44
250.299	151.44
250.532	145.44
250.765	147.44
250.998	158.44
251.231	160.44
251.465	157.44
251.698	151.44
251.931	158.44
252.164	141.44
252.397	149.44
252.63	148.44
252.863	161.44
253.096	175.44
253.329	159.44
253.562	159.44
253.795	153.44
254.028	179.44
254.261	171.44
254.494	168.44
254.727	178.44
254.96	179.44
255.193	184.44
255.426	183.44
255.659	164.44
255.892	167.44
256.124	173.44
256.357	172.44
256.59	152.44
256.823	152.44
257.056	185.44
257.289	172.44
257.521	165.44
257.754	177.44
257.987	178.44
258.22	168.44
258.452	160.44
258.685	164.44
258.918	165.44
259.151	178.44
259.383	175.44
259.616	182.44
259.849	185.44
260.081	192.44
260.314	179.44
260.547	195.44
260.779	184.44
261.012	183.44
261.244	183.44
261.477	183.44
261.71	180.44
261.942	179.44
262.175	182.44
262.407	167.44
262.64	166.44
262.872	174.44
263.105	183.44
263.337	176.44
263.57	177.44
263.802	176.44
264.035	168.44
264.267	189.44
264.499	181.44
264.732	191.44
264.964	186.44
265.197	182.44
265.429	170.44
265.661	185.44
265.894	179.44
266.126	195.44
266.358	188.44
266.591	199.44
266.823	179.44
267.055	176.44
267.287	209.44
267.52	188.44
267.752	203.44
267.984	188.44
268.216	192.44
268.448	192.44
268.681	199.44
268.913	184.44
269.145	211.44
269.377	212.44
269.609	199.44
269.841	223.44
270.073	220.44
270.306	214.44
270.538	207.44
270.77	215.44
271.002	216.44
271.234	212.44
271.466	224.44
271.698	226.44
271.93	221.44
272.162	225.44
272.394	213.44
272.626	219.44
272.858	202.44
273.09	210.44
273.322	220.44
273.553	211.44
273.785	211.44
274.017	214.44
274.249	212.44
274.481	234.44
274.713	228.44
274.945	214.44
275.176	219.44
275.408	222.44
275.64	235.44
275.872	217.44
276.104	228.44
276.335	220.44
276.567	218.44
276.799	229.44
277.031	228.44
277.262	237.44
277.494	220.44
277.726	232.44
277.957	245.44
278.189	216.44
278.421	216.44
278.652	211.44
278.884	229.44
279.115	211.44
279.347	245.44
279.579	205.44
279.81	224.44
280.042	214.44
280.273	219.44
280.505	227.44
280.736	216.44
280.968	228.44
281.199	231.44
281.431	235.44
281.662	247.44
281.894	231.44
282.125	246.44
282.356	239.44
282.588	232.44
282.819	243.44
283.051	217.44
283.282	217.44
283.513	237.44
283.745	229.44
283.976	240.44
284.207	243.44
284.439	250.44
284.67	258.44
284.901	243.44
285.132	241.44
285.364	227.44
285.595	247.44
285.826	242.44
286.057	258.44
286.288	251.44
286.52	243.44
286.751	232.44
286.982	261.44
287.213	241.44
287.444	230.44
287.675	255.44
287.906	249.44
288.138	249.44
288.369	261.44
288.6	275.44
288.831	258.44
289.062	257.44
289.293	249.44
289.524	250.44
289.755	265.44
289.986	252.44
290.217	267.44
290.448	267.44
290.679	260.44
290.91	247.44
291.141	275.44
291.371	264.44
291.602	271.44
291.833	274.44
292.064	253.44
292.295	260.44
292.526	253.44
292.757	263.44
292.987	239.44
293.218	256.44
293.449	261.44
293.68	243.44
293.91	263.44
294.141	258.44
294.372	255.44
294.603	273.44
294.833	249.44
295.064	237.44
295.295	257.44
295.525	259.44
295.756	248.44
295.987	263.44
296.217	265.44
296.448	276.44
296.679	257.44
296.909	264.44
297.14	269.44
297.37	273.44
297.601	272.44
297.831	277.44
298.062	265.44
298.292	274.44
298.523	267.44
298.753	264.44
298.984	266.44
299.214	282.44
299.445	281.44
299.675	277.44
299.905	277.44
300.136	288.44
300.366	294.44
300.597	275.44
300.827	308.44
301.057	295.44
301.288	298.44
301.518	291.44
301.748	283.44
301.979	280.44
302.209	275.44
302.439	297.44
302.669	256.44
302.9	282.44
303.13	275.44
303.36	303.44
303.59	305.44
303.82	286.44
304.051	291.44
304.281	298.44
304.511	289.44
304.741	309.44
304.971	294.44
305.201	314.44
305.431	292.44
305.661	277.44
305.891	291.44
306.121	281.44
306.352	307.44
306.582	283.44
306.812	288.44
307.042	276.44
307.272	279.44
307.502	297.44
307.731	282.44
307.961	284.44
308.191	270.44
308.421	293.44
308.651	286.44
308.881	292.44
309.111	315.44
309.341	285.44
309.571	287.44
309.8	309.44
310.03	291.44
310.26	278.44
310.49	275.44
310.72	291.44
310.949	306.44
311.179	321.44
311.409	308.44
311.639	303.44
311.868	306.44
312.098	307.44
312.328	294.44
312.557	298.44
312.787	324.44
313.017	306.44
313.246	313.44
313.476	290.44
313.706	304.44
313.935	314.44
314.165	311.44
314.394	320.44
314.624	307.44
314.853	320.44
315.083	327.44
315.312	327.44
315.542	339.44
315.771	312.44
316.001	299.44
316.23	320.44
316.46	319.44
316.689	301.44
316.919	320.44
317.148	324.44
317.377	317.44
317.607	303.44
317.836	324.44
318.065	318.44
318.295	303.44
318.524	308.44
318.753	313.44
318.983	316.44
319.212	314.44
319.441	308.44
319.67	306.44
319.9	323.44
320.129	318.44
320.358	297.44
320.587	307.44
320.816	321.44
321.046	317.44
321.275	305.44
321.504	316.44
321.733	314.44
321.962	311.44
322.191	325.44
322.42	325.44
322.649	320.44
322.878	339.44
323.108	335.44
323.337	350.44
323.566	327.44
323.795	356.44
324.024	372.44
324.253	375.44
324.482	453.44
324.71	585.44
324.939	770.44
325.168	697.44
325.397	453.44
325.626	374.44
325.855	361.44
326.084	327.44
326.313	334.44
326.542	341.44
326.77	348.44
326.999	383.44
327.228	428.44
327.457	579.44
327.686	644.44
327.914	485.44
328.143	388.44
328.372	374.44
328.6	364.44
328.829	348.44
329.058	342.44
329.287	371.44
329.515	363.44
329.744	371.44
329.972	347.44
330.201	345.44
330.43	372.44
330.658	372.44
330.887	374.44
331.115	369.44
331.344	346.44
331.572	353.44
331.801	371.44
332.03	355.44
332.258	361.44
332.486	371.44
332.715	376.44
332.943	376.44
333.172	371.44
333.4	386.44
333.629	424.44
333.857	403.44
334.085	393.44
334.314	401.44
334.542	420.44
334.771	400.44
334.999	381.44
335.227	391.44
335.455	394.44
335.684	406.44
335.912	387.44
336.14	389.44
336.369	371.44
336.597	390.44
336.825	386.44
337.053	372.44
337.281	363.44
337.51	373.44
337.738	386.44
337.966	379.44
338.194	376.44
338.422	377.44
338.65	359.44
338.878	348.44
339.106	354.44
339.334	354.44
339.562	349.44
339.79	356.44
340.018	352.44
340.246	339.44
340.474	351.44
340.702	335.44
340.93	344.44
341.158	325.44
341.386	332.44
341.614	344.44
341.842	357.44
342.07	334.44
342.298	329.44
342.526	331.44
342.754	332.44
342.981	322.44
343.209	344.44
343.437	345.44
343.665	352.44
343.893	379.44
344.12	375.44
344.348	390.44
344.576	371.44
344.804	348.44
345.031	353.44
345.259	344.44
345.487	339.44
345.714	329.44
345.942	347.44
346.17	351.44
346.397	334.44
346.625	316.44
346.853	332.44
347.08	325.44
347.308	336.44
347.535	337.44
347.763	342.44
347.99	329.44
348.218	325.44
348.445	321.44
348.673	335.44
348.9	332.44
349.128	318.44
349.355	314.44
349.583	318.44
349.81	337.44
350.037	327.44
350.265	329.44
350.492	335.44
350.72	341.44
350.947	328.44
351.174	321.44
351.402	329.44
351.629	312.44
351.856	338.44
352.083	316.44
352.311	317.44
352.538	311.44
352.765	322.44
352.992	326.44
353.22	334.44
353.447	322.44
353.674	327.44
353.901	312.44
354.128	312.44
354.355	329.44
354.583	324.44
354.81	323.44
355.037	317.44
355.264	327.44
355.491	319.44
355.718	318.44
355.945	315.44
356.172	329.44
356.399	320.44
356.626	311.44
356.853	321.44
357.08	315.44
357.307	300.44
357.534	309.44
357.761	307.44
357.988	315.44
358.215	304.44
358.441	321.44
358.668	326.44
358.895	325.44
359.122	315.44
359.349	331.44
359.576	335.44
359.802	333.44
360.029	318.44
360.256	308.44
360.483	319.44
360.709	314.44
360.936	341.44
361.163	306.44
361.39	302.44
361.616	295.44
361.843	320.44
362.07	293.44
362.296	303.44
362.523	343.44
362.749	317.44
362.976	306.44
363.203	339.44
363.429	307.44
363.656	315.44
363.882	338.44
364.109	319.44
364.335	316.44
364.562	306.44
364.788	292.44
365.015	320.44
365.241	313.44
365.468	304.44
365.694	321.44
365.92	303.44
366.147	319.44
366.373	308.44
366.599	319.44
366.826	300.44
367.052	327.44
367.278	316.44
367.505	327.44
367.731	337.44
367.957	316.44
368.184	313.44
368.41	312.44
368.636	330.44
368.862	340.44
369.089	323.44
369.315	327.44
369.541	301.44
369.767	323.44
369.993	342.44
370.219	329.44
370.445	345.44
370.672	325.44
370.898	328.44
371.124	326.44
371.35	307.44
371.576	332.44
371.802	324.44
372.028	335.44
372.254	341.44
372.48	323.44
372.706	327.44
372.932	343.44
373.158	348.44
373.384	337.44
373.61	322.44
373.835	332.44
374.061	316.44
374.287	348.44
374.513	338.44
374.739	352.44
374.965	345.44
375.191	372.44
375.416	369.44
375.642	348.44
375.868	343.44
376.094	330.44
376.319	322.44
376.545	338.44
376.771	331.44
376.997	349.44
377.222	321.44
377.448	351.44
377.674	346.44
377.899	343.44
378.125	323.44
378.35	337.44
378.576	332.44
378.802	327.44
379.027	336.44
379.253	332.44
379.478	339.44
379.704	340.44
379.929	323.44
380.155	335.44
380.38	321.44
380.606	332.44
380.831	323.44
381.057	343.44
381.282	334.44
381.507	333.44
381.733	356.44
381.958	336.44
382.184	347.44
382.409	319.44
382.634	351.44
382.86	333.44
383.085	362.44
383.31	362.44
383.535	363.44
383.761	346.44
383.986	347.44
384.211	372.44
384.436	381.44
384.662	382.44
384.887	381.44
385.112	386.44
385.337	385.44
385.562	381.44
385.787	397.44
386.013	400.44
386.238	379.44
386.463	386.44
386.688	383.44
386.913	376.44
387.138	386.44
387.363	384.44
387.588	395.44
387.813	388.44
388.038	383.44
388.263	401.44
388.488	414.44
388.713	382.44
388.938	364.44
389.163	381.44
389.387	361.44
389.612	351.44
389.837	367.44
390.062	352.44
390.287	364.44
390.512	373.44
390.736	377.44
390.961	349.44
391.186	382.44
391.411	383.44
391.636	406.44
391.86	403.44
392.085	401.44
392.31	396.44
392.534	400.44
392.759	395.44
392.984	395.44
393.208	390.44
393.433	407.44
393.658	409.44
393.882	376.44
394.107	376.44
394.331	380.44
394.556	372.44
394.78	384.44
395.005	393.44
395.229	400.44
395.454	387.44
395.678	386.44
395.903	408.44
396.127	431.44
396.352	395.44
396.576	378.44
396.801	388.44
397.025	415.44
397.249	414.44
397.474	425.44
397.698	398.44
397.922	395.44
398.147	401.44
398.371	419.44
398.595	433.44
398.82	436.44
399.044	455.44
399.268	488.44
399.492	535.44
399.717	563.44
399.941	599.44
400.165	562.44
400.389	539.44
400.613	511.44
400.837	460.44
401.062	459.44
401.286	466.44
401.51	449.44
401.734	448.44
401.958	437.44
402.182	444.44
402.406	453.44
402.63	462.44
402.854	442.44
403.078	454.44
403.302	483.44
403.526	475.44
403.75	483.44
403.974	477.44
404.198	466.44
404.422	472.44
404.645	476.44
404.869	462.44
405.093	488.44
405.317	494.44
405.541	483.44
405.765	478.44
405.988	483.44
406.212	460.44
406.436	469.44
406.66	480.44
406.883	484.44
407.107	505.44
407.331	533.44
407.555	561.44
407.778	569.44
408.002	528.44
408.226	524.44
408.449	500.44
408.673	507.44
408.896	507.44
409.12	489.44
409.344	495.44
409.567	449.44
409.791	454.44
410.014	460.44
410.238	452.44
410.461	438.44
410.685	461.44
410.908	477.44
411.132	470.44
411.355	483.44
411.578	475.44
411.802	458.44
412.025	468.44
412.249	461.44
412.472	477.44
412.695	451.44
412.919	437.44
413.142	437.44
413.365	437.44
413.589	440.44
413.812	439.44
414.035	444.44
414.258	440.44
414.482	427.44
414.705	435.44
414.928	432.44
415.151	441.44
415.374	438.44
415.597	437.44
415.821	429.44
416.044	418.44
416.267	433.44
416.49	421.44
416.713	435.44
416.936	394.44
417.159	422.44
417.382	442.44
417.605	422.44
417.828	437.44
418.051	457.44
418.274	423.44
418.497	430.44
418.72	438.44
418.943	437.44
419.166	450.44
419.389	487.44
419.611	444.44
419.834	454.44
420.057	438.44
420.28	444.44
420.503	408.44
420.726	439.44
420.948	434.44
421.171	439.44
421.394	452.44
421.617	424.44
421.839	461.44
422.062	440.44
422.285	443.44
422.507	451.44
422.73	462.44
422.953	485.44
423.175	472.44
423.398	447.44
423.621	457.44
423.843	444.44
424.066	474.44
424.288	439.44
424.511	455.44
424.733	458.44
424.956	496.44
425.178	494.44
425.401	461.44
425.623	510.44
425.846	450.44
426.068	436.44
426.291	423.44
426.513	437.44
426.735	434.44
426.958	461.44
427.18	475.44
427.402	505.44
427.625	545.44
427.847	476.44
428.069	431.44
428.292	403.44
428.514	395.44
428.736	420.44
428.958	422.44
429.181	383.44
429.403	380.44
429.625	405.44
429.847	405.44
430.069	434.44
430.292	434.44
430.514	388.44
430.736	392.44
430.958	404.44
431.18	377.44
431.402	387.44
431.624	389.44
431.846	392.44
432.068	394.44
432.29	400.44
432.512	393.44
432.734	379.44
432.956	390.44
433.178	381.44
433.4	399.44
433.622	400.44
433.844	412.44
434.066	401.44
434.287	409.44
434.509	410.44
434.731	433.44
434.953	433.44
435.175	424.44
435.397	431.44
435.618	423.44
435.84	441.44
436.062	459.44
436.284	486.44
436.505	428.44
436.727	405.44
436.949	413.44
437.17	406.44
437.392	403.44
437.614	397.44
437.835	395.44
438.057	416.44
438.278	441.44
438.5	454.44
438.721	488.44
438.943	506.44
439.165	427.44
439.386	400.44
439.608	405.44
439.829	414.44
440.05	414.44
440.272	417.44
440.493	422.44
440.715	403.44
440.936	389.44
441.158	398.44
441.379	403.44
441.6	433.44
441.822	424.44
442.043	445.44
442.264	466.44
442.486	468.44
442.707	444.44
442.928	431.44
443.149	429.44
443.371	437.44
443.592	442.44
443.813	500.44
444.034	494.44
444.255	474.44
444.476	463.44
444.698	491.44
444.919	488.44
445.14	612.44
445.361	509.44
445.582	450.44
445.803	468.44
446.024	475.44
446.245	469.44
446.466	445.44
446.687	415.44
446.908	410.44
447.129	409.44
447.35	395.44
447.571	396.44
447.792	377.44
448.013	389.44
448.234	389.44
448.455	369.44
448.675	436.44
448.896	479.44
449.117	420.44
449.338	424.44
449.559	467.44
449.779	492.44
450	428.44
450.221	381.44
450.442	380.44
450.662	377.44
450.883	364.44
451.104	390.44
451.324	379.44
451.545	380.44
451.766	357.44
451.986	356.44
452.207	348.44
452.428	331.44
452.648	355.44
452.869	337.44
453.089	339.44
453.31	365.44
453.53	375.44
453.751	348.44
453.971	370.44
454.192	353.44
454.412	345.44
454.633	358.44
454.853	351.44
455.073	352.44
455.294	367.44
455.514	372.44
455.734	355.44
455.955	338.44
456.175	360.44
456.395	343.44
456.616	347.44
456.836	340.44
457.056	343.44
457.276	323.44
457.497	338.44
457.717	348.44
457.937	335.44
458.157	357.44
458.377	340.44
458.598	365.44
458.818	378.44
459.038	397.44
459.258	408.44
459.478	407.44
459.698	414.44
459.918	393.44
460.138	409.44
460.358	415.44
460.578	424.44
460.798	450.44
461.018	422.44
461.238	397.44
461.458	445.44
461.678	411.44
461.898	435.44
462.118	424.44
462.338	467.44
462.558	458.44
462.777	482.44
462.997	499.44
463.217	510.44
463.437	505.44
463.657	498.44
463.876	499.44
464.096	464.44
464.316	443.44
464.536	470.44
464.755	476.44
464.975	468.44
465.195	460.44
465.414	433.44
465.634	406.44
465.854	409.44
466.073	403.44
466.293	391.44
466.512	379.44
466.732	375.44
466.951	373.44
467.171	395.44
467.391	376.44
467.61	375.44
467.829	387.44
468.049	379.44
468.268	378.44
468.488	354.44
468.707	372.44
468.927	358.44
469.146	364.44
469.365	370.44
469.585	368.44
469.804	353.44
470.023	397.44
470.243	383.44
470.462	377.44
470.681	386.44
470.901	378.44
471.12	400.44
471.339	389.44
471.558	387.44
471.777	384.44
471.997	361.44
472.216	371.44
472.435	357.44
472.654	363.44
472.873	364.44
473.092	375.44
473.311	388.44
473.53	359.44
473.749	360.44
473.968	372.44
474.187	391.44
474.406	394.44
474.625	398.44
474.844	375.44
475.063	353.44
475.282	372.44
475.501	389.44
475.72	386.44
475.939	375.44
476.158	369.44
476.377	357.44
476.596	375.44
476.814	356.44
477.033	395.44
477.252	381.44
477.471	388.44
477.69	415.44
477.908	399.44
478.127	395.44
478.346	413.44
478.564	407.44
478.783	431.44
479.002	439.44
479.22	435.44
479.439	427.44
479.658	458.44
479.876	436.44
480.095	458.44
480.313	475.44
480.532	480.44
480.751	459.44
480.969	466.44
481.188	447.44
481.406	432.44
481.624	417.44
481.843	405.44
482.061	435.44
482.28	429.44
482.498	411.44
482.717	410.44
482.935	415.44
483.153	409.44
483.372	427.44
483.59	419.44
483.808	425.44
484.027	435.44
484.245	447.44
484.463	420.44
484.681	457.44
484.9	437.44
485.118	442.44
485.336	460.44
485.554	438.44
485.772	438.44
485.99	438.44
486.209	433.44
486.427	444.44
486.645	443.44
486.863	457.44
487.081	451.44
487.299	455.44
487.517	453.44
487.735	445.44
487.953	437.44
488.171	440.44
488.389	432.44
488.607	446.44
488.825	410.44
489.043	453.44
489.261	431.44
489.479	460.44
489.696	455.44
489.914	459.44
490.132	448.44
490.35	451.44
490.568	450.44
490.786	438.44
491.003	460.44
491.221	463.44
491.439	474.44
491.657	458.44
491.874	451.44
492.092	457.44
492.31	461.44
492.527	475.44
492.745	475.44
492.963	460.44
493.18	468.44
493.398	489.44
493.615	481.44
493.833	467.44
494.05	485.44
494.268	478.44
494.485	480.44
494.703	484.44
494.92	479.44
495.138	489.44
495.355	503.44
495.573	495.44
495.79	467.44
496.008	486.44
496.225	489.44
496.442	503.44
496.66	487.44
496.877	513.44
497.094	522.44
497.312	541.44
497.529	523.44
497.746	521.44
497.963	540.44
498.181	553.44
498.398	585.44
498.615	625.44
498.832	636.44
499.049	645.44
499.267	694.44
499.484	735.44
499.701	782.44
499.918	839.44
500.135	927.44
500.352	998.44
500.569	1023.44
500.786	1025.44
501.003	973.44
501.22	923.44
501.437	858.44
501.654	776.44
501.871	732.44
502.088	697.44
