Data from 1984.PennyLincolnUp.Lamp.En5.5.200Scan.071819.P1_HRD10591_16-59-37-969.txt Node
Date: Thu Jul 18 16:59:37 EDT 2019
User: cochatt
Spectrometer: HR+D1059
Trigger mode: 1
Integration Time (sec): 1.000000E-1
Scans to average: 1
Electric dark correction enabled: true
Nonlinearity correction enabled: false
Boxcar width: 0
XAxis mode: Wavelengths
Number of Pixels in Spectrum: 2048
>>>>>Begin Spectral Data<<<<<
223.165	-13.88
223.4	-13.88
223.635	-13.88
223.869	-10.88
224.104	-16.88
224.338	-7.88
224.573	-13.88
224.808	-25.88
225.042	-9.88
225.277	2.12
225.511	1.12
225.746	3.12
225.98	-2.88
226.215	13.12
226.449	8.12
226.683	11.12
226.918	29.12
227.152	34.12
227.387	35.12
227.621	28.12
227.856	32.12
228.09	31.12
228.324	47.12
228.559	37.12
228.793	59.12
229.027	80.12
229.262	92.12
229.496	100.12
229.73	102.12
229.964	103.12
230.199	114.12
230.433	96.12
230.667	106.12
230.901	99.12
231.136	108.12
231.37	105.12
231.604	116.12
231.838	101.12
232.072	119.12
232.306	103.12
232.541	99.12
232.775	92.12
233.009	95.12
233.243	115.12
233.477	117.12
233.711	108.12
233.945	108.12
234.179	87.12
234.413	116.12
234.647	108.12
234.881	96.12
235.115	103.12
235.349	113.12
235.583	95.12
235.817	114.12
236.051	121.12
236.285	98.12
236.519	127.12
236.753	117.12
236.987	119.12
237.221	135.12
237.455	153.12
237.689	133.12
237.922	127.12
238.156	95.12
238.39	113.12
238.624	114.12
238.858	124.12
239.091	113.12
239.325	111.12
239.559	105.12
239.793	118.12
240.027	123.12
240.26	125.12
240.494	124.12
240.728	123.12
240.961	131.12
241.195	145.12
241.429	124.12
241.662	124.12
241.896	118.12
242.13	125.12
242.363	130.12
242.597	127.12
242.83	133.12
243.064	127.12
243.298	121.12
243.531	130.12
243.765	122.12
243.998	133.12
244.232	122.12
244.465	132.12
244.699	129.12
244.932	127.12
245.166	136.12
245.399	135.12
245.633	147.12
245.866	145.12
246.099	141.12
246.333	130.12
246.566	154.12
246.8	133.12
247.033	131.12
247.266	142.12
247.5	157.12
247.733	138.12
247.966	145.12
248.2	144.12
248.433	147.12
248.666	156.12
248.899	156.12
249.133	155.12
249.366	172.12
249.599	169.12
249.832	161.12
250.066	170.12
250.299	176.12
250.532	207.12
250.765	197.12
250.998	191.12
251.231	200.12
251.465	177.12
251.698	165.12
251.931	177.12
252.164	168.12
252.397	183.12
252.63	167.12
252.863	177.12
253.096	169.12
253.329	169.12
253.562	192.12
253.795	192.12
254.028	192.12
254.261	189.12
254.494	183.12
254.727	196.12
254.96	205.12
255.193	206.12
255.426	201.12
255.659	217.12
255.892	228.12
256.124	277.12
256.357	269.12
256.59	231.12
256.823	213.12
257.056	196.12
257.289	197.12
257.521	176.12
257.754	185.12
257.987	192.12
258.22	185.12
258.452	177.12
258.685	193.12
258.918	203.12
259.151	179.12
259.383	192.12
259.616	196.12
259.849	199.12
260.081	203.12
260.314	209.12
260.547	216.12
260.779	200.12
261.012	206.12
261.244	201.12
261.477	184.12
261.71	208.12
261.942	189.12
262.175	206.12
262.407	190.12
262.64	191.12
262.872	210.12
263.105	203.12
263.337	208.12
263.57	191.12
263.802	191.12
264.035	188.12
264.267	210.12
264.499	199.12
264.732	199.12
264.964	175.12
265.197	209.12
265.429	194.12
265.661	188.12
265.894	209.12
266.126	211.12
266.358	197.12
266.591	212.12
266.823	227.12
267.055	205.12
267.287	197.12
267.52	205.12
267.752	218.12
267.984	192.12
268.216	200.12
268.448	221.12
268.681	211.12
268.913	225.12
269.145	217.12
269.377	240.12
269.609	238.12
269.841	233.12
270.073	232.12
270.306	255.12
270.538	267.12
270.77	259.12
271.002	235.12
271.234	272.12
271.466	256.12
271.698	245.12
271.93	266.12
272.162	264.12
272.394	263.12
272.626	263.12
272.858	218.12
273.09	240.12
273.322	241.12
273.553	242.12
273.785	229.12
274.017	227.12
274.249	219.12
274.481	234.12
274.713	254.12
274.945	241.12
275.176	244.12
275.408	259.12
275.64	237.12
275.872	255.12
276.104	228.12
276.335	247.12
276.567	241.12
276.799	264.12
277.031	258.12
277.262	280.12
277.494	279.12
277.726	279.12
277.957	252.12
278.189	272.12
278.421	255.12
278.652	268.12
278.884	249.12
279.115	253.12
279.347	258.12
279.579	249.12
279.81	261.12
280.042	258.12
280.273	264.12
280.505	264.12
280.736	258.12
280.968	251.12
281.199	270.12
281.431	277.12
281.662	252.12
281.894	249.12
282.125	270.12
282.356	279.12
282.588	280.12
282.819	296.12
283.051	245.12
283.282	265.12
283.513	268.12
283.745	272.12
283.976	268.12
284.207	257.12
284.439	251.12
284.67	262.12
284.901	260.12
285.132	261.12
285.364	261.12
285.595	250.12
285.826	264.12
286.057	272.12
286.288	275.12
286.52	276.12
286.751	280.12
286.982	271.12
287.213	290.12
287.444	285.12
287.675	265.12
287.906	276.12
288.138	279.12
288.369	303.12
288.6	283.12
288.831	275.12
289.062	278.12
289.293	280.12
289.524	259.12
289.755	289.12
289.986	290.12
290.217	263.12
290.448	271.12
290.679	277.12
290.91	291.12
291.141	284.12
291.371	292.12
291.602	282.12
291.833	269.12
292.064	301.12
292.295	283.12
292.526	292.12
292.757	277.12
292.987	283.12
293.218	274.12
293.449	257.12
293.68	298.12
293.91	275.12
294.141	308.12
294.372	264.12
294.603	284.12
294.833	274.12
295.064	280.12
295.295	279.12
295.525	266.12
295.756	296.12
295.987	283.12
296.217	312.12
296.448	301.12
296.679	298.12
296.909	290.12
297.14	287.12
297.37	281.12
297.601	273.12
297.831	300.12
298.062	275.12
298.292	291.12
298.523	295.12
298.753	305.12
298.984	300.12
299.214	303.12
299.445	279.12
299.675	311.12
299.905	316.12
300.136	307.12
300.366	305.12
300.597	294.12
300.827	326.12
301.057	309.12
301.288	323.12
301.518	316.12
301.748	303.12
301.979	311.12
302.209	337.12
302.439	343.12
302.669	304.12
302.9	313.12
303.13	337.12
303.36	315.12
303.59	313.12
303.82	320.12
304.051	309.12
304.281	323.12
304.511	311.12
304.741	314.12
304.971	313.12
305.201	313.12
305.431	317.12
305.661	303.12
305.891	311.12
306.121	300.12
306.352	307.12
306.582	307.12
306.812	327.12
307.042	312.12
307.272	319.12
307.502	315.12
307.731	321.12
307.961	320.12
308.191	305.12
308.421	343.12
308.651	319.12
308.881	319.12
309.111	327.12
309.341	322.12
309.571	340.12
309.8	315.12
310.03	331.12
310.26	343.12
310.49	346.12
310.72	340.12
310.949	336.12
311.179	345.12
311.409	358.12
311.639	356.12
311.868	363.12
312.098	348.12
312.328	344.12
312.557	352.12
312.787	359.12
313.017	385.12
313.246	379.12
313.476	324.12
313.706	341.12
313.935	376.12
314.165	378.12
314.394	369.12
314.624	369.12
314.853	332.12
315.083	341.12
315.312	318.12
315.542	346.12
315.771	347.12
316.001	332.12
316.23	347.12
316.46	333.12
316.689	331.12
316.919	354.12
317.148	360.12
317.377	351.12
317.607	352.12
317.836	351.12
318.065	336.12
318.295	342.12
318.524	361.12
318.753	347.12
318.983	341.12
319.212	350.12
319.441	360.12
319.67	364.12
319.9	358.12
320.129	336.12
320.358	359.12
320.587	361.12
320.816	346.12
321.046	375.12
321.275	375.12
321.504	373.12
321.733	361.12
321.962	347.12
322.191	364.12
322.42	377.12
322.649	384.12
322.878	396.12
323.108	385.12
323.337	403.12
323.566	433.12
323.795	448.12
324.024	475.12
324.253	522.12
324.482	725.12
324.71	1025.12
324.939	1426.12
325.168	1250.12
325.397	668.12
325.626	498.12
325.855	445.12
326.084	429.12
326.313	450.12
326.542	413.12
326.77	467.12
326.999	528.12
327.228	693.12
327.457	951.12
327.686	1119.12
327.914	807.12
328.143	601.12
328.372	555.12
328.6	531.12
328.829	497.12
329.058	489.12
329.287	488.12
329.515	485.12
329.744	482.12
329.972	512.12
330.201	559.12
330.43	611.12
330.658	588.12
330.887	546.12
331.115	475.12
331.344	462.12
331.572	450.12
331.801	448.12
332.03	460.12
332.258	455.12
332.486	448.12
332.715	453.12
332.943	454.12
333.172	466.12
333.4	475.12
333.629	500.12
333.857	497.12
334.085	567.12
334.314	601.12
334.542	667.12
334.771	708.12
334.999	582.12
335.227	523.12
335.455	475.12
335.684	460.12
335.912	455.12
336.14	439.12
336.369	435.12
336.597	431.12
336.825	432.12
337.053	417.12
337.281	415.12
337.51	422.12
337.738	419.12
337.966	403.12
338.194	424.12
338.422	428.12
338.65	416.12
338.878	411.12
339.106	396.12
339.334	396.12
339.562	386.12
339.79	381.12
340.018	400.12
340.246	402.12
340.474	393.12
340.702	399.12
340.93	390.12
341.158	406.12
341.386	408.12
341.614	381.12
341.842	366.12
342.07	387.12
342.298	393.12
342.526	380.12
342.754	395.12
342.981	393.12
343.209	386.12
343.437	395.12
343.665	413.12
343.893	417.12
344.12	425.12
344.348	425.12
344.576	400.12
344.804	409.12
345.031	386.12
345.259	395.12
345.487	374.12
345.714	364.12
345.942	376.12
346.17	359.12
346.397	357.12
346.625	376.12
346.853	364.12
347.08	357.12
347.308	386.12
347.535	393.12
347.763	369.12
347.99	369.12
348.218	375.12
348.445	381.12
348.673	377.12
348.9	389.12
349.128	373.12
349.355	378.12
349.583	368.12
349.81	370.12
350.037	349.12
350.265	354.12
350.492	356.12
350.72	354.12
350.947	371.12
351.174	365.12
351.402	381.12
351.629	367.12
351.856	375.12
352.083	389.12
352.311	377.12
352.538	359.12
352.765	362.12
352.992	374.12
353.22	347.12
353.447	366.12
353.674	348.12
353.901	343.12
354.128	349.12
354.355	352.12
354.583	354.12
354.81	350.12
355.037	351.12
355.264	372.12
355.491	359.12
355.718	355.12
355.945	350.12
356.172	349.12
356.399	347.12
356.626	350.12
356.853	345.12
357.08	342.12
357.307	347.12
357.534	342.12
357.761	362.12
357.988	356.12
358.215	356.12
358.441	357.12
358.668	359.12
358.895	367.12
359.122	351.12
359.349	369.12
359.576	390.12
359.802	348.12
360.029	374.12
360.256	390.12
360.483	357.12
360.709	351.12
360.936	372.12
361.163	364.12
361.39	363.12
361.616	346.12
361.843	346.12
362.07	371.12
362.296	353.12
362.523	353.12
362.749	360.12
362.976	379.12
363.203	343.12
363.429	357.12
363.656	353.12
363.882	360.12
364.109	350.12
364.335	350.12
364.562	328.12
364.788	344.12
365.015	367.12
365.241	341.12
365.468	348.12
365.694	352.12
365.92	357.12
366.147	353.12
366.373	353.12
366.599	357.12
366.826	347.12
367.052	362.12
367.278	353.12
367.505	336.12
367.731	353.12
367.957	345.12
368.184	342.12
368.41	343.12
368.636	364.12
368.862	359.12
369.089	356.12
369.315	362.12
369.541	338.12
369.767	323.12
369.993	340.12
370.219	359.12
370.445	357.12
370.672	354.12
370.898	347.12
371.124	356.12
371.35	340.12
371.576	344.12
371.802	353.12
372.028	347.12
372.254	345.12
372.48	367.12
372.706	361.12
372.932	360.12
373.158	360.12
373.384	358.12
373.61	343.12
373.835	375.12
374.061	353.12
374.287	388.12
374.513	372.12
374.739	373.12
374.965	390.12
375.191	381.12
375.416	363.12
375.642	351.12
375.868	376.12
376.094	381.12
376.319	351.12
376.545	350.12
376.771	353.12
376.997	354.12
377.222	368.12
377.448	353.12
377.674	353.12
377.899	365.12
378.125	338.12
378.35	329.12
378.576	346.12
378.802	330.12
379.027	351.12
379.253	354.12
379.478	344.12
379.704	361.12
379.929	350.12
380.155	332.12
380.38	348.12
380.606	362.12
380.831	338.12
381.057	372.12
381.282	343.12
381.507	350.12
381.733	374.12
381.958	367.12
382.184	353.12
382.409	378.12
382.634	359.12
382.86	368.12
383.085	361.12
383.31	345.12
383.535	397.12
383.761	395.12
383.986	376.12
384.211	388.12
384.436	387.12
384.662	402.12
384.887	397.12
385.112	394.12
385.337	402.12
385.562	393.12
385.787	379.12
386.013	404.12
386.238	405.12
386.463	402.12
386.688	392.12
386.913	393.12
387.138	389.12
387.363	395.12
387.588	403.12
387.813	410.12
388.038	385.12
388.263	392.12
388.488	405.12
388.713	396.12
388.938	398.12
389.163	405.12
389.387	394.12
389.612	395.12
389.837	383.12
390.062	403.12
390.287	392.12
390.512	413.12
390.736	420.12
390.961	385.12
391.186	407.12
391.411	404.12
391.636	400.12
391.86	425.12
392.085	440.12
392.31	439.12
392.534	434.12
392.759	425.12
392.984	413.12
393.208	400.12
393.433	424.12
393.658	409.12
393.882	411.12
394.107	423.12
394.331	412.12
394.556	393.12
394.78	405.12
395.005	419.12
395.229	420.12
395.454	421.12
395.678	418.12
395.903	436.12
396.127	432.12
396.352	424.12
396.576	426.12
396.801	421.12
397.025	429.12
397.249	410.12
397.474	435.12
397.698	445.12
397.922	444.12
398.147	442.12
398.371	454.12
398.595	453.12
398.82	470.12
399.044	488.12
399.268	522.12
399.492	552.12
399.717	604.12
399.941	627.12
400.165	604.12
400.389	578.12
400.613	527.12
400.837	499.12
401.062	497.12
401.286	457.12
401.51	465.12
401.734	452.12
401.958	465.12
402.182	474.12
402.406	497.12
402.63	482.12
402.854	494.12
403.078	491.12
403.302	518.12
403.526	524.12
403.75	543.12
403.974	520.12
404.198	516.12
404.422	526.12
404.645	516.12
404.869	551.12
405.093	597.12
405.317	592.12
405.541	648.12
405.765	578.12
405.988	566.12
406.212	530.12
406.436	540.12
406.66	529.12
406.883	518.12
407.107	572.12
407.331	600.12
407.555	619.12
407.778	632.12
408.002	598.12
408.226	551.12
408.449	547.12
408.673	524.12
408.896	549.12
409.12	566.12
409.344	548.12
409.567	519.12
409.791	519.12
410.014	501.12
410.238	484.12
410.461	510.12
410.685	472.12
410.908	526.12
411.132	516.12
411.355	517.12
411.578	544.12
411.802	482.12
412.025	504.12
412.249	533.12
412.472	532.12
412.695	593.12
412.919	575.12
413.142	510.12
413.365	540.12
413.589	495.12
413.812	489.12
414.035	483.12
414.258	475.12
414.482	472.12
414.705	458.12
414.928	469.12
415.151	456.12
415.374	486.12
415.597	470.12
415.821	460.12
416.044	448.12
416.267	471.12
416.49	482.12
416.713	444.12
416.936	457.12
417.159	457.12
417.382	459.12
417.605	491.12
417.828	476.12
418.051	483.12
418.274	490.12
418.497	481.12
418.72	482.12
418.943	493.12
419.166	479.12
419.389	540.12
419.611	538.12
419.834	511.12
420.057	525.12
420.28	503.12
420.503	504.12
420.726	512.12
420.948	487.12
421.171	490.12
421.394	524.12
421.617	485.12
421.839	471.12
422.062	481.12
422.285	484.12
422.507	487.12
422.73	550.12
422.953	543.12
423.175	476.12
423.398	507.12
423.621	505.12
423.843	526.12
424.066	501.12
424.288	497.12
424.511	492.12
424.733	533.12
424.956	560.12
425.178	557.12
425.401	546.12
425.623	562.12
425.846	496.12
426.068	467.12
426.291	491.12
426.513	475.12
426.735	468.12
426.958	523.12
427.18	541.12
427.402	611.12
427.625	676.12
427.847	605.12
428.069	584.12
428.292	527.12
428.514	493.12
428.736	450.12
428.958	439.12
429.181	420.12
429.403	447.12
429.625	424.12
429.847	462.12
430.069	487.12
430.292	499.12
430.514	443.12
430.736	452.12
430.958	433.12
431.18	436.12
431.402	432.12
431.624	421.12
431.846	439.12
432.068	424.12
432.29	431.12
432.512	439.12
432.734	420.12
432.956	431.12
433.178	447.12
433.4	425.12
433.622	427.12
433.844	441.12
434.066	413.12
434.287	433.12
434.509	420.12
434.731	459.12
434.953	487.12
435.175	468.12
435.397	479.12
435.618	459.12
435.84	484.12
436.062	546.12
436.284	573.12
436.505	487.12
436.727	468.12
436.949	453.12
437.17	467.12
437.392	427.12
437.614	431.12
437.835	439.12
438.057	496.12
438.278	553.12
438.5	571.12
438.721	575.12
438.943	588.12
439.165	498.12
439.386	468.12
439.608	468.12
439.829	452.12
440.05	470.12
440.272	503.12
440.493	500.12
440.715	466.12
440.936	464.12
441.158	459.12
441.379	448.12
441.6	472.12
441.822	487.12
442.043	525.12
442.264	540.12
442.486	570.12
442.707	490.12
442.928	486.12
443.149	468.12
443.371	511.12
443.592	497.12
443.813	569.12
444.034	616.12
444.255	533.12
444.476	523.12
444.698	495.12
444.919	532.12
445.14	602.12
445.361	558.12
445.582	503.12
445.803	534.12
446.024	582.12
446.245	589.12
446.466	542.12
446.687	472.12
446.908	460.12
447.129	434.12
447.35	421.12
447.571	443.12
447.792	405.12
448.013	429.12
448.234	428.12
448.455	452.12
448.675	511.12
448.896	589.12
449.117	508.12
449.338	479.12
449.559	551.12
449.779	634.12
450	512.12
450.221	441.12
450.442	423.12
450.662	408.12
450.883	413.12
451.104	432.12
451.324	393.12
451.545	396.12
451.766	398.12
451.986	381.12
452.207	375.12
452.428	384.12
452.648	400.12
452.869	389.12
453.089	416.12
453.31	403.12
453.53	400.12
453.751	375.12
453.971	388.12
454.192	397.12
454.412	395.12
454.633	389.12
454.853	395.12
455.073	388.12
455.294	397.12
455.514	415.12
455.734	436.12
455.955	364.12
456.175	369.12
456.395	369.12
456.616	389.12
456.836	364.12
457.056	371.12
457.276	341.12
457.497	369.12
457.717	377.12
457.937	376.12
458.157	400.12
458.377	385.12
458.598	398.12
458.818	435.12
459.038	467.12
459.258	464.12
459.478	449.12
459.698	426.12
459.918	425.12
460.138	451.12
460.358	461.12
460.578	438.12
460.798	455.12
461.018	467.12
461.238	460.12
461.458	460.12
461.678	456.12
461.898	455.12
462.118	470.12
462.338	465.12
462.558	498.12
462.777	476.12
462.997	544.12
463.217	560.12
463.437	572.12
463.657	520.12
463.876	507.12
464.096	495.12
464.316	508.12
464.536	488.12
464.755	504.12
464.975	508.12
465.195	523.12
465.414	494.12
465.634	476.12
465.854	430.12
466.073	423.12
466.293	409.12
466.512	392.12
466.732	400.12
466.951	405.12
467.171	413.12
467.391	432.12
467.61	420.12
467.829	405.12
468.049	409.12
468.268	446.12
468.488	424.12
468.707	409.12
468.927	414.12
469.146	389.12
469.365	410.12
469.585	395.12
469.804	390.12
470.023	420.12
470.243	415.12
470.462	399.12
470.681	429.12
470.901	433.12
471.12	409.12
471.339	407.12
471.558	418.12
471.777	417.12
471.997	420.12
472.216	467.12
472.435	507.12
472.654	481.12
472.873	449.12
473.092	415.12
473.311	403.12
473.53	403.12
473.749	408.12
473.968	424.12
474.187	469.12
474.406	480.12
474.625	444.12
474.844	418.12
475.063	401.12
475.282	401.12
475.501	397.12
475.72	401.12
475.939	408.12
476.158	413.12
476.377	408.12
476.596	414.12
476.814	425.12
477.033	417.12
477.252	435.12
477.471	431.12
477.69	427.12
477.908	437.12
478.127	448.12
478.346	456.12
478.564	472.12
478.783	450.12
479.002	453.12
479.22	486.12
479.439	474.12
479.658	479.12
479.876	496.12
480.095	480.12
480.313	527.12
480.532	529.12
480.751	517.12
480.969	555.12
481.188	663.12
481.406	729.12
481.624	600.12
481.843	547.12
482.061	528.12
482.28	511.12
482.498	488.12
482.717	470.12
482.935	482.12
483.153	473.12
483.372	453.12
483.59	485.12
483.808	480.12
484.027	465.12
484.245	448.12
484.463	473.12
484.681	486.12
484.9	488.12
485.118	459.12
485.336	457.12
485.554	484.12
485.772	470.12
485.99	493.12
486.209	485.12
486.427	482.12
486.645	497.12
486.863	489.12
487.081	517.12
487.299	486.12
487.517	484.12
487.735	478.12
487.953	485.12
488.171	495.12
488.389	499.12
488.607	493.12
488.825	459.12
489.043	468.12
489.261	472.12
489.479	489.12
489.696	509.12
489.914	479.12
490.132	510.12
490.35	516.12
490.568	514.12
490.786	533.12
491.003	531.12
491.221	544.12
491.439	530.12
491.657	565.12
491.874	569.12
492.092	584.12
492.31	544.12
492.527	595.12
492.745	588.12
492.963	603.12
493.18	591.12
493.398	600.12
493.615	585.12
493.833	585.12
494.05	587.12
494.268	586.12
494.485	586.12
494.703	581.12
494.92	576.12
495.138	578.12
495.355	562.12
495.573	568.12
495.79	568.12
496.008	561.12
496.225	585.12
496.442	550.12
496.66	582.12
496.877	575.12
497.094	591.12
497.312	585.12
497.529	579.12
497.746	609.12
497.963	609.12
498.181	640.12
498.398	642.12
498.615	664.12
498.832	700.12
499.049	739.12
499.267	753.12
499.484	798.12
499.701	847.12
499.918	885.12
500.135	966.12
500.352	1082.12
500.569	1093.12
500.786	1098.12
501.003	1052.12
501.22	1009.12
501.437	911.12
501.654	856.12
501.871	804.12
502.088	753.12
