Data from 1984.PennyLincolnUp.Lamp.En5.5.200Scan.071819.P1_HRD10591_16-58-43-969.txt Node
Date: Thu Jul 18 16:58:43 EDT 2019
User: cochatt
Spectrometer: HR+D1059
Trigger mode: 1
Integration Time (sec): 1.000000E-1
Scans to average: 1
Electric dark correction enabled: true
Nonlinearity correction enabled: false
Boxcar width: 0
XAxis mode: Wavelengths
Number of Pixels in Spectrum: 2048
>>>>>Begin Spectral Data<<<<<
223.165	-18.94
223.4	-18.94
223.635	-18.94
223.869	-17.94
224.104	-4.94
224.338	-0.94
224.573	-7.94
224.808	-18.94
225.042	-10.94
225.277	-7.94
225.511	-3.94
225.746	-6.94
225.98	-0.94
226.215	12.06
226.449	15.06
226.683	26.06
226.918	24.06
227.152	23.06
227.387	32.06
227.621	15.06
227.856	38.06
228.09	45.06
228.324	56.06
228.559	59.06
228.793	61.06
229.027	90.06
229.262	91.06
229.496	88.06
229.73	102.06
229.964	121.06
230.199	107.06
230.433	111.06
230.667	87.06
230.901	98.06
231.136	110.06
231.37	95.06
231.604	107.06
231.838	114.06
232.072	106.06
232.306	111.06
232.541	107.06
232.775	114.06
233.009	97.06
233.243	101.06
233.477	124.06
233.711	123.06
233.945	120.06
234.179	114.06
234.413	113.06
234.647	119.06
234.881	120.06
235.115	117.06
235.349	102.06
235.583	128.06
235.817	112.06
236.051	109.06
236.285	105.06
236.519	124.06
236.753	125.06
236.987	116.06
237.221	157.06
237.455	174.06
237.689	158.06
237.922	153.06
238.156	120.06
238.39	120.06
238.624	106.06
238.858	119.06
239.091	127.06
239.325	120.06
239.559	113.06
239.793	111.06
240.027	126.06
240.26	139.06
240.494	137.06
240.728	155.06
240.961	137.06
241.195	127.06
241.429	127.06
241.662	123.06
241.896	134.06
242.13	144.06
242.363	133.06
242.597	126.06
242.83	122.06
243.064	135.06
243.298	137.06
243.531	128.06
243.765	147.06
243.998	135.06
244.232	147.06
244.465	132.06
244.699	146.06
244.932	128.06
245.166	150.06
245.399	141.06
245.633	131.06
245.866	136.06
246.099	122.06
246.333	135.06
246.566	129.06
246.8	148.06
247.033	135.06
247.266	158.06
247.5	147.06
247.733	162.06
247.966	158.06
248.2	155.06
248.433	165.06
248.666	180.06
248.899	153.06
249.133	169.06
249.366	184.06
249.599	178.06
249.832	168.06
250.066	170.06
250.299	171.06
250.532	175.06
250.765	191.06
250.998	193.06
251.231	215.06
251.465	193.06
251.698	165.06
251.931	177.06
252.164	178.06
252.397	172.06
252.63	182.06
252.863	179.06
253.096	188.06
253.329	182.06
253.562	175.06
253.795	173.06
254.028	193.06
254.261	194.06
254.494	198.06
254.727	197.06
254.96	209.06
255.193	233.06
255.426	211.06
255.659	223.06
255.892	214.06
256.124	244.06
256.357	241.06
256.59	225.06
256.823	199.06
257.056	196.06
257.289	197.06
257.521	183.06
257.754	183.06
257.987	212.06
258.22	181.06
258.452	189.06
258.685	202.06
258.918	186.06
259.151	200.06
259.383	202.06
259.616	196.06
259.849	197.06
260.081	207.06
260.314	203.06
260.547	229.06
260.779	214.06
261.012	203.06
261.244	207.06
261.477	203.06
261.71	203.06
261.942	201.06
262.175	222.06
262.407	203.06
262.64	212.06
262.872	204.06
263.105	181.06
263.337	197.06
263.57	206.06
263.802	199.06
264.035	213.06
264.267	187.06
264.499	208.06
264.732	204.06
264.964	190.06
265.197	185.06
265.429	199.06
265.661	193.06
265.894	202.06
266.126	206.06
266.358	188.06
266.591	204.06
266.823	190.06
267.055	228.06
267.287	194.06
267.52	198.06
267.752	207.06
267.984	220.06
268.216	203.06
268.448	242.06
268.681	223.06
268.913	217.06
269.145	228.06
269.377	243.06
269.609	235.06
269.841	235.06
270.073	241.06
270.306	267.06
270.538	270.06
270.77	274.06
271.002	265.06
271.234	262.06
271.466	285.06
271.698	260.06
271.93	264.06
272.162	277.06
272.394	265.06
272.626	264.06
272.858	262.06
273.09	258.06
273.322	229.06
273.553	239.06
273.785	241.06
274.017	257.06
274.249	264.06
274.481	236.06
274.713	232.06
274.945	246.06
275.176	253.06
275.408	245.06
275.64	264.06
275.872	246.06
276.104	251.06
276.335	250.06
276.567	256.06
276.799	269.06
277.031	241.06
277.262	272.06
277.494	299.06
277.726	274.06
277.957	263.06
278.189	275.06
278.421	261.06
278.652	269.06
278.884	265.06
279.115	249.06
279.347	258.06
279.579	250.06
279.81	250.06
280.042	268.06
280.273	262.06
280.505	256.06
280.736	262.06
280.968	251.06
281.199	268.06
281.431	268.06
281.662	257.06
281.894	281.06
282.125	269.06
282.356	284.06
282.588	276.06
282.819	284.06
283.051	278.06
283.282	269.06
283.513	273.06
283.745	255.06
283.976	277.06
284.207	262.06
284.439	290.06
284.67	273.06
284.901	275.06
285.132	271.06
285.364	269.06
285.595	298.06
285.826	281.06
286.057	274.06
286.288	274.06
286.52	275.06
286.751	291.06
286.982	303.06
287.213	295.06
287.444	286.06
287.675	279.06
287.906	296.06
288.138	281.06
288.369	299.06
288.6	309.06
288.831	270.06
289.062	279.06
289.293	302.06
289.524	283.06
289.755	298.06
289.986	292.06
290.217	285.06
290.448	297.06
290.679	276.06
290.91	299.06
291.141	271.06
291.371	298.06
291.602	285.06
291.833	276.06
292.064	284.06
292.295	280.06
292.526	290.06
292.757	280.06
292.987	290.06
293.218	282.06
293.449	274.06
293.68	292.06
293.91	294.06
294.141	288.06
294.372	295.06
294.603	294.06
294.833	284.06
295.064	296.06
295.295	286.06
295.525	311.06
295.756	306.06
295.987	291.06
296.217	324.06
296.448	294.06
296.679	297.06
296.909	276.06
297.14	297.06
297.37	293.06
297.601	316.06
297.831	303.06
298.062	299.06
298.292	286.06
298.523	316.06
298.753	289.06
298.984	318.06
299.214	315.06
299.445	288.06
299.675	305.06
299.905	305.06
300.136	311.06
300.366	302.06
300.597	302.06
300.827	315.06
301.057	329.06
301.288	325.06
301.518	311.06
301.748	314.06
301.979	348.06
302.209	342.06
302.439	335.06
302.669	327.06
302.9	335.06
303.13	322.06
303.36	335.06
303.59	334.06
303.82	342.06
304.051	350.06
304.281	333.06
304.511	327.06
304.741	318.06
304.971	333.06
305.201	308.06
305.431	324.06
305.661	315.06
305.891	310.06
306.121	316.06
306.352	316.06
306.582	333.06
306.812	329.06
307.042	336.06
307.272	316.06
307.502	317.06
307.731	327.06
307.961	343.06
308.191	325.06
308.421	325.06
308.651	328.06
308.881	330.06
309.111	341.06
309.341	341.06
309.571	342.06
309.8	335.06
310.03	337.06
310.26	344.06
310.49	365.06
310.72	341.06
310.949	345.06
311.179	370.06
311.409	347.06
311.639	333.06
311.868	356.06
312.098	339.06
312.328	343.06
312.557	369.06
312.787	369.06
313.017	373.06
313.246	358.06
313.476	365.06
313.706	377.06
313.935	365.06
314.165	385.06
314.394	365.06
314.624	379.06
314.853	371.06
315.083	354.06
315.312	359.06
315.542	355.06
315.771	361.06
316.001	350.06
316.23	361.06
316.46	346.06
316.689	370.06
316.919	365.06
317.148	345.06
317.377	373.06
317.607	364.06
317.836	368.06
318.065	345.06
318.295	365.06
318.524	355.06
318.753	356.06
318.983	359.06
319.212	350.06
319.441	362.06
319.67	363.06
319.9	359.06
320.129	339.06
320.358	370.06
320.587	357.06
320.816	374.06
321.046	375.06
321.275	354.06
321.504	358.06
321.733	364.06
321.962	385.06
322.191	369.06
322.42	399.06
322.649	405.06
322.878	392.06
323.108	394.06
323.337	423.06
323.566	447.06
323.795	455.06
324.024	489.06
324.253	548.06
324.482	716.06
324.71	1053.06
324.939	1485.06
325.168	1286.06
325.397	715.06
325.626	534.06
325.855	464.06
326.084	433.06
326.313	447.06
326.542	459.06
326.77	475.06
326.999	542.06
327.228	675.06
327.457	992.06
327.686	1142.06
327.914	797.06
328.143	575.06
328.372	529.06
328.6	503.06
328.829	499.06
329.058	488.06
329.287	501.06
329.515	481.06
329.744	469.06
329.972	476.06
330.201	547.06
330.43	556.06
330.658	549.06
330.887	537.06
331.115	488.06
331.344	476.06
331.572	461.06
331.801	463.06
332.03	463.06
332.258	446.06
332.486	446.06
332.715	441.06
332.943	448.06
333.172	497.06
333.4	482.06
333.629	494.06
333.857	503.06
334.085	525.06
334.314	547.06
334.542	602.06
334.771	618.06
334.999	571.06
335.227	501.06
335.455	460.06
335.684	457.06
335.912	468.06
336.14	467.06
336.369	426.06
336.597	452.06
336.825	422.06
337.053	423.06
337.281	440.06
337.51	429.06
337.738	446.06
337.966	398.06
338.194	418.06
338.422	415.06
338.65	396.06
338.878	415.06
339.106	390.06
339.334	408.06
339.562	386.06
339.79	390.06
340.018	402.06
340.246	406.06
340.474	407.06
340.702	404.06
340.93	373.06
341.158	393.06
341.386	383.06
341.614	386.06
341.842	402.06
342.07	403.06
342.298	410.06
342.526	398.06
342.754	381.06
342.981	386.06
343.209	394.06
343.437	418.06
343.665	425.06
343.893	438.06
344.12	437.06
344.348	429.06
344.576	419.06
344.804	418.06
345.031	393.06
345.259	400.06
345.487	408.06
345.714	391.06
345.942	393.06
346.17	373.06
346.397	389.06
346.625	383.06
346.853	366.06
347.08	377.06
347.308	389.06
347.535	390.06
347.763	378.06
347.99	380.06
348.218	376.06
348.445	385.06
348.673	384.06
348.9	396.06
349.128	378.06
349.355	361.06
349.583	373.06
349.81	365.06
350.037	373.06
350.265	373.06
350.492	349.06
350.72	378.06
350.947	387.06
351.174	381.06
351.402	374.06
351.629	374.06
351.856	378.06
352.083	365.06
352.311	381.06
352.538	373.06
352.765	364.06
352.992	382.06
353.22	373.06
353.447	356.06
353.674	369.06
353.901	357.06
354.128	365.06
354.355	356.06
354.583	370.06
354.81	379.06
355.037	335.06
355.264	347.06
355.491	364.06
355.718	352.06
355.945	345.06
356.172	358.06
356.399	372.06
356.626	368.06
356.853	361.06
357.08	372.06
357.307	346.06
357.534	366.06
357.761	363.06
357.988	360.06
358.215	357.06
358.441	363.06
358.668	376.06
358.895	357.06
359.122	351.06
359.349	362.06
359.576	388.06
359.802	365.06
360.029	373.06
360.256	397.06
360.483	409.06
360.709	387.06
360.936	358.06
361.163	362.06
361.39	370.06
361.616	361.06
361.843	379.06
362.07	372.06
362.296	385.06
362.523	364.06
362.749	367.06
362.976	353.06
363.203	361.06
363.429	380.06
363.656	361.06
363.882	366.06
364.109	371.06
364.335	350.06
364.562	341.06
364.788	361.06
365.015	377.06
365.241	337.06
365.468	362.06
365.694	371.06
365.92	346.06
366.147	358.06
366.373	362.06
366.599	342.06
366.826	344.06
367.052	356.06
367.278	367.06
367.505	364.06
367.731	351.06
367.957	359.06
368.184	354.06
368.41	359.06
368.636	349.06
368.862	373.06
369.089	377.06
369.315	362.06
369.541	367.06
369.767	353.06
369.993	365.06
370.219	351.06
370.445	351.06
370.672	375.06
370.898	364.06
371.124	375.06
371.35	363.06
371.576	381.06
371.802	350.06
372.028	349.06
372.254	364.06
372.48	384.06
372.706	378.06
372.932	353.06
373.158	375.06
373.384	378.06
373.61	354.06
373.835	353.06
374.061	354.06
374.287	381.06
374.513	377.06
374.739	374.06
374.965	389.06
375.191	379.06
375.416	401.06
375.642	363.06
375.868	373.06
376.094	377.06
376.319	351.06
376.545	352.06
376.771	353.06
376.997	361.06
377.222	356.06
377.448	348.06
377.674	358.06
377.899	360.06
378.125	352.06
378.35	369.06
378.576	369.06
378.802	357.06
379.027	361.06
379.253	360.06
379.478	348.06
379.704	371.06
379.929	367.06
380.155	353.06
380.38	365.06
380.606	372.06
380.831	371.06
381.057	366.06
381.282	364.06
381.507	357.06
381.733	376.06
381.958	362.06
382.184	377.06
382.409	365.06
382.634	382.06
382.86	357.06
383.085	370.06
383.31	382.06
383.535	391.06
383.761	395.06
383.986	377.06
384.211	377.06
384.436	394.06
384.662	397.06
384.887	409.06
385.112	406.06
385.337	406.06
385.562	402.06
385.787	404.06
386.013	410.06
386.238	435.06
386.463	397.06
386.688	410.06
386.913	414.06
387.138	398.06
387.363	409.06
387.588	404.06
387.813	389.06
388.038	400.06
388.263	419.06
388.488	398.06
388.713	417.06
388.938	405.06
389.163	418.06
389.387	392.06
389.612	414.06
389.837	415.06
390.062	421.06
390.287	418.06
390.512	394.06
390.736	414.06
390.961	407.06
391.186	429.06
391.411	417.06
391.636	429.06
391.86	454.06
392.085	463.06
392.31	429.06
392.534	427.06
392.759	435.06
392.984	425.06
393.208	441.06
393.433	435.06
393.658	417.06
393.882	421.06
394.107	426.06
394.331	424.06
394.556	427.06
394.78	420.06
395.005	410.06
395.229	423.06
395.454	431.06
395.678	433.06
395.903	443.06
396.127	434.06
396.352	447.06
396.576	426.06
396.801	403.06
397.025	413.06
397.249	436.06
397.474	439.06
397.698	447.06
397.922	458.06
398.147	455.06
398.371	468.06
398.595	470.06
398.82	462.06
399.044	521.06
399.268	518.06
399.492	578.06
399.717	626.06
399.941	652.06
400.165	634.06
400.389	581.06
400.613	551.06
400.837	521.06
401.062	506.06
401.286	491.06
401.51	475.06
401.734	480.06
401.958	492.06
402.182	512.06
402.406	510.06
402.63	517.06
402.854	493.06
403.078	500.06
403.302	540.06
403.526	539.06
403.75	527.06
403.974	548.06
404.198	516.06
404.422	539.06
404.645	532.06
404.869	550.06
405.093	577.06
405.317	568.06
405.541	591.06
405.765	565.06
405.988	532.06
406.212	549.06
406.436	536.06
406.66	556.06
406.883	569.06
407.107	565.06
407.331	591.06
407.555	645.06
407.778	635.06
408.002	594.06
408.226	583.06
408.449	557.06
408.673	527.06
408.896	559.06
409.12	592.06
409.344	553.06
409.567	525.06
409.791	520.06
410.014	527.06
410.238	521.06
410.461	497.06
410.685	510.06
410.908	513.06
411.132	535.06
411.355	563.06
411.578	534.06
411.802	505.06
412.025	520.06
412.249	536.06
412.472	540.06
412.695	553.06
412.919	542.06
413.142	519.06
413.365	501.06
413.589	515.06
413.812	463.06
414.035	477.06
414.258	473.06
414.482	464.06
414.705	479.06
414.928	475.06
415.151	478.06
415.374	476.06
415.597	471.06
415.821	472.06
416.044	477.06
416.267	477.06
416.49	458.06
416.713	459.06
416.936	484.06
417.159	473.06
417.382	476.06
417.605	479.06
417.828	481.06
418.051	478.06
418.274	485.06
418.497	478.06
418.72	493.06
418.943	466.06
419.166	528.06
419.389	528.06
419.611	519.06
419.834	506.06
420.057	502.06
420.28	521.06
420.503	502.06
420.726	494.06
420.948	497.06
421.171	521.06
421.394	525.06
421.617	506.06
421.839	483.06
422.062	486.06
422.285	472.06
422.507	539.06
422.73	587.06
422.953	557.06
423.175	508.06
423.398	514.06
423.621	513.06
423.843	530.06
424.066	517.06
424.288	534.06
424.511	521.06
424.733	561.06
424.956	618.06
425.178	583.06
425.401	585.06
425.623	597.06
425.846	525.06
426.068	491.06
426.291	496.06
426.513	505.06
426.735	500.06
426.958	529.06
427.18	556.06
427.402	645.06
427.625	698.06
427.847	623.06
428.069	569.06
428.292	507.06
428.514	482.06
428.736	480.06
428.958	453.06
429.181	463.06
429.403	446.06
429.625	464.06
429.847	477.06
430.069	489.06
430.292	513.06
430.514	463.06
430.736	440.06
430.958	435.06
431.18	441.06
431.402	444.06
431.624	440.06
431.846	441.06
432.068	451.06
432.29	445.06
432.512	417.06
432.734	426.06
432.956	449.06
433.178	443.06
433.4	449.06
433.622	427.06
433.844	440.06
434.066	446.06
434.287	459.06
434.509	461.06
434.731	450.06
434.953	474.06
435.175	476.06
435.397	499.06
435.618	482.06
435.84	517.06
436.062	558.06
436.284	575.06
436.505	534.06
436.727	473.06
436.949	464.06
437.17	446.06
437.392	446.06
437.614	469.06
437.835	474.06
438.057	503.06
438.278	573.06
438.5	575.06
438.721	616.06
438.943	616.06
439.165	511.06
439.386	470.06
439.608	481.06
439.829	473.06
440.05	512.06
440.272	532.06
440.493	475.06
440.715	487.06
440.936	478.06
441.158	470.06
441.379	463.06
441.6	497.06
441.822	513.06
442.043	541.06
442.264	558.06
442.486	602.06
442.707	521.06
442.928	495.06
443.149	502.06
443.371	539.06
443.592	539.06
443.813	598.06
444.034	628.06
444.255	578.06
444.476	530.06
444.698	534.06
444.919	547.06
445.14	615.06
445.361	558.06
445.582	534.06
445.803	568.06
446.024	621.06
446.245	596.06
446.466	548.06
446.687	497.06
446.908	470.06
447.129	459.06
447.35	436.06
447.571	420.06
447.792	426.06
448.013	433.06
448.234	437.06
448.455	466.06
448.675	532.06
448.896	594.06
449.117	549.06
449.338	516.06
449.559	569.06
449.779	649.06
450	511.06
450.221	441.06
450.442	415.06
450.662	400.06
450.883	418.06
451.104	443.06
451.324	408.06
451.545	404.06
451.766	395.06
451.986	404.06
452.207	393.06
452.428	366.06
452.648	405.06
452.869	414.06
453.089	397.06
453.31	428.06
453.53	410.06
453.751	391.06
453.971	392.06
454.192	401.06
454.412	380.06
454.633	416.06
454.853	393.06
455.073	379.06
455.294	405.06
455.514	427.06
455.734	429.06
455.955	407.06
456.175	389.06
456.395	387.06
456.616	391.06
456.836	381.06
457.056	378.06
457.276	379.06
457.497	382.06
457.717	375.06
457.937	394.06
458.157	402.06
458.377	389.06
458.598	376.06
458.818	427.06
459.038	469.06
459.258	485.06
459.478	461.06
459.698	453.06
459.918	435.06
460.138	438.06
460.358	467.06
460.578	472.06
460.798	463.06
461.018	486.06
461.238	449.06
461.458	456.06
461.678	459.06
461.898	470.06
462.118	483.06
462.338	486.06
462.558	493.06
462.777	514.06
462.997	539.06
463.217	567.06
463.437	569.06
463.657	527.06
463.876	519.06
464.096	516.06
464.316	505.06
464.536	519.06
464.755	517.06
464.975	498.06
465.195	510.06
465.414	521.06
465.634	465.06
465.854	452.06
466.073	435.06
466.293	438.06
466.512	420.06
466.732	423.06
466.951	416.06
467.171	416.06
467.391	422.06
467.61	418.06
467.829	426.06
468.049	436.06
468.268	443.06
468.488	417.06
468.707	414.06
468.927	400.06
469.146	408.06
469.365	414.06
469.585	421.06
469.804	427.06
470.023	426.06
470.243	426.06
470.462	418.06
470.681	439.06
470.901	449.06
471.12	424.06
471.339	444.06
471.558	418.06
471.777	393.06
471.997	430.06
472.216	439.06
472.435	475.06
472.654	468.06
472.873	446.06
473.092	419.06
473.311	409.06
473.53	439.06
473.749	418.06
473.968	431.06
474.187	495.06
474.406	492.06
474.625	434.06
474.844	426.06
475.063	415.06
475.282	407.06
475.501	416.06
475.72	437.06
475.939	430.06
476.158	415.06
476.377	407.06
476.596	398.06
476.814	407.06
477.033	448.06
477.252	443.06
477.471	443.06
477.69	431.06
477.908	436.06
478.127	470.06
478.346	456.06
478.564	458.06
478.783	466.06
479.002	461.06
479.22	510.06
479.439	486.06
479.658	487.06
479.876	501.06
480.095	492.06
480.313	548.06
480.532	544.06
480.751	517.06
480.969	542.06
481.188	602.06
481.406	638.06
481.624	569.06
481.843	521.06
482.061	501.06
482.28	490.06
482.498	469.06
482.717	470.06
482.935	485.06
483.153	461.06
483.372	484.06
483.59	472.06
483.808	465.06
484.027	458.06
484.245	478.06
484.463	464.06
484.681	485.06
484.9	460.06
485.118	491.06
485.336	478.06
485.554	485.06
485.772	483.06
485.99	510.06
486.209	481.06
486.427	493.06
486.645	484.06
486.863	507.06
487.081	497.06
487.299	516.06
487.517	503.06
487.735	511.06
487.953	493.06
488.171	495.06
488.389	492.06
488.607	523.06
488.825	483.06
489.043	477.06
489.261	511.06
489.479	485.06
489.696	510.06
489.914	506.06
490.132	517.06
490.35	536.06
490.568	528.06
490.786	541.06
491.003	524.06
491.221	549.06
491.439	535.06
491.657	572.06
491.874	543.06
492.092	570.06
492.31	560.06
492.527	562.06
492.745	580.06
492.963	588.06
493.18	590.06
493.398	599.06
493.615	607.06
493.833	582.06
494.05	587.06
494.268	572.06
494.485	586.06
494.703	577.06
494.92	593.06
495.138	590.06
495.355	580.06
495.573	577.06
495.79	549.06
496.008	577.06
496.225	585.06
496.442	583.06
496.66	583.06
496.877	578.06
497.094	579.06
497.312	592.06
497.529	605.06
497.746	614.06
497.963	611.06
498.181	618.06
498.398	662.06
498.615	686.06
498.832	690.06
499.049	704.06
499.267	756.06
499.484	823.06
499.701	873.06
499.918	913.06
500.135	1004.06
500.352	1079.06
500.569	1117.06
500.786	1093.06
501.003	1071.06
501.22	1007.06
501.437	919.06
501.654	870.06
501.871	843.06
