Data from 1984.PennyLincolnUp.Lamp.En5.5.200Scan.071819.P1_HRD10591_16-57-39-970.txt Node
Date: Thu Jul 18 16:57:39 EDT 2019
User: cochatt
Spectrometer: HR+D1059
Trigger mode: 1
Integration Time (sec): 1.000000E-1
Scans to average: 1
Electric dark correction enabled: true
Nonlinearity correction enabled: false
Boxcar width: 0
XAxis mode: Wavelengths
Number of Pixels in Spectrum: 2048
>>>>>Begin Spectral Data<<<<<
223.165	-8.12
223.4	-8.12
223.635	-8.12
223.869	-20.12
224.104	-26.12
224.338	-23.12
224.573	-16.12
224.808	-8.12
225.042	2.88
225.277	-0.12
225.511	11.88
225.746	-0.12
225.98	3.88
226.215	17.88
226.449	1.88
226.683	10.88
226.918	26.88
227.152	25.88
227.387	17.88
227.621	43.88
227.856	44.88
228.09	44.88
228.324	45.88
228.559	40.88
228.793	75.88
229.027	83.88
229.262	89.88
229.496	87.88
229.73	101.88
229.964	125.88
230.199	105.88
230.433	99.88
230.667	89.88
230.901	93.88
231.136	111.88
231.37	88.88
231.604	98.88
231.838	109.88
232.072	107.88
232.306	100.88
232.541	106.88
232.775	109.88
233.009	104.88
233.243	94.88
233.477	113.88
233.711	99.88
233.945	101.88
234.179	111.88
234.413	100.88
234.647	107.88
234.881	115.88
235.115	106.88
235.349	105.88
235.583	117.88
235.817	115.88
236.051	97.88
236.285	102.88
236.519	104.88
236.753	106.88
236.987	112.88
237.221	133.88
237.455	145.88
237.689	147.88
237.922	107.88
238.156	119.88
238.39	113.88
238.624	115.88
238.858	116.88
239.091	103.88
239.325	115.88
239.559	121.88
239.793	119.88
240.027	113.88
240.26	131.88
240.494	133.88
240.728	135.88
240.961	133.88
241.195	126.88
241.429	127.88
241.662	128.88
241.896	134.88
242.13	109.88
242.363	106.88
242.597	112.88
242.83	125.88
243.064	120.88
243.298	131.88
243.531	128.88
243.765	127.88
243.998	130.88
244.232	129.88
244.465	126.88
244.699	137.88
244.932	135.88
245.166	154.88
245.399	149.88
245.633	133.88
245.866	147.88
246.099	130.88
246.333	136.88
246.566	131.88
246.8	132.88
247.033	153.88
247.266	146.88
247.5	149.88
247.733	163.88
247.966	138.88
248.2	136.88
248.433	167.88
248.666	141.88
248.899	142.88
249.133	147.88
249.366	174.88
249.599	170.88
249.832	161.88
250.066	153.88
250.299	174.88
250.532	162.88
250.765	143.88
250.998	164.88
251.231	191.88
251.465	161.88
251.698	167.88
251.931	185.88
252.164	163.88
252.397	148.88
252.63	179.88
252.863	178.88
253.096	170.88
253.329	189.88
253.562	189.88
253.795	182.88
254.028	180.88
254.261	177.88
254.494	192.88
254.727	200.88
254.96	205.88
255.193	201.88
255.426	205.88
255.659	181.88
255.892	204.88
256.124	173.88
256.357	181.88
256.59	177.88
256.823	177.88
257.056	174.88
257.289	175.88
257.521	176.88
257.754	187.88
257.987	168.88
258.22	188.88
258.452	177.88
258.685	176.88
258.918	177.88
259.151	171.88
259.383	189.88
259.616	186.88
259.849	203.88
260.081	190.88
260.314	213.88
260.547	209.88
260.779	205.88
261.012	197.88
261.244	199.88
261.477	196.88
261.71	194.88
261.942	202.88
262.175	201.88
262.407	196.88
262.64	176.88
262.872	175.88
263.105	181.88
263.337	187.88
263.57	183.88
263.802	193.88
264.035	206.88
264.267	208.88
264.499	194.88
264.732	180.88
264.964	198.88
265.197	191.88
265.429	197.88
265.661	188.88
265.894	197.88
266.126	211.88
266.358	204.88
266.591	202.88
266.823	203.88
267.055	191.88
267.287	187.88
267.52	219.88
267.752	205.88
267.984	214.88
268.216	221.88
268.448	206.88
268.681	193.88
268.913	221.88
269.145	235.88
269.377	240.88
269.609	228.88
269.841	225.88
270.073	226.88
270.306	266.88
270.538	256.88
270.77	258.88
271.002	249.88
271.234	264.88
271.466	245.88
271.698	248.88
271.93	256.88
272.162	246.88
272.394	254.88
272.626	252.88
272.858	240.88
273.09	239.88
273.322	241.88
273.553	234.88
273.785	228.88
274.017	222.88
274.249	219.88
274.481	233.88
274.713	241.88
274.945	239.88
275.176	238.88
275.408	221.88
275.64	226.88
275.872	255.88
276.104	226.88
276.335	243.88
276.567	230.88
276.799	246.88
277.031	253.88
277.262	248.88
277.494	257.88
277.726	251.88
277.957	236.88
278.189	234.88
278.421	252.88
278.652	258.88
278.884	239.88
279.115	243.88
279.347	250.88
279.579	240.88
279.81	242.88
280.042	260.88
280.273	261.88
280.505	240.88
280.736	236.88
280.968	227.88
281.199	266.88
281.431	253.88
281.662	260.88
281.894	261.88
282.125	256.88
282.356	265.88
282.588	283.88
282.819	269.88
283.051	252.88
283.282	266.88
283.513	263.88
283.745	269.88
283.976	256.88
284.207	278.88
284.439	259.88
284.67	259.88
284.901	267.88
285.132	245.88
285.364	252.88
285.595	265.88
285.826	246.88
286.057	259.88
286.288	270.88
286.52	269.88
286.751	249.88
286.982	267.88
287.213	283.88
287.444	269.88
287.675	276.88
287.906	258.88
288.138	267.88
288.369	304.88
288.6	278.88
288.831	258.88
289.062	283.88
289.293	265.88
289.524	279.88
289.755	270.88
289.986	281.88
290.217	266.88
290.448	263.88
290.679	265.88
290.91	269.88
291.141	285.88
291.371	264.88
291.602	268.88
291.833	269.88
292.064	276.88
292.295	276.88
292.526	274.88
292.757	280.88
292.987	278.88
293.218	280.88
293.449	273.88
293.68	276.88
293.91	287.88
294.141	280.88
294.372	279.88
294.603	256.88
294.833	273.88
295.064	269.88
295.295	273.88
295.525	269.88
295.756	292.88
295.987	285.88
296.217	287.88
296.448	314.88
296.679	293.88
296.909	283.88
297.14	275.88
297.37	281.88
297.601	289.88
297.831	295.88
298.062	304.88
298.292	285.88
298.523	300.88
298.753	300.88
298.984	288.88
299.214	287.88
299.445	281.88
299.675	296.88
299.905	297.88
300.136	293.88
300.366	317.88
300.597	306.88
300.827	313.88
301.057	320.88
301.288	323.88
301.518	319.88
301.748	296.88
301.979	308.88
302.209	322.88
302.439	300.88
302.669	308.88
302.9	339.88
303.13	309.88
303.36	313.88
303.59	303.88
303.82	303.88
304.051	307.88
304.281	322.88
304.511	312.88
304.741	289.88
304.971	301.88
305.201	292.88
305.431	295.88
305.661	319.88
305.891	303.88
306.121	303.88
306.352	281.88
306.582	292.88
306.812	310.88
307.042	319.88
307.272	296.88
307.502	300.88
307.731	317.88
307.961	310.88
308.191	315.88
308.421	324.88
308.651	314.88
308.881	300.88
309.111	307.88
309.341	311.88
309.571	317.88
309.8	312.88
310.03	314.88
310.26	320.88
310.49	309.88
310.72	332.88
310.949	343.88
311.179	323.88
311.409	323.88
311.639	316.88
311.868	303.88
312.098	328.88
312.328	349.88
312.557	362.88
312.787	357.88
313.017	344.88
313.246	343.88
313.476	323.88
313.706	324.88
313.935	334.88
314.165	361.88
314.394	342.88
314.624	339.88
314.853	324.88
315.083	329.88
315.312	335.88
315.542	316.88
315.771	344.88
316.001	348.88
316.23	341.88
316.46	309.88
316.689	336.88
316.919	365.88
317.148	328.88
317.377	342.88
317.607	345.88
317.836	337.88
318.065	335.88
318.295	324.88
318.524	317.88
318.753	352.88
318.983	339.88
319.212	352.88
319.441	331.88
319.67	345.88
319.9	359.88
320.129	336.88
320.358	337.88
320.587	332.88
320.816	326.88
321.046	332.88
321.275	355.88
321.504	354.88
321.733	351.88
321.962	355.88
322.191	365.88
322.42	340.88
322.649	358.88
322.878	372.88
323.108	355.88
323.337	356.88
323.566	378.88
323.795	390.88
324.024	413.88
324.253	481.88
324.482	611.88
324.71	858.88
324.939	1205.88
325.168	1043.88
325.397	609.88
325.626	474.88
325.855	426.88
326.084	405.88
326.313	403.88
326.542	404.88
326.77	442.88
326.999	486.88
327.228	553.88
327.457	794.88
327.686	917.88
327.914	671.88
328.143	511.88
328.372	453.88
328.6	414.88
328.829	403.88
329.058	393.88
329.287	426.88
329.515	423.88
329.744	411.88
329.972	385.88
330.201	396.88
330.43	412.88
330.658	406.88
330.887	440.88
331.115	417.88
331.344	407.88
331.572	421.88
331.801	410.88
332.03	419.88
332.258	403.88
332.486	412.88
332.715	401.88
332.943	425.88
333.172	427.88
333.4	439.88
333.629	451.88
333.857	461.88
334.085	449.88
334.314	447.88
334.542	448.88
334.771	431.88
334.999	401.88
335.227	426.88
335.455	423.88
335.684	439.88
335.912	422.88
336.14	407.88
336.369	396.88
336.597	417.88
336.825	409.88
337.053	394.88
337.281	408.88
337.51	414.88
337.738	405.88
337.966	388.88
338.194	398.88
338.422	357.88
338.65	401.88
338.878	387.88
339.106	405.88
339.334	389.88
339.562	381.88
339.79	371.88
340.018	379.88
340.246	372.88
340.474	371.88
340.702	375.88
340.93	385.88
341.158	383.88
341.386	368.88
341.614	371.88
341.842	378.88
342.07	376.88
342.298	372.88
342.526	352.88
342.754	362.88
342.981	359.88
343.209	373.88
343.437	378.88
343.665	391.88
343.893	408.88
344.12	413.88
344.348	391.88
344.576	375.88
344.804	387.88
345.031	383.88
345.259	368.88
345.487	379.88
345.714	375.88
345.942	346.88
346.17	363.88
346.397	356.88
346.625	351.88
346.853	351.88
347.08	344.88
347.308	329.88
347.535	378.88
347.763	355.88
347.99	359.88
348.218	359.88
348.445	352.88
348.673	361.88
348.9	353.88
349.128	361.88
349.355	359.88
349.583	351.88
349.81	356.88
350.037	353.88
350.265	349.88
350.492	340.88
350.72	337.88
350.947	357.88
351.174	351.88
351.402	349.88
351.629	338.88
351.856	362.88
352.083	356.88
352.311	362.88
352.538	355.88
352.765	351.88
352.992	344.88
353.22	335.88
353.447	341.88
353.674	337.88
353.901	362.88
354.128	335.88
354.355	329.88
354.583	355.88
354.81	348.88
355.037	330.88
355.264	333.88
355.491	342.88
355.718	330.88
355.945	354.88
356.172	344.88
356.399	329.88
356.626	342.88
356.853	317.88
357.08	360.88
357.307	345.88
357.534	344.88
357.761	337.88
357.988	347.88
358.215	335.88
358.441	329.88
358.668	350.88
358.895	349.88
359.122	318.88
359.349	363.88
359.576	346.88
359.802	368.88
360.029	363.88
360.256	373.88
360.483	349.88
360.709	359.88
360.936	349.88
361.163	333.88
361.39	332.88
361.616	363.88
361.843	352.88
362.07	352.88
362.296	345.88
362.523	347.88
362.749	344.88
362.976	312.88
363.203	324.88
363.429	327.88
363.656	328.88
363.882	332.88
364.109	336.88
364.335	335.88
364.562	324.88
364.788	347.88
365.015	328.88
365.241	343.88
365.468	328.88
365.694	343.88
365.92	329.88
366.147	320.88
366.373	332.88
366.599	339.88
366.826	335.88
367.052	342.88
367.278	333.88
367.505	338.88
367.731	343.88
367.957	346.88
368.184	352.88
368.41	357.88
368.636	341.88
368.862	343.88
369.089	340.88
369.315	326.88
369.541	344.88
369.767	327.88
369.993	337.88
370.219	329.88
370.445	344.88
370.672	341.88
370.898	357.88
371.124	341.88
371.35	352.88
371.576	348.88
371.802	344.88
372.028	346.88
372.254	347.88
372.48	345.88
372.706	353.88
372.932	366.88
373.158	369.88
373.384	373.88
373.61	363.88
373.835	365.88
374.061	343.88
374.287	354.88
374.513	362.88
374.739	377.88
374.965	377.88
375.191	360.88
375.416	377.88
375.642	369.88
375.868	367.88
376.094	357.88
376.319	361.88
376.545	379.88
376.771	337.88
376.997	359.88
377.222	342.88
377.448	351.88
377.674	361.88
377.899	328.88
378.125	368.88
378.35	336.88
378.576	327.88
378.802	331.88
379.027	327.88
379.253	334.88
379.478	349.88
379.704	348.88
379.929	340.88
380.155	333.88
380.38	343.88
380.606	346.88
380.831	337.88
381.057	357.88
381.282	338.88
381.507	333.88
381.733	359.88
381.958	351.88
382.184	372.88
382.409	369.88
382.634	350.88
382.86	359.88
383.085	373.88
383.31	373.88
383.535	368.88
383.761	378.88
383.986	362.88
384.211	379.88
384.436	379.88
384.662	381.88
384.887	376.88
385.112	393.88
385.337	381.88
385.562	379.88
385.787	391.88
386.013	400.88
386.238	380.88
386.463	395.88
386.688	385.88
386.913	376.88
387.138	379.88
387.363	388.88
387.588	381.88
387.813	399.88
388.038	385.88
388.263	392.88
388.488	397.88
388.713	398.88
388.938	381.88
389.163	365.88
389.387	383.88
389.612	396.88
389.837	395.88
390.062	379.88
390.287	365.88
390.512	394.88
390.736	368.88
390.961	399.88
391.186	398.88
391.411	391.88
391.636	379.88
391.86	393.88
392.085	418.88
392.31	416.88
392.534	410.88
392.759	424.88
392.984	389.88
393.208	401.88
393.433	430.88
393.658	407.88
393.882	401.88
394.107	403.88
394.331	412.88
394.556	405.88
394.78	425.88
395.005	407.88
395.229	432.88
395.454	404.88
395.678	406.88
395.903	452.88
396.127	432.88
396.352	423.88
396.576	419.88
396.801	423.88
397.025	408.88
397.249	405.88
397.474	415.88
397.698	415.88
397.922	427.88
398.147	426.88
398.371	443.88
398.595	460.88
398.82	434.88
399.044	485.88
399.268	512.88
399.492	573.88
399.717	615.88
399.941	637.88
400.165	594.88
400.389	574.88
400.613	534.88
400.837	501.88
401.062	479.88
401.286	475.88
401.51	443.88
401.734	459.88
401.958	466.88
402.182	456.88
402.406	456.88
402.63	480.88
402.854	468.88
403.078	470.88
403.302	488.88
403.526	501.88
403.75	488.88
403.974	511.88
404.198	496.88
404.422	488.88
404.645	507.88
404.869	488.88
405.093	494.88
405.317	496.88
405.541	531.88
405.765	517.88
405.988	503.88
406.212	497.88
406.436	518.88
406.66	537.88
406.883	503.88
407.107	545.88
407.331	570.88
407.555	619.88
407.778	607.88
408.002	577.88
408.226	550.88
408.449	521.88
408.673	528.88
408.896	526.88
409.12	563.88
409.344	541.88
409.567	513.88
409.791	501.88
410.014	475.88
410.238	493.88
410.461	475.88
410.685	508.88
410.908	486.88
411.132	508.88
411.355	547.88
411.578	515.88
411.802	471.88
412.025	449.88
412.249	460.88
412.472	469.88
412.695	474.88
412.919	470.88
413.142	465.88
413.365	454.88
413.589	445.88
413.812	443.88
414.035	464.88
414.258	443.88
414.482	441.88
414.705	433.88
414.928	429.88
415.151	454.88
415.374	454.88
415.597	456.88
415.821	428.88
416.044	463.88
416.267	443.88
416.49	428.88
416.713	439.88
416.936	433.88
417.159	440.88
417.382	425.88
417.605	450.88
417.828	436.88
418.051	475.88
418.274	462.88
418.497	434.88
418.72	471.88
418.943	459.88
419.166	469.88
419.389	490.88
419.611	482.88
419.834	482.88
420.057	461.88
420.28	467.88
420.503	460.88
420.726	451.88
420.948	453.88
421.171	465.88
421.394	508.88
421.617	460.88
421.839	459.88
422.062	445.88
422.285	470.88
422.507	491.88
422.73	525.88
422.953	513.88
423.175	482.88
423.398	495.88
423.621	492.88
423.843	509.88
424.066	491.88
424.288	502.88
424.511	479.88
424.733	532.88
424.956	557.88
425.178	543.88
425.401	538.88
425.623	543.88
425.846	498.88
426.068	483.88
426.291	472.88
426.513	481.88
426.735	477.88
426.958	474.88
427.18	498.88
427.402	589.88
427.625	611.88
427.847	536.88
428.069	496.88
428.292	477.88
428.514	432.88
428.736	441.88
428.958	459.88
429.181	432.88
429.403	408.88
429.625	421.88
429.847	444.88
430.069	467.88
430.292	473.88
430.514	426.88
430.736	421.88
430.958	427.88
431.18	424.88
431.402	427.88
431.624	409.88
431.846	417.88
432.068	415.88
432.29	416.88
432.512	428.88
432.734	417.88
432.956	415.88
433.178	413.88
433.4	417.88
433.622	410.88
433.844	426.88
434.066	421.88
434.287	394.88
434.509	425.88
434.731	427.88
434.953	456.88
435.175	461.88
435.397	484.88
435.618	452.88
435.84	475.88
436.062	545.88
436.284	545.88
436.505	475.88
436.727	437.88
436.949	433.88
437.17	434.88
437.392	429.88
437.614	437.88
437.835	427.88
438.057	493.88
438.278	536.88
438.5	529.88
438.721	568.88
438.943	581.88
439.165	468.88
439.386	459.88
439.608	459.88
439.829	429.88
440.05	467.88
440.272	488.88
440.493	476.88
440.715	441.88
440.936	455.88
441.158	437.88
441.379	447.88
441.6	458.88
441.822	457.88
442.043	489.88
442.264	544.88
442.486	533.88
442.707	509.88
442.928	470.88
443.149	484.88
443.371	469.88
443.592	492.88
443.813	565.88
444.034	612.88
444.255	510.88
444.476	515.88
444.698	519.88
444.919	520.88
445.14	632.88
445.361	541.88
445.582	527.88
445.803	515.88
446.024	566.88
446.245	549.88
446.466	507.88
446.687	471.88
446.908	464.88
447.129	443.88
447.35	421.88
447.571	410.88
447.792	400.88
448.013	425.88
448.234	420.88
448.455	446.88
448.675	515.88
448.896	550.88
449.117	485.88
449.338	476.88
449.559	546.88
449.779	579.88
450	474.88
450.221	411.88
450.442	419.88
450.662	405.88
450.883	391.88
451.104	418.88
451.324	404.88
451.545	391.88
451.766	395.88
451.986	395.88
452.207	371.88
452.428	380.88
452.648	384.88
452.869	380.88
453.089	383.88
453.31	383.88
453.53	362.88
453.751	381.88
453.971	367.88
454.192	379.88
454.412	378.88
454.633	374.88
454.853	377.88
455.073	371.88
455.294	386.88
455.514	404.88
455.734	398.88
455.955	353.88
456.175	359.88
456.395	349.88
456.616	354.88
456.836	364.88
457.056	366.88
457.276	343.88
457.497	342.88
457.717	374.88
457.937	377.88
458.157	359.88
458.377	350.88
458.598	380.88
458.818	413.88
459.038	440.88
459.258	445.88
459.478	444.88
459.698	444.88
459.918	419.88
460.138	413.88
460.358	460.88
460.578	414.88
460.798	442.88
461.018	461.88
461.238	462.88
461.458	465.88
461.678	456.88
461.898	463.88
462.118	467.88
462.338	469.88
462.558	465.88
462.777	482.88
462.997	523.88
463.217	543.88
463.437	551.88
463.657	516.88
463.876	503.88
464.096	496.88
464.316	481.88
464.536	501.88
464.755	476.88
464.975	489.88
465.195	487.88
465.414	475.88
465.634	466.88
465.854	455.88
466.073	433.88
466.293	411.88
466.512	397.88
466.732	369.88
466.951	411.88
467.171	397.88
467.391	390.88
467.61	408.88
467.829	412.88
468.049	384.88
468.268	377.88
468.488	371.88
468.707	380.88
468.927	394.88
469.146	397.88
469.365	380.88
469.585	363.88
469.804	391.88
470.023	412.88
470.243	421.88
470.462	421.88
470.681	415.88
470.901	413.88
471.12	404.88
471.339	408.88
471.558	376.88
471.777	399.88
471.997	392.88
472.216	397.88
472.435	401.88
472.654	397.88
472.873	384.88
473.092	381.88
473.311	390.88
473.53	373.88
473.749	410.88
473.968	394.88
474.187	461.88
474.406	453.88
474.625	395.88
474.844	399.88
475.063	398.88
475.282	382.88
475.501	407.88
475.72	391.88
475.939	396.88
476.158	420.88
476.377	400.88
476.596	408.88
476.814	391.88
477.033	392.88
477.252	413.88
477.471	400.88
477.69	433.88
477.908	415.88
478.127	447.88
478.346	448.88
478.564	448.88
478.783	458.88
479.002	453.88
479.22	455.88
479.439	435.88
479.658	466.88
479.876	469.88
480.095	467.88
480.313	490.88
480.532	490.88
480.751	475.88
480.969	487.88
481.188	499.88
481.406	477.88
481.624	465.88
481.843	455.88
482.061	456.88
482.28	470.88
482.498	438.88
482.717	444.88
482.935	445.88
483.153	446.88
483.372	442.88
483.59	453.88
483.808	436.88
484.027	460.88
484.245	435.88
484.463	441.88
484.681	444.88
484.9	454.88
485.118	465.88
485.336	458.88
485.554	450.88
485.772	448.88
485.99	455.88
486.209	449.88
486.427	448.88
486.645	470.88
486.863	466.88
487.081	480.88
487.299	480.88
487.517	484.88
487.735	467.88
487.953	457.88
488.171	459.88
488.389	488.88
488.607	480.88
488.825	461.88
489.043	469.88
489.261	457.88
489.479	473.88
489.696	466.88
489.914	476.88
490.132	464.88
490.35	484.88
490.568	477.88
490.786	480.88
491.003	489.88
491.221	499.88
491.439	510.88
491.657	491.88
491.874	481.88
492.092	479.88
492.31	484.88
492.527	520.88
492.745	508.88
492.963	527.88
493.18	515.88
493.398	533.88
493.615	514.88
493.833	530.88
494.05	533.88
494.268	534.88
494.485	537.88
494.703	525.88
494.92	502.88
495.138	543.88
495.355	518.88
495.573	524.88
495.79	535.88
496.008	541.88
496.225	579.88
496.442	540.88
496.66	542.88
496.877	537.88
497.094	563.88
497.312	547.88
497.529	565.88
497.746	587.88
497.963	587.88
498.181	585.88
498.398	632.88
498.615	644.88
498.832	679.88
499.049	693.88
499.267	708.88
499.484	775.88
499.701	835.88
499.918	873.88
500.135	934.88
500.352	1029.88
500.569	1056.88
500.786	1063.88
501.003	1032.88
501.22	950.88
501.437	901.88
501.654	831.88
501.871	777.88
502.088	745.88
