Data from 1984.PennyLincolnUp.Lamp.En5.5.200Scan.071819.P1_HRD10591_16-57-25-967.txt Node
Date: Thu Jul 18 16:57:25 EDT 2019
User: cochatt
Spectrometer: HR+D1059
Trigger mode: 1
Integration Time (sec): 1.000000E-1
Scans to average: 1
Electric dark correction enabled: true
Nonlinearity correction enabled: false
Boxcar width: 0
XAxis mode: Wavelengths
Number of Pixels in Spectrum: 2048
>>>>>Begin Spectral Data<<<<<
223.165	-19.69
223.4	-19.69
223.635	-19.69
223.869	-15.69
224.104	-16.69
224.338	-24.69
224.573	1.31
224.808	-6.69
225.042	-6.69
225.277	-3.69
225.511	4.31
225.746	-1.69
225.98	-3.69
226.215	5.31
226.449	18.31
226.683	15.31
226.918	21.31
227.152	33.31
227.387	37.31
227.621	38.31
227.856	42.31
228.09	38.31
228.324	48.31
228.559	63.31
228.793	53.31
229.027	65.31
229.262	85.31
229.496	99.31
229.73	100.31
229.964	96.31
230.199	97.31
230.433	107.31
230.667	99.31
230.901	111.31
231.136	87.31
231.37	101.31
231.604	97.31
231.838	117.31
232.072	104.31
232.306	121.31
232.541	119.31
232.775	99.31
233.009	121.31
233.243	101.31
233.477	114.31
233.711	123.31
233.945	115.31
234.179	106.31
234.413	105.31
234.647	91.31
234.881	121.31
235.115	107.31
235.349	119.31
235.583	104.31
235.817	119.31
236.051	105.31
236.285	110.31
236.519	112.31
236.753	109.31
236.987	123.31
237.221	139.31
237.455	153.31
237.689	135.31
237.922	117.31
238.156	113.31
238.39	124.31
238.624	119.31
238.858	124.31
239.091	115.31
239.325	95.31
239.559	99.31
239.793	117.31
240.027	121.31
240.26	114.31
240.494	121.31
240.728	134.31
240.961	133.31
241.195	142.31
241.429	133.31
241.662	121.31
241.896	120.31
242.13	124.31
242.363	113.31
242.597	115.31
242.83	143.31
243.064	124.31
243.298	136.31
243.531	137.31
243.765	127.31
243.998	144.31
244.232	135.31
244.465	118.31
244.699	137.31
244.932	139.31
245.166	129.31
245.399	141.31
245.633	143.31
245.866	128.31
246.099	135.31
246.333	144.31
246.566	140.31
246.8	142.31
247.033	140.31
247.266	145.31
247.5	136.31
247.733	155.31
247.966	146.31
248.2	156.31
248.433	153.31
248.666	153.31
248.899	152.31
249.133	166.31
249.366	164.31
249.599	144.31
249.832	166.31
250.066	171.31
250.299	144.31
250.532	173.31
250.765	160.31
250.998	181.31
251.231	189.31
251.465	181.31
251.698	168.31
251.931	161.31
252.164	161.31
252.397	170.31
252.63	161.31
252.863	173.31
253.096	173.31
253.329	187.31
253.562	170.31
253.795	171.31
254.028	174.31
254.261	179.31
254.494	176.31
254.727	169.31
254.96	189.31
255.193	201.31
255.426	180.31
255.659	197.31
255.892	185.31
256.124	178.31
256.357	176.31
256.59	179.31
256.823	169.31
257.056	179.31
257.289	173.31
257.521	184.31
257.754	172.31
257.987	185.31
258.22	185.31
258.452	168.31
258.685	166.31
258.918	199.31
259.151	189.31
259.383	193.31
259.616	174.31
259.849	181.31
260.081	180.31
260.314	202.31
260.547	212.31
260.779	197.31
261.012	203.31
261.244	196.31
261.477	193.31
261.71	187.31
261.942	196.31
262.175	184.31
262.407	199.31
262.64	175.31
262.872	182.31
263.105	195.31
263.337	199.31
263.57	195.31
263.802	206.31
264.035	185.31
264.267	182.31
264.499	175.31
264.732	196.31
264.964	216.31
265.197	191.31
265.429	192.31
265.661	199.31
265.894	188.31
266.126	212.31
266.358	199.31
266.591	193.31
266.823	201.31
267.055	199.31
267.287	203.31
267.52	203.31
267.752	200.31
267.984	193.31
268.216	203.31
268.448	195.31
268.681	212.31
268.913	213.31
269.145	213.31
269.377	242.31
269.609	233.31
269.841	203.31
270.073	240.31
270.306	245.31
270.538	230.31
270.77	231.31
271.002	244.31
271.234	253.31
271.466	239.31
271.698	238.31
271.93	239.31
272.162	253.31
272.394	240.31
272.626	251.31
272.858	221.31
273.09	228.31
273.322	220.31
273.553	242.31
273.785	224.31
274.017	236.31
274.249	235.31
274.481	204.31
274.713	217.31
274.945	248.31
275.176	233.31
275.408	222.31
275.64	238.31
275.872	225.31
276.104	249.31
276.335	219.31
276.567	232.31
276.799	253.31
277.031	268.31
277.262	252.31
277.494	247.31
277.726	261.31
277.957	252.31
278.189	248.31
278.421	221.31
278.652	228.31
278.884	239.31
279.115	256.31
279.347	243.31
279.579	237.31
279.81	241.31
280.042	261.31
280.273	259.31
280.505	250.31
280.736	252.31
280.968	248.31
281.199	235.31
281.431	240.31
281.662	240.31
281.894	254.31
282.125	249.31
282.356	264.31
282.588	259.31
282.819	259.31
283.051	266.31
283.282	266.31
283.513	271.31
283.745	254.31
283.976	254.31
284.207	256.31
284.439	267.31
284.67	248.31
284.901	275.31
285.132	257.31
285.364	267.31
285.595	278.31
285.826	269.31
286.057	275.31
286.288	252.31
286.52	267.31
286.751	268.31
286.982	256.31
287.213	269.31
287.444	272.31
287.675	273.31
287.906	274.31
288.138	279.31
288.369	275.31
288.6	280.31
288.831	280.31
289.062	281.31
289.293	276.31
289.524	266.31
289.755	270.31
289.986	275.31
290.217	270.31
290.448	267.31
290.679	292.31
290.91	293.31
291.141	277.31
291.371	279.31
291.602	269.31
291.833	288.31
292.064	268.31
292.295	272.31
292.526	282.31
292.757	281.31
292.987	280.31
293.218	289.31
293.449	266.31
293.68	279.31
293.91	270.31
294.141	277.31
294.372	273.31
294.603	292.31
294.833	277.31
295.064	252.31
295.295	276.31
295.525	280.31
295.756	309.31
295.987	294.31
296.217	292.31
296.448	278.31
296.679	275.31
296.909	278.31
297.14	298.31
297.37	282.31
297.601	289.31
297.831	300.31
298.062	292.31
298.292	287.31
298.523	273.31
298.753	295.31
298.984	281.31
299.214	300.31
299.445	291.31
299.675	282.31
299.905	302.31
300.136	289.31
300.366	301.31
300.597	299.31
300.827	309.31
301.057	323.31
301.288	292.31
301.518	318.31
301.748	313.31
301.979	313.31
302.209	311.31
302.439	315.31
302.669	309.31
302.9	308.31
303.13	320.31
303.36	297.31
303.59	314.31
303.82	313.31
304.051	320.31
304.281	304.31
304.511	305.31
304.741	305.31
304.971	313.31
305.201	315.31
305.431	318.31
305.661	290.31
305.891	311.31
306.121	317.31
306.352	303.31
306.582	318.31
306.812	304.31
307.042	312.31
307.272	295.31
307.502	311.31
307.731	308.31
307.961	315.31
308.191	300.31
308.421	298.31
308.651	308.31
308.881	299.31
309.111	312.31
309.341	304.31
309.571	309.31
309.8	295.31
310.03	307.31
310.26	327.31
310.49	319.31
310.72	324.31
310.949	328.31
311.179	328.31
311.409	309.31
311.639	316.31
311.868	343.31
312.098	332.31
312.328	339.31
312.557	331.31
312.787	327.31
313.017	321.31
313.246	339.31
313.476	335.31
313.706	334.31
313.935	327.31
314.165	352.31
314.394	340.31
314.624	345.31
314.853	335.31
315.083	318.31
315.312	336.31
315.542	331.31
315.771	334.31
316.001	328.31
316.23	331.31
316.46	353.31
316.689	317.31
316.919	344.31
317.148	328.31
317.377	334.31
317.607	344.31
317.836	330.31
318.065	323.31
318.295	315.31
318.524	332.31
318.753	339.31
318.983	330.31
319.212	331.31
319.441	335.31
319.67	346.31
319.9	346.31
320.129	327.31
320.358	339.31
320.587	343.31
320.816	319.31
321.046	334.31
321.275	336.31
321.504	339.31
321.733	346.31
321.962	341.31
322.191	344.31
322.42	359.31
322.649	338.31
322.878	359.31
323.108	371.31
323.337	362.31
323.566	376.31
323.795	356.31
324.024	406.31
324.253	439.31
324.482	537.31
324.71	746.31
324.939	1015.31
325.168	911.31
325.397	541.31
325.626	440.31
325.855	384.31
326.084	393.31
326.313	386.31
326.542	389.31
326.77	407.31
326.999	427.31
327.228	522.31
327.457	702.31
327.686	805.31
327.914	585.31
328.143	454.31
328.372	415.31
328.6	409.31
328.829	407.31
329.058	407.31
329.287	394.31
329.515	387.31
329.744	387.31
329.972	383.31
330.201	394.31
330.43	416.31
330.658	412.31
330.887	419.31
331.115	393.31
331.344	394.31
331.572	381.31
331.801	394.31
332.03	389.31
332.258	415.31
332.486	392.31
332.715	404.31
332.943	410.31
333.172	432.31
333.4	439.31
333.629	419.31
333.857	437.31
334.085	439.31
334.314	459.31
334.542	436.31
334.771	416.31
334.999	402.31
335.227	413.31
335.455	430.31
335.684	426.31
335.912	447.31
336.14	403.31
336.369	403.31
336.597	406.31
336.825	414.31
337.053	411.31
337.281	405.31
337.51	400.31
337.738	391.31
337.966	372.31
338.194	381.31
338.422	400.31
338.65	371.31
338.878	392.31
339.106	367.31
339.334	387.31
339.562	387.31
339.79	373.31
340.018	351.31
340.246	364.31
340.474	372.31
340.702	373.31
340.93	381.31
341.158	377.31
341.386	383.31
341.614	370.31
341.842	373.31
342.07	378.31
342.298	354.31
342.526	363.31
342.754	373.31
342.981	361.31
343.209	379.31
343.437	403.31
343.665	392.31
343.893	404.31
344.12	422.31
344.348	423.31
344.576	409.31
344.804	381.31
345.031	376.31
345.259	384.31
345.487	360.31
345.714	343.31
345.942	363.31
346.17	367.31
346.397	361.31
346.625	355.31
346.853	348.31
347.08	344.31
347.308	355.31
347.535	355.31
347.763	350.31
347.99	362.31
348.218	335.31
348.445	353.31
348.673	352.31
348.9	359.31
349.128	342.31
349.355	344.31
349.583	344.31
349.81	334.31
350.037	350.31
350.265	344.31
350.492	338.31
350.72	343.31
350.947	344.31
351.174	352.31
351.402	336.31
351.629	355.31
351.856	371.31
352.083	344.31
352.311	364.31
352.538	352.31
352.765	366.31
352.992	359.31
353.22	337.31
353.447	330.31
353.674	312.31
353.901	339.31
354.128	321.31
354.355	327.31
354.583	357.31
354.81	342.31
355.037	339.31
355.264	345.31
355.491	352.31
355.718	333.31
355.945	325.31
356.172	334.31
356.399	335.31
356.626	336.31
356.853	349.31
357.08	335.31
357.307	327.31
357.534	344.31
357.761	346.31
357.988	341.31
358.215	325.31
358.441	341.31
358.668	350.31
358.895	322.31
359.122	328.31
359.349	337.31
359.576	350.31
359.802	349.31
360.029	339.31
360.256	358.31
360.483	338.31
360.709	332.31
360.936	336.31
361.163	336.31
361.39	335.31
361.616	337.31
361.843	340.31
362.07	362.31
362.296	331.31
362.523	346.31
362.749	344.31
362.976	355.31
363.203	323.31
363.429	327.31
363.656	351.31
363.882	339.31
364.109	338.31
364.335	331.31
364.562	316.31
364.788	352.31
365.015	342.31
365.241	337.31
365.468	332.31
365.694	335.31
365.92	336.31
366.147	341.31
366.373	326.31
366.599	355.31
366.826	337.31
367.052	334.31
367.278	332.31
367.505	337.31
367.731	326.31
367.957	316.31
368.184	346.31
368.41	352.31
368.636	341.31
368.862	351.31
369.089	337.31
369.315	332.31
369.541	342.31
369.767	333.31
369.993	361.31
370.219	344.31
370.445	347.31
370.672	328.31
370.898	371.31
371.124	338.31
371.35	345.31
371.576	355.31
371.802	348.31
372.028	351.31
372.254	357.31
372.48	329.31
372.706	349.31
372.932	358.31
373.158	358.31
373.384	352.31
373.61	368.31
373.835	350.31
374.061	355.31
374.287	366.31
374.513	338.31
374.739	374.31
374.965	378.31
375.191	382.31
375.416	360.31
375.642	349.31
375.868	373.31
376.094	352.31
376.319	355.31
376.545	351.31
376.771	355.31
376.997	335.31
377.222	343.31
377.448	351.31
377.674	351.31
377.899	339.31
378.125	348.31
378.35	332.31
378.576	347.31
378.802	346.31
379.027	339.31
379.253	334.31
379.478	339.31
379.704	341.31
379.929	335.31
380.155	348.31
380.38	352.31
380.606	348.31
380.831	340.31
381.057	363.31
381.282	343.31
381.507	355.31
381.733	348.31
381.958	343.31
382.184	342.31
382.409	346.31
382.634	356.31
382.86	347.31
383.085	354.31
383.31	371.31
383.535	365.31
383.761	381.31
383.986	367.31
384.211	385.31
384.436	368.31
384.662	369.31
384.887	387.31
385.112	397.31
385.337	389.31
385.562	400.31
385.787	387.31
386.013	409.31
386.238	391.31
386.463	409.31
386.688	399.31
386.913	393.31
387.138	388.31
387.363	376.31
387.588	399.31
387.813	393.31
388.038	404.31
388.263	384.31
388.488	394.31
388.713	383.31
388.938	394.31
389.163	379.31
389.387	395.31
389.612	381.31
389.837	382.31
390.062	384.31
390.287	379.31
390.512	382.31
390.736	409.31
390.961	391.31
391.186	405.31
391.411	415.31
391.636	414.31
391.86	419.31
392.085	426.31
392.31	430.31
392.534	412.31
392.759	429.31
392.984	409.31
393.208	393.31
393.433	416.31
393.658	393.31
393.882	399.31
394.107	424.31
394.331	402.31
394.556	407.31
394.78	401.31
395.005	393.31
395.229	399.31
395.454	393.31
395.678	416.31
395.903	438.31
396.127	429.31
396.352	428.31
396.576	427.31
396.801	403.31
397.025	414.31
397.249	414.31
397.474	419.31
397.698	407.31
397.922	430.31
398.147	441.31
398.371	431.31
398.595	446.31
398.82	468.31
399.044	486.31
399.268	539.31
399.492	558.31
399.717	592.31
399.941	615.31
400.165	615.31
400.389	553.31
400.613	523.31
400.837	503.31
401.062	470.31
401.286	468.31
401.51	439.31
401.734	448.31
401.958	457.31
402.182	457.31
402.406	491.31
402.63	495.31
402.854	453.31
403.078	481.31
403.302	491.31
403.526	505.31
403.75	517.31
403.974	501.31
404.198	507.31
404.422	499.31
404.645	499.31
404.869	489.31
405.093	489.31
405.317	491.31
405.541	521.31
405.765	489.31
405.988	489.31
406.212	490.31
406.436	512.31
406.66	521.31
406.883	486.31
407.107	527.31
407.331	553.31
407.555	614.31
407.778	612.31
408.002	582.31
408.226	538.31
408.449	537.31
408.673	538.31
408.896	535.31
409.12	531.31
409.344	521.31
409.567	511.31
409.791	489.31
410.014	497.31
410.238	481.31
410.461	493.31
410.685	475.31
410.908	477.31
411.132	502.31
411.355	522.31
411.578	495.31
411.802	475.31
412.025	461.31
412.249	474.31
412.472	466.31
412.695	477.31
412.919	458.31
413.142	467.31
413.365	451.31
413.589	455.31
413.812	456.31
414.035	455.31
414.258	454.31
414.482	449.31
414.705	469.31
414.928	440.31
415.151	458.31
415.374	464.31
415.597	422.31
415.821	432.31
416.044	440.31
416.267	453.31
416.49	430.31
416.713	438.31
416.936	452.31
417.159	451.31
417.382	449.31
417.605	427.31
417.828	444.31
418.051	461.31
418.274	456.31
418.497	467.31
418.72	471.31
418.943	451.31
419.166	477.31
419.389	486.31
419.611	494.31
419.834	469.31
420.057	470.31
420.28	451.31
420.503	470.31
420.726	442.31
420.948	461.31
421.171	477.31
421.394	467.31
421.617	456.31
421.839	459.31
422.062	468.31
422.285	440.31
422.507	477.31
422.73	530.31
422.953	527.31
423.175	481.31
423.398	483.31
423.621	457.31
423.843	477.31
424.066	490.31
424.288	502.31
424.511	505.31
424.733	496.31
424.956	535.31
425.178	537.31
425.401	545.31
425.623	544.31
425.846	485.31
426.068	469.31
426.291	447.31
426.513	445.31
426.735	454.31
426.958	468.31
427.18	497.31
427.402	567.31
427.625	593.31
427.847	526.31
428.069	475.31
428.292	472.31
428.514	435.31
428.736	432.31
428.958	430.31
429.181	436.31
429.403	413.31
429.625	423.31
429.847	455.31
430.069	484.31
430.292	469.31
430.514	431.31
430.736	435.31
430.958	407.31
431.18	401.31
431.402	403.31
431.624	379.31
431.846	384.31
432.068	409.31
432.29	416.31
432.512	382.31
432.734	418.31
432.956	401.31
433.178	431.31
433.4	441.31
433.622	417.31
433.844	402.31
434.066	403.31
434.287	441.31
434.509	437.31
434.731	432.31
434.953	443.31
435.175	435.31
435.397	479.31
435.618	458.31
435.84	477.31
436.062	507.31
436.284	544.31
436.505	487.31
436.727	451.31
436.949	429.31
437.17	436.31
437.392	421.31
437.614	439.31
437.835	440.31
438.057	460.31
438.278	497.31
438.5	523.31
438.721	555.31
438.943	551.31
439.165	466.31
439.386	440.31
439.608	435.31
439.829	447.31
440.05	443.31
440.272	454.31
440.493	475.31
440.715	446.31
440.936	441.31
441.158	448.31
441.379	427.31
441.6	441.31
441.822	465.31
442.043	460.31
442.264	502.31
442.486	525.31
442.707	486.31
442.928	453.31
443.149	468.31
443.371	472.31
443.592	485.31
443.813	527.31
444.034	581.31
444.255	511.31
444.476	500.31
444.698	514.31
444.919	521.31
445.14	644.31
445.361	544.31
445.582	523.31
445.803	502.31
446.024	518.31
446.245	525.31
446.466	505.31
446.687	445.31
446.908	433.31
447.129	438.31
447.35	402.31
447.571	412.31
447.792	413.31
448.013	410.31
448.234	424.31
448.455	430.31
448.675	464.31
448.896	532.31
449.117	465.31
449.338	454.31
449.559	524.31
449.779	580.31
450	463.31
450.221	420.31
450.442	415.31
450.662	423.31
450.883	400.31
451.104	412.31
451.324	399.31
451.545	396.31
451.766	382.31
451.986	408.31
452.207	395.31
452.428	368.31
452.648	383.31
452.869	372.31
453.089	376.31
453.31	387.31
453.53	380.31
453.751	367.31
453.971	377.31
454.192	375.31
454.412	363.31
454.633	373.31
454.853	385.31
455.073	355.31
455.294	389.31
455.514	399.31
455.734	368.31
455.955	351.31
456.175	361.31
456.395	368.31
456.616	361.31
456.836	356.31
457.056	358.31
457.276	370.31
457.497	359.31
457.717	367.31
457.937	378.31
458.157	380.31
458.377	361.31
458.598	385.31
458.818	393.31
459.038	437.31
459.258	440.31
459.478	420.31
459.698	427.31
459.918	429.31
460.138	440.31
460.358	447.31
460.578	431.31
460.798	477.31
461.018	442.31
461.238	418.31
461.458	443.31
461.678	454.31
461.898	436.31
462.118	455.31
462.338	464.31
462.558	463.31
462.777	470.31
462.997	511.31
463.217	544.31
463.437	550.31
463.657	517.31
463.876	505.31
464.096	488.31
464.316	491.31
464.536	504.31
464.755	491.31
464.975	488.31
465.195	481.31
465.414	462.31
465.634	461.31
465.854	432.31
466.073	426.31
466.293	407.31
466.512	393.31
466.732	381.31
466.951	377.31
467.171	382.31
467.391	410.31
467.61	406.31
467.829	411.31
468.049	381.31
468.268	380.31
468.488	371.31
468.707	363.31
468.927	383.31
469.146	371.31
469.365	403.31
469.585	382.31
469.804	408.31
470.023	418.31
470.243	391.31
470.462	397.31
470.681	396.31
470.901	402.31
471.12	421.31
471.339	393.31
471.558	379.31
471.777	407.31
471.997	375.31
472.216	373.31
472.435	381.31
472.654	379.31
472.873	379.31
473.092	398.31
473.311	366.31
473.53	385.31
473.749	401.31
473.968	399.31
474.187	447.31
474.406	456.31
474.625	423.31
474.844	392.31
475.063	385.31
475.282	411.31
475.501	386.31
475.72	407.31
475.939	417.31
476.158	404.31
476.377	405.31
476.596	385.31
476.814	407.31
477.033	390.31
477.252	401.31
477.471	429.31
477.69	406.31
477.908	428.31
478.127	430.31
478.346	446.31
478.564	447.31
478.783	451.31
479.002	436.31
479.22	442.31
479.439	457.31
479.658	456.31
479.876	445.31
480.095	483.31
480.313	494.31
480.532	488.31
480.751	497.31
480.969	470.31
481.188	476.31
481.406	468.31
481.624	468.31
481.843	434.31
482.061	432.31
482.28	443.31
482.498	417.31
482.717	445.31
482.935	426.31
483.153	425.31
483.372	424.31
483.59	449.31
483.808	417.31
484.027	432.31
484.245	426.31
484.463	436.31
484.681	455.31
484.9	436.31
485.118	447.31
485.336	453.31
485.554	436.31
485.772	447.31
485.99	468.31
486.209	466.31
486.427	460.31
486.645	473.31
486.863	461.31
487.081	442.31
487.299	479.31
487.517	460.31
487.735	455.31
487.953	446.31
488.171	465.31
488.389	463.31
488.607	462.31
488.825	454.31
489.043	476.31
489.261	472.31
489.479	476.31
489.696	461.31
489.914	447.31
490.132	465.31
490.35	464.31
490.568	481.31
490.786	461.31
491.003	489.31
491.221	475.31
491.439	491.31
491.657	482.31
491.874	501.31
492.092	491.31
492.31	487.31
492.527	491.31
492.745	474.31
492.963	506.31
493.18	508.31
493.398	491.31
493.615	508.31
493.833	500.31
494.05	503.31
494.268	505.31
494.485	482.31
494.703	523.31
494.92	513.31
495.138	506.31
495.355	511.31
495.573	527.31
495.79	498.31
496.008	515.31
496.225	496.31
496.442	513.31
496.66	537.31
496.877	521.31
497.094	554.31
497.312	556.31
497.529	567.31
497.746	563.31
497.963	570.31
498.181	614.31
498.398	615.31
498.615	633.31
498.832	671.31
499.049	719.31
499.267	736.31
499.484	769.31
499.701	819.31
499.918	871.31
500.135	948.31
500.352	1027.31
500.569	1071.31
500.786	1056.31
501.003	1019.31
501.22	957.31
501.437	873.31
501.654	811.31
501.871	759.31
502.088	729.31
