Data from 1984.PennyLincolnUp.Lamp.En5.5.200Scan.071819.P1_HRD10591_16-59-28-968.txt Node
Date: Thu Jul 18 16:59:28 EDT 2019
User: cochatt
Spectrometer: HR+D1059
Trigger mode: 1
Integration Time (sec): 1.000000E-1
Scans to average: 1
Electric dark correction enabled: true
Nonlinearity correction enabled: false
Boxcar width: 0
XAxis mode: Wavelengths
Number of Pixels in Spectrum: 2048
>>>>>Begin Spectral Data<<<<<
223.165	-10.5
223.4	-10.5
223.635	-10.5
223.869	-26.5
224.104	-23.5
224.338	-12.5
224.573	-29.5
224.808	-3.5
225.042	-10.5
225.277	1.5
225.511	-12.5
225.746	8.5
225.98	11.5
226.215	13.5
226.449	16.5
226.683	20.5
226.918	20.5
227.152	36.5
227.387	22.5
227.621	30.5
227.856	31.5
228.09	56.5
228.324	37.5
228.559	68.5
228.793	76.5
229.027	82.5
229.262	81.5
229.496	98.5
229.73	114.5
229.964	123.5
230.199	111.5
230.433	103.5
230.667	106.5
230.901	104.5
231.136	114.5
231.37	88.5
231.604	102.5
231.838	109.5
232.072	119.5
232.306	95.5
232.541	109.5
232.775	109.5
233.009	113.5
233.243	106.5
233.477	123.5
233.711	107.5
233.945	115.5
234.179	112.5
234.413	105.5
234.647	107.5
234.881	101.5
235.115	103.5
235.349	102.5
235.583	122.5
235.817	108.5
236.051	111.5
236.285	112.5
236.519	103.5
236.753	111.5
236.987	127.5
237.221	150.5
237.455	179.5
237.689	133.5
237.922	128.5
238.156	115.5
238.39	109.5
238.624	108.5
238.858	121.5
239.091	122.5
239.325	118.5
239.559	115.5
239.793	113.5
240.027	103.5
240.26	119.5
240.494	145.5
240.728	130.5
240.961	122.5
241.195	131.5
241.429	128.5
241.662	138.5
241.896	117.5
242.13	133.5
242.363	118.5
242.597	129.5
242.83	118.5
243.064	120.5
243.298	135.5
243.531	112.5
243.765	131.5
243.998	124.5
244.232	128.5
244.465	125.5
244.699	133.5
244.932	144.5
245.166	144.5
245.399	137.5
245.633	125.5
245.866	128.5
246.099	133.5
246.333	136.5
246.566	133.5
246.8	149.5
247.033	145.5
247.266	139.5
247.5	153.5
247.733	149.5
247.966	142.5
248.2	163.5
248.433	150.5
248.666	135.5
248.899	149.5
249.133	160.5
249.366	168.5
249.599	172.5
249.832	154.5
250.066	147.5
250.299	156.5
250.532	179.5
250.765	193.5
250.998	203.5
251.231	199.5
251.465	189.5
251.698	175.5
251.931	180.5
252.164	181.5
252.397	172.5
252.63	177.5
252.863	173.5
253.096	162.5
253.329	179.5
253.562	194.5
253.795	174.5
254.028	169.5
254.261	185.5
254.494	196.5
254.727	189.5
254.96	236.5
255.193	197.5
255.426	209.5
255.659	211.5
255.892	247.5
256.124	248.5
256.357	261.5
256.59	243.5
256.823	216.5
257.056	195.5
257.289	200.5
257.521	204.5
257.754	178.5
257.987	177.5
258.22	185.5
258.452	195.5
258.685	181.5
258.918	188.5
259.151	178.5
259.383	184.5
259.616	188.5
259.849	190.5
260.081	189.5
260.314	193.5
260.547	231.5
260.779	208.5
261.012	202.5
261.244	191.5
261.477	210.5
261.71	211.5
261.942	205.5
262.175	198.5
262.407	175.5
262.64	193.5
262.872	181.5
263.105	201.5
263.337	178.5
263.57	194.5
263.802	193.5
264.035	196.5
264.267	183.5
264.499	193.5
264.732	203.5
264.964	187.5
265.197	193.5
265.429	205.5
265.661	185.5
265.894	202.5
266.126	211.5
266.358	193.5
266.591	195.5
266.823	192.5
267.055	191.5
267.287	210.5
267.52	210.5
267.752	216.5
267.984	221.5
268.216	217.5
268.448	214.5
268.681	235.5
268.913	207.5
269.145	223.5
269.377	231.5
269.609	227.5
269.841	239.5
270.073	220.5
270.306	243.5
270.538	265.5
270.77	249.5
271.002	258.5
271.234	244.5
271.466	248.5
271.698	262.5
271.93	264.5
272.162	254.5
272.394	240.5
272.626	251.5
272.858	257.5
273.09	247.5
273.322	244.5
273.553	245.5
273.785	254.5
274.017	215.5
274.249	242.5
274.481	232.5
274.713	233.5
274.945	234.5
275.176	239.5
275.408	251.5
275.64	244.5
275.872	246.5
276.104	247.5
276.335	235.5
276.567	245.5
276.799	255.5
277.031	248.5
277.262	278.5
277.494	267.5
277.726	284.5
277.957	274.5
278.189	263.5
278.421	240.5
278.652	244.5
278.884	235.5
279.115	235.5
279.347	236.5
279.579	238.5
279.81	253.5
280.042	245.5
280.273	241.5
280.505	247.5
280.736	262.5
280.968	247.5
281.199	257.5
281.431	226.5
281.662	249.5
281.894	245.5
282.125	265.5
282.356	269.5
282.588	285.5
282.819	275.5
283.051	258.5
283.282	262.5
283.513	272.5
283.745	264.5
283.976	259.5
284.207	252.5
284.439	261.5
284.67	266.5
284.901	265.5
285.132	268.5
285.364	247.5
285.595	260.5
285.826	263.5
286.057	263.5
286.288	273.5
286.52	275.5
286.751	246.5
286.982	292.5
287.213	259.5
287.444	275.5
287.675	273.5
287.906	280.5
288.138	279.5
288.369	279.5
288.6	285.5
288.831	288.5
289.062	285.5
289.293	280.5
289.524	285.5
289.755	287.5
289.986	284.5
290.217	264.5
290.448	281.5
290.679	280.5
290.91	286.5
291.141	283.5
291.371	279.5
291.602	274.5
291.833	297.5
292.064	284.5
292.295	287.5
292.526	279.5
292.757	260.5
292.987	265.5
293.218	284.5
293.449	281.5
293.68	288.5
293.91	277.5
294.141	267.5
294.372	275.5
294.603	276.5
294.833	276.5
295.064	276.5
295.295	274.5
295.525	273.5
295.756	273.5
295.987	287.5
296.217	295.5
296.448	319.5
296.679	305.5
296.909	294.5
297.14	269.5
297.37	288.5
297.601	285.5
297.831	292.5
298.062	285.5
298.292	316.5
298.523	292.5
298.753	296.5
298.984	295.5
299.214	306.5
299.445	299.5
299.675	307.5
299.905	296.5
300.136	312.5
300.366	305.5
300.597	293.5
300.827	309.5
301.057	311.5
301.288	314.5
301.518	319.5
301.748	313.5
301.979	326.5
302.209	335.5
302.439	319.5
302.669	308.5
302.9	307.5
303.13	296.5
303.36	320.5
303.59	310.5
303.82	306.5
304.051	331.5
304.281	312.5
304.511	315.5
304.741	315.5
304.971	314.5
305.201	305.5
305.431	311.5
305.661	309.5
305.891	308.5
306.121	328.5
306.352	303.5
306.582	314.5
306.812	305.5
307.042	300.5
307.272	317.5
307.502	300.5
307.731	322.5
307.961	307.5
308.191	304.5
308.421	324.5
308.651	316.5
308.881	309.5
309.111	321.5
309.341	328.5
309.571	336.5
309.8	329.5
310.03	333.5
310.26	324.5
310.49	326.5
310.72	359.5
310.949	326.5
311.179	347.5
311.409	345.5
311.639	328.5
311.868	337.5
312.098	321.5
312.328	344.5
312.557	353.5
312.787	372.5
313.017	356.5
313.246	342.5
313.476	339.5
313.706	332.5
313.935	340.5
314.165	367.5
314.394	346.5
314.624	358.5
314.853	334.5
315.083	370.5
315.312	343.5
315.542	332.5
315.771	331.5
316.001	330.5
316.23	343.5
316.46	356.5
316.689	345.5
316.919	350.5
317.148	318.5
317.377	343.5
317.607	334.5
317.836	329.5
318.065	340.5
318.295	349.5
318.524	351.5
318.753	340.5
318.983	337.5
319.212	352.5
319.441	343.5
319.67	367.5
319.9	335.5
320.129	325.5
320.358	325.5
320.587	345.5
320.816	370.5
321.046	361.5
321.275	360.5
321.504	350.5
321.733	355.5
321.962	360.5
322.191	367.5
322.42	363.5
322.649	355.5
322.878	378.5
323.108	399.5
323.337	392.5
323.566	410.5
323.795	433.5
324.024	449.5
324.253	516.5
324.482	693.5
324.71	993.5
324.939	1329.5
325.168	1163.5
325.397	674.5
325.626	501.5
325.855	447.5
326.084	420.5
326.313	443.5
326.542	441.5
326.77	468.5
326.999	497.5
327.228	647.5
327.457	919.5
327.686	1061.5
327.914	735.5
328.143	554.5
328.372	543.5
328.6	505.5
328.829	492.5
329.058	473.5
329.287	474.5
329.515	478.5
329.744	457.5
329.972	459.5
330.201	520.5
330.43	559.5
330.658	547.5
330.887	508.5
331.115	488.5
331.344	464.5
331.572	417.5
331.801	424.5
332.03	440.5
332.258	469.5
332.486	441.5
332.715	445.5
332.943	448.5
333.172	465.5
333.4	486.5
333.629	485.5
333.857	523.5
334.085	546.5
334.314	563.5
334.542	641.5
334.771	643.5
334.999	564.5
335.227	476.5
335.455	452.5
335.684	450.5
335.912	460.5
336.14	448.5
336.369	445.5
336.597	422.5
336.825	427.5
337.053	421.5
337.281	424.5
337.51	418.5
337.738	434.5
337.966	392.5
338.194	385.5
338.422	401.5
338.65	404.5
338.878	379.5
339.106	401.5
339.334	407.5
339.562	409.5
339.79	403.5
340.018	401.5
340.246	391.5
340.474	374.5
340.702	383.5
340.93	404.5
341.158	392.5
341.386	393.5
341.614	381.5
341.842	387.5
342.07	360.5
342.298	381.5
342.526	367.5
342.754	363.5
342.981	364.5
343.209	364.5
343.437	398.5
343.665	423.5
343.893	411.5
344.12	437.5
344.348	424.5
344.576	397.5
344.804	397.5
345.031	384.5
345.259	382.5
345.487	394.5
345.714	389.5
345.942	368.5
346.17	367.5
346.397	363.5
346.625	364.5
346.853	383.5
347.08	384.5
347.308	362.5
347.535	371.5
347.763	373.5
347.99	363.5
348.218	356.5
348.445	363.5
348.673	369.5
348.9	368.5
349.128	372.5
349.355	380.5
349.583	379.5
349.81	363.5
350.037	353.5
350.265	367.5
350.492	357.5
350.72	348.5
350.947	338.5
351.174	364.5
351.402	369.5
351.629	361.5
351.856	371.5
352.083	350.5
352.311	359.5
352.538	360.5
352.765	375.5
352.992	378.5
353.22	345.5
353.447	346.5
353.674	363.5
353.901	347.5
354.128	339.5
354.355	328.5
354.583	358.5
354.81	353.5
355.037	332.5
355.264	343.5
355.491	337.5
355.718	337.5
355.945	346.5
356.172	341.5
356.399	337.5
356.626	343.5
356.853	336.5
357.08	352.5
357.307	333.5
357.534	343.5
357.761	319.5
357.988	355.5
358.215	351.5
358.441	345.5
358.668	343.5
358.895	364.5
359.122	342.5
359.349	358.5
359.576	370.5
359.802	353.5
360.029	364.5
360.256	391.5
360.483	343.5
360.709	362.5
360.936	351.5
361.163	351.5
361.39	352.5
361.616	352.5
361.843	359.5
362.07	335.5
362.296	342.5
362.523	339.5
362.749	353.5
362.976	345.5
363.203	345.5
363.429	347.5
363.656	347.5
363.882	353.5
364.109	357.5
364.335	335.5
364.562	354.5
364.788	349.5
365.015	347.5
365.241	370.5
365.468	355.5
365.694	348.5
365.92	325.5
366.147	338.5
366.373	345.5
366.599	341.5
366.826	350.5
367.052	344.5
367.278	349.5
367.505	353.5
367.731	362.5
367.957	348.5
368.184	334.5
368.41	361.5
368.636	339.5
368.862	353.5
369.089	361.5
369.315	356.5
369.541	333.5
369.767	363.5
369.993	354.5
370.219	340.5
370.445	351.5
370.672	338.5
370.898	379.5
371.124	358.5
371.35	368.5
371.576	357.5
371.802	355.5
372.028	364.5
372.254	364.5
372.48	359.5
372.706	358.5
372.932	354.5
373.158	365.5
373.384	339.5
373.61	345.5
373.835	348.5
374.061	341.5
374.287	341.5
374.513	365.5
374.739	365.5
374.965	375.5
375.191	394.5
375.416	391.5
375.642	361.5
375.868	336.5
376.094	346.5
376.319	367.5
376.545	336.5
376.771	355.5
376.997	351.5
377.222	336.5
377.448	359.5
377.674	348.5
377.899	361.5
378.125	336.5
378.35	340.5
378.576	338.5
378.802	337.5
379.027	333.5
379.253	346.5
379.478	349.5
379.704	357.5
379.929	351.5
380.155	357.5
380.38	345.5
380.606	351.5
380.831	343.5
381.057	338.5
381.282	339.5
381.507	354.5
381.733	357.5
381.958	353.5
382.184	359.5
382.409	357.5
382.634	368.5
382.86	367.5
383.085	354.5
383.31	368.5
383.535	379.5
383.761	362.5
383.986	360.5
384.211	381.5
384.436	387.5
384.662	412.5
384.887	389.5
385.112	380.5
385.337	401.5
385.562	404.5
385.787	396.5
386.013	419.5
386.238	407.5
386.463	420.5
386.688	383.5
386.913	425.5
387.138	379.5
387.363	387.5
387.588	396.5
387.813	402.5
388.038	389.5
388.263	403.5
388.488	395.5
388.713	393.5
388.938	390.5
389.163	392.5
389.387	401.5
389.612	397.5
389.837	396.5
390.062	381.5
390.287	379.5
390.512	378.5
390.736	388.5
390.961	375.5
391.186	413.5
391.411	391.5
391.636	404.5
391.86	411.5
392.085	420.5
392.31	448.5
392.534	404.5
392.759	415.5
392.984	419.5
393.208	397.5
393.433	390.5
393.658	382.5
393.882	416.5
394.107	408.5
394.331	401.5
394.556	403.5
394.78	430.5
395.005	427.5
395.229	406.5
395.454	409.5
395.678	432.5
395.903	441.5
396.127	426.5
396.352	433.5
396.576	433.5
396.801	417.5
397.025	422.5
397.249	421.5
397.474	432.5
397.698	420.5
397.922	413.5
398.147	433.5
398.371	476.5
398.595	452.5
398.82	486.5
399.044	481.5
399.268	526.5
399.492	572.5
399.717	595.5
399.941	639.5
400.165	608.5
400.389	604.5
400.613	550.5
400.837	492.5
401.062	477.5
401.286	473.5
401.51	476.5
401.734	457.5
401.958	473.5
402.182	467.5
402.406	479.5
402.63	483.5
402.854	476.5
403.078	489.5
403.302	500.5
403.526	498.5
403.75	505.5
403.974	498.5
404.198	522.5
404.422	499.5
404.645	539.5
404.869	503.5
405.093	540.5
405.317	606.5
405.541	618.5
405.765	569.5
405.988	545.5
406.212	524.5
406.436	539.5
406.66	542.5
406.883	531.5
407.107	571.5
407.331	589.5
407.555	630.5
407.778	619.5
408.002	575.5
408.226	558.5
408.449	525.5
408.673	552.5
408.896	525.5
409.12	547.5
409.344	549.5
409.567	506.5
409.791	487.5
410.014	523.5
410.238	478.5
410.461	500.5
410.685	502.5
410.908	479.5
411.132	535.5
411.355	540.5
411.578	531.5
411.802	498.5
412.025	488.5
412.249	498.5
412.472	559.5
412.695	581.5
412.919	558.5
413.142	533.5
413.365	485.5
413.589	469.5
413.812	472.5
414.035	479.5
414.258	465.5
414.482	489.5
414.705	483.5
414.928	460.5
415.151	442.5
415.374	471.5
415.597	470.5
415.821	447.5
416.044	447.5
416.267	443.5
416.49	460.5
416.713	440.5
416.936	441.5
417.159	453.5
417.382	464.5
417.605	471.5
417.828	486.5
418.051	473.5
418.274	464.5
418.497	449.5
418.72	457.5
418.943	448.5
419.166	482.5
419.389	514.5
419.611	516.5
419.834	481.5
420.057	502.5
420.28	535.5
420.503	507.5
420.726	487.5
420.948	508.5
421.171	489.5
421.394	529.5
421.617	474.5
421.839	469.5
422.062	467.5
422.285	507.5
422.507	517.5
422.73	561.5
422.953	520.5
423.175	517.5
423.398	504.5
423.621	493.5
423.843	500.5
424.066	514.5
424.288	489.5
424.511	506.5
424.733	536.5
424.956	550.5
425.178	556.5
425.401	546.5
425.623	549.5
425.846	507.5
426.068	481.5
426.291	456.5
426.513	465.5
426.735	473.5
426.958	503.5
427.18	527.5
427.402	611.5
427.625	654.5
427.847	595.5
428.069	567.5
428.292	492.5
428.514	464.5
428.736	460.5
428.958	461.5
429.181	426.5
429.403	438.5
429.625	421.5
429.847	468.5
430.069	470.5
430.292	486.5
430.514	434.5
430.736	428.5
430.958	401.5
431.18	433.5
431.402	441.5
431.624	407.5
431.846	405.5
432.068	440.5
432.29	422.5
432.512	424.5
432.734	435.5
432.956	426.5
433.178	428.5
433.4	421.5
433.622	436.5
433.844	416.5
434.066	420.5
434.287	450.5
434.509	433.5
434.731	449.5
434.953	446.5
435.175	459.5
435.397	483.5
435.618	470.5
435.84	482.5
436.062	530.5
436.284	562.5
436.505	500.5
436.727	481.5
436.949	445.5
437.17	447.5
437.392	421.5
437.614	435.5
437.835	459.5
438.057	482.5
438.278	547.5
438.5	542.5
438.721	627.5
438.943	583.5
439.165	506.5
439.386	454.5
439.608	467.5
439.829	467.5
440.05	476.5
440.272	472.5
440.493	464.5
440.715	451.5
440.936	446.5
441.158	441.5
441.379	460.5
441.6	461.5
441.822	484.5
442.043	510.5
442.264	538.5
442.486	571.5
442.707	484.5
442.928	497.5
443.149	498.5
443.371	503.5
443.592	536.5
443.813	577.5
444.034	602.5
444.255	533.5
444.476	506.5
444.698	511.5
444.919	513.5
445.14	605.5
445.361	539.5
445.582	489.5
445.803	537.5
446.024	589.5
446.245	589.5
446.466	523.5
446.687	477.5
446.908	449.5
447.129	437.5
447.35	434.5
447.571	423.5
447.792	399.5
448.013	423.5
448.234	405.5
448.455	453.5
448.675	514.5
448.896	588.5
449.117	504.5
449.338	481.5
449.559	547.5
449.779	615.5
450	506.5
450.221	426.5
450.442	400.5
450.662	402.5
450.883	410.5
451.104	410.5
451.324	421.5
451.545	398.5
451.766	399.5
451.986	377.5
452.207	402.5
452.428	387.5
452.648	380.5
452.869	369.5
453.089	398.5
453.31	403.5
453.53	374.5
453.751	397.5
453.971	376.5
454.192	394.5
454.412	360.5
454.633	380.5
454.853	363.5
455.073	372.5
455.294	395.5
455.514	409.5
455.734	427.5
455.955	390.5
456.175	358.5
456.395	361.5
456.616	362.5
456.836	360.5
457.056	374.5
457.276	383.5
457.497	375.5
457.717	361.5
457.937	343.5
458.157	363.5
458.377	354.5
458.598	405.5
458.818	435.5
459.038	447.5
459.258	482.5
459.478	448.5
459.698	431.5
459.918	422.5
460.138	437.5
460.358	458.5
460.578	463.5
460.798	453.5
461.018	460.5
461.238	450.5
461.458	448.5
461.678	428.5
461.898	439.5
462.118	473.5
462.338	458.5
462.558	483.5
462.777	495.5
462.997	516.5
463.217	547.5
463.437	568.5
463.657	540.5
463.876	511.5
464.096	507.5
464.316	500.5
464.536	539.5
464.755	524.5
464.975	490.5
465.195	507.5
465.414	491.5
465.634	471.5
465.854	448.5
466.073	430.5
466.293	417.5
466.512	404.5
466.732	397.5
466.951	410.5
467.171	404.5
467.391	392.5
467.61	393.5
467.829	414.5
468.049	410.5
468.268	428.5
468.488	404.5
468.707	395.5
468.927	395.5
469.146	389.5
469.365	396.5
469.585	401.5
469.804	405.5
470.023	429.5
470.243	429.5
470.462	408.5
470.681	422.5
470.901	417.5
471.12	400.5
471.339	415.5
471.558	424.5
471.777	379.5
471.997	416.5
472.216	430.5
472.435	505.5
472.654	455.5
472.873	432.5
473.092	395.5
473.311	412.5
473.53	387.5
473.749	428.5
473.968	438.5
474.187	456.5
474.406	483.5
474.625	422.5
474.844	394.5
475.063	402.5
475.282	413.5
475.501	398.5
475.72	411.5
475.939	412.5
476.158	400.5
476.377	412.5
476.596	394.5
476.814	432.5
477.033	411.5
477.252	424.5
477.471	407.5
477.69	450.5
477.908	439.5
478.127	440.5
478.346	435.5
478.564	452.5
478.783	464.5
479.002	457.5
479.22	484.5
479.439	470.5
479.658	484.5
479.876	471.5
480.095	488.5
480.313	527.5
480.532	520.5
480.751	527.5
480.969	547.5
481.188	656.5
481.406	696.5
481.624	573.5
481.843	524.5
482.061	490.5
482.28	491.5
482.498	456.5
482.717	454.5
482.935	459.5
483.153	463.5
483.372	469.5
483.59	464.5
483.808	460.5
484.027	466.5
484.245	449.5
484.463	463.5
484.681	473.5
484.9	452.5
485.118	462.5
485.336	469.5
485.554	485.5
485.772	492.5
485.99	465.5
486.209	473.5
486.427	478.5
486.645	485.5
486.863	470.5
487.081	502.5
487.299	488.5
487.517	487.5
487.735	470.5
487.953	496.5
488.171	487.5
488.389	477.5
488.607	487.5
488.825	497.5
489.043	491.5
489.261	498.5
489.479	497.5
489.696	507.5
489.914	496.5
490.132	506.5
490.35	499.5
490.568	496.5
490.786	503.5
491.003	505.5
491.221	524.5
491.439	554.5
491.657	545.5
491.874	544.5
492.092	551.5
492.31	560.5
492.527	564.5
492.745	599.5
492.963	614.5
493.18	595.5
493.398	571.5
493.615	593.5
493.833	570.5
494.05	595.5
494.268	579.5
494.485	550.5
494.703	573.5
494.92	567.5
495.138	589.5
495.355	587.5
495.573	565.5
495.79	581.5
496.008	553.5
496.225	583.5
496.442	571.5
496.66	569.5
496.877	555.5
497.094	585.5
497.312	591.5
497.529	555.5
497.746	592.5
497.963	607.5
498.181	633.5
498.398	634.5
498.615	683.5
498.832	712.5
499.049	721.5
499.267	751.5
499.484	789.5
499.701	834.5
499.918	884.5
500.135	940.5
500.352	1073.5
500.569	1067.5
500.786	1109.5
501.003	1045.5
501.22	967.5
501.437	919.5
501.654	844.5
501.871	779.5
502.088	760.5
502.305	720.5
502.522	701.5
502.739	699.5
502.956	662.5
503.172	642.5
503.389	607.5
503.606	595.5
503.823	604.5
504.04	583.5
504.256	597.5
504.473	577.5
504.69	604.5
504.907	578.5
505.123	545.5
505.34	546.5
505.557	522.5
505.773	546.5
505.99	525.5
506.207	513.5
506.423	537.5
506.64	515.5
506.856	497.5
507.073	469.5
507.289	485.5
507.506	488.5
507.722	506.5
507.939	514.5
508.155	480.5
508.372	473.5
508.588	499.5
508.805	477.5
509.021	487.5
509.238	503.5
509.454	480.5
509.67	495.5
509.887	457.5
510.103	479.5
510.319	473.5
510.536	544.5
510.752	792.5
510.968	652.5
511.184	484.5
511.401	470.5
511.617	487.5
511.833	499.5
512.049	497.5
512.265	489.5
512.481	468.5
512.698	497.5
512.914	483.5
513.13	465.5
513.346	476.5
513.562	475.5
513.778	460.5
513.994	474.5
514.21	459.5
514.426	488.5
514.642	490.5
514.858	516.5
515.074	518.5
515.29	578.5
515.506	771.5
515.721	652.5
515.937	526.5
516.153	497.5
516.369	510.5
516.585	499.5
516.801	492.5
517.016	495.5
517.232	535.5
517.448	552.5
517.664	547.5
517.879	530.5
518.095	548.5
518.311	550.5
518.527	515.5
518.742	507.5
518.958	508.5
519.173	503.5
519.389	484.5
519.605	503.5
519.82	461.5
