Data from 1984.PennyLincolnUp.Lamp.En5.5.200Scan.071819.P1_HRD10591_17-00-18-969.txt Node
Date: Thu Jul 18 17:00:18 EDT 2019
User: cochatt
Spectrometer: HR+D1059
Trigger mode: 1
Integration Time (sec): 1.000000E-1
Scans to average: 1
Electric dark correction enabled: true
Nonlinearity correction enabled: false
Boxcar width: 0
XAxis mode: Wavelengths
Number of Pixels in Spectrum: 2048
>>>>>Begin Spectral Data<<<<<
223.165	-17.19
223.4	-17.19
223.635	-17.19
223.869	-23.19
224.104	-16.19
224.338	-6.19
224.573	-21.19
224.808	-20.19
225.042	-14.19
225.277	-17.19
225.511	5.81
225.746	5.81
225.98	1.81
226.215	21.81
226.449	18.81
226.683	24.81
226.918	33.81
227.152	22.81
227.387	12.81
227.621	37.81
227.856	30.81
228.09	54.81
228.324	50.81
228.559	47.81
228.793	46.81
229.027	76.81
229.262	101.81
229.496	94.81
229.73	102.81
229.964	129.81
230.199	101.81
230.433	105.81
230.667	92.81
230.901	107.81
231.136	109.81
231.37	105.81
231.604	110.81
231.838	113.81
232.072	103.81
232.306	101.81
232.541	111.81
232.775	121.81
233.009	106.81
233.243	117.81
233.477	111.81
233.711	110.81
233.945	104.81
234.179	114.81
234.413	108.81
234.647	118.81
234.881	113.81
235.115	107.81
235.349	135.81
235.583	111.81
235.817	113.81
236.051	116.81
236.285	110.81
236.519	111.81
236.753	125.81
236.987	126.81
237.221	106.81
237.455	181.81
237.689	155.81
237.922	129.81
238.156	119.81
238.39	126.81
238.624	116.81
238.858	126.81
239.091	130.81
239.325	117.81
239.559	117.81
239.793	132.81
240.027	126.81
240.26	118.81
240.494	126.81
240.728	123.81
240.961	133.81
241.195	133.81
241.429	137.81
241.662	127.81
241.896	120.81
242.13	121.81
242.363	123.81
242.597	123.81
242.83	143.81
243.064	145.81
243.298	126.81
243.531	137.81
243.765	137.81
243.998	124.81
244.232	133.81
244.465	134.81
244.699	145.81
244.932	134.81
245.166	142.81
245.399	136.81
245.633	142.81
245.866	150.81
246.099	131.81
246.333	138.81
246.566	134.81
246.8	144.81
247.033	142.81
247.266	160.81
247.5	139.81
247.733	141.81
247.966	155.81
248.2	148.81
248.433	164.81
248.666	148.81
248.899	155.81
249.133	168.81
249.366	177.81
249.599	163.81
249.832	169.81
250.066	178.81
250.299	181.81
250.532	199.81
250.765	230.81
250.998	217.81
251.231	204.81
251.465	181.81
251.698	182.81
251.931	175.81
252.164	177.81
252.397	193.81
252.63	181.81
252.863	174.81
253.096	184.81
253.329	203.81
253.562	185.81
253.795	197.81
254.028	206.81
254.261	195.81
254.494	204.81
254.727	212.81
254.96	233.81
255.193	235.81
255.426	214.81
255.659	221.81
255.892	237.81
256.124	283.81
256.357	281.81
256.59	259.81
256.823	237.81
257.056	203.81
257.289	199.81
257.521	198.81
257.754	200.81
257.987	196.81
258.22	181.81
258.452	197.81
258.685	182.81
258.918	174.81
259.151	182.81
259.383	185.81
259.616	205.81
259.849	205.81
260.081	212.81
260.314	205.81
260.547	218.81
260.779	204.81
261.012	209.81
261.244	214.81
261.477	208.81
261.71	191.81
261.942	198.81
262.175	211.81
262.407	193.81
262.64	197.81
262.872	217.81
263.105	214.81
263.337	198.81
263.57	195.81
263.802	192.81
264.035	196.81
264.267	207.81
264.499	205.81
264.732	227.81
264.964	206.81
265.197	207.81
265.429	221.81
265.661	213.81
265.894	210.81
266.126	210.81
266.358	205.81
266.591	215.81
266.823	214.81
267.055	217.81
267.287	220.81
267.52	207.81
267.752	229.81
267.984	213.81
268.216	226.81
268.448	218.81
268.681	216.81
268.913	214.81
269.145	237.81
269.377	243.81
269.609	224.81
269.841	244.81
270.073	235.81
270.306	247.81
270.538	270.81
270.77	251.81
271.002	272.81
271.234	263.81
271.466	246.81
271.698	263.81
271.93	266.81
272.162	250.81
272.394	267.81
272.626	258.81
272.858	235.81
273.09	240.81
273.322	263.81
273.553	257.81
273.785	251.81
274.017	259.81
274.249	233.81
274.481	245.81
274.713	249.81
274.945	243.81
275.176	253.81
275.408	245.81
275.64	252.81
275.872	260.81
276.104	271.81
276.335	248.81
276.567	260.81
276.799	283.81
277.031	293.81
277.262	270.81
277.494	303.81
277.726	307.81
277.957	278.81
278.189	265.81
278.421	259.81
278.652	249.81
278.884	261.81
279.115	275.81
279.347	261.81
279.579	262.81
279.81	274.81
280.042	260.81
280.273	267.81
280.505	287.81
280.736	282.81
280.968	240.81
281.199	264.81
281.431	273.81
281.662	263.81
281.894	263.81
282.125	273.81
282.356	291.81
282.588	286.81
282.819	267.81
283.051	268.81
283.282	268.81
283.513	259.81
283.745	297.81
283.976	260.81
284.207	297.81
284.439	301.81
284.67	288.81
284.901	257.81
285.132	273.81
285.364	265.81
285.595	263.81
285.826	285.81
286.057	286.81
286.288	285.81
286.52	282.81
286.751	283.81
286.982	287.81
287.213	270.81
287.444	280.81
287.675	289.81
287.906	296.81
288.138	293.81
288.369	294.81
288.6	284.81
288.831	299.81
289.062	311.81
289.293	292.81
289.524	287.81
289.755	293.81
289.986	294.81
290.217	282.81
290.448	282.81
290.679	298.81
290.91	297.81
291.141	277.81
291.371	303.81
291.602	293.81
291.833	285.81
292.064	290.81
292.295	293.81
292.526	288.81
292.757	287.81
292.987	286.81
293.218	285.81
293.449	294.81
293.68	284.81
293.91	285.81
294.141	281.81
294.372	291.81
294.603	266.81
294.833	286.81
295.064	293.81
295.295	295.81
295.525	302.81
295.756	300.81
295.987	278.81
296.217	308.81
296.448	292.81
296.679	309.81
296.909	300.81
297.14	293.81
297.37	328.81
297.601	311.81
297.831	291.81
298.062	289.81
298.292	308.81
298.523	316.81
298.753	320.81
298.984	319.81
299.214	298.81
299.445	311.81
299.675	305.81
299.905	328.81
300.136	305.81
300.366	310.81
300.597	300.81
300.827	326.81
301.057	326.81
301.288	342.81
301.518	328.81
301.748	316.81
301.979	326.81
302.209	327.81
302.439	340.81
302.669	312.81
302.9	311.81
303.13	319.81
303.36	319.81
303.59	321.81
303.82	331.81
304.051	324.81
304.281	336.81
304.511	328.81
304.741	320.81
304.971	321.81
305.201	339.81
305.431	335.81
305.661	313.81
305.891	323.81
306.121	333.81
306.352	319.81
306.582	322.81
306.812	336.81
307.042	335.81
307.272	329.81
307.502	333.81
307.731	322.81
307.961	338.81
308.191	343.81
308.421	329.81
308.651	339.81
308.881	330.81
309.111	321.81
309.341	335.81
309.571	333.81
309.8	330.81
310.03	319.81
310.26	348.81
310.49	342.81
310.72	354.81
310.949	372.81
311.179	340.81
311.409	350.81
311.639	338.81
311.868	339.81
312.098	351.81
312.328	369.81
312.557	362.81
312.787	352.81
313.017	365.81
313.246	343.81
313.476	342.81
313.706	336.81
313.935	332.81
314.165	367.81
314.394	374.81
314.624	351.81
314.853	367.81
315.083	358.81
315.312	355.81
315.542	356.81
315.771	360.81
316.001	359.81
316.23	362.81
316.46	342.81
316.689	353.81
316.919	354.81
317.148	355.81
317.377	381.81
317.607	341.81
317.836	359.81
318.065	349.81
318.295	372.81
318.524	348.81
318.753	356.81
318.983	336.81
319.212	361.81
319.441	362.81
319.67	363.81
319.9	353.81
320.129	366.81
320.358	377.81
320.587	375.81
320.816	355.81
321.046	341.81
321.275	363.81
321.504	376.81
321.733	373.81
321.962	348.81
322.191	369.81
322.42	383.81
322.649	386.81
322.878	398.81
323.108	401.81
323.337	421.81
323.566	417.81
323.795	446.81
324.024	470.81
324.253	526.81
324.482	713.81
324.71	1039.81
324.939	1451.81
325.168	1241.81
325.397	677.81
325.626	531.81
325.855	477.81
326.084	454.81
326.313	447.81
326.542	456.81
326.77	483.81
326.999	499.81
327.228	691.81
327.457	975.81
327.686	1164.81
327.914	784.81
328.143	633.81
328.372	577.81
328.6	549.81
328.829	495.81
329.058	502.81
329.287	526.81
329.515	500.81
329.744	495.81
329.972	561.81
330.201	604.81
330.43	673.81
330.658	636.81
330.887	557.81
331.115	549.81
331.344	497.81
331.572	468.81
331.801	484.81
332.03	461.81
332.258	444.81
332.486	455.81
332.715	467.81
332.943	467.81
333.172	494.81
333.4	508.81
333.629	513.81
333.857	561.81
334.085	591.81
334.314	678.81
334.542	769.81
334.771	815.81
334.999	639.81
335.227	561.81
335.455	501.81
335.684	461.81
335.912	493.81
336.14	457.81
336.369	433.81
336.597	466.81
336.825	442.81
337.053	442.81
337.281	442.81
337.51	434.81
337.738	430.81
337.966	421.81
338.194	438.81
338.422	443.81
338.65	425.81
338.878	411.81
339.106	394.81
339.334	424.81
339.562	406.81
339.79	411.81
340.018	396.81
340.246	372.81
340.474	402.81
340.702	392.81
340.93	414.81
341.158	383.81
341.386	393.81
341.614	411.81
341.842	401.81
342.07	409.81
342.298	397.81
342.526	377.81
342.754	374.81
342.981	380.81
343.209	398.81
343.437	387.81
343.665	422.81
343.893	425.81
344.12	440.81
344.348	421.81
344.576	408.81
344.804	390.81
345.031	421.81
345.259	407.81
345.487	400.81
345.714	391.81
345.942	401.81
346.17	374.81
346.397	375.81
346.625	370.81
346.853	397.81
347.08	383.81
347.308	404.81
347.535	381.81
347.763	382.81
347.99	385.81
348.218	375.81
348.445	375.81
348.673	385.81
348.9	378.81
349.128	385.81
349.355	370.81
349.583	373.81
349.81	384.81
350.037	356.81
350.265	383.81
350.492	373.81
350.72	358.81
350.947	388.81
351.174	362.81
351.402	375.81
351.629	373.81
351.856	368.81
352.083	374.81
352.311	370.81
352.538	402.81
352.765	374.81
352.992	378.81
353.22	379.81
353.447	369.81
353.674	373.81
353.901	358.81
354.128	378.81
354.355	349.81
354.583	342.81
354.81	358.81
355.037	358.81
355.264	351.81
355.491	365.81
355.718	346.81
355.945	357.81
356.172	362.81
356.399	342.81
356.626	352.81
356.853	353.81
357.08	352.81
357.307	336.81
357.534	342.81
357.761	360.81
357.988	357.81
358.215	357.81
358.441	358.81
358.668	369.81
358.895	371.81
359.122	353.81
359.349	365.81
359.576	357.81
359.802	391.81
360.029	371.81
360.256	385.81
360.483	375.81
360.709	360.81
360.936	375.81
361.163	371.81
361.39	358.81
361.616	381.81
361.843	382.81
362.07	380.81
362.296	377.81
362.523	363.81
362.749	367.81
362.976	369.81
363.203	347.81
363.429	352.81
363.656	347.81
363.882	370.81
364.109	365.81
364.335	352.81
364.562	351.81
364.788	343.81
365.015	346.81
365.241	346.81
365.468	364.81
365.694	363.81
365.92	366.81
366.147	365.81
366.373	353.81
366.599	364.81
366.826	374.81
367.052	343.81
367.278	349.81
367.505	381.81
367.731	360.81
367.957	356.81
368.184	359.81
368.41	343.81
368.636	354.81
368.862	369.81
369.089	376.81
369.315	353.81
369.541	349.81
369.767	385.81
369.993	345.81
370.219	364.81
370.445	351.81
370.672	358.81
370.898	360.81
371.124	350.81
371.35	367.81
371.576	369.81
371.802	357.81
372.028	369.81
372.254	359.81
372.48	361.81
372.706	364.81
372.932	372.81
373.158	359.81
373.384	377.81
373.61	369.81
373.835	379.81
374.061	365.81
374.287	374.81
374.513	393.81
374.739	389.81
374.965	397.81
375.191	395.81
375.416	379.81
375.642	357.81
375.868	374.81
376.094	355.81
376.319	381.81
376.545	345.81
376.771	367.81
376.997	373.81
377.222	362.81
377.448	355.81
377.674	369.81
377.899	355.81
378.125	368.81
378.35	341.81
378.576	330.81
378.802	362.81
379.027	343.81
379.253	342.81
379.478	345.81
379.704	350.81
379.929	373.81
380.155	371.81
380.38	361.81
380.606	363.81
380.831	362.81
381.057	362.81
381.282	364.81
381.507	372.81
381.733	368.81
381.958	367.81
382.184	355.81
382.409	360.81
382.634	375.81
382.86	377.81
383.085	377.81
383.31	379.81
383.535	378.81
383.761	386.81
383.986	397.81
384.211	380.81
384.436	371.81
384.662	403.81
384.887	382.81
385.112	403.81
385.337	403.81
385.562	400.81
385.787	409.81
386.013	416.81
386.238	397.81
386.463	419.81
386.688	403.81
386.913	403.81
387.138	422.81
387.363	402.81
387.588	415.81
387.813	413.81
388.038	401.81
388.263	430.81
388.488	399.81
388.713	406.81
388.938	405.81
389.163	409.81
389.387	400.81
389.612	408.81
389.837	398.81
390.062	401.81
390.287	405.81
390.512	414.81
390.736	400.81
390.961	414.81
391.186	411.81
391.411	398.81
391.636	419.81
391.86	445.81
392.085	439.81
392.31	441.81
392.534	425.81
392.759	427.81
392.984	416.81
393.208	409.81
393.433	419.81
393.658	404.81
393.882	408.81
394.107	433.81
394.331	418.81
394.556	416.81
394.78	395.81
395.005	413.81
395.229	431.81
395.454	421.81
395.678	424.81
395.903	457.81
396.127	438.81
396.352	439.81
396.576	409.81
396.801	410.81
397.025	422.81
397.249	440.81
397.474	429.81
397.698	446.81
397.922	453.81
398.147	447.81
398.371	458.81
398.595	459.81
398.82	470.81
399.044	474.81
399.268	511.81
399.492	587.81
399.717	628.81
399.941	661.81
400.165	630.81
400.389	603.81
400.613	539.81
400.837	500.81
401.062	493.81
401.286	455.81
401.51	485.81
401.734	474.81
401.958	494.81
402.182	513.81
402.406	517.81
402.63	497.81
402.854	504.81
403.078	516.81
403.302	503.81
403.526	505.81
403.75	532.81
403.974	527.81
404.198	528.81
404.422	533.81
404.645	532.81
404.869	554.81
405.093	581.81
405.317	621.81
405.541	643.81
405.765	598.81
405.988	558.81
406.212	537.81
406.436	542.81
406.66	559.81
406.883	541.81
407.107	579.81
407.331	590.81
407.555	653.81
407.778	631.81
408.002	605.81
408.226	577.81
408.449	561.81
408.673	555.81
408.896	548.81
409.12	573.81
409.344	553.81
409.567	546.81
409.791	531.81
410.014	505.81
410.238	500.81
410.461	515.81
410.685	513.81
410.908	520.81
411.132	538.81
411.355	522.81
411.578	529.81
411.802	511.81
412.025	506.81
412.249	504.81
412.472	565.81
412.695	627.81
412.919	610.81
413.142	561.81
413.365	534.81
413.589	539.81
413.812	512.81
414.035	519.81
414.258	486.81
414.482	474.81
414.705	484.81
414.928	493.81
415.151	482.81
415.374	460.81
415.597	461.81
415.821	474.81
416.044	479.81
416.267	498.81
416.49	445.81
416.713	428.81
416.936	454.81
417.159	469.81
417.382	469.81
417.605	477.81
417.828	479.81
418.051	482.81
418.274	481.81
418.497	496.81
418.72	466.81
418.943	498.81
419.166	497.81
419.389	514.81
419.611	528.81
419.834	503.81
420.057	541.81
420.28	538.81
420.503	556.81
420.726	555.81
420.948	513.81
421.171	525.81
421.394	537.81
421.617	491.81
421.839	488.81
422.062	486.81
422.285	500.81
422.507	526.81
422.73	559.81
422.953	539.81
423.175	523.81
423.398	481.81
423.621	521.81
423.843	509.81
424.066	497.81
424.288	498.81
424.511	502.81
424.733	566.81
424.956	571.81
425.178	559.81
425.401	567.81
425.623	586.81
425.846	513.81
426.068	490.81
426.291	474.81
426.513	482.81
426.735	488.81
426.958	536.81
427.18	555.81
427.402	610.81
427.625	712.81
427.847	640.81
428.069	594.81
428.292	540.81
428.514	494.81
428.736	479.81
428.958	467.81
429.181	449.81
429.403	443.81
429.625	455.81
429.847	476.81
430.069	505.81
430.292	509.81
430.514	448.81
430.736	422.81
430.958	433.81
431.18	419.81
431.402	426.81
431.624	450.81
431.846	412.81
432.068	431.81
432.29	442.81
432.512	430.81
432.734	439.81
432.956	442.81
433.178	454.81
433.4	444.81
433.622	453.81
433.844	421.81
434.066	431.81
434.287	437.81
434.509	448.81
434.731	469.81
434.953	464.81
435.175	469.81
435.397	484.81
435.618	492.81
435.84	508.81
436.062	534.81
436.284	569.81
436.505	509.81
436.727	485.81
436.949	449.81
437.17	444.81
437.392	441.81
437.614	436.81
437.835	449.81
438.057	521.81
438.278	584.81
438.5	579.81
438.721	593.81
438.943	608.81
439.165	493.81
439.386	456.81
439.608	451.81
439.829	466.81
440.05	485.81
440.272	526.81
440.493	503.81
440.715	474.81
440.936	447.81
441.158	474.81
441.379	445.81
441.6	457.81
441.822	482.81
442.043	509.81
442.264	541.81
442.486	584.81
442.707	502.81
442.928	500.81
443.149	490.81
443.371	517.81
443.592	543.81
443.813	586.81
444.034	621.81
444.255	559.81
444.476	509.81
444.698	531.81
444.919	531.81
445.14	652.81
445.361	567.81
445.582	526.81
445.803	532.81
446.024	591.81
446.245	622.81
446.466	567.81
446.687	502.81
446.908	468.81
447.129	440.81
447.35	426.81
447.571	450.81
447.792	425.81
448.013	430.81
448.234	434.81
448.455	471.81
448.675	533.81
448.896	596.81
449.117	510.81
449.338	495.81
449.559	579.81
449.779	637.81
450	526.81
450.221	471.81
450.442	421.81
450.662	406.81
450.883	418.81
451.104	433.81
451.324	415.81
451.545	406.81
451.766	436.81
451.986	405.81
452.207	416.81
452.428	407.81
452.648	408.81
452.869	395.81
453.089	409.81
453.31	407.81
453.53	389.81
453.751	405.81
453.971	408.81
454.192	396.81
454.412	404.81
454.633	392.81
454.853	392.81
455.073	388.81
455.294	393.81
455.514	455.81
455.734	418.81
455.955	391.81
456.175	399.81
456.395	380.81
456.616	380.81
456.836	371.81
457.056	381.81
457.276	362.81
457.497	366.81
457.717	381.81
457.937	379.81
458.157	377.81
458.377	376.81
458.598	407.81
458.818	436.81
459.038	466.81
459.258	489.81
459.478	457.81
459.698	435.81
459.918	438.81
460.138	455.81
460.358	454.81
460.578	442.81
460.798	472.81
461.018	479.81
461.238	471.81
461.458	453.81
461.678	462.81
461.898	491.81
462.118	454.81
462.338	480.81
462.558	483.81
462.777	527.81
462.997	524.81
463.217	573.81
463.437	547.81
463.657	518.81
463.876	513.81
464.096	512.81
464.316	505.81
464.536	532.81
464.755	507.81
464.975	515.81
465.195	506.81
465.414	506.81
465.634	451.81
465.854	457.81
466.073	450.81
466.293	416.81
466.512	415.81
466.732	425.81
466.951	425.81
467.171	413.81
467.391	411.81
467.61	422.81
467.829	417.81
468.049	445.81
468.268	470.81
468.488	439.81
468.707	401.81
468.927	407.81
469.146	403.81
469.365	425.81
469.585	421.81
469.804	430.81
470.023	426.81
470.243	440.81
470.462	433.81
470.681	417.81
470.901	417.81
471.12	438.81
471.339	431.81
471.558	441.81
471.777	423.81
471.997	441.81
472.216	456.81
472.435	565.81
472.654	521.81
472.873	475.81
473.092	444.81
473.311	456.81
473.53	414.81
473.749	418.81
473.968	438.81
474.187	483.81
474.406	511.81
474.625	445.81
474.844	425.81
475.063	401.81
475.282	429.81
475.501	417.81
475.72	418.81
475.939	422.81
476.158	446.81
476.377	420.81
476.596	424.81
476.814	458.81
477.033	417.81
477.252	449.81
477.471	449.81
477.69	435.81
477.908	428.81
478.127	443.81
478.346	447.81
478.564	459.81
478.783	473.81
479.002	474.81
479.22	490.81
479.439	476.81
479.658	493.81
479.876	482.81
480.095	513.81
480.313	535.81
480.532	541.81
480.751	547.81
480.969	580.81
481.188	705.81
481.406	801.81
481.624	647.81
481.843	574.81
482.061	548.81
482.28	533.81
482.498	516.81
482.717	482.81
482.935	507.81
483.153	474.81
483.372	474.81
483.59	490.81
483.808	485.81
484.027	490.81
484.245	490.81
484.463	476.81
484.681	489.81
484.9	479.81
485.118	485.81
485.336	522.81
485.554	488.81
485.772	494.81
485.99	515.81
486.209	490.81
486.427	525.81
486.645	523.81
486.863	483.81
487.081	523.81
487.299	491.81
487.517	489.81
487.735	508.81
487.953	488.81
488.171	525.81
488.389	513.81
488.607	485.81
488.825	490.81
489.043	509.81
489.261	513.81
489.479	514.81
489.696	529.81
489.914	527.81
490.132	521.81
490.35	527.81
490.568	553.81
490.786	570.81
491.003	563.81
491.221	557.81
491.439	573.81
491.657	578.81
491.874	583.81
492.092	610.81
492.31	610.81
492.527	609.81
492.745	614.81
492.963	621.81
493.18	600.81
493.398	609.81
493.615	632.81
493.833	606.81
494.05	597.81
494.268	595.81
494.485	596.81
494.703	587.81
494.92	590.81
495.138	585.81
495.355	602.81
495.573	574.81
495.79	597.81
496.008	583.81
496.225	602.81
496.442	575.81
496.66	558.81
496.877	582.81
497.094	588.81
497.312	589.81
497.529	597.81
497.746	596.81
497.963	629.81
498.181	659.81
498.398	689.81
498.615	655.81
498.832	706.81
499.049	721.81
499.267	781.81
499.484	807.81
499.701	870.81
499.918	916.81
500.135	993.81
500.352	1059.81
500.569	1134.81
500.786	1129.81
501.003	1077.81
501.22	1011.81
501.437	914.81
501.654	870.81
501.871	857.81
