Data from 1984.PennyLincolnUp.Lamp.En5.5.200Scan.071819.P1_HRD10591_16-59-34-968.txt Node
Date: Thu Jul 18 16:59:34 EDT 2019
User: cochatt
Spectrometer: HR+D1059
Trigger mode: 1
Integration Time (sec): 1.000000E-1
Scans to average: 1
Electric dark correction enabled: true
Nonlinearity correction enabled: false
Boxcar width: 0
XAxis mode: Wavelengths
Number of Pixels in Spectrum: 2048
>>>>>Begin Spectral Data<<<<<
223.165	-14.06
223.4	-14.06
223.635	-14.06
223.869	-6.06
224.104	-24.06
224.338	-5.06
224.573	-24.06
224.808	-17.06
225.042	-8.06
225.277	2.94
225.511	3.94
225.746	-4.06
225.98	0.94
226.215	4.94
226.449	18.94
226.683	15.94
226.918	21.94
227.152	32.94
227.387	19.94
227.621	34.94
227.856	46.94
228.09	40.94
228.324	44.94
228.559	51.94
228.793	68.94
229.027	78.94
229.262	83.94
229.496	92.94
229.73	123.94
229.964	120.94
230.199	100.94
230.433	110.94
230.667	118.94
230.901	108.94
231.136	100.94
231.37	100.94
231.604	112.94
231.838	96.94
232.072	95.94
232.306	86.94
232.541	109.94
232.775	112.94
233.009	92.94
233.243	113.94
233.477	112.94
233.711	110.94
233.945	96.94
234.179	110.94
234.413	111.94
234.647	105.94
234.881	119.94
235.115	116.94
235.349	112.94
235.583	111.94
235.817	124.94
236.051	113.94
236.285	126.94
236.519	116.94
236.753	126.94
236.987	127.94
237.221	134.94
237.455	167.94
237.689	135.94
237.922	127.94
238.156	118.94
238.39	103.94
238.624	110.94
238.858	117.94
239.091	124.94
239.325	129.94
239.559	108.94
239.793	131.94
240.027	124.94
240.26	119.94
240.494	144.94
240.728	144.94
240.961	138.94
241.195	133.94
241.429	117.94
241.662	131.94
241.896	114.94
242.13	135.94
242.363	142.94
242.597	132.94
242.83	133.94
243.064	129.94
243.298	121.94
243.531	113.94
243.765	130.94
243.998	138.94
244.232	135.94
244.465	144.94
244.699	140.94
244.932	152.94
245.166	137.94
245.399	139.94
245.633	119.94
245.866	141.94
246.099	133.94
246.333	134.94
246.566	156.94
246.8	162.94
247.033	142.94
247.266	150.94
247.5	155.94
247.733	155.94
247.966	147.94
248.2	170.94
248.433	153.94
248.666	160.94
248.899	152.94
249.133	183.94
249.366	160.94
249.599	182.94
249.832	164.94
250.066	177.94
250.299	160.94
250.532	187.94
250.765	215.94
250.998	203.94
251.231	209.94
251.465	171.94
251.698	191.94
251.931	190.94
252.164	173.94
252.397	178.94
252.63	186.94
252.863	163.94
253.096	186.94
253.329	192.94
253.562	210.94
253.795	194.94
254.028	188.94
254.261	187.94
254.494	196.94
254.727	219.94
254.96	223.94
255.193	204.94
255.426	195.94
255.659	194.94
255.892	231.94
256.124	270.94
256.357	271.94
256.59	244.94
256.823	211.94
257.056	204.94
257.289	193.94
257.521	190.94
257.754	198.94
257.987	204.94
258.22	197.94
258.452	183.94
258.685	188.94
258.918	176.94
259.151	208.94
259.383	207.94
259.616	187.94
259.849	201.94
260.081	196.94
260.314	223.94
260.547	222.94
260.779	209.94
261.012	189.94
261.244	200.94
261.477	204.94
261.71	211.94
261.942	203.94
262.175	212.94
262.407	220.94
262.64	192.94
262.872	184.94
263.105	188.94
263.337	195.94
263.57	206.94
263.802	206.94
264.035	201.94
264.267	207.94
264.499	204.94
264.732	199.94
264.964	183.94
265.197	205.94
265.429	215.94
265.661	208.94
265.894	212.94
266.126	212.94
266.358	212.94
266.591	226.94
266.823	215.94
267.055	200.94
267.287	216.94
267.52	197.94
267.752	228.94
267.984	226.94
268.216	209.94
268.448	222.94
268.681	214.94
268.913	244.94
269.145	244.94
269.377	235.94
269.609	236.94
269.841	244.94
270.073	252.94
270.306	262.94
270.538	255.94
270.77	267.94
271.002	257.94
271.234	248.94
271.466	268.94
271.698	262.94
271.93	283.94
272.162	262.94
272.394	263.94
272.626	258.94
272.858	244.94
273.09	247.94
273.322	259.94
273.553	239.94
273.785	255.94
274.017	263.94
274.249	262.94
274.481	239.94
274.713	260.94
274.945	247.94
275.176	254.94
275.408	252.94
275.64	263.94
275.872	251.94
276.104	262.94
276.335	254.94
276.567	261.94
276.799	265.94
277.031	281.94
277.262	273.94
277.494	293.94
277.726	265.94
277.957	271.94
278.189	259.94
278.421	266.94
278.652	254.94
278.884	252.94
279.115	275.94
279.347	269.94
279.579	264.94
279.81	270.94
280.042	254.94
280.273	275.94
280.505	272.94
280.736	274.94
280.968	259.94
281.199	268.94
281.431	277.94
281.662	263.94
281.894	266.94
282.125	272.94
282.356	249.94
282.588	285.94
282.819	293.94
283.051	270.94
283.282	286.94
283.513	272.94
283.745	279.94
283.976	277.94
284.207	282.94
284.439	273.94
284.67	298.94
284.901	258.94
285.132	273.94
285.364	266.94
285.595	276.94
285.826	273.94
286.057	287.94
286.288	302.94
286.52	285.94
286.751	281.94
286.982	273.94
287.213	280.94
287.444	283.94
287.675	273.94
287.906	279.94
288.138	283.94
288.369	283.94
288.6	285.94
288.831	304.94
289.062	304.94
289.293	297.94
289.524	304.94
289.755	288.94
289.986	293.94
290.217	275.94
290.448	275.94
290.679	282.94
290.91	276.94
291.141	287.94
291.371	291.94
291.602	294.94
291.833	283.94
292.064	262.94
292.295	287.94
292.526	306.94
292.757	281.94
292.987	283.94
293.218	271.94
293.449	290.94
293.68	284.94
293.91	290.94
294.141	306.94
294.372	292.94
294.603	292.94
294.833	286.94
295.064	278.94
295.295	306.94
295.525	299.94
295.756	281.94
295.987	284.94
296.217	305.94
296.448	330.94
296.679	312.94
296.909	302.94
297.14	280.94
297.37	291.94
297.601	316.94
297.831	303.94
298.062	304.94
298.292	282.94
298.523	310.94
298.753	305.94
298.984	321.94
299.214	305.94
299.445	292.94
299.675	297.94
299.905	303.94
300.136	314.94
300.366	305.94
300.597	321.94
300.827	315.94
301.057	308.94
301.288	332.94
301.518	318.94
301.748	322.94
301.979	321.94
302.209	323.94
302.439	313.94
302.669	324.94
302.9	316.94
303.13	297.94
303.36	320.94
303.59	344.94
303.82	340.94
304.051	331.94
304.281	325.94
304.511	317.94
304.741	326.94
304.971	321.94
305.201	332.94
305.431	320.94
305.661	329.94
305.891	344.94
306.121	316.94
306.352	314.94
306.582	319.94
306.812	323.94
307.042	301.94
307.272	330.94
307.502	318.94
307.731	334.94
307.961	331.94
308.191	327.94
308.421	321.94
308.651	318.94
308.881	348.94
309.111	344.94
309.341	306.94
309.571	320.94
309.8	336.94
310.03	345.94
310.26	346.94
310.49	341.94
310.72	360.94
310.949	368.94
311.179	342.94
311.409	358.94
311.639	361.94
311.868	361.94
312.098	344.94
312.328	355.94
312.557	354.94
312.787	371.94
313.017	363.94
313.246	350.94
313.476	362.94
313.706	361.94
313.935	359.94
314.165	380.94
314.394	350.94
314.624	378.94
314.853	374.94
315.083	361.94
315.312	360.94
315.542	353.94
315.771	352.94
316.001	352.94
316.23	341.94
316.46	350.94
316.689	362.94
316.919	370.94
317.148	360.94
317.377	366.94
317.607	372.94
317.836	356.94
318.065	344.94
318.295	361.94
318.524	358.94
318.753	343.94
318.983	357.94
319.212	344.94
319.441	350.94
319.67	354.94
319.9	367.94
320.129	350.94
320.358	372.94
320.587	368.94
320.816	374.94
321.046	365.94
321.275	374.94
321.504	375.94
321.733	371.94
321.962	364.94
322.191	390.94
322.42	396.94
322.649	383.94
322.878	402.94
323.108	392.94
323.337	411.94
323.566	434.94
323.795	453.94
324.024	496.94
324.253	562.94
324.482	763.94
324.71	1052.94
324.939	1495.94
325.168	1278.94
325.397	710.94
325.626	536.94
325.855	457.94
326.084	443.94
326.313	432.94
326.542	463.94
326.77	478.94
326.999	560.94
327.228	697.94
327.457	965.94
327.686	1170.94
327.914	820.94
328.143	624.94
328.372	545.94
328.6	538.94
328.829	484.94
329.058	499.94
329.287	518.94
329.515	518.94
329.744	494.94
329.972	534.94
330.201	581.94
330.43	646.94
330.658	623.94
330.887	578.94
331.115	517.94
331.344	497.94
331.572	464.94
331.801	470.94
332.03	484.94
332.258	448.94
332.486	439.94
332.715	450.94
332.943	461.94
333.172	480.94
333.4	489.94
333.629	512.94
333.857	534.94
334.085	590.94
334.314	640.94
334.542	739.94
334.771	750.94
334.999	616.94
335.227	528.94
335.455	506.94
335.684	487.94
335.912	458.94
336.14	451.94
336.369	461.94
336.597	457.94
336.825	442.94
337.053	416.94
337.281	435.94
337.51	441.94
337.738	442.94
337.966	414.94
338.194	420.94
338.422	403.94
338.65	406.94
338.878	411.94
339.106	404.94
339.334	414.94
339.562	419.94
339.79	398.94
340.018	392.94
340.246	398.94
340.474	392.94
340.702	416.94
340.93	389.94
341.158	387.94
341.386	400.94
341.614	391.94
341.842	422.94
342.07	396.94
342.298	392.94
342.526	373.94
342.754	380.94
342.981	394.94
343.209	377.94
343.437	395.94
343.665	405.94
343.893	436.94
344.12	432.94
344.348	427.94
344.576	417.94
344.804	410.94
345.031	410.94
345.259	415.94
345.487	396.94
345.714	384.94
345.942	396.94
346.17	372.94
346.397	375.94
346.625	382.94
346.853	378.94
347.08	366.94
347.308	381.94
347.535	393.94
347.763	405.94
347.99	382.94
348.218	374.94
348.445	378.94
348.673	389.94
348.9	380.94
349.128	362.94
349.355	362.94
349.583	381.94
349.81	376.94
350.037	367.94
350.265	345.94
350.492	366.94
350.72	362.94
350.947	394.94
351.174	370.94
351.402	391.94
351.629	368.94
351.856	382.94
352.083	378.94
352.311	375.94
352.538	384.94
352.765	353.94
352.992	388.94
353.22	383.94
353.447	374.94
353.674	388.94
353.901	357.94
354.128	378.94
354.355	368.94
354.583	367.94
354.81	361.94
355.037	352.94
355.264	357.94
355.491	348.94
355.718	343.94
355.945	336.94
356.172	367.94
356.399	373.94
356.626	354.94
356.853	360.94
357.08	335.94
357.307	362.94
357.534	350.94
357.761	344.94
357.988	359.94
358.215	353.94
358.441	354.94
358.668	345.94
358.895	351.94
359.122	373.94
359.349	347.94
359.576	364.94
359.802	382.94
360.029	374.94
360.256	409.94
360.483	377.94
360.709	396.94
360.936	385.94
361.163	369.94
361.39	368.94
361.616	363.94
361.843	361.94
362.07	356.94
362.296	364.94
362.523	383.94
362.749	389.94
362.976	376.94
363.203	345.94
363.429	350.94
363.656	352.94
363.882	360.94
364.109	339.94
364.335	358.94
364.562	372.94
364.788	360.94
365.015	366.94
365.241	358.94
365.468	352.94
365.694	363.94
365.92	362.94
366.147	338.94
366.373	340.94
366.599	355.94
366.826	353.94
367.052	350.94
367.278	359.94
367.505	344.94
367.731	337.94
367.957	348.94
368.184	356.94
368.41	374.94
368.636	362.94
368.862	348.94
369.089	377.94
369.315	354.94
369.541	363.94
369.767	363.94
369.993	360.94
370.219	360.94
370.445	353.94
370.672	352.94
370.898	352.94
371.124	375.94
371.35	369.94
371.576	375.94
371.802	360.94
372.028	343.94
372.254	366.94
372.48	346.94
372.706	359.94
372.932	362.94
373.158	376.94
373.384	371.94
373.61	362.94
373.835	375.94
374.061	361.94
374.287	374.94
374.513	363.94
374.739	384.94
374.965	384.94
375.191	389.94
375.416	379.94
375.642	361.94
375.868	373.94
376.094	358.94
376.319	356.94
376.545	370.94
376.771	359.94
376.997	359.94
377.222	371.94
377.448	354.94
377.674	349.94
377.899	356.94
378.125	347.94
378.35	366.94
378.576	368.94
378.802	340.94
379.027	362.94
379.253	360.94
379.478	330.94
379.704	356.94
379.929	365.94
380.155	372.94
380.38	358.94
380.606	361.94
380.831	354.94
381.057	365.94
381.282	368.94
381.507	374.94
381.733	360.94
381.958	354.94
382.184	353.94
382.409	360.94
382.634	364.94
382.86	377.94
383.085	376.94
383.31	373.94
383.535	394.94
383.761	383.94
383.986	393.94
384.211	390.94
384.436	399.94
384.662	400.94
384.887	421.94
385.112	406.94
385.337	410.94
385.562	408.94
385.787	416.94
386.013	394.94
386.238	407.94
386.463	416.94
386.688	414.94
386.913	393.94
387.138	382.94
387.363	402.94
387.588	409.94
387.813	402.94
388.038	411.94
388.263	421.94
388.488	398.94
388.713	393.94
388.938	385.94
389.163	397.94
389.387	417.94
389.612	386.94
389.837	386.94
390.062	409.94
390.287	410.94
390.512	405.94
390.736	392.94
390.961	408.94
391.186	406.94
391.411	421.94
391.636	416.94
391.86	424.94
392.085	444.94
392.31	458.94
392.534	455.94
392.759	430.94
392.984	417.94
393.208	412.94
393.433	417.94
393.658	418.94
393.882	423.94
394.107	419.94
394.331	407.94
394.556	434.94
394.78	425.94
395.005	396.94
395.229	436.94
395.454	432.94
395.678	444.94
395.903	442.94
396.127	438.94
396.352	448.94
396.576	425.94
396.801	421.94
397.025	412.94
397.249	438.94
397.474	428.94
397.698	438.94
397.922	464.94
398.147	461.94
398.371	443.94
398.595	468.94
398.82	464.94
399.044	509.94
399.268	522.94
399.492	587.94
399.717	643.94
399.941	636.94
400.165	601.94
400.389	600.94
400.613	555.94
400.837	508.94
401.062	518.94
401.286	510.94
401.51	469.94
401.734	478.94
401.958	482.94
402.182	477.94
402.406	481.94
402.63	509.94
402.854	503.94
403.078	521.94
403.302	500.94
403.526	508.94
403.75	550.94
403.974	530.94
404.198	527.94
404.422	531.94
404.645	540.94
404.869	547.94
405.093	580.94
405.317	607.94
405.541	617.94
405.765	566.94
405.988	568.94
406.212	552.94
406.436	544.94
406.66	562.94
406.883	519.94
407.107	565.94
407.331	607.94
407.555	662.94
407.778	642.94
408.002	617.94
408.226	582.94
408.449	551.94
408.673	548.94
408.896	559.94
409.12	569.94
409.344	593.94
409.567	531.94
409.791	522.94
410.014	521.94
410.238	499.94
410.461	489.94
410.685	502.94
410.908	522.94
411.132	539.94
411.355	519.94
411.578	539.94
411.802	518.94
412.025	514.94
412.249	552.94
412.472	579.94
412.695	586.94
412.919	574.94
413.142	528.94
413.365	515.94
413.589	521.94
413.812	515.94
414.035	492.94
414.258	489.94
414.482	479.94
414.705	470.94
414.928	490.94
415.151	483.94
415.374	466.94
415.597	452.94
415.821	467.94
416.044	461.94
416.267	460.94
416.49	461.94
416.713	470.94
416.936	465.94
417.159	460.94
417.382	480.94
417.605	476.94
417.828	486.94
418.051	497.94
418.274	489.94
418.497	460.94
418.72	486.94
418.943	505.94
419.166	511.94
419.389	519.94
419.611	527.94
419.834	508.94
420.057	537.94
420.28	530.94
420.503	506.94
420.726	507.94
420.948	502.94
421.171	512.94
421.394	528.94
421.617	510.94
421.839	468.94
422.062	498.94
422.285	476.94
422.507	512.94
422.73	587.94
422.953	567.94
423.175	514.94
423.398	508.94
423.621	512.94
423.843	515.94
424.066	511.94
424.288	532.94
424.511	528.94
424.733	543.94
424.956	609.94
425.178	550.94
425.401	584.94
425.623	597.94
425.846	515.94
426.068	498.94
426.291	480.94
426.513	475.94
426.735	482.94
426.958	514.94
427.18	552.94
427.402	649.94
427.625	700.94
427.847	616.94
428.069	571.94
428.292	542.94
428.514	480.94
428.736	472.94
428.958	462.94
429.181	469.94
429.403	447.94
429.625	465.94
429.847	483.94
430.069	498.94
430.292	508.94
430.514	459.94
430.736	464.94
430.958	460.94
431.18	429.94
431.402	426.94
431.624	432.94
431.846	450.94
432.068	430.94
432.29	429.94
432.512	438.94
432.734	449.94
432.956	424.94
433.178	441.94
433.4	434.94
433.622	453.94
433.844	448.94
434.066	435.94
434.287	440.94
434.509	447.94
434.731	477.94
434.953	461.94
435.175	454.94
435.397	494.94
435.618	494.94
435.84	510.94
436.062	543.94
436.284	588.94
436.505	523.94
436.727	489.94
436.949	461.94
437.17	430.94
437.392	442.94
437.614	448.94
437.835	464.94
438.057	498.94
438.278	564.94
438.5	566.94
438.721	611.94
438.943	607.94
439.165	494.94
439.386	482.94
439.608	472.94
439.829	466.94
440.05	462.94
440.272	515.94
440.493	487.94
440.715	452.94
440.936	471.94
441.158	465.94
441.379	469.94
441.6	469.94
441.822	498.94
442.043	534.94
442.264	566.94
442.486	597.94
442.707	513.94
442.928	500.94
443.149	504.94
443.371	519.94
443.592	531.94
443.813	595.94
444.034	602.94
444.255	551.94
444.476	523.94
444.698	510.94
444.919	538.94
445.14	608.94
445.361	548.94
445.582	523.94
445.803	543.94
446.024	630.94
446.245	601.94
446.466	555.94
446.687	488.94
446.908	470.94
447.129	456.94
447.35	443.94
447.571	415.94
447.792	430.94
448.013	435.94
448.234	439.94
448.455	459.94
448.675	550.94
448.896	635.94
449.117	548.94
449.338	501.94
449.559	572.94
449.779	624.94
450	496.94
450.221	450.94
450.442	446.94
450.662	432.94
450.883	415.94
451.104	424.94
451.324	419.94
451.545	415.94
451.766	409.94
451.986	402.94
452.207	411.94
452.428	402.94
452.648	402.94
452.869	386.94
453.089	398.94
453.31	382.94
453.53	379.94
453.751	388.94
453.971	392.94
454.192	410.94
454.412	397.94
454.633	376.94
454.853	394.94
455.073	384.94
455.294	423.94
455.514	426.94
455.734	430.94
455.955	388.94
456.175	378.94
456.395	371.94
456.616	386.94
456.836	366.94
457.056	384.94
457.276	353.94
457.497	377.94
457.717	377.94
457.937	391.94
458.157	400.94
458.377	409.94
458.598	395.94
458.818	454.94
459.038	508.94
459.258	486.94
459.478	480.94
459.698	437.94
459.918	450.94
460.138	434.94
460.358	462.94
460.578	440.94
460.798	475.94
461.018	459.94
461.238	485.94
461.458	466.94
461.678	466.94
461.898	471.94
462.118	496.94
462.338	498.94
462.558	491.94
462.777	516.94
462.997	525.94
463.217	569.94
463.437	563.94
463.657	536.94
463.876	535.94
464.096	516.94
464.316	518.94
464.536	524.94
464.755	521.94
464.975	491.94
465.195	500.94
465.414	524.94
465.634	483.94
465.854	468.94
466.073	459.94
466.293	436.94
466.512	419.94
466.732	419.94
466.951	411.94
467.171	407.94
467.391	407.94
467.61	440.94
467.829	433.94
468.049	427.94
468.268	454.94
468.488	443.94
468.707	406.94
468.927	404.94
469.146	416.94
469.365	434.94
469.585	408.94
469.804	427.94
470.023	417.94
470.243	450.94
470.462	432.94
470.681	442.94
470.901	436.94
471.12	430.94
471.339	421.94
471.558	422.94
471.777	443.94
471.997	422.94
472.216	450.94
472.435	545.94
472.654	491.94
472.873	456.94
473.092	434.94
473.311	451.94
473.53	441.94
473.749	428.94
473.968	421.94
474.187	490.94
474.406	489.94
474.625	441.94
474.844	415.94
475.063	410.94
475.282	401.94
475.501	401.94
475.72	422.94
475.939	411.94
476.158	437.94
476.377	418.94
476.596	417.94
476.814	432.94
477.033	455.94
477.252	427.94
477.471	441.94
477.69	440.94
477.908	452.94
478.127	471.94
478.346	473.94
478.564	487.94
478.783	472.94
479.002	491.94
479.22	484.94
479.439	479.94
479.658	482.94
479.876	476.94
480.095	503.94
480.313	542.94
480.532	516.94
480.751	528.94
480.969	572.94
481.188	680.94
481.406	762.94
481.624	648.94
481.843	577.94
482.061	525.94
482.28	518.94
482.498	492.94
482.717	491.94
482.935	493.94
483.153	475.94
483.372	512.94
483.59	494.94
483.808	504.94
484.027	465.94
484.245	481.94
484.463	513.94
484.681	500.94
484.9	497.94
485.118	470.94
485.336	488.94
485.554	495.94
485.772	510.94
485.99	535.94
486.209	504.94
486.427	486.94
486.645	522.94
486.863	522.94
487.081	503.94
487.299	495.94
487.517	516.94
487.735	527.94
487.953	489.94
488.171	496.94
488.389	512.94
488.607	511.94
488.825	495.94
489.043	499.94
489.261	501.94
489.479	514.94
489.696	496.94
489.914	560.94
490.132	521.94
490.35	512.94
490.568	549.94
490.786	528.94
491.003	554.94
491.221	550.94
491.439	576.94
491.657	575.94
491.874	570.94
492.092	591.94
492.31	608.94
492.527	608.94
492.745	593.94
492.963	622.94
493.18	618.94
493.398	618.94
493.615	587.94
493.833	623.94
494.05	584.94
494.268	587.94
494.485	586.94
494.703	581.94
494.92	590.94
495.138	560.94
495.355	599.94
495.573	599.94
495.79	598.94
496.008	588.94
496.225	591.94
496.442	574.94
496.66	591.94
496.877	602.94
497.094	596.94
497.312	601.94
497.529	592.94
497.746	631.94
497.963	619.94
498.181	662.94
498.398	652.94
498.615	698.94
498.832	692.94
499.049	723.94
499.267	783.94
499.484	818.94
499.701	886.94
499.918	928.94
500.135	992.94
500.352	1110.94
500.569	1114.94
500.786	1094.94
501.003	1072.94
501.22	1028.94
501.437	927.94
501.654	892.94
501.871	869.94
502.088	770.94
