Data from 1984.PennyLincolnUp.Lamp.En5.5.200Scan.071819.P1_HRD10591_17-00-04-969.txt Node
Date: Thu Jul 18 17:00:04 EDT 2019
User: cochatt
Spectrometer: HR+D1059
Trigger mode: 1
Integration Time (sec): 1.000000E-1
Scans to average: 1
Electric dark correction enabled: true
Nonlinearity correction enabled: false
Boxcar width: 0
XAxis mode: Wavelengths
Number of Pixels in Spectrum: 2048
>>>>>Begin Spectral Data<<<<<
223.165	-17.31
223.4	-17.31
223.635	-17.31
223.869	-14.31
224.104	-16.31
224.338	-14.31
224.573	-7.31
224.808	-20.31
225.042	2.69
225.277	1.69
225.511	-4.31
225.746	8.69
225.98	0.69
226.215	14.69
226.449	2.69
226.683	9.69
226.918	19.69
227.152	33.69
227.387	43.69
227.621	45.69
227.856	44.69
228.09	43.69
228.324	53.69
228.559	48.69
228.793	53.69
229.027	86.69
229.262	91.69
229.496	87.69
229.73	107.69
229.964	137.69
230.199	95.69
230.433	113.69
230.667	106.69
230.901	105.69
231.136	102.69
231.37	98.69
231.604	111.69
231.838	114.69
232.072	114.69
232.306	114.69
232.541	120.69
232.775	85.69
233.009	115.69
233.243	110.69
233.477	103.69
233.711	102.69
233.945	122.69
234.179	113.69
234.413	101.69
234.647	113.69
234.881	108.69
235.115	115.69
235.349	116.69
235.583	101.69
235.817	105.69
236.051	110.69
236.285	115.69
236.519	102.69
236.753	115.69
236.987	119.69
237.221	156.69
237.455	171.69
237.689	150.69
237.922	130.69
238.156	115.69
238.39	113.69
238.624	120.69
238.858	110.69
239.091	106.69
239.325	117.69
239.559	115.69
239.793	112.69
240.027	117.69
240.26	105.69
240.494	140.69
240.728	133.69
240.961	125.69
241.195	126.69
241.429	143.69
241.662	130.69
241.896	123.69
242.13	133.69
242.363	111.69
242.597	121.69
242.83	148.69
243.064	134.69
243.298	131.69
243.531	128.69
243.765	132.69
243.998	120.69
244.232	127.69
244.465	131.69
244.699	136.69
244.932	129.69
245.166	141.69
245.399	126.69
245.633	148.69
245.866	138.69
246.099	127.69
246.333	130.69
246.566	136.69
246.8	141.69
247.033	137.69
247.266	136.69
247.5	160.69
247.733	140.69
247.966	145.69
248.2	163.69
248.433	165.69
248.666	159.69
248.899	161.69
249.133	161.69
249.366	175.69
249.599	174.69
249.832	162.69
250.066	175.69
250.299	186.69
250.532	177.69
250.765	214.69
250.998	230.69
251.231	182.69
251.465	187.69
251.698	185.69
251.931	175.69
252.164	182.69
252.397	170.69
252.63	174.69
252.863	165.69
253.096	175.69
253.329	175.69
253.562	191.69
253.795	199.69
254.028	179.69
254.261	185.69
254.494	183.69
254.727	209.69
254.96	222.69
255.193	253.69
255.426	206.69
255.659	208.69
255.892	243.69
256.124	261.69
256.357	298.69
256.59	249.69
256.823	209.69
257.056	214.69
257.289	207.69
257.521	192.69
257.754	200.69
257.987	192.69
258.22	185.69
258.452	192.69
258.685	178.69
258.918	179.69
259.151	183.69
259.383	213.69
259.616	197.69
259.849	197.69
260.081	208.69
260.314	215.69
260.547	212.69
260.779	223.69
261.012	232.69
261.244	195.69
261.477	218.69
261.71	204.69
261.942	207.69
262.175	219.69
262.407	207.69
262.64	219.69
262.872	207.69
263.105	193.69
263.337	201.69
263.57	202.69
263.802	207.69
264.035	200.69
264.267	227.69
264.499	219.69
264.732	226.69
264.964	202.69
265.197	224.69
265.429	200.69
265.661	211.69
265.894	196.69
266.126	214.69
266.358	201.69
266.591	193.69
266.823	217.69
267.055	208.69
267.287	215.69
267.52	203.69
267.752	214.69
267.984	214.69
268.216	203.69
268.448	217.69
268.681	215.69
268.913	229.69
269.145	232.69
269.377	255.69
269.609	241.69
269.841	233.69
270.073	241.69
270.306	245.69
270.538	263.69
270.77	257.69
271.002	279.69
271.234	243.69
271.466	262.69
271.698	270.69
271.93	259.69
272.162	254.69
272.394	283.69
272.626	254.69
272.858	257.69
273.09	235.69
273.322	251.69
273.553	232.69
273.785	258.69
274.017	258.69
274.249	248.69
274.481	241.69
274.713	241.69
274.945	247.69
275.176	257.69
275.408	266.69
275.64	253.69
275.872	246.69
276.104	262.69
276.335	249.69
276.567	249.69
276.799	270.69
277.031	271.69
277.262	271.69
277.494	291.69
277.726	280.69
277.957	264.69
278.189	261.69
278.421	263.69
278.652	265.69
278.884	256.69
279.115	254.69
279.347	234.69
279.579	265.69
279.81	243.69
280.042	264.69
280.273	269.69
280.505	265.69
280.736	279.69
280.968	263.69
281.199	267.69
281.431	266.69
281.662	261.69
281.894	266.69
282.125	261.69
282.356	276.69
282.588	296.69
282.819	288.69
283.051	273.69
283.282	273.69
283.513	254.69
283.745	257.69
283.976	283.69
284.207	271.69
284.439	284.69
284.67	265.69
284.901	259.69
285.132	282.69
285.364	263.69
285.595	276.69
285.826	276.69
286.057	281.69
286.288	277.69
286.52	287.69
286.751	280.69
286.982	285.69
287.213	289.69
287.444	281.69
287.675	291.69
287.906	279.69
288.138	284.69
288.369	299.69
288.6	284.69
288.831	289.69
289.062	295.69
289.293	282.69
289.524	289.69
289.755	297.69
289.986	287.69
290.217	278.69
290.448	284.69
290.679	272.69
290.91	276.69
291.141	289.69
291.371	260.69
291.602	277.69
291.833	272.69
292.064	296.69
292.295	280.69
292.526	273.69
292.757	303.69
292.987	270.69
293.218	293.69
293.449	294.69
293.68	286.69
293.91	292.69
294.141	276.69
294.372	299.69
294.603	286.69
294.833	290.69
295.064	286.69
295.295	284.69
295.525	270.69
295.756	304.69
295.987	293.69
296.217	309.69
296.448	311.69
296.679	310.69
296.909	288.69
297.14	279.69
297.37	297.69
297.601	310.69
297.831	299.69
298.062	296.69
298.292	304.69
298.523	321.69
298.753	325.69
298.984	282.69
299.214	311.69
299.445	330.69
299.675	296.69
299.905	303.69
300.136	301.69
300.366	311.69
300.597	304.69
300.827	329.69
301.057	295.69
301.288	324.69
301.518	312.69
301.748	312.69
301.979	337.69
302.209	309.69
302.439	326.69
302.669	339.69
302.9	333.69
303.13	304.69
303.36	323.69
303.59	322.69
303.82	327.69
304.051	340.69
304.281	323.69
304.511	311.69
304.741	334.69
304.971	312.69
305.201	314.69
305.431	313.69
305.661	328.69
305.891	325.69
306.121	312.69
306.352	317.69
306.582	318.69
306.812	326.69
307.042	307.69
307.272	318.69
307.502	335.69
307.731	343.69
307.961	332.69
308.191	319.69
308.421	324.69
308.651	309.69
308.881	321.69
309.111	318.69
309.341	335.69
309.571	334.69
309.8	335.69
310.03	323.69
310.26	338.69
310.49	314.69
310.72	335.69
310.949	363.69
311.179	368.69
311.409	357.69
311.639	345.69
311.868	361.69
312.098	340.69
312.328	348.69
312.557	380.69
312.787	371.69
313.017	369.69
313.246	361.69
313.476	361.69
313.706	351.69
313.935	357.69
314.165	366.69
314.394	365.69
314.624	366.69
314.853	369.69
315.083	366.69
315.312	373.69
315.542	358.69
315.771	359.69
316.001	342.69
316.23	344.69
316.46	334.69
316.689	381.69
316.919	351.69
317.148	354.69
317.377	350.69
317.607	367.69
317.836	372.69
318.065	358.69
318.295	355.69
318.524	354.69
318.753	345.69
318.983	357.69
319.212	345.69
319.441	347.69
319.67	353.69
319.9	354.69
320.129	359.69
320.358	365.69
320.587	353.69
320.816	366.69
321.046	367.69
321.275	399.69
321.504	378.69
321.733	368.69
321.962	372.69
322.191	378.69
322.42	392.69
322.649	386.69
322.878	406.69
323.108	420.69
323.337	431.69
323.566	427.69
323.795	473.69
324.024	481.69
324.253	569.69
324.482	749.69
324.71	1081.69
324.939	1489.69
325.168	1307.69
325.397	739.69
325.626	533.69
325.855	469.69
326.084	439.69
326.313	438.69
326.542	447.69
326.77	483.69
326.999	561.69
327.228	712.69
327.457	1006.69
327.686	1224.69
327.914	859.69
328.143	642.69
328.372	594.69
328.6	536.69
328.829	524.69
329.058	527.69
329.287	535.69
329.515	528.69
329.744	528.69
329.972	564.69
330.201	618.69
330.43	689.69
330.658	670.69
330.887	583.69
331.115	537.69
331.344	483.69
331.572	466.69
331.801	463.69
332.03	461.69
332.258	469.69
332.486	462.69
332.715	485.69
332.943	463.69
333.172	486.69
333.4	512.69
333.629	531.69
333.857	567.69
334.085	595.69
334.314	679.69
334.542	785.69
334.771	816.69
334.999	641.69
335.227	552.69
335.455	501.69
335.684	491.69
335.912	495.69
336.14	474.69
336.369	431.69
336.597	434.69
336.825	465.69
337.053	439.69
337.281	450.69
337.51	435.69
337.738	433.69
337.966	440.69
338.194	444.69
338.422	415.69
338.65	422.69
338.878	431.69
339.106	432.69
339.334	429.69
339.562	420.69
339.79	395.69
340.018	418.69
340.246	407.69
340.474	406.69
340.702	384.69
340.93	383.69
341.158	394.69
341.386	404.69
341.614	382.69
341.842	389.69
342.07	380.69
342.298	405.69
342.526	395.69
342.754	378.69
342.981	399.69
343.209	387.69
343.437	406.69
343.665	420.69
343.893	436.69
344.12	461.69
344.348	437.69
344.576	429.69
344.804	417.69
345.031	412.69
345.259	397.69
345.487	403.69
345.714	374.69
345.942	396.69
346.17	382.69
346.397	374.69
346.625	398.69
346.853	381.69
347.08	373.69
347.308	362.69
347.535	377.69
347.763	385.69
347.99	396.69
348.218	369.69
348.445	375.69
348.673	376.69
348.9	381.69
349.128	388.69
349.355	377.69
349.583	385.69
349.81	383.69
350.037	358.69
350.265	357.69
350.492	388.69
350.72	370.69
350.947	367.69
351.174	381.69
351.402	374.69
351.629	379.69
351.856	355.69
352.083	354.69
352.311	376.69
352.538	375.69
352.765	381.69
352.992	380.69
353.22	361.69
353.447	356.69
353.674	368.69
353.901	367.69
354.128	341.69
354.355	353.69
354.583	371.69
354.81	360.69
355.037	362.69
355.264	354.69
355.491	362.69
355.718	351.69
355.945	356.69
356.172	350.69
356.399	360.69
356.626	356.69
356.853	350.69
357.08	350.69
357.307	373.69
357.534	370.69
357.761	346.69
357.988	358.69
358.215	370.69
358.441	349.69
358.668	352.69
358.895	354.69
359.122	334.69
359.349	371.69
359.576	379.69
359.802	387.69
360.029	405.69
360.256	405.69
360.483	390.69
360.709	365.69
360.936	358.69
361.163	376.69
361.39	357.69
361.616	363.69
361.843	366.69
362.07	362.69
362.296	373.69
362.523	363.69
362.749	356.69
362.976	354.69
363.203	354.69
363.429	366.69
363.656	348.69
363.882	356.69
364.109	373.69
364.335	354.69
364.562	371.69
364.788	335.69
365.015	359.69
365.241	336.69
365.468	353.69
365.694	373.69
365.92	365.69
366.147	359.69
366.373	349.69
366.599	353.69
366.826	329.69
367.052	341.69
367.278	359.69
367.505	355.69
367.731	380.69
367.957	371.69
368.184	348.69
368.41	361.69
368.636	367.69
368.862	383.69
369.089	360.69
369.315	356.69
369.541	354.69
369.767	369.69
369.993	370.69
370.219	360.69
370.445	355.69
370.672	352.69
370.898	363.69
371.124	363.69
371.35	365.69
371.576	381.69
371.802	352.69
372.028	377.69
372.254	378.69
372.48	398.69
372.706	383.69
372.932	367.69
373.158	369.69
373.384	371.69
373.61	349.69
373.835	362.69
374.061	355.69
374.287	349.69
374.513	372.69
374.739	381.69
374.965	391.69
375.191	376.69
375.416	390.69
375.642	384.69
375.868	375.69
376.094	378.69
376.319	366.69
376.545	368.69
376.771	351.69
376.997	360.69
377.222	359.69
377.448	360.69
377.674	362.69
377.899	378.69
378.125	372.69
378.35	361.69
378.576	343.69
378.802	336.69
379.027	360.69
379.253	368.69
379.478	359.69
379.704	350.69
379.929	349.69
380.155	351.69
380.38	358.69
380.606	357.69
380.831	355.69
381.057	391.69
381.282	347.69
381.507	358.69
381.733	379.69
381.958	367.69
382.184	374.69
382.409	366.69
382.634	381.69
382.86	382.69
383.085	358.69
383.31	389.69
383.535	372.69
383.761	383.69
383.986	385.69
384.211	379.69
384.436	386.69
384.662	406.69
384.887	400.69
385.112	409.69
385.337	426.69
385.562	399.69
385.787	416.69
386.013	419.69
386.238	405.69
386.463	397.69
386.688	413.69
386.913	411.69
387.138	405.69
387.363	385.69
387.588	375.69
387.813	413.69
388.038	392.69
388.263	403.69
388.488	418.69
388.713	412.69
388.938	391.69
389.163	395.69
389.387	394.69
389.612	391.69
389.837	382.69
390.062	403.69
390.287	409.69
390.512	406.69
390.736	413.69
390.961	420.69
391.186	419.69
391.411	400.69
391.636	423.69
391.86	438.69
392.085	439.69
392.31	415.69
392.534	423.69
392.759	414.69
392.984	406.69
393.208	409.69
393.433	437.69
393.658	418.69
393.882	429.69
394.107	407.69
394.331	410.69
394.556	416.69
394.78	415.69
395.005	438.69
395.229	433.69
395.454	415.69
395.678	427.69
395.903	448.69
396.127	465.69
396.352	440.69
396.576	425.69
396.801	405.69
397.025	424.69
397.249	425.69
397.474	421.69
397.698	427.69
397.922	457.69
398.147	455.69
398.371	462.69
398.595	472.69
398.82	471.69
399.044	494.69
399.268	552.69
399.492	586.69
399.717	625.69
399.941	641.69
400.165	612.69
400.389	602.69
400.613	535.69
400.837	491.69
401.062	497.69
401.286	480.69
401.51	485.69
401.734	487.69
401.958	488.69
402.182	482.69
402.406	496.69
402.63	521.69
402.854	494.69
403.078	509.69
403.302	507.69
403.526	565.69
403.75	539.69
403.974	530.69
404.198	525.69
404.422	531.69
404.645	530.69
404.869	547.69
405.093	607.69
405.317	632.69
405.541	624.69
405.765	604.69
405.988	567.69
406.212	559.69
406.436	543.69
406.66	567.69
406.883	549.69
407.107	571.69
407.331	609.69
407.555	633.69
407.778	630.69
408.002	612.69
408.226	557.69
408.449	551.69
408.673	532.69
408.896	555.69
409.12	558.69
409.344	563.69
409.567	521.69
409.791	517.69
410.014	527.69
410.238	497.69
410.461	486.69
410.685	505.69
410.908	519.69
411.132	538.69
411.355	544.69
411.578	535.69
411.802	523.69
412.025	525.69
412.249	537.69
412.472	591.69
412.695	599.69
412.919	617.69
413.142	556.69
413.365	523.69
413.589	522.69
413.812	490.69
414.035	509.69
414.258	493.69
414.482	497.69
414.705	479.69
414.928	487.69
415.151	460.69
415.374	466.69
415.597	482.69
415.821	467.69
416.044	457.69
416.267	473.69
416.49	461.69
416.713	440.69
416.936	467.69
417.159	474.69
417.382	473.69
417.605	482.69
417.828	497.69
418.051	479.69
418.274	485.69
418.497	489.69
418.72	486.69
418.943	503.69
419.166	495.69
419.389	523.69
419.611	530.69
419.834	537.69
420.057	534.69
420.28	557.69
420.503	520.69
420.726	550.69
420.948	521.69
421.171	519.69
421.394	549.69
421.617	490.69
421.839	491.69
422.062	502.69
422.285	511.69
422.507	521.69
422.73	561.69
422.953	555.69
423.175	530.69
423.398	508.69
423.621	515.69
423.843	523.69
424.066	519.69
424.288	518.69
424.511	509.69
424.733	574.69
424.956	605.69
425.178	581.69
425.401	574.69
425.623	587.69
425.846	529.69
426.068	517.69
426.291	499.69
426.513	457.69
426.735	500.69
426.958	521.69
427.18	570.69
427.402	661.69
427.625	735.69
427.847	645.69
428.069	631.69
428.292	558.69
428.514	501.69
428.736	469.69
428.958	456.69
429.181	454.69
429.403	441.69
429.625	434.69
429.847	482.69
430.069	482.69
430.292	520.69
430.514	467.69
430.736	443.69
430.958	461.69
431.18	446.69
431.402	447.69
431.624	435.69
431.846	415.69
432.068	456.69
432.29	435.69
432.512	440.69
432.734	429.69
432.956	415.69
433.178	446.69
433.4	445.69
433.622	445.69
433.844	436.69
434.066	438.69
434.287	439.69
434.509	451.69
434.731	468.69
434.953	473.69
435.175	476.69
435.397	486.69
435.618	484.69
435.84	500.69
436.062	547.69
436.284	599.69
436.505	505.69
436.727	473.69
436.949	461.69
437.17	463.69
437.392	448.69
437.614	460.69
437.835	455.69
438.057	521.69
438.278	575.69
438.5	579.69
438.721	618.69
438.943	597.69
439.165	518.69
439.386	484.69
439.608	471.69
439.829	465.69
440.05	483.69
440.272	518.69
440.493	517.69
440.715	459.69
440.936	466.69
441.158	462.69
441.379	460.69
441.6	457.69
441.822	498.69
442.043	518.69
442.264	569.69
442.486	571.69
442.707	521.69
442.928	481.69
443.149	490.69
443.371	524.69
443.592	542.69
443.813	603.69
444.034	617.69
444.255	537.69
444.476	535.69
444.698	524.69
444.919	539.69
445.14	661.69
445.361	579.69
445.582	537.69
445.803	568.69
446.024	602.69
446.245	586.69
446.466	569.69
446.687	493.69
446.908	460.69
447.129	464.69
447.35	427.69
447.571	415.69
447.792	445.69
448.013	434.69
448.234	452.69
448.455	478.69
448.675	521.69
448.896	576.69
449.117	537.69
449.338	483.69
449.559	560.69
449.779	646.69
450	522.69
450.221	451.69
450.442	443.69
450.662	413.69
450.883	414.69
451.104	410.69
451.324	408.69
451.545	416.69
451.766	405.69
451.986	401.69
452.207	400.69
452.428	398.69
452.648	402.69
452.869	390.69
453.089	394.69
453.31	391.69
453.53	412.69
453.751	405.69
453.971	396.69
454.192	418.69
454.412	396.69
454.633	386.69
454.853	378.69
455.073	378.69
455.294	401.69
455.514	442.69
455.734	415.69
455.955	415.69
456.175	368.69
456.395	372.69
456.616	361.69
456.836	365.69
457.056	385.69
457.276	390.69
457.497	390.69
457.717	390.69
457.937	384.69
458.157	386.69
458.377	406.69
458.598	394.69
458.818	436.69
459.038	486.69
459.258	496.69
459.478	449.69
459.698	442.69
459.918	446.69
460.138	445.69
460.358	467.69
460.578	478.69
460.798	454.69
461.018	500.69
461.238	487.69
461.458	460.69
461.678	468.69
461.898	478.69
462.118	474.69
462.338	485.69
462.558	498.69
462.777	511.69
462.997	537.69
463.217	560.69
463.437	576.69
463.657	551.69
463.876	547.69
464.096	512.69
464.316	531.69
464.536	534.69
464.755	513.69
464.975	501.69
465.195	519.69
465.414	550.69
465.634	494.69
465.854	470.69
466.073	445.69
466.293	436.69
466.512	415.69
466.732	439.69
466.951	435.69
467.171	420.69
467.391	408.69
467.61	419.69
467.829	415.69
468.049	434.69
468.268	448.69
468.488	439.69
468.707	419.69
468.927	419.69
469.146	413.69
469.365	410.69
469.585	410.69
469.804	434.69
470.023	435.69
470.243	438.69
470.462	454.69
470.681	448.69
470.901	439.69
471.12	413.69
471.339	450.69
471.558	428.69
471.777	423.69
471.997	438.69
472.216	481.69
472.435	566.69
472.654	546.69
472.873	485.69
473.092	450.69
473.311	437.69
473.53	450.69
473.749	433.69
473.968	448.69
474.187	509.69
474.406	497.69
474.625	446.69
474.844	409.69
475.063	431.69
475.282	417.69
475.501	419.69
475.72	409.69
475.939	415.69
476.158	415.69
476.377	421.69
476.596	426.69
476.814	416.69
477.033	442.69
477.252	441.69
477.471	440.69
477.69	428.69
477.908	465.69
478.127	465.69
478.346	452.69
478.564	486.69
478.783	467.69
479.002	478.69
479.22	466.69
479.439	501.69
479.658	480.69
479.876	497.69
480.095	506.69
480.313	548.69
480.532	559.69
480.751	555.69
480.969	584.69
481.188	729.69
481.406	834.69
481.624	650.69
481.843	577.69
482.061	527.69
482.28	539.69
482.498	514.69
482.717	520.69
482.935	513.69
483.153	510.69
483.372	472.69
483.59	474.69
483.808	473.69
484.027	450.69
484.245	482.69
484.463	480.69
484.681	507.69
484.9	472.69
485.118	517.69
485.336	482.69
485.554	499.69
485.772	490.69
485.99	469.69
486.209	489.69
486.427	508.69
486.645	513.69
486.863	515.69
487.081	516.69
487.299	523.69
487.517	496.69
487.735	495.69
487.953	507.69
488.171	519.69
488.389	508.69
488.607	490.69
488.825	495.69
489.043	500.69
489.261	519.69
489.479	523.69
489.696	527.69
489.914	529.69
490.132	499.69
490.35	515.69
490.568	547.69
490.786	544.69
491.003	538.69
491.221	565.69
491.439	565.69
491.657	580.69
491.874	586.69
492.092	583.69
492.31	602.69
492.527	600.69
492.745	597.69
492.963	622.69
493.18	638.69
493.398	611.69
493.615	614.69
493.833	592.69
494.05	603.69
494.268	605.69
494.485	601.69
494.703	586.69
494.92	589.69
495.138	584.69
495.355	586.69
495.573	585.69
495.79	602.69
496.008	590.69
496.225	586.69
496.442	606.69
496.66	597.69
496.877	592.69
497.094	604.69
497.312	613.69
497.529	611.69
497.746	622.69
497.963	651.69
498.181	635.69
498.398	647.69
498.615	720.69
498.832	729.69
499.049	754.69
499.267	760.69
499.484	796.69
499.701	861.69
499.918	921.69
500.135	1007.69
500.352	1106.69
500.569	1150.69
500.786	1144.69
501.003	1117.69
501.22	1039.69
501.437	925.69
501.654	889.69
501.871	806.69
502.088	797.69
