Data from 1984.PennyLincolnUp.Lamp.En5.5.200Scan.071819.P1_HRD10591_16-59-55-969.txt Node
Date: Thu Jul 18 16:59:55 EDT 2019
User: cochatt
Spectrometer: HR+D1059
Trigger mode: 1
Integration Time (sec): 1.000000E-1
Scans to average: 1
Electric dark correction enabled: true
Nonlinearity correction enabled: false
Boxcar width: 0
XAxis mode: Wavelengths
Number of Pixels in Spectrum: 2048
>>>>>Begin Spectral Data<<<<<
223.165	-12.06
223.4	-12.06
223.635	-12.06
223.869	-22.06
224.104	-8.06
224.338	-8.06
224.573	-23.06
224.808	-14.06
225.042	0.94
225.277	-13.06
225.511	2.94
225.746	-0.06
225.98	8.94
226.215	1.94
226.449	17.94
226.683	17.94
226.918	27.94
227.152	21.94
227.387	22.94
227.621	18.94
227.856	27.94
228.09	51.94
228.324	32.94
228.559	52.94
228.793	66.94
229.027	93.94
229.262	99.94
229.496	95.94
229.73	101.94
229.964	111.94
230.199	104.94
230.433	87.94
230.667	112.94
230.901	89.94
231.136	102.94
231.37	104.94
231.604	98.94
231.838	100.94
232.072	114.94
232.306	116.94
232.541	100.94
232.775	99.94
233.009	114.94
233.243	101.94
233.477	101.94
233.711	115.94
233.945	105.94
234.179	99.94
234.413	107.94
234.647	101.94
234.881	125.94
235.115	113.94
235.349	100.94
235.583	108.94
235.817	115.94
236.051	127.94
236.285	106.94
236.519	111.94
236.753	107.94
236.987	128.94
237.221	144.94
237.455	167.94
237.689	149.94
237.922	134.94
238.156	130.94
238.39	123.94
238.624	127.94
238.858	119.94
239.091	117.94
239.325	113.94
239.559	111.94
239.793	124.94
240.027	117.94
240.26	120.94
240.494	132.94
240.728	134.94
240.961	107.94
241.195	131.94
241.429	122.94
241.662	120.94
241.896	118.94
242.13	150.94
242.363	126.94
242.597	130.94
242.83	131.94
243.064	115.94
243.298	137.94
243.531	128.94
243.765	135.94
243.998	133.94
244.232	119.94
244.465	132.94
244.699	137.94
244.932	123.94
245.166	124.94
245.399	134.94
245.633	124.94
245.866	134.94
246.099	135.94
246.333	150.94
246.566	146.94
246.8	155.94
247.033	137.94
247.266	149.94
247.5	163.94
247.733	143.94
247.966	146.94
248.2	136.94
248.433	152.94
248.666	146.94
248.899	167.94
249.133	174.94
249.366	178.94
249.599	167.94
249.832	171.94
250.066	174.94
250.299	166.94
250.532	203.94
250.765	206.94
250.998	205.94
251.231	202.94
251.465	189.94
251.698	176.94
251.931	170.94
252.164	182.94
252.397	171.94
252.63	168.94
252.863	172.94
253.096	184.94
253.329	192.94
253.562	199.94
253.795	170.94
254.028	193.94
254.261	169.94
254.494	192.94
254.727	184.94
254.96	214.94
255.193	208.94
255.426	197.94
255.659	198.94
255.892	227.94
256.124	270.94
256.357	284.94
256.59	260.94
256.823	219.94
257.056	215.94
257.289	196.94
257.521	212.94
257.754	195.94
257.987	200.94
258.22	188.94
258.452	202.94
258.685	183.94
258.918	193.94
259.151	203.94
259.383	194.94
259.616	187.94
259.849	181.94
260.081	191.94
260.314	214.94
260.547	213.94
260.779	219.94
261.012	201.94
261.244	208.94
261.477	203.94
261.71	192.94
261.942	199.94
262.175	194.94
262.407	198.94
262.64	191.94
262.872	205.94
263.105	193.94
263.337	191.94
263.57	186.94
263.802	198.94
264.035	195.94
264.267	202.94
264.499	203.94
264.732	189.94
264.964	199.94
265.197	203.94
265.429	194.94
265.661	198.94
265.894	211.94
266.126	206.94
266.358	188.94
266.591	191.94
266.823	191.94
267.055	220.94
267.287	218.94
267.52	214.94
267.752	204.94
267.984	222.94
268.216	223.94
268.448	216.94
268.681	217.94
268.913	223.94
269.145	221.94
269.377	247.94
269.609	228.94
269.841	230.94
270.073	250.94
270.306	257.94
270.538	254.94
270.77	260.94
271.002	244.94
271.234	245.94
271.466	269.94
271.698	274.94
271.93	264.94
272.162	250.94
272.394	270.94
272.626	254.94
272.858	252.94
273.09	231.94
273.322	235.94
273.553	234.94
273.785	240.94
274.017	234.94
274.249	244.94
274.481	240.94
274.713	240.94
274.945	249.94
275.176	226.94
275.408	258.94
275.64	252.94
275.872	234.94
276.104	246.94
276.335	244.94
276.567	248.94
276.799	269.94
277.031	283.94
277.262	279.94
277.494	270.94
277.726	287.94
277.957	268.94
278.189	236.94
278.421	260.94
278.652	256.94
278.884	253.94
279.115	242.94
279.347	261.94
279.579	247.94
279.81	264.94
280.042	271.94
280.273	251.94
280.505	270.94
280.736	273.94
280.968	256.94
281.199	258.94
281.431	253.94
281.662	271.94
281.894	266.94
282.125	258.94
282.356	260.94
282.588	271.94
282.819	268.94
283.051	275.94
283.282	265.94
283.513	276.94
283.745	276.94
283.976	247.94
284.207	289.94
284.439	279.94
284.67	283.94
284.901	273.94
285.132	282.94
285.364	262.94
285.595	263.94
285.826	278.94
286.057	276.94
286.288	263.94
286.52	267.94
286.751	276.94
286.982	287.94
287.213	278.94
287.444	278.94
287.675	265.94
287.906	292.94
288.138	282.94
288.369	284.94
288.6	290.94
288.831	298.94
289.062	279.94
289.293	285.94
289.524	278.94
289.755	277.94
289.986	286.94
290.217	287.94
290.448	280.94
290.679	274.94
290.91	271.94
291.141	286.94
291.371	288.94
291.602	281.94
291.833	270.94
292.064	277.94
292.295	278.94
292.526	287.94
292.757	306.94
292.987	292.94
293.218	271.94
293.449	305.94
293.68	275.94
293.91	284.94
294.141	277.94
294.372	275.94
294.603	288.94
294.833	296.94
295.064	293.94
295.295	286.94
295.525	288.94
295.756	298.94
295.987	277.94
296.217	288.94
296.448	310.94
296.679	290.94
296.909	286.94
297.14	290.94
297.37	275.94
297.601	283.94
297.831	295.94
298.062	287.94
298.292	305.94
298.523	315.94
298.753	294.94
298.984	292.94
299.214	301.94
299.445	280.94
299.675	295.94
299.905	291.94
300.136	311.94
300.366	315.94
300.597	306.94
300.827	318.94
301.057	312.94
301.288	320.94
301.518	320.94
301.748	308.94
301.979	314.94
302.209	305.94
302.439	327.94
302.669	322.94
302.9	314.94
303.13	310.94
303.36	320.94
303.59	320.94
303.82	331.94
304.051	316.94
304.281	322.94
304.511	321.94
304.741	327.94
304.971	311.94
305.201	312.94
305.431	315.94
305.661	311.94
305.891	318.94
306.121	309.94
306.352	326.94
306.582	313.94
306.812	305.94
307.042	303.94
307.272	313.94
307.502	289.94
307.731	309.94
307.961	314.94
308.191	292.94
308.421	316.94
308.651	324.94
308.881	321.94
309.111	305.94
309.341	337.94
309.571	325.94
309.8	330.94
310.03	324.94
310.26	336.94
310.49	330.94
310.72	337.94
310.949	344.94
311.179	346.94
311.409	339.94
311.639	340.94
311.868	350.94
312.098	339.94
312.328	351.94
312.557	355.94
312.787	345.94
313.017	346.94
313.246	346.94
313.476	356.94
313.706	346.94
313.935	344.94
314.165	360.94
314.394	352.94
314.624	367.94
314.853	352.94
315.083	355.94
315.312	347.94
315.542	329.94
315.771	340.94
316.001	340.94
316.23	345.94
316.46	346.94
316.689	354.94
316.919	343.94
317.148	359.94
317.377	344.94
317.607	340.94
317.836	344.94
318.065	352.94
318.295	367.94
318.524	332.94
318.753	336.94
318.983	329.94
319.212	358.94
319.441	346.94
319.67	330.94
319.9	357.94
320.129	348.94
320.358	359.94
320.587	344.94
320.816	365.94
321.046	366.94
321.275	356.94
321.504	364.94
321.733	362.94
321.962	351.94
322.191	351.94
322.42	376.94
322.649	382.94
322.878	384.94
323.108	387.94
323.337	406.94
323.566	430.94
323.795	443.94
324.024	469.94
324.253	535.94
324.482	726.94
324.71	1027.94
324.939	1446.94
325.168	1244.94
325.397	694.94
325.626	496.94
325.855	448.94
326.084	439.94
326.313	433.94
326.542	427.94
326.77	479.94
326.999	535.94
327.228	675.94
327.457	993.94
327.686	1130.94
327.914	779.94
328.143	601.94
328.372	572.94
328.6	554.94
328.829	512.94
329.058	496.94
329.287	497.94
329.515	479.94
329.744	487.94
329.972	528.94
330.201	586.94
330.43	660.94
330.658	593.94
330.887	565.94
331.115	486.94
331.344	462.94
331.572	451.94
331.801	461.94
332.03	464.94
332.258	459.94
332.486	443.94
332.715	470.94
332.943	455.94
333.172	483.94
333.4	502.94
333.629	521.94
333.857	553.94
334.085	569.94
334.314	636.94
334.542	721.94
334.771	718.94
334.999	604.94
335.227	505.94
335.455	487.94
335.684	482.94
335.912	480.94
336.14	442.94
336.369	450.94
336.597	420.94
336.825	436.94
337.053	420.94
337.281	415.94
337.51	427.94
337.738	424.94
337.966	432.94
338.194	406.94
338.422	414.94
338.65	415.94
338.878	405.94
339.106	410.94
339.334	394.94
339.562	400.94
339.79	400.94
340.018	399.94
340.246	379.94
340.474	392.94
340.702	395.94
340.93	377.94
341.158	402.94
341.386	386.94
341.614	390.94
341.842	391.94
342.07	389.94
342.298	386.94
342.526	400.94
342.754	380.94
342.981	391.94
343.209	381.94
343.437	380.94
343.665	419.94
343.893	436.94
344.12	456.94
344.348	425.94
344.576	411.94
344.804	407.94
345.031	408.94
345.259	403.94
345.487	397.94
345.714	390.94
345.942	391.94
346.17	371.94
346.397	370.94
346.625	382.94
346.853	355.94
347.08	376.94
347.308	394.94
347.535	385.94
347.763	383.94
347.99	376.94
348.218	347.94
348.445	372.94
348.673	375.94
348.9	372.94
349.128	371.94
349.355	366.94
349.583	349.94
349.81	350.94
350.037	332.94
350.265	368.94
350.492	359.94
350.72	369.94
350.947	358.94
351.174	364.94
351.402	360.94
351.629	357.94
351.856	347.94
352.083	367.94
352.311	363.94
352.538	354.94
352.765	375.94
352.992	359.94
353.22	384.94
353.447	356.94
353.674	375.94
353.901	337.94
354.128	356.94
354.355	337.94
354.583	349.94
354.81	339.94
355.037	352.94
355.264	350.94
355.491	355.94
355.718	362.94
355.945	327.94
356.172	351.94
356.399	347.94
356.626	345.94
356.853	352.94
357.08	357.94
357.307	355.94
357.534	351.94
357.761	355.94
357.988	352.94
358.215	337.94
358.441	339.94
358.668	343.94
358.895	343.94
359.122	355.94
359.349	365.94
359.576	362.94
359.802	375.94
360.029	372.94
360.256	390.94
360.483	387.94
360.709	369.94
360.936	354.94
361.163	343.94
361.39	348.94
361.616	347.94
361.843	362.94
362.07	352.94
362.296	351.94
362.523	339.94
362.749	354.94
362.976	346.94
363.203	361.94
363.429	328.94
363.656	369.94
363.882	336.94
364.109	360.94
364.335	331.94
364.562	342.94
364.788	349.94
365.015	350.94
365.241	351.94
365.468	351.94
365.694	359.94
365.92	353.94
366.147	348.94
366.373	346.94
366.599	330.94
366.826	339.94
367.052	351.94
367.278	360.94
367.505	338.94
367.731	351.94
367.957	349.94
368.184	357.94
368.41	347.94
368.636	357.94
368.862	354.94
369.089	371.94
369.315	360.94
369.541	354.94
369.767	353.94
369.993	352.94
370.219	354.94
370.445	345.94
370.672	353.94
370.898	358.94
371.124	366.94
371.35	360.94
371.576	355.94
371.802	345.94
372.028	359.94
372.254	369.94
372.48	354.94
372.706	355.94
372.932	358.94
373.158	366.94
373.384	368.94
373.61	351.94
373.835	348.94
374.061	360.94
374.287	367.94
374.513	380.94
374.739	342.94
374.965	370.94
375.191	372.94
375.416	388.94
375.642	377.94
375.868	376.94
376.094	352.94
376.319	352.94
376.545	359.94
376.771	354.94
376.997	353.94
377.222	336.94
377.448	348.94
377.674	360.94
377.899	369.94
378.125	359.94
378.35	350.94
378.576	363.94
378.802	349.94
379.027	355.94
379.253	358.94
379.478	352.94
379.704	350.94
379.929	346.94
380.155	366.94
380.38	370.94
380.606	349.94
380.831	335.94
381.057	352.94
381.282	358.94
381.507	327.94
381.733	369.94
381.958	351.94
382.184	353.94
382.409	363.94
382.634	371.94
382.86	356.94
383.085	369.94
383.31	375.94
383.535	360.94
383.761	363.94
383.986	379.94
384.211	375.94
384.436	382.94
384.662	372.94
384.887	404.94
385.112	375.94
385.337	375.94
385.562	396.94
385.787	402.94
386.013	399.94
386.238	392.94
386.463	403.94
386.688	390.94
386.913	406.94
387.138	388.94
387.363	400.94
387.588	400.94
387.813	395.94
388.038	400.94
388.263	379.94
388.488	378.94
388.713	392.94
388.938	386.94
389.163	399.94
389.387	390.94
389.612	409.94
389.837	391.94
390.062	403.94
390.287	410.94
390.512	399.94
390.736	399.94
390.961	393.94
391.186	403.94
391.411	386.94
391.636	436.94
391.86	432.94
392.085	425.94
392.31	410.94
392.534	404.94
392.759	405.94
392.984	414.94
393.208	424.94
393.433	411.94
393.658	409.94
393.882	414.94
394.107	395.94
394.331	400.94
394.556	415.94
394.78	399.94
395.005	413.94
395.229	407.94
395.454	423.94
395.678	403.94
395.903	430.94
396.127	442.94
396.352	431.94
396.576	425.94
396.801	425.94
397.025	420.94
397.249	422.94
397.474	422.94
397.698	418.94
397.922	431.94
398.147	437.94
398.371	448.94
398.595	454.94
398.82	463.94
399.044	483.94
399.268	521.94
399.492	571.94
399.717	613.94
399.941	629.94
400.165	588.94
400.389	596.94
400.613	534.94
400.837	496.94
401.062	495.94
401.286	481.94
401.51	479.94
401.734	474.94
401.958	479.94
402.182	457.94
402.406	511.94
402.63	525.94
402.854	482.94
403.078	490.94
403.302	494.94
403.526	516.94
403.75	547.94
403.974	495.94
404.198	504.94
404.422	520.94
404.645	517.94
404.869	538.94
405.093	583.94
405.317	615.94
405.541	630.94
405.765	578.94
405.988	539.94
406.212	534.94
406.436	544.94
406.66	546.94
406.883	536.94
407.107	545.94
407.331	610.94
407.555	645.94
407.778	639.94
408.002	585.94
408.226	569.94
408.449	541.94
408.673	550.94
408.896	572.94
409.12	582.94
409.344	563.94
409.567	530.94
409.791	517.94
410.014	515.94
410.238	497.94
410.461	474.94
410.685	501.94
410.908	537.94
411.132	490.94
411.355	558.94
411.578	522.94
411.802	494.94
412.025	509.94
412.249	532.94
412.472	539.94
412.695	598.94
412.919	584.94
413.142	547.94
413.365	510.94
413.589	482.94
413.812	491.94
414.035	496.94
414.258	480.94
414.482	483.94
414.705	460.94
414.928	479.94
415.151	479.94
415.374	452.94
415.597	425.94
415.821	454.94
416.044	462.94
416.267	452.94
416.49	456.94
416.713	443.94
416.936	451.94
417.159	459.94
417.382	482.94
417.605	464.94
417.828	515.94
418.051	477.94
418.274	460.94
418.497	484.94
418.72	469.94
418.943	466.94
419.166	487.94
419.389	529.94
419.611	520.94
419.834	525.94
420.057	538.94
420.28	506.94
420.503	534.94
420.726	497.94
420.948	510.94
421.171	523.94
421.394	510.94
421.617	483.94
421.839	461.94
422.062	490.94
422.285	481.94
422.507	520.94
422.73	560.94
422.953	547.94
423.175	496.94
423.398	500.94
423.621	495.94
423.843	506.94
424.066	487.94
424.288	515.94
424.511	494.94
424.733	522.94
424.956	574.94
425.178	563.94
425.401	562.94
425.623	577.94
425.846	526.94
426.068	494.94
426.291	480.94
426.513	480.94
426.735	485.94
426.958	473.94
427.18	529.94
427.402	632.94
427.625	673.94
427.847	598.94
428.069	582.94
428.292	528.94
428.514	485.94
428.736	452.94
428.958	452.94
429.181	443.94
429.403	426.94
429.625	450.94
429.847	444.94
430.069	475.94
430.292	491.94
430.514	449.94
430.736	416.94
430.958	426.94
431.18	417.94
431.402	421.94
431.624	407.94
431.846	412.94
432.068	439.94
432.29	439.94
432.512	446.94
432.734	434.94
432.956	433.94
433.178	435.94
433.4	443.94
433.622	446.94
433.844	443.94
434.066	433.94
434.287	444.94
434.509	441.94
434.731	455.94
434.953	471.94
435.175	483.94
435.397	475.94
435.618	487.94
435.84	497.94
436.062	542.94
436.284	587.94
436.505	480.94
436.727	476.94
436.949	435.94
437.17	434.94
437.392	438.94
437.614	437.94
437.835	453.94
438.057	509.94
438.278	572.94
438.5	555.94
438.721	628.94
438.943	602.94
439.165	507.94
439.386	457.94
439.608	464.94
439.829	443.94
440.05	469.94
440.272	514.94
440.493	477.94
440.715	478.94
440.936	458.94
441.158	453.94
441.379	443.94
441.6	458.94
441.822	485.94
442.043	498.94
442.264	535.94
442.486	573.94
442.707	516.94
442.928	494.94
443.149	482.94
443.371	498.94
443.592	507.94
443.813	596.94
444.034	620.94
444.255	530.94
444.476	509.94
444.698	497.94
444.919	499.94
445.14	595.94
445.361	571.94
445.582	521.94
445.803	529.94
446.024	579.94
446.245	601.94
446.466	553.94
446.687	472.94
446.908	444.94
447.129	447.94
447.35	423.94
447.571	414.94
447.792	420.94
448.013	441.94
448.234	422.94
448.455	448.94
448.675	520.94
448.896	615.94
449.117	515.94
449.338	513.94
449.559	565.94
449.779	612.94
450	520.94
450.221	460.94
450.442	439.94
450.662	423.94
450.883	409.94
451.104	404.94
451.324	410.94
451.545	403.94
451.766	384.94
451.986	415.94
452.207	389.94
452.428	387.94
452.648	377.94
452.869	392.94
453.089	397.94
453.31	388.94
453.53	398.94
453.751	382.94
453.971	392.94
454.192	388.94
454.412	384.94
454.633	397.94
454.853	402.94
455.073	381.94
455.294	395.94
455.514	432.94
455.734	414.94
455.955	394.94
456.175	387.94
456.395	384.94
456.616	372.94
456.836	376.94
457.056	383.94
457.276	383.94
457.497	362.94
457.717	376.94
457.937	384.94
458.157	400.94
458.377	380.94
458.598	402.94
458.818	399.94
459.038	475.94
459.258	470.94
459.478	426.94
459.698	422.94
459.918	427.94
460.138	468.94
460.358	460.94
460.578	463.94
460.798	472.94
461.018	452.94
461.238	455.94
461.458	440.94
461.678	461.94
461.898	450.94
462.118	459.94
462.338	462.94
462.558	489.94
462.777	489.94
462.997	524.94
463.217	543.94
463.437	555.94
463.657	520.94
463.876	492.94
464.096	488.94
464.316	487.94
464.536	510.94
464.755	497.94
464.975	482.94
465.195	491.94
465.414	478.94
465.634	451.94
465.854	438.94
466.073	427.94
466.293	420.94
466.512	416.94
466.732	400.94
466.951	423.94
467.171	394.94
467.391	415.94
467.61	402.94
467.829	419.94
468.049	421.94
468.268	450.94
468.488	437.94
468.707	392.94
468.927	396.94
469.146	400.94
469.365	392.94
469.585	391.94
469.804	422.94
470.023	420.94
470.243	435.94
470.462	408.94
470.681	446.94
470.901	447.94
471.12	430.94
471.339	443.94
471.558	412.94
471.777	410.94
471.997	425.94
472.216	449.94
472.435	529.94
472.654	530.94
472.873	430.94
473.092	435.94
473.311	406.94
473.53	417.94
473.749	421.94
473.968	407.94
474.187	485.94
474.406	498.94
474.625	438.94
474.844	411.94
475.063	408.94
475.282	388.94
475.501	420.94
475.72	415.94
475.939	434.94
476.158	420.94
476.377	408.94
476.596	404.94
476.814	410.94
477.033	424.94
477.252	420.94
477.471	430.94
477.69	427.94
477.908	449.94
478.127	460.94
478.346	451.94
478.564	458.94
478.783	475.94
479.002	472.94
479.22	494.94
479.439	454.94
479.658	485.94
479.876	510.94
480.095	505.94
480.313	533.94
480.532	519.94
480.751	526.94
480.969	566.94
481.188	679.94
481.406	738.94
481.624	623.94
481.843	532.94
482.061	537.94
482.28	504.94
482.498	483.94
482.717	473.94
482.935	481.94
483.153	471.94
483.372	448.94
483.59	473.94
483.808	460.94
484.027	464.94
484.245	482.94
484.463	478.94
484.681	494.94
484.9	489.94
485.118	474.94
485.336	465.94
485.554	483.94
485.772	495.94
485.99	473.94
486.209	506.94
486.427	487.94
486.645	496.94
486.863	511.94
487.081	500.94
487.299	502.94
487.517	504.94
487.735	510.94
487.953	500.94
488.171	499.94
488.389	478.94
488.607	481.94
488.825	483.94
489.043	508.94
489.261	497.94
489.479	518.94
489.696	507.94
489.914	513.94
490.132	521.94
490.35	511.94
490.568	544.94
490.786	550.94
491.003	545.94
491.221	572.94
491.439	558.94
491.657	565.94
491.874	590.94
492.092	574.94
492.31	590.94
492.527	582.94
492.745	598.94
492.963	610.94
493.18	613.94
493.398	592.94
493.615	608.94
493.833	586.94
494.05	597.94
494.268	598.94
494.485	582.94
494.703	586.94
494.92	599.94
495.138	569.94
495.355	585.94
495.573	564.94
495.79	577.94
496.008	580.94
496.225	570.94
496.442	583.94
496.66	592.94
496.877	589.94
497.094	591.94
497.312	595.94
497.529	583.94
497.746	598.94
497.963	612.94
498.181	646.94
498.398	648.94
498.615	668.94
498.832	697.94
499.049	733.94
499.267	766.94
499.484	788.94
499.701	860.94
499.918	923.94
500.135	946.94
500.352	1047.94
500.569	1124.94
500.786	1120.94
501.003	1066.94
501.22	974.94
501.437	905.94
501.654	824.94
501.871	837.94
502.088	768.94
