Data from 1984.PennyLincolnUp.Lamp.En5.5.200Scan.071819.P1_HRD10591_16-59-44-969.txt Node
Date: Thu Jul 18 16:59:44 EDT 2019
User: cochatt
Spectrometer: HR+D1059
Trigger mode: 1
Integration Time (sec): 1.000000E-1
Scans to average: 1
Electric dark correction enabled: true
Nonlinearity correction enabled: false
Boxcar width: 0
XAxis mode: Wavelengths
Number of Pixels in Spectrum: 2048
>>>>>Begin Spectral Data<<<<<
223.165	-14
223.4	-14
223.635	-14
223.869	-24
224.104	-6
224.338	-21
224.573	-14
224.808	-14
225.042	9
225.277	-29
225.511	-13
225.746	2
225.98	18
226.215	13
226.449	18
226.683	23
226.918	27
227.152	25
227.387	48
227.621	43
227.856	37
228.09	45
228.324	51
228.559	54
228.793	62
229.027	81
229.262	110
229.496	98
229.73	124
229.964	132
230.199	112
230.433	102
230.667	106
230.901	111
231.136	101
231.37	112
231.604	111
231.838	117
232.072	98
232.306	102
232.541	105
232.775	129
233.009	102
233.243	95
233.477	115
233.711	116
233.945	109
234.179	114
234.413	108
234.647	118
234.881	115
235.115	116
235.349	113
235.583	116
235.817	112
236.051	118
236.285	107
236.519	125
236.753	122
236.987	141
237.221	159
237.455	171
237.689	166
237.922	126
238.156	119
238.39	130
238.624	113
238.858	122
239.091	102
239.325	115
239.559	119
239.793	122
240.027	123
240.26	129
240.494	122
240.728	138
240.961	137
241.195	135
241.429	121
241.662	124
241.896	134
242.13	139
242.363	128
242.597	135
242.83	127
243.064	138
243.298	122
243.531	116
243.765	129
243.998	133
244.232	134
244.465	131
244.699	141
244.932	157
245.166	136
245.399	146
245.633	145
245.866	137
246.099	138
246.333	133
246.566	141
246.8	140
247.033	138
247.266	140
247.5	150
247.733	141
247.966	158
248.2	163
248.433	158
248.666	155
248.899	174
249.133	175
249.366	174
249.599	174
249.832	181
250.066	170
250.299	180
250.532	192
250.765	203
250.998	220
251.231	196
251.465	190
251.698	182
251.931	175
252.164	174
252.397	169
252.63	184
252.863	184
253.096	176
253.329	180
253.562	194
253.795	198
254.028	207
254.261	190
254.494	193
254.727	215
254.96	234
255.193	230
255.426	217
255.659	229
255.892	249
256.124	276
256.357	283
256.59	246
256.823	210
257.056	211
257.289	219
257.521	183
257.754	190
257.987	200
258.22	186
258.452	203
258.685	186
258.918	193
259.151	200
259.383	196
259.616	198
259.849	212
260.081	198
260.314	205
260.547	233
260.779	215
261.012	202
261.244	214
261.477	196
261.71	190
261.942	214
262.175	206
262.407	199
262.64	191
262.872	180
263.105	177
263.337	195
263.57	213
263.802	206
264.035	200
264.267	211
264.499	191
264.732	200
264.964	184
265.197	191
265.429	200
265.661	207
265.894	210
266.126	207
266.358	202
266.591	198
266.823	205
267.055	196
267.287	220
267.52	216
267.752	222
267.984	203
268.216	209
268.448	218
268.681	234
268.913	236
269.145	237
269.377	228
269.609	252
269.841	262
270.073	246
270.306	254
270.538	262
270.77	261
271.002	247
271.234	244
271.466	253
271.698	263
271.93	274
272.162	274
272.394	268
272.626	262
272.858	266
273.09	262
273.322	267
273.553	238
273.785	231
274.017	243
274.249	256
274.481	254
274.713	253
274.945	240
275.176	260
275.408	247
275.64	268
275.872	240
276.104	254
276.335	251
276.567	250
276.799	255
277.031	274
277.262	288
277.494	272
277.726	272
277.957	267
278.189	269
278.421	269
278.652	256
278.884	267
279.115	262
279.347	265
279.579	265
279.81	266
280.042	253
280.273	266
280.505	272
280.736	267
280.968	270
281.199	263
281.431	273
281.662	270
281.894	266
282.125	282
282.356	263
282.588	274
282.819	295
283.051	286
283.282	269
283.513	278
283.745	276
283.976	273
284.207	295
284.439	271
284.67	280
284.901	266
285.132	273
285.364	285
285.595	287
285.826	304
286.057	271
286.288	287
286.52	279
286.751	283
286.982	275
287.213	272
287.444	277
287.675	314
287.906	298
288.138	293
288.369	280
288.6	314
288.831	308
289.062	279
289.293	287
289.524	293
289.755	278
289.986	272
290.217	273
290.448	296
290.679	287
290.91	283
291.141	287
291.371	299
291.602	289
291.833	280
292.064	295
292.295	285
292.526	277
292.757	270
292.987	287
293.218	278
293.449	285
293.68	272
293.91	302
294.141	280
294.372	284
294.603	287
294.833	282
295.064	295
295.295	278
295.525	286
295.756	287
295.987	308
296.217	303
296.448	311
296.679	298
296.909	294
297.14	280
297.37	291
297.601	294
297.831	288
298.062	306
298.292	311
298.523	309
298.753	302
298.984	297
299.214	314
299.445	311
299.675	315
299.905	299
300.136	314
300.366	299
300.597	294
300.827	324
301.057	308
301.288	314
301.518	307
301.748	300
301.979	330
302.209	333
302.439	327
302.669	327
302.9	327
303.13	319
303.36	340
303.59	310
303.82	334
304.051	332
304.281	307
304.511	333
304.741	335
304.971	321
305.201	320
305.431	314
305.661	322
305.891	324
306.121	330
306.352	317
306.582	328
306.812	332
307.042	322
307.272	332
307.502	339
307.731	325
307.961	327
308.191	320
308.421	327
308.651	350
308.881	329
309.111	334
309.341	313
309.571	334
309.8	338
310.03	335
310.26	338
310.49	354
310.72	351
310.949	354
311.179	347
311.409	365
311.639	365
311.868	360
312.098	354
312.328	362
312.557	354
312.787	362
313.017	371
313.246	363
313.476	377
313.706	362
313.935	367
314.165	352
314.394	368
314.624	366
314.853	365
315.083	367
315.312	338
315.542	348
315.771	366
316.001	344
316.23	358
316.46	348
316.689	361
316.919	354
317.148	384
317.377	359
317.607	348
317.836	364
318.065	344
318.295	339
318.524	367
318.753	369
318.983	340
319.212	362
319.441	365
319.67	351
319.9	336
320.129	356
320.358	340
320.587	353
320.816	377
321.046	362
321.275	347
321.504	364
321.733	373
321.962	354
322.191	388
322.42	387
322.649	381
322.878	399
323.108	416
323.337	418
323.566	432
323.795	448
324.024	475
324.253	564
324.482	751
324.71	1096
324.939	1504
325.168	1277
325.397	732
325.626	543
325.855	494
326.084	462
326.313	455
326.542	447
326.77	479
326.999	547
327.228	705
327.457	1034
327.686	1158
327.914	842
328.143	648
328.372	576
328.6	534
328.829	489
329.058	498
329.287	516
329.515	505
329.744	517
329.972	540
330.201	608
330.43	646
330.658	646
330.887	580
331.115	555
331.344	478
331.572	454
331.801	449
332.03	461
332.258	452
332.486	450
332.715	461
332.943	478
333.172	500
333.4	515
333.629	549
333.857	558
334.085	591
334.314	678
334.542	767
334.771	762
334.999	637
335.227	524
335.455	505
335.684	480
335.912	453
336.14	458
336.369	456
336.597	456
336.825	455
337.053	452
337.281	421
337.51	415
337.738	425
337.966	414
338.194	408
338.422	423
338.65	426
338.878	422
339.106	401
339.334	403
339.562	405
339.79	396
340.018	418
340.246	400
340.474	399
340.702	412
340.93	396
341.158	411
341.386	412
341.614	379
341.842	399
342.07	375
342.298	389
342.526	381
342.754	392
342.981	388
343.209	388
343.437	401
343.665	406
343.893	424
344.12	442
344.348	408
344.576	416
344.804	418
345.031	414
345.259	415
345.487	398
345.714	392
345.942	387
346.17	380
346.397	379
346.625	380
346.853	382
347.08	367
347.308	378
347.535	370
347.763	382
347.99	380
348.218	390
348.445	380
348.673	386
348.9	383
349.128	382
349.355	371
349.583	378
349.81	388
350.037	378
350.265	372
350.492	354
350.72	349
350.947	355
351.174	377
351.402	389
351.629	372
351.856	379
352.083	392
352.311	367
352.538	382
352.765	364
352.992	364
353.22	373
353.447	348
353.674	364
353.901	374
354.128	358
354.355	372
354.583	344
354.81	369
355.037	380
355.264	352
355.491	333
355.718	355
355.945	358
356.172	354
356.399	354
356.626	344
356.853	352
357.08	347
357.307	357
357.534	359
357.761	350
357.988	348
358.215	351
358.441	343
358.668	346
358.895	369
359.122	332
359.349	372
359.576	356
359.802	376
360.029	400
360.256	390
360.483	379
360.709	367
360.936	379
361.163	364
361.39	369
361.616	362
361.843	363
362.07	364
362.296	374
362.523	370
362.749	376
362.976	354
363.203	363
363.429	342
363.656	364
363.882	359
364.109	366
364.335	372
364.562	374
364.788	356
365.015	372
365.241	354
365.468	362
365.694	359
365.92	366
366.147	340
366.373	362
366.599	353
366.826	354
367.052	357
367.278	337
367.505	362
367.731	384
367.957	360
368.184	361
368.41	356
368.636	370
368.862	365
369.089	358
369.315	372
369.541	368
369.767	358
369.993	362
370.219	330
370.445	360
370.672	352
370.898	368
371.124	372
371.35	370
371.576	359
371.802	370
372.028	359
372.254	349
372.48	356
372.706	374
372.932	391
373.158	392
373.384	376
373.61	356
373.835	379
374.061	378
374.287	387
374.513	376
374.739	381
374.965	372
375.191	388
375.416	403
375.642	387
375.868	381
376.094	368
376.319	354
376.545	360
376.771	362
376.997	351
377.222	353
377.448	346
377.674	361
377.899	346
378.125	357
378.35	361
378.576	358
378.802	345
379.027	368
379.253	376
379.478	344
379.704	355
379.929	354
380.155	374
380.38	356
380.606	365
380.831	374
381.057	367
381.282	355
381.507	376
381.733	371
381.958	360
382.184	365
382.409	376
382.634	387
382.86	370
383.085	392
383.31	376
383.535	398
383.761	382
383.986	371
384.211	394
384.436	405
384.662	382
384.887	417
385.112	402
385.337	395
385.562	402
385.787	413
386.013	405
386.238	414
386.463	391
386.688	413
386.913	419
387.138	416
387.363	419
387.588	412
387.813	397
388.038	410
388.263	397
388.488	404
388.713	431
388.938	407
389.163	408
389.387	421
389.612	396
389.837	412
390.062	402
390.287	404
390.512	401
390.736	420
390.961	398
391.186	405
391.411	402
391.636	442
391.86	430
392.085	437
392.31	445
392.534	434
392.759	420
392.984	419
393.208	408
393.433	417
393.658	417
393.882	443
394.107	409
394.331	420
394.556	434
394.78	404
395.005	418
395.229	420
395.454	414
395.678	430
395.903	451
396.127	434
396.352	441
396.576	456
396.801	440
397.025	417
397.249	422
397.474	444
397.698	421
397.922	435
398.147	472
398.371	463
398.595	475
398.82	480
399.044	520
399.268	534
399.492	567
399.717	632
399.941	640
400.165	621
400.389	621
400.613	540
400.837	502
401.062	488
401.286	472
401.51	478
401.734	461
401.958	474
402.182	504
402.406	473
402.63	473
402.854	508
403.078	504
403.302	522
403.526	532
403.75	503
403.974	490
404.198	514
404.422	530
404.645	552
404.869	550
405.093	569
405.317	604
405.541	641
405.765	587
405.988	542
406.212	543
406.436	512
406.66	553
406.883	536
407.107	574
407.331	594
407.555	627
407.778	660
408.002	594
408.226	581
408.449	550
408.673	542
408.896	558
409.12	589
409.344	571
409.567	508
409.791	520
410.014	535
410.238	487
410.461	516
410.685	510
410.908	514
411.132	536
411.355	542
411.578	522
411.802	520
412.025	511
412.249	532
412.472	543
412.695	604
412.919	611
413.142	533
413.365	535
413.589	510
413.812	508
414.035	489
414.258	497
414.482	497
414.705	483
414.928	487
415.151	476
415.374	447
415.597	477
415.821	468
416.044	464
416.267	473
416.49	463
416.713	478
416.936	468
417.159	455
417.382	492
417.605	486
417.828	489
418.051	473
418.274	486
418.497	457
418.72	485
418.943	471
419.166	503
419.389	531
419.611	534
419.834	528
420.057	508
420.28	540
420.503	542
420.726	533
420.948	534
421.171	532
421.394	531
421.617	496
421.839	480
422.062	498
422.285	492
422.507	516
422.73	568
422.953	548
423.175	511
423.398	499
423.621	493
423.843	504
424.066	493
424.288	494
424.511	500
424.733	565
424.956	602
425.178	568
425.401	576
425.623	587
425.846	535
426.068	474
426.291	474
426.513	494
426.735	502
426.958	525
427.18	542
427.402	637
427.625	696
427.847	626
428.069	611
428.292	550
428.514	495
428.736	471
428.958	478
429.181	464
429.403	436
429.625	469
429.847	501
430.069	498
430.292	509
430.514	453
430.736	468
430.958	462
431.18	416
431.402	445
431.624	420
431.846	417
432.068	442
432.29	454
432.512	446
432.734	434
432.956	446
433.178	436
433.4	452
433.622	458
433.844	462
434.066	432
434.287	435
434.509	454
434.731	459
434.953	470
435.175	474
435.397	483
435.618	500
435.84	517
436.062	543
436.284	591
436.505	518
436.727	479
436.949	478
437.17	457
437.392	437
437.614	443
437.835	463
438.057	523
438.278	544
438.5	552
438.721	629
438.943	592
439.165	485
439.386	488
439.608	460
439.829	462
440.05	500
440.272	518
440.493	496
440.715	460
440.936	482
441.158	450
441.379	470
441.6	500
441.822	478
442.043	491
442.264	560
442.486	615
442.707	521
442.928	484
443.149	502
443.371	510
443.592	544
443.813	573
444.034	641
444.255	548
444.476	524
444.698	550
444.919	509
445.14	611
445.361	562
445.582	519
445.803	525
446.024	595
446.245	597
446.466	543
446.687	484
446.908	469
447.129	436
447.35	453
447.571	434
447.792	418
448.013	427
448.234	431
448.455	472
448.675	538
448.896	609
449.117	498
449.338	492
449.559	570
449.779	623
450	522
450.221	461
450.442	430
450.662	439
450.883	422
451.104	444
451.324	443
451.545	420
451.766	407
451.986	414
452.207	389
452.428	386
452.648	392
452.869	409
453.089	396
453.31	435
453.53	407
453.751	398
453.971	394
454.192	407
454.412	392
454.633	393
454.853	374
455.073	399
455.294	386
455.514	427
455.734	439
455.955	387
456.175	388
456.395	385
456.616	372
456.836	382
457.056	389
457.276	376
457.497	380
457.717	370
457.937	390
458.157	382
458.377	391
458.598	420
458.818	456
459.038	482
459.258	500
459.478	465
459.698	454
459.918	428
460.138	442
460.358	460
460.578	478
460.798	451
461.018	485
461.238	467
461.458	469
461.678	462
461.898	467
462.118	488
462.338	486
462.558	514
462.777	485
462.997	553
463.217	572
463.437	570
463.657	546
463.876	510
464.096	516
464.316	525
464.536	521
464.755	511
464.975	506
465.195	504
465.414	542
465.634	482
465.854	449
466.073	440
466.293	426
466.512	415
466.732	390
466.951	420
467.171	432
467.391	420
467.61	423
467.829	430
468.049	440
468.268	448
468.488	436
468.707	426
468.927	402
469.146	392
469.365	400
469.585	403
469.804	416
470.023	406
470.243	441
470.462	442
470.681	428
470.901	436
471.12	448
471.339	439
471.558	422
471.777	426
471.997	429
472.216	466
472.435	537
472.654	521
472.873	470
473.092	429
473.311	416
473.53	427
473.749	421
473.968	419
474.187	496
474.406	508
474.625	438
474.844	416
475.063	388
475.282	409
475.501	446
475.72	424
475.939	409
476.158	411
476.377	404
476.596	410
476.814	440
477.033	428
477.252	450
477.471	426
477.69	443
477.908	436
478.127	459
478.346	460
478.564	480
478.783	474
479.002	480
479.22	476
479.439	496
479.658	489
479.876	486
480.095	512
480.313	528
480.532	539
480.751	538
480.969	558
481.188	708
481.406	839
481.624	631
481.843	584
482.061	536
482.28	518
482.498	486
482.717	470
482.935	494
483.153	483
483.372	482
483.59	474
483.808	479
484.027	479
484.245	463
484.463	466
484.681	487
484.9	478
485.118	489
485.336	467
485.554	497
485.772	486
485.99	470
486.209	484
486.427	510
486.645	516
486.863	501
487.081	518
487.299	508
487.517	486
487.735	489
487.953	512
488.171	488
488.389	514
488.607	514
488.825	497
489.043	494
489.261	486
489.479	505
489.696	536
489.914	514
490.132	525
490.35	525
490.568	539
490.786	545
491.003	552
491.221	558
491.439	563
491.657	565
491.874	583
492.092	579
492.31	580
492.527	592
492.745	603
492.963	591
493.18	610
493.398	608
493.615	625
493.833	584
494.05	590
494.268	597
494.485	586
494.703	590
494.92	577
495.138	560
495.355	584
495.573	587
495.79	563
496.008	602
496.225	586
496.442	568
496.66	571
496.877	592
497.094	604
497.312	602
497.529	596
497.746	616
497.963	643
498.181	652
498.398	661
498.615	650
498.832	710
499.049	734
499.267	777
499.484	786
499.701	867
499.918	918
500.135	1003
500.352	1079
500.569	1111
500.786	1109
501.003	1095
501.22	1014
501.437	925
501.654	883
501.871	831
502.088	745
502.305	725
502.522	728
502.739	663
502.956	666
503.172	636
503.389	644
503.606	612
503.823	626
504.04	600
504.256	622
504.473	592
504.69	604
504.907	627
505.123	592
505.34	563
505.557	552
505.773	544
505.99	533
506.207	541
506.423	532
506.64	549
506.856	539
507.073	508
507.289	517
507.506	510
507.722	532
507.939	528
508.155	508
508.372	502
508.588	486
508.805	476
509.021	486
509.238	503
509.454	518
509.67	488
509.887	500
510.103	513
510.319	461
510.536	542
510.752	830
510.968	667
511.184	512
511.401	484
511.617	514
511.833	504
512.049	520
512.265	519
512.481	504
512.698	472
512.914	491
513.13	487
513.346	475
513.562	465
513.778	473
513.994	482
514.21	472
514.426	484
514.642	522
514.858	526
515.074	543
515.29	615
515.506	820
515.721	716
515.937	548
516.153	536
516.369	510
516.585	501
516.801	506
517.016	517
517.232	552
517.448	553
517.664	569
517.879	555
518.095	556
518.311	555
518.527	549
518.742	543
518.958	522
519.173	508
519.389	498
519.605	480
519.82	492
520.036	483
520.251	490
520.467	509
520.682	520
520.898	522
521.113	502
521.329	522
521.544	583
521.76	688
521.975	1017
522.19	978
522.406	597
522.621	506
522.836	482
523.052	448
523.267	457
523.482	434
523.698	438
523.913	440
524.128	420
524.343	452
524.559	419
524.774	423
524.989	425
525.204	419
525.419	429
525.634	408
525.849	407
526.064	406
526.28	432
526.495	404
526.71	387
526.925	420
527.14	403
527.355	404
527.57	408
527.785	404
527.999	407
528.214	410
528.429	400
528.644	404
528.859	386
529.074	402
529.289	420
529.503	454
529.718	456
529.933	404
530.148	404
530.363	391
530.577	399
530.792	405
531.007	386
531.221	398
531.436	404
531.651	399
531.865	382
532.08	394
532.295	405
532.509	398
532.724	380
532.938	380
533.153	383
533.367	399
533.582	393
533.796	398
534.011	395
534.225	393
534.44	377
534.654	397
534.868	389
535.083	383
535.297	400
535.511	385
535.726	410
535.94	388
536.154	396
536.369	387
536.583	372
536.797	371
537.011	377
537.225	370
537.44	365
537.654	396
537.868	358
538.082	374
538.296	382
538.51	384
538.724	375
538.938	360
539.153	394
539.367	384
539.581	352
539.795	366
540.009	365
540.222	389
540.436	362
540.65	382
540.864	374
541.078	377
541.292	386
541.506	371
541.72	359
541.934	375
542.147	375
542.361	380
542.575	379
542.789	362
543.002	358
543.216	358
543.43	364
543.644	359
543.857	377
544.071	386
544.285	384
544.498	370
544.712	368
544.925	370
545.139	390
545.352	374
545.566	363
545.779	380
545.993	381
546.206	393
546.42	381
546.633	391
546.847	355
547.06	350
547.274	374
547.487	386
547.7	365
547.914	384
548.127	380
548.34	360
548.554	364
548.767	373
548.98	364
549.193	375
549.407	380
549.62	378
549.833	365
550.046	363
550.259	374
550.473	367
550.686	371
550.899	374
551.112	372
551.325	342
551.538	374
551.751	364
551.964	376
552.177	360
552.39	362
552.603	376
552.816	372
553.029	392
553.242	400
553.455	403
553.667	380
553.88	398
554.093	393
554.306	387
554.519	373
554.732	373
554.944	375
555.157	340
555.37	347
555.583	357
555.795	334
556.008	356
556.221	347
556.433	337
556.646	342
556.859	343
557.071	345
557.284	340
557.496	340
557.709	345
557.921	333
558.134	342
558.346	335
558.559	319
558.771	329
558.984	333
559.196	331
559.409	328
559.621	336
559.833	321
560.046	298
560.258	325
560.47	306
560.683	314
560.895	349
561.107	322
561.32	329
561.532	337
561.744	332
561.956	334
562.168	327
562.381	323
562.593	315
562.805	331
563.017	331
563.229	331
563.441	323
