Data from 1984.PennyLincolnUp.Lamp.En5.5.200Scan.071819.P1_HRD10591_16-57-38-969.txt Node
Date: Thu Jul 18 16:57:38 EDT 2019
User: cochatt
Spectrometer: HR+D1059
Trigger mode: 1
Integration Time (sec): 1.000000E-1
Scans to average: 1
Electric dark correction enabled: true
Nonlinearity correction enabled: false
Boxcar width: 0
XAxis mode: Wavelengths
Number of Pixels in Spectrum: 2048
>>>>>Begin Spectral Data<<<<<
223.165	-6.75
223.4	-6.75
223.635	-6.75
223.869	-6.75
224.104	-24.75
224.338	-19.75
224.573	-13.75
224.808	-11.75
225.042	-3.75
225.277	-9.75
225.511	-5.75
225.746	6.25
225.98	4.25
226.215	10.25
226.449	10.25
226.683	23.25
226.918	20.25
227.152	28.25
227.387	36.25
227.621	40.25
227.856	53.25
228.09	41.25
228.324	28.25
228.559	41.25
228.793	71.25
229.027	86.25
229.262	97.25
229.496	86.25
229.73	99.25
229.964	117.25
230.199	111.25
230.433	99.25
230.667	103.25
230.901	91.25
231.136	105.25
231.37	110.25
231.604	106.25
231.838	98.25
232.072	107.25
232.306	96.25
232.541	117.25
232.775	122.25
233.009	107.25
233.243	103.25
233.477	119.25
233.711	103.25
233.945	128.25
234.179	106.25
234.413	113.25
234.647	107.25
234.881	117.25
235.115	96.25
235.349	118.25
235.583	113.25
235.817	114.25
236.051	125.25
236.285	102.25
236.519	118.25
236.753	122.25
236.987	127.25
237.221	135.25
237.455	150.25
237.689	133.25
237.922	115.25
238.156	113.25
238.39	129.25
238.624	112.25
238.858	126.25
239.091	109.25
239.325	108.25
239.559	105.25
239.793	112.25
240.027	137.25
240.26	128.25
240.494	143.25
240.728	121.25
240.961	137.25
241.195	126.25
241.429	121.25
241.662	106.25
241.896	115.25
242.13	120.25
242.363	112.25
242.597	118.25
242.83	141.25
243.064	117.25
243.298	146.25
243.531	138.25
243.765	125.25
243.998	132.25
244.232	131.25
244.465	132.25
244.699	123.25
244.932	138.25
245.166	135.25
245.399	133.25
245.633	131.25
245.866	145.25
246.099	135.25
246.333	128.25
246.566	126.25
246.8	134.25
247.033	115.25
247.266	135.25
247.5	132.25
247.733	123.25
247.966	137.25
248.2	162.25
248.433	160.25
248.666	138.25
248.899	157.25
249.133	172.25
249.366	168.25
249.599	167.25
249.832	144.25
250.066	158.25
250.299	168.25
250.532	156.25
250.765	172.25
250.998	181.25
251.231	171.25
251.465	174.25
251.698	160.25
251.931	170.25
252.164	176.25
252.397	167.25
252.63	159.25
252.863	176.25
253.096	169.25
253.329	172.25
253.562	165.25
253.795	181.25
254.028	185.25
254.261	165.25
254.494	171.25
254.727	205.25
254.96	207.25
255.193	194.25
255.426	192.25
255.659	174.25
255.892	194.25
256.124	170.25
256.357	176.25
256.59	175.25
256.823	168.25
257.056	190.25
257.289	171.25
257.521	180.25
257.754	180.25
257.987	174.25
258.22	180.25
258.452	180.25
258.685	185.25
258.918	176.25
259.151	169.25
259.383	183.25
259.616	179.25
259.849	202.25
260.081	198.25
260.314	195.25
260.547	206.25
260.779	203.25
261.012	188.25
261.244	198.25
261.477	198.25
261.71	183.25
261.942	191.25
262.175	194.25
262.407	186.25
262.64	163.25
262.872	183.25
263.105	172.25
263.337	174.25
263.57	193.25
263.802	187.25
264.035	176.25
264.267	195.25
264.499	176.25
264.732	180.25
264.964	196.25
265.197	182.25
265.429	177.25
265.661	186.25
265.894	204.25
266.126	202.25
266.358	202.25
266.591	188.25
266.823	208.25
267.055	219.25
267.287	198.25
267.52	206.25
267.752	204.25
267.984	210.25
268.216	227.25
268.448	217.25
268.681	212.25
268.913	219.25
269.145	208.25
269.377	232.25
269.609	232.25
269.841	222.25
270.073	221.25
270.306	241.25
270.538	232.25
270.77	236.25
271.002	246.25
271.234	244.25
271.466	231.25
271.698	246.25
271.93	268.25
272.162	242.25
272.394	240.25
272.626	231.25
272.858	242.25
273.09	264.25
273.322	238.25
273.553	231.25
273.785	220.25
274.017	247.25
274.249	219.25
274.481	222.25
274.713	232.25
274.945	232.25
275.176	232.25
275.408	244.25
275.64	250.25
275.872	231.25
276.104	238.25
276.335	231.25
276.567	230.25
276.799	242.25
277.031	234.25
277.262	248.25
277.494	255.25
277.726	249.25
277.957	246.25
278.189	246.25
278.421	244.25
278.652	242.25
278.884	229.25
279.115	230.25
279.347	250.25
279.579	234.25
279.81	231.25
280.042	240.25
280.273	235.25
280.505	239.25
280.736	250.25
280.968	245.25
281.199	237.25
281.431	254.25
281.662	237.25
281.894	244.25
282.125	262.25
282.356	257.25
282.588	244.25
282.819	262.25
283.051	245.25
283.282	247.25
283.513	251.25
283.745	229.25
283.976	258.25
284.207	262.25
284.439	255.25
284.67	250.25
284.901	248.25
285.132	271.25
285.364	258.25
285.595	253.25
285.826	245.25
286.057	273.25
286.288	266.25
286.52	272.25
286.751	255.25
286.982	246.25
287.213	271.25
287.444	272.25
287.675	288.25
287.906	272.25
288.138	288.25
288.369	265.25
288.6	256.25
288.831	270.25
289.062	280.25
289.293	290.25
289.524	280.25
289.755	279.25
289.986	261.25
290.217	279.25
290.448	263.25
290.679	270.25
290.91	252.25
291.141	271.25
291.371	259.25
291.602	273.25
291.833	252.25
292.064	278.25
292.295	260.25
292.526	274.25
292.757	264.25
292.987	267.25
293.218	258.25
293.449	283.25
293.68	264.25
293.91	294.25
294.141	270.25
294.372	283.25
294.603	285.25
294.833	270.25
295.064	266.25
295.295	276.25
295.525	276.25
295.756	276.25
295.987	279.25
296.217	306.25
296.448	295.25
296.679	280.25
296.909	283.25
297.14	278.25
297.37	282.25
297.601	276.25
297.831	275.25
298.062	286.25
298.292	281.25
298.523	285.25
298.753	300.25
298.984	292.25
299.214	280.25
299.445	279.25
299.675	276.25
299.905	298.25
300.136	294.25
300.366	303.25
300.597	292.25
300.827	295.25
301.057	287.25
301.288	299.25
301.518	302.25
301.748	301.25
301.979	284.25
302.209	325.25
302.439	297.25
302.669	293.25
302.9	289.25
303.13	308.25
303.36	306.25
303.59	311.25
303.82	316.25
304.051	307.25
304.281	286.25
304.511	294.25
304.741	293.25
304.971	302.25
305.201	308.25
305.431	302.25
305.661	294.25
305.891	308.25
306.121	310.25
306.352	285.25
306.582	312.25
306.812	290.25
307.042	299.25
307.272	308.25
307.502	308.25
307.731	317.25
307.961	321.25
308.191	311.25
308.421	300.25
308.651	290.25
308.881	297.25
309.111	311.25
309.341	303.25
309.571	322.25
309.8	328.25
310.03	306.25
310.26	310.25
310.49	316.25
310.72	319.25
310.949	328.25
311.179	326.25
311.409	310.25
311.639	317.25
311.868	310.25
312.098	328.25
312.328	324.25
312.557	345.25
312.787	325.25
313.017	332.25
313.246	324.25
313.476	324.25
313.706	321.25
313.935	334.25
314.165	349.25
314.394	333.25
314.624	324.25
314.853	332.25
315.083	328.25
315.312	345.25
315.542	326.25
315.771	340.25
316.001	303.25
316.23	329.25
316.46	348.25
316.689	314.25
316.919	321.25
317.148	345.25
317.377	343.25
317.607	323.25
317.836	329.25
318.065	329.25
318.295	322.25
318.524	325.25
318.753	323.25
318.983	315.25
319.212	326.25
319.441	333.25
319.67	344.25
319.9	333.25
320.129	327.25
320.358	334.25
320.587	342.25
320.816	323.25
321.046	325.25
321.275	335.25
321.504	348.25
321.733	326.25
321.962	353.25
322.191	366.25
322.42	347.25
322.649	370.25
322.878	347.25
323.108	363.25
323.337	381.25
323.566	380.25
323.795	405.25
324.024	421.25
324.253	475.25
324.482	619.25
324.71	841.25
324.939	1166.25
325.168	1007.25
325.397	602.25
325.626	466.25
325.855	419.25
326.084	374.25
326.313	394.25
326.542	402.25
326.77	435.25
326.999	442.25
327.228	559.25
327.457	788.25
327.686	912.25
327.914	649.25
328.143	467.25
328.372	440.25
328.6	398.25
328.829	407.25
329.058	418.25
329.287	403.25
329.515	392.25
329.744	391.25
329.972	399.25
330.201	394.25
330.43	412.25
330.658	409.25
330.887	432.25
331.115	430.25
331.344	395.25
331.572	404.25
331.801	404.25
332.03	397.25
332.258	411.25
332.486	392.25
332.715	410.25
332.943	395.25
333.172	411.25
333.4	426.25
333.629	415.25
333.857	436.25
334.085	442.25
334.314	435.25
334.542	430.25
334.771	423.25
334.999	420.25
335.227	421.25
335.455	424.25
335.684	413.25
335.912	400.25
336.14	428.25
336.369	395.25
336.597	405.25
336.825	396.25
337.053	419.25
337.281	399.25
337.51	399.25
337.738	383.25
337.966	378.25
338.194	386.25
338.422	383.25
338.65	371.25
338.878	390.25
339.106	356.25
339.334	366.25
339.562	383.25
339.79	385.25
340.018	378.25
340.246	375.25
340.474	367.25
340.702	374.25
340.93	383.25
341.158	367.25
341.386	375.25
341.614	378.25
341.842	365.25
342.07	362.25
342.298	355.25
342.526	370.25
342.754	377.25
342.981	368.25
343.209	359.25
343.437	373.25
343.665	392.25
343.893	406.25
344.12	416.25
344.348	418.25
344.576	411.25
344.804	402.25
345.031	387.25
345.259	396.25
345.487	375.25
345.714	370.25
345.942	367.25
346.17	355.25
346.397	361.25
346.625	356.25
346.853	331.25
347.08	347.25
347.308	357.25
347.535	357.25
347.763	378.25
347.99	363.25
348.218	370.25
348.445	349.25
348.673	341.25
348.9	358.25
349.128	346.25
349.355	334.25
349.583	343.25
349.81	336.25
350.037	346.25
350.265	352.25
350.492	351.25
350.72	347.25
350.947	344.25
351.174	357.25
351.402	370.25
351.629	362.25
351.856	363.25
352.083	344.25
352.311	342.25
352.538	340.25
352.765	360.25
352.992	348.25
353.22	367.25
353.447	362.25
353.674	327.25
353.901	338.25
354.128	350.25
354.355	340.25
354.583	325.25
354.81	334.25
355.037	321.25
355.264	316.25
355.491	332.25
355.718	334.25
355.945	343.25
356.172	353.25
356.399	328.25
356.626	324.25
356.853	338.25
357.08	331.25
357.307	330.25
357.534	338.25
357.761	317.25
357.988	340.25
358.215	335.25
358.441	334.25
358.668	324.25
358.895	333.25
359.122	358.25
359.349	334.25
359.576	343.25
359.802	348.25
360.029	374.25
360.256	341.25
360.483	364.25
360.709	323.25
360.936	342.25
361.163	346.25
361.39	341.25
361.616	356.25
361.843	332.25
362.07	342.25
362.296	335.25
362.523	342.25
362.749	339.25
362.976	333.25
363.203	335.25
363.429	341.25
363.656	326.25
363.882	356.25
364.109	330.25
364.335	318.25
364.562	343.25
364.788	324.25
365.015	335.25
365.241	334.25
365.468	338.25
365.694	322.25
365.92	338.25
366.147	333.25
366.373	325.25
366.599	334.25
366.826	352.25
367.052	331.25
367.278	335.25
367.505	325.25
367.731	347.25
367.957	340.25
368.184	333.25
368.41	331.25
368.636	337.25
368.862	340.25
369.089	321.25
369.315	365.25
369.541	351.25
369.767	320.25
369.993	337.25
370.219	352.25
370.445	346.25
370.672	364.25
370.898	342.25
371.124	355.25
371.35	346.25
371.576	352.25
371.802	350.25
372.028	350.25
372.254	329.25
372.48	337.25
372.706	331.25
372.932	361.25
373.158	348.25
373.384	363.25
373.61	355.25
373.835	359.25
374.061	358.25
374.287	353.25
374.513	358.25
374.739	362.25
374.965	351.25
375.191	374.25
375.416	375.25
375.642	359.25
375.868	352.25
376.094	356.25
376.319	335.25
376.545	357.25
376.771	346.25
376.997	345.25
377.222	336.25
377.448	331.25
377.674	346.25
377.899	349.25
378.125	339.25
378.35	336.25
378.576	342.25
378.802	335.25
379.027	336.25
379.253	362.25
379.478	354.25
379.704	351.25
379.929	346.25
380.155	348.25
380.38	342.25
380.606	327.25
380.831	324.25
381.057	351.25
381.282	330.25
381.507	342.25
381.733	343.25
381.958	334.25
382.184	343.25
382.409	347.25
382.634	342.25
382.86	349.25
383.085	345.25
383.31	374.25
383.535	384.25
383.761	377.25
383.986	370.25
384.211	386.25
384.436	364.25
384.662	367.25
384.887	394.25
385.112	386.25
385.337	379.25
385.562	390.25
385.787	396.25
386.013	387.25
386.238	410.25
386.463	395.25
386.688	382.25
386.913	388.25
387.138	384.25
387.363	396.25
387.588	385.25
387.813	390.25
388.038	406.25
388.263	392.25
388.488	406.25
388.713	390.25
388.938	383.25
389.163	392.25
389.387	365.25
389.612	387.25
389.837	374.25
390.062	376.25
390.287	393.25
390.512	377.25
390.736	384.25
390.961	401.25
391.186	380.25
391.411	422.25
391.636	418.25
391.86	423.25
392.085	416.25
392.31	423.25
392.534	392.25
392.759	414.25
392.984	420.25
393.208	406.25
393.433	389.25
393.658	393.25
393.882	425.25
394.107	406.25
394.331	402.25
394.556	393.25
394.78	394.25
395.005	408.25
395.229	414.25
395.454	414.25
395.678	421.25
395.903	422.25
396.127	429.25
396.352	426.25
396.576	425.25
396.801	397.25
397.025	400.25
397.249	414.25
397.474	416.25
397.698	410.25
397.922	417.25
398.147	436.25
398.371	445.25
398.595	441.25
398.82	456.25
399.044	464.25
399.268	512.25
399.492	562.25
399.717	594.25
399.941	610.25
400.165	603.25
400.389	571.25
400.613	506.25
400.837	468.25
401.062	471.25
401.286	469.25
401.51	446.25
401.734	456.25
401.958	451.25
402.182	456.25
402.406	469.25
402.63	466.25
402.854	460.25
403.078	482.25
403.302	481.25
403.526	496.25
403.75	492.25
403.974	502.25
404.198	499.25
404.422	488.25
404.645	499.25
404.869	482.25
405.093	485.25
405.317	491.25
405.541	507.25
405.765	506.25
405.988	495.25
406.212	513.25
406.436	492.25
406.66	515.25
406.883	502.25
407.107	530.25
407.331	568.25
407.555	615.25
407.778	592.25
408.002	562.25
408.226	553.25
408.449	549.25
408.673	509.25
408.896	530.25
409.12	552.25
409.344	518.25
409.567	491.25
409.791	491.25
410.014	469.25
410.238	463.25
410.461	463.25
410.685	490.25
410.908	465.25
411.132	500.25
411.355	482.25
411.578	502.25
411.802	480.25
412.025	450.25
412.249	479.25
412.472	454.25
412.695	484.25
412.919	472.25
413.142	449.25
413.365	464.25
413.589	446.25
413.812	428.25
414.035	461.25
414.258	440.25
414.482	452.25
414.705	451.25
414.928	440.25
415.151	467.25
415.374	469.25
415.597	443.25
415.821	434.25
416.044	429.25
416.267	434.25
416.49	444.25
416.713	422.25
416.936	441.25
417.159	443.25
417.382	426.25
417.605	444.25
417.828	468.25
418.051	468.25
418.274	462.25
418.497	445.25
418.72	420.25
418.943	457.25
419.166	465.25
419.389	499.25
419.611	477.25
419.834	480.25
420.057	458.25
420.28	445.25
420.503	445.25
420.726	440.25
420.948	438.25
421.171	466.25
421.394	482.25
421.617	467.25
421.839	464.25
422.062	440.25
422.285	477.25
422.507	501.25
422.73	530.25
422.953	524.25
423.175	496.25
423.398	482.25
423.621	479.25
423.843	495.25
424.066	515.25
424.288	486.25
424.511	505.25
424.733	514.25
424.956	557.25
425.178	491.25
425.401	515.25
425.623	557.25
425.846	490.25
426.068	475.25
426.291	447.25
426.513	471.25
426.735	464.25
426.958	477.25
427.18	515.25
427.402	594.25
427.625	623.25
427.847	551.25
428.069	484.25
428.292	448.25
428.514	420.25
428.736	425.25
428.958	433.25
429.181	429.25
429.403	409.25
429.625	428.25
429.847	440.25
430.069	467.25
430.292	476.25
430.514	435.25
430.736	447.25
430.958	428.25
431.18	427.25
431.402	432.25
431.624	418.25
431.846	406.25
432.068	426.25
432.29	412.25
432.512	416.25
432.734	412.25
432.956	415.25
433.178	411.25
433.4	436.25
433.622	409.25
433.844	423.25
434.066	420.25
434.287	426.25
434.509	413.25
434.731	434.25
434.953	465.25
435.175	446.25
435.397	456.25
435.618	449.25
435.84	484.25
436.062	506.25
436.284	553.25
436.505	460.25
436.727	426.25
436.949	434.25
437.17	430.25
437.392	419.25
437.614	426.25
437.835	428.25
438.057	484.25
438.278	542.25
438.5	535.25
438.721	573.25
438.943	534.25
439.165	459.25
439.386	451.25
439.608	455.25
439.829	445.25
440.05	449.25
440.272	470.25
440.493	438.25
440.715	456.25
440.936	430.25
441.158	420.25
441.379	439.25
441.6	444.25
441.822	477.25
442.043	494.25
442.264	508.25
442.486	544.25
442.707	490.25
442.928	465.25
443.149	474.25
443.371	479.25
443.592	492.25
443.813	548.25
444.034	588.25
444.255	525.25
444.476	489.25
444.698	531.25
444.919	480.25
445.14	602.25
445.361	538.25
445.582	508.25
445.803	507.25
446.024	553.25
446.245	562.25
446.466	507.25
446.687	464.25
446.908	431.25
447.129	432.25
447.35	406.25
447.571	441.25
447.792	408.25
448.013	396.25
448.234	416.25
448.455	446.25
448.675	504.25
448.896	550.25
449.117	489.25
449.338	479.25
449.559	533.25
449.779	570.25
450	468.25
450.221	417.25
450.442	406.25
450.662	414.25
450.883	400.25
451.104	397.25
451.324	411.25
451.545	381.25
451.766	386.25
451.986	408.25
452.207	374.25
452.428	380.25
452.648	388.25
452.869	399.25
453.089	380.25
453.31	399.25
453.53	370.25
453.751	355.25
453.971	354.25
454.192	390.25
454.412	365.25
454.633	388.25
454.853	366.25
455.073	367.25
455.294	377.25
455.514	417.25
455.734	410.25
455.955	371.25
456.175	354.25
456.395	362.25
456.616	364.25
456.836	350.25
457.056	352.25
457.276	335.25
457.497	357.25
457.717	367.25
457.937	355.25
458.157	357.25
458.377	367.25
458.598	392.25
458.818	392.25
459.038	419.25
459.258	461.25
459.478	435.25
459.698	436.25
459.918	426.25
460.138	414.25
460.358	442.25
460.578	448.25
460.798	448.25
461.018	438.25
461.238	445.25
461.458	445.25
461.678	447.25
461.898	440.25
462.118	474.25
462.338	468.25
462.558	474.25
462.777	482.25
462.997	519.25
463.217	536.25
463.437	554.25
463.657	529.25
463.876	485.25
464.096	503.25
464.316	499.25
464.536	494.25
464.755	470.25
464.975	456.25
465.195	479.25
465.414	481.25
465.634	439.25
465.854	430.25
466.073	414.25
466.293	411.25
466.512	394.25
466.732	378.25
466.951	402.25
467.171	380.25
467.391	403.25
467.61	407.25
467.829	394.25
468.049	384.25
468.268	397.25
468.488	391.25
468.707	374.25
468.927	380.25
469.146	370.25
469.365	391.25
469.585	370.25
469.804	397.25
470.023	414.25
470.243	383.25
470.462	415.25
470.681	392.25
470.901	408.25
471.12	392.25
471.339	392.25
471.558	389.25
471.777	394.25
471.997	390.25
472.216	367.25
472.435	380.25
472.654	378.25
472.873	372.25
473.092	376.25
473.311	373.25
473.53	370.25
473.749	375.25
473.968	393.25
474.187	440.25
474.406	451.25
474.625	415.25
474.844	396.25
475.063	386.25
475.282	380.25
475.501	395.25
475.72	396.25
475.939	397.25
476.158	401.25
476.377	400.25
476.596	404.25
476.814	407.25
477.033	412.25
477.252	392.25
477.471	427.25
477.69	402.25
477.908	411.25
478.127	420.25
478.346	443.25
478.564	453.25
478.783	450.25
479.002	445.25
479.22	456.25
479.439	463.25
479.658	463.25
479.876	451.25
480.095	476.25
480.313	502.25
480.532	498.25
480.751	493.25
480.969	483.25
481.188	496.25
481.406	477.25
481.624	427.25
481.843	460.25
482.061	461.25
482.28	438.25
482.498	414.25
482.717	423.25
482.935	421.25
483.153	426.25
483.372	438.25
483.59	444.25
483.808	431.25
484.027	422.25
484.245	450.25
484.463	434.25
484.681	461.25
484.9	443.25
485.118	461.25
485.336	463.25
485.554	447.25
485.772	461.25
485.99	453.25
486.209	475.25
486.427	468.25
486.645	461.25
486.863	466.25
487.081	468.25
487.299	463.25
487.517	438.25
487.735	458.25
487.953	462.25
488.171	463.25
488.389	464.25
488.607	460.25
488.825	462.25
489.043	470.25
489.261	451.25
489.479	474.25
489.696	462.25
489.914	479.25
490.132	458.25
490.35	461.25
490.568	474.25
490.786	488.25
491.003	472.25
491.221	495.25
491.439	478.25
491.657	494.25
491.874	507.25
492.092	501.25
492.31	502.25
492.527	512.25
492.745	494.25
492.963	495.25
493.18	488.25
493.398	511.25
493.615	523.25
493.833	518.25
494.05	521.25
494.268	516.25
494.485	506.25
494.703	504.25
494.92	522.25
495.138	523.25
495.355	504.25
495.573	542.25
495.79	533.25
496.008	534.25
496.225	532.25
496.442	519.25
496.66	526.25
496.877	560.25
497.094	552.25
497.312	559.25
497.529	544.25
497.746	585.25
497.963	586.25
498.181	605.25
498.398	609.25
498.615	653.25
498.832	657.25
499.049	663.25
499.267	736.25
499.484	758.25
499.701	835.25
499.918	871.25
500.135	963.25
500.352	1038.25
500.569	1040.25
500.786	1044.25
501.003	1002.25
501.22	947.25
501.437	846.25
501.654	834.25
501.871	780.25
502.088	734.25
