Data from 1984.PennyLincolnUp.Lamp.En5.5.200Scan.071819.P1_HRD10591_16-58-40-970.txt Node
Date: Thu Jul 18 16:58:40 EDT 2019
User: cochatt
Spectrometer: HR+D1059
Trigger mode: 1
Integration Time (sec): 1.000000E-1
Scans to average: 1
Electric dark correction enabled: true
Nonlinearity correction enabled: false
Boxcar width: 0
XAxis mode: Wavelengths
Number of Pixels in Spectrum: 2048
>>>>>Begin Spectral Data<<<<<
223.165	-10.06
223.4	-10.06
223.635	-10.06
223.869	-5.06
224.104	-24.06
224.338	-22.06
224.573	-16.06
224.808	2.94
225.042	-7.06
225.277	-8.06
225.511	-6.06
225.746	10.94
225.98	4.94
226.215	2.94
226.449	15.94
226.683	6.94
226.918	20.94
227.152	32.94
227.387	31.94
227.621	35.94
227.856	31.94
228.09	60.94
228.324	64.94
228.559	53.94
228.793	72.94
229.027	89.94
229.262	81.94
229.496	103.94
229.73	99.94
229.964	122.94
230.199	102.94
230.433	103.94
230.667	105.94
230.901	114.94
231.136	107.94
231.37	112.94
231.604	107.94
231.838	107.94
232.072	102.94
232.306	109.94
232.541	102.94
232.775	108.94
233.009	111.94
233.243	95.94
233.477	123.94
233.711	110.94
233.945	132.94
234.179	124.94
234.413	107.94
234.647	111.94
234.881	115.94
235.115	115.94
235.349	119.94
235.583	118.94
235.817	116.94
236.051	105.94
236.285	119.94
236.519	124.94
236.753	122.94
236.987	131.94
237.221	152.94
237.455	167.94
237.689	145.94
237.922	150.94
238.156	134.94
238.39	124.94
238.624	113.94
238.858	114.94
239.091	109.94
239.325	120.94
239.559	123.94
239.793	127.94
240.027	120.94
240.26	126.94
240.494	142.94
240.728	130.94
240.961	143.94
241.195	127.94
241.429	126.94
241.662	127.94
241.896	130.94
242.13	138.94
242.363	121.94
242.597	124.94
242.83	129.94
243.064	125.94
243.298	129.94
243.531	150.94
243.765	135.94
243.998	134.94
244.232	130.94
244.465	130.94
244.699	131.94
244.932	123.94
245.166	132.94
245.399	138.94
245.633	135.94
245.866	135.94
246.099	123.94
246.333	145.94
246.566	152.94
246.8	159.94
247.033	148.94
247.266	153.94
247.5	139.94
247.733	156.94
247.966	143.94
248.2	140.94
248.433	157.94
248.666	148.94
248.899	180.94
249.133	170.94
249.366	158.94
249.599	176.94
249.832	178.94
250.066	182.94
250.299	174.94
250.532	190.94
250.765	192.94
250.998	182.94
251.231	187.94
251.465	182.94
251.698	197.94
251.931	174.94
252.164	172.94
252.397	183.94
252.63	164.94
252.863	187.94
253.096	186.94
253.329	180.94
253.562	203.94
253.795	189.94
254.028	164.94
254.261	180.94
254.494	189.94
254.727	207.94
254.96	223.94
255.193	228.94
255.426	207.94
255.659	206.94
255.892	222.94
256.124	234.94
256.357	251.94
256.59	220.94
256.823	203.94
257.056	194.94
257.289	188.94
257.521	188.94
257.754	187.94
257.987	191.94
258.22	197.94
258.452	190.94
258.685	197.94
258.918	195.94
259.151	189.94
259.383	191.94
259.616	203.94
259.849	198.94
260.081	207.94
260.314	229.94
260.547	211.94
260.779	218.94
261.012	202.94
261.244	207.94
261.477	205.94
261.71	194.94
261.942	195.94
262.175	199.94
262.407	201.94
262.64	195.94
262.872	198.94
263.105	194.94
263.337	194.94
263.57	200.94
263.802	191.94
264.035	204.94
264.267	202.94
264.499	198.94
264.732	197.94
264.964	216.94
265.197	203.94
265.429	203.94
265.661	207.94
265.894	214.94
266.126	222.94
266.358	200.94
266.591	214.94
266.823	210.94
267.055	207.94
267.287	196.94
267.52	209.94
267.752	219.94
267.984	207.94
268.216	219.94
268.448	211.94
268.681	202.94
268.913	229.94
269.145	221.94
269.377	242.94
269.609	228.94
269.841	230.94
270.073	247.94
270.306	227.94
270.538	254.94
270.77	258.94
271.002	268.94
271.234	252.94
271.466	258.94
271.698	268.94
271.93	267.94
272.162	284.94
272.394	272.94
272.626	246.94
272.858	243.94
273.09	243.94
273.322	245.94
273.553	243.94
273.785	248.94
274.017	230.94
274.249	254.94
274.481	245.94
274.713	249.94
274.945	263.94
275.176	259.94
275.408	249.94
275.64	245.94
275.872	269.94
276.104	251.94
276.335	242.94
276.567	259.94
276.799	278.94
277.031	292.94
277.262	284.94
277.494	280.94
277.726	267.94
277.957	278.94
278.189	264.94
278.421	254.94
278.652	259.94
278.884	232.94
279.115	251.94
279.347	276.94
279.579	259.94
279.81	260.94
280.042	271.94
280.273	261.94
280.505	266.94
280.736	259.94
280.968	269.94
281.199	254.94
281.431	271.94
281.662	262.94
281.894	267.94
282.125	264.94
282.356	262.94
282.588	263.94
282.819	272.94
283.051	275.94
283.282	285.94
283.513	293.94
283.745	279.94
283.976	279.94
284.207	284.94
284.439	274.94
284.67	261.94
284.901	260.94
285.132	279.94
285.364	261.94
285.595	284.94
285.826	279.94
286.057	273.94
286.288	265.94
286.52	283.94
286.751	282.94
286.982	262.94
287.213	275.94
287.444	275.94
287.675	290.94
287.906	281.94
288.138	282.94
288.369	283.94
288.6	303.94
288.831	285.94
289.062	279.94
289.293	283.94
289.524	285.94
289.755	290.94
289.986	287.94
290.217	300.94
290.448	293.94
290.679	265.94
290.91	294.94
291.141	300.94
291.371	284.94
291.602	294.94
291.833	286.94
292.064	287.94
292.295	283.94
292.526	268.94
292.757	290.94
292.987	277.94
293.218	295.94
293.449	309.94
293.68	306.94
293.91	299.94
294.141	291.94
294.372	294.94
294.603	286.94
294.833	278.94
295.064	285.94
295.295	272.94
295.525	303.94
295.756	291.94
295.987	282.94
296.217	295.94
296.448	306.94
296.679	307.94
296.909	283.94
297.14	315.94
297.37	294.94
297.601	295.94
297.831	314.94
298.062	290.94
298.292	302.94
298.523	325.94
298.753	312.94
298.984	305.94
299.214	315.94
299.445	306.94
299.675	302.94
299.905	290.94
300.136	325.94
300.366	329.94
300.597	301.94
300.827	326.94
301.057	334.94
301.288	315.94
301.518	322.94
301.748	325.94
301.979	316.94
302.209	319.94
302.439	325.94
302.669	332.94
302.9	315.94
303.13	332.94
303.36	322.94
303.59	322.94
303.82	325.94
304.051	321.94
304.281	355.94
304.511	318.94
304.741	327.94
304.971	320.94
305.201	325.94
305.431	340.94
305.661	328.94
305.891	305.94
306.121	326.94
306.352	320.94
306.582	316.94
306.812	332.94
307.042	342.94
307.272	331.94
307.502	328.94
307.731	332.94
307.961	340.94
308.191	326.94
308.421	340.94
308.651	327.94
308.881	325.94
309.111	333.94
309.341	329.94
309.571	340.94
309.8	346.94
310.03	350.94
310.26	358.94
310.49	347.94
310.72	334.94
310.949	356.94
311.179	355.94
311.409	336.94
311.639	348.94
311.868	328.94
312.098	359.94
312.328	376.94
312.557	360.94
312.787	356.94
313.017	377.94
313.246	357.94
313.476	358.94
313.706	342.94
313.935	343.94
314.165	383.94
314.394	345.94
314.624	342.94
314.853	367.94
315.083	378.94
315.312	345.94
315.542	347.94
315.771	332.94
316.001	352.94
316.23	349.94
316.46	346.94
316.689	364.94
316.919	357.94
317.148	370.94
317.377	361.94
317.607	344.94
317.836	350.94
318.065	357.94
318.295	353.94
318.524	350.94
318.753	351.94
318.983	371.94
319.212	320.94
319.441	356.94
319.67	360.94
319.9	363.94
320.129	351.94
320.358	354.94
320.587	363.94
320.816	370.94
321.046	380.94
321.275	363.94
321.504	365.94
321.733	342.94
321.962	372.94
322.191	380.94
322.42	396.94
322.649	385.94
322.878	387.94
323.108	410.94
323.337	418.94
323.566	406.94
323.795	435.94
324.024	487.94
324.253	535.94
324.482	710.94
324.71	1050.94
324.939	1415.94
325.168	1222.94
325.397	689.94
325.626	527.94
325.855	470.94
326.084	452.94
326.313	428.94
326.542	463.94
326.77	487.94
326.999	534.94
327.228	663.94
327.457	944.94
327.686	1108.94
327.914	811.94
328.143	573.94
328.372	540.94
328.6	510.94
328.829	504.94
329.058	483.94
329.287	491.94
329.515	467.94
329.744	463.94
329.972	485.94
330.201	506.94
330.43	532.94
330.658	547.94
330.887	526.94
331.115	490.94
331.344	478.94
331.572	457.94
331.801	453.94
332.03	461.94
332.258	426.94
332.486	454.94
332.715	452.94
332.943	427.94
333.172	457.94
333.4	491.94
333.629	490.94
333.857	486.94
334.085	516.94
334.314	566.94
334.542	614.94
334.771	589.94
334.999	538.94
335.227	507.94
335.455	478.94
335.684	471.94
335.912	463.94
336.14	443.94
336.369	440.94
336.597	446.94
336.825	445.94
337.053	436.94
337.281	431.94
337.51	427.94
337.738	406.94
337.966	408.94
338.194	452.94
338.422	419.94
338.65	420.94
338.878	403.94
339.106	415.94
339.334	398.94
339.562	402.94
339.79	399.94
340.018	407.94
340.246	422.94
340.474	399.94
340.702	392.94
340.93	395.94
341.158	385.94
341.386	396.94
341.614	407.94
341.842	390.94
342.07	373.94
342.298	394.94
342.526	381.94
342.754	394.94
342.981	397.94
343.209	398.94
343.437	401.94
343.665	417.94
343.893	434.94
344.12	442.94
344.348	424.94
344.576	432.94
344.804	419.94
345.031	414.94
345.259	415.94
345.487	397.94
345.714	392.94
345.942	373.94
346.17	384.94
346.397	370.94
346.625	382.94
346.853	380.94
347.08	378.94
347.308	379.94
347.535	383.94
347.763	383.94
347.99	393.94
348.218	366.94
348.445	370.94
348.673	386.94
348.9	386.94
349.128	379.94
349.355	372.94
349.583	390.94
349.81	367.94
350.037	357.94
350.265	365.94
350.492	366.94
350.72	373.94
350.947	358.94
351.174	372.94
351.402	374.94
351.629	396.94
351.856	377.94
352.083	385.94
352.311	381.94
352.538	368.94
352.765	370.94
352.992	358.94
353.22	353.94
353.447	368.94
353.674	374.94
353.901	346.94
354.128	348.94
354.355	354.94
354.583	356.94
354.81	350.94
355.037	355.94
355.264	358.94
355.491	365.94
355.718	315.94
355.945	346.94
356.172	359.94
356.399	344.94
356.626	362.94
356.853	343.94
357.08	356.94
357.307	348.94
357.534	359.94
357.761	356.94
357.988	359.94
358.215	363.94
358.441	358.94
358.668	361.94
358.895	366.94
359.122	358.94
359.349	361.94
359.576	387.94
359.802	385.94
360.029	393.94
360.256	392.94
360.483	397.94
360.709	378.94
360.936	359.94
361.163	373.94
361.39	367.94
361.616	370.94
361.843	372.94
362.07	382.94
362.296	373.94
362.523	367.94
362.749	380.94
362.976	349.94
363.203	363.94
363.429	361.94
363.656	344.94
363.882	346.94
364.109	374.94
364.335	346.94
364.562	346.94
364.788	354.94
365.015	343.94
365.241	356.94
365.468	358.94
365.694	364.94
365.92	346.94
366.147	359.94
366.373	354.94
366.599	355.94
366.826	348.94
367.052	356.94
367.278	360.94
367.505	354.94
367.731	366.94
367.957	366.94
368.184	351.94
368.41	352.94
368.636	376.94
368.862	367.94
369.089	387.94
369.315	348.94
369.541	366.94
369.767	350.94
369.993	362.94
370.219	345.94
370.445	339.94
370.672	334.94
370.898	355.94
371.124	346.94
371.35	382.94
371.576	378.94
371.802	357.94
372.028	380.94
372.254	352.94
372.48	363.94
372.706	368.94
372.932	378.94
373.158	379.94
373.384	362.94
373.61	362.94
373.835	379.94
374.061	358.94
374.287	357.94
374.513	380.94
374.739	382.94
374.965	397.94
375.191	394.94
375.416	384.94
375.642	355.94
375.868	363.94
376.094	374.94
376.319	365.94
376.545	372.94
376.771	382.94
376.997	358.94
377.222	338.94
377.448	375.94
377.674	346.94
377.899	370.94
378.125	366.94
378.35	365.94
378.576	346.94
378.802	362.94
379.027	371.94
379.253	354.94
379.478	356.94
379.704	370.94
379.929	359.94
380.155	359.94
380.38	359.94
380.606	367.94
380.831	364.94
381.057	359.94
381.282	386.94
381.507	382.94
381.733	363.94
381.958	345.94
382.184	361.94
382.409	365.94
382.634	358.94
382.86	372.94
383.085	362.94
383.31	366.94
383.535	382.94
383.761	381.94
383.986	400.94
384.211	395.94
384.436	403.94
384.662	406.94
384.887	407.94
385.112	414.94
385.337	417.94
385.562	407.94
385.787	393.94
386.013	435.94
386.238	390.94
386.463	402.94
386.688	414.94
386.913	397.94
387.138	421.94
387.363	415.94
387.588	397.94
387.813	404.94
388.038	399.94
388.263	401.94
388.488	404.94
388.713	414.94
388.938	405.94
389.163	405.94
389.387	389.94
389.612	398.94
389.837	409.94
390.062	407.94
390.287	392.94
390.512	423.94
390.736	396.94
390.961	392.94
391.186	404.94
391.411	418.94
391.636	429.94
391.86	441.94
392.085	429.94
392.31	457.94
392.534	437.94
392.759	432.94
392.984	424.94
393.208	427.94
393.433	403.94
393.658	417.94
393.882	390.94
394.107	418.94
394.331	402.94
394.556	414.94
394.78	420.94
395.005	414.94
395.229	425.94
395.454	427.94
395.678	425.94
395.903	443.94
396.127	456.94
396.352	434.94
396.576	419.94
396.801	425.94
397.025	428.94
397.249	450.94
397.474	441.94
397.698	434.94
397.922	457.94
398.147	456.94
398.371	457.94
398.595	465.94
398.82	479.94
399.044	495.94
399.268	540.94
399.492	587.94
399.717	625.94
399.941	636.94
400.165	613.94
400.389	602.94
400.613	551.94
400.837	502.94
401.062	507.94
401.286	508.94
401.51	496.94
401.734	472.94
401.958	491.94
402.182	493.94
402.406	486.94
402.63	486.94
402.854	496.94
403.078	518.94
403.302	510.94
403.526	515.94
403.75	532.94
403.974	524.94
404.198	522.94
404.422	536.94
404.645	537.94
404.869	539.94
405.093	549.94
405.317	594.94
405.541	605.94
405.765	555.94
405.988	564.94
406.212	537.94
406.436	542.94
406.66	570.94
406.883	560.94
407.107	574.94
407.331	616.94
407.555	674.94
407.778	664.94
408.002	603.94
408.226	574.94
408.449	564.94
408.673	550.94
408.896	557.94
409.12	588.94
409.344	549.94
409.567	545.94
409.791	516.94
410.014	509.94
410.238	520.94
410.461	513.94
410.685	491.94
410.908	516.94
411.132	533.94
411.355	538.94
411.578	534.94
411.802	511.94
412.025	504.94
412.249	512.94
412.472	539.94
412.695	582.94
412.919	559.94
413.142	536.94
413.365	513.94
413.589	495.94
413.812	491.94
414.035	479.94
414.258	501.94
414.482	462.94
414.705	482.94
414.928	468.94
415.151	492.94
415.374	474.94
415.597	470.94
415.821	455.94
416.044	458.94
416.267	459.94
416.49	470.94
416.713	459.94
416.936	479.94
417.159	472.94
417.382	478.94
417.605	454.94
417.828	474.94
418.051	474.94
418.274	467.94
418.497	480.94
418.72	477.94
418.943	461.94
419.166	524.94
419.389	519.94
419.611	527.94
419.834	533.94
420.057	518.94
420.28	519.94
420.503	497.94
420.726	516.94
420.948	516.94
421.171	535.94
421.394	526.94
421.617	504.94
421.839	489.94
422.062	483.94
422.285	509.94
422.507	526.94
422.73	562.94
422.953	559.94
423.175	525.94
423.398	501.94
423.621	493.94
423.843	513.94
424.066	506.94
424.288	520.94
424.511	538.94
424.733	554.94
424.956	599.94
425.178	579.94
425.401	556.94
425.623	594.94
425.846	525.94
426.068	480.94
426.291	484.94
426.513	482.94
426.735	479.94
426.958	528.94
427.18	548.94
427.402	630.94
427.625	682.94
427.847	638.94
428.069	553.94
428.292	526.94
428.514	494.94
428.736	452.94
428.958	454.94
429.181	446.94
429.403	462.94
429.625	454.94
429.847	471.94
430.069	506.94
430.292	498.94
430.514	455.94
430.736	452.94
430.958	430.94
431.18	445.94
431.402	415.94
431.624	412.94
431.846	443.94
432.068	436.94
432.29	452.94
432.512	443.94
432.734	439.94
432.956	445.94
433.178	439.94
433.4	436.94
433.622	436.94
433.844	436.94
434.066	427.94
434.287	427.94
434.509	461.94
434.731	472.94
434.953	473.94
435.175	488.94
435.397	479.94
435.618	476.94
435.84	514.94
436.062	555.94
436.284	615.94
436.505	529.94
436.727	476.94
436.949	488.94
437.17	454.94
437.392	422.94
437.614	448.94
437.835	480.94
438.057	516.94
438.278	552.94
438.5	574.94
438.721	635.94
438.943	598.94
439.165	506.94
439.386	485.94
439.608	479.94
439.829	481.94
440.05	483.94
440.272	527.94
440.493	485.94
440.715	479.94
440.936	460.94
441.158	449.94
441.379	460.94
441.6	486.94
441.822	506.94
442.043	516.94
442.264	568.94
442.486	596.94
442.707	527.94
442.928	486.94
443.149	510.94
443.371	513.94
443.592	532.94
443.813	586.94
444.034	633.94
444.255	552.94
444.476	534.94
444.698	545.94
444.919	545.94
445.14	628.94
445.361	578.94
445.582	540.94
445.803	559.94
446.024	599.94
446.245	585.94
446.466	573.94
446.687	467.94
446.908	472.94
447.129	449.94
447.35	428.94
447.571	452.94
447.792	419.94
448.013	447.94
448.234	448.94
448.455	460.94
448.675	533.94
448.896	597.94
449.117	548.94
449.338	496.94
449.559	576.94
449.779	608.94
450	522.94
450.221	446.94
450.442	442.94
450.662	445.94
450.883	428.94
451.104	427.94
451.324	436.94
451.545	411.94
451.766	419.94
451.986	397.94
452.207	385.94
452.428	397.94
452.648	406.94
452.869	402.94
453.089	387.94
453.31	419.94
453.53	402.94
453.751	376.94
453.971	393.94
454.192	400.94
454.412	393.94
454.633	374.94
454.853	390.94
455.073	392.94
455.294	410.94
455.514	450.94
455.734	436.94
455.955	390.94
456.175	391.94
456.395	358.94
456.616	363.94
456.836	380.94
457.056	387.94
457.276	380.94
457.497	397.94
457.717	385.94
457.937	362.94
458.157	412.94
458.377	380.94
458.598	394.94
458.818	454.94
459.038	447.94
459.258	495.94
459.478	461.94
459.698	419.94
459.918	438.94
460.138	465.94
460.358	453.94
460.578	494.94
460.798	478.94
461.018	474.94
461.238	461.94
461.458	470.94
461.678	462.94
461.898	473.94
462.118	504.94
462.338	506.94
462.558	497.94
462.777	494.94
462.997	546.94
463.217	541.94
463.437	562.94
463.657	526.94
463.876	504.94
464.096	514.94
464.316	519.94
464.536	511.94
464.755	495.94
464.975	518.94
465.195	500.94
465.414	535.94
465.634	490.94
465.854	462.94
466.073	452.94
466.293	438.94
466.512	429.94
466.732	420.94
466.951	425.94
467.171	439.94
467.391	422.94
467.61	413.94
467.829	422.94
468.049	429.94
468.268	406.94
468.488	414.94
468.707	404.94
468.927	405.94
469.146	391.94
469.365	412.94
469.585	412.94
469.804	406.94
470.023	425.94
470.243	442.94
470.462	404.94
470.681	451.94
470.901	431.94
471.12	439.94
471.339	422.94
471.558	415.94
471.777	402.94
471.997	418.94
472.216	425.94
472.435	467.94
472.654	452.94
472.873	450.94
473.092	434.94
473.311	419.94
473.53	412.94
473.749	415.94
473.968	429.94
474.187	493.94
474.406	503.94
474.625	441.94
474.844	415.94
475.063	402.94
475.282	411.94
475.501	421.94
475.72	411.94
475.939	426.94
476.158	411.94
476.377	396.94
476.596	438.94
476.814	433.94
477.033	426.94
477.252	428.94
477.471	402.94
477.69	439.94
477.908	447.94
478.127	458.94
478.346	469.94
478.564	472.94
478.783	466.94
479.002	494.94
479.22	466.94
479.439	485.94
479.658	498.94
479.876	493.94
480.095	501.94
480.313	517.94
480.532	509.94
480.751	540.94
480.969	539.94
481.188	589.94
481.406	610.94
481.624	558.94
481.843	524.94
482.061	507.94
482.28	478.94
482.498	490.94
482.717	471.94
482.935	455.94
483.153	471.94
483.372	465.94
483.59	474.94
483.808	479.94
484.027	463.94
484.245	465.94
484.463	478.94
484.681	482.94
484.9	478.94
485.118	485.94
485.336	473.94
485.554	485.94
485.772	489.94
485.99	496.94
486.209	505.94
486.427	509.94
486.645	498.94
486.863	501.94
487.081	488.94
487.299	502.94
487.517	494.94
487.735	489.94
487.953	508.94
488.171	498.94
488.389	514.94
488.607	509.94
488.825	507.94
489.043	491.94
489.261	498.94
489.479	495.94
489.696	489.94
489.914	523.94
490.132	495.94
490.35	518.94
490.568	516.94
490.786	529.94
491.003	538.94
491.221	567.94
491.439	580.94
491.657	549.94
491.874	542.94
492.092	571.94
492.31	559.94
492.527	583.94
492.745	580.94
492.963	579.94
493.18	590.94
493.398	580.94
493.615	582.94
493.833	574.94
494.05	580.94
494.268	578.94
494.485	565.94
494.703	578.94
494.92	598.94
495.138	574.94
495.355	567.94
495.573	583.94
495.79	555.94
496.008	566.94
496.225	576.94
496.442	566.94
496.66	572.94
496.877	584.94
497.094	585.94
497.312	586.94
497.529	599.94
497.746	619.94
497.963	615.94
498.181	655.94
498.398	651.94
498.615	663.94
498.832	715.94
499.049	731.94
499.267	751.94
499.484	838.94
499.701	852.94
499.918	916.94
500.135	1000.94
500.352	1070.94
500.569	1135.94
500.786	1115.94
501.003	1087.94
501.22	1011.94
501.437	935.94
501.654	893.94
501.871	822.94
