Data from 1984.PennyLincolnUp.Lamp.En5.5.200Scan.071819.P1_HRD10591_17-00-05-970.txt Node
Date: Thu Jul 18 17:00:05 EDT 2019
User: cochatt
Spectrometer: HR+D1059
Trigger mode: 1
Integration Time (sec): 1.000000E-1
Scans to average: 1
Electric dark correction enabled: true
Nonlinearity correction enabled: false
Boxcar width: 0
XAxis mode: Wavelengths
Number of Pixels in Spectrum: 2048
>>>>>Begin Spectral Data<<<<<
223.165	-7.5
223.4	-7.5
223.635	-7.5
223.869	-12.5
224.104	-9.5
224.338	-22.5
224.573	-16.5
224.808	-27.5
225.042	0.5
225.277	2.5
225.511	-2.5
225.746	3.5
225.98	2.5
226.215	20.5
226.449	9.5
226.683	19.5
226.918	13.5
227.152	26.5
227.387	29.5
227.621	28.5
227.856	58.5
228.09	54.5
228.324	42.5
228.559	51.5
228.793	67.5
229.027	76.5
229.262	106.5
229.496	88.5
229.73	114.5
229.964	113.5
230.199	112.5
230.433	107.5
230.667	114.5
230.901	108.5
231.136	100.5
231.37	90.5
231.604	121.5
231.838	104.5
232.072	90.5
232.306	111.5
232.541	106.5
232.775	105.5
233.009	113.5
233.243	96.5
233.477	97.5
233.711	107.5
233.945	90.5
234.179	115.5
234.413	115.5
234.647	112.5
234.881	101.5
235.115	124.5
235.349	100.5
235.583	109.5
235.817	107.5
236.051	110.5
236.285	113.5
236.519	121.5
236.753	112.5
236.987	138.5
237.221	146.5
237.455	180.5
237.689	163.5
237.922	127.5
238.156	112.5
238.39	119.5
238.624	115.5
238.858	124.5
239.091	116.5
239.325	117.5
239.559	125.5
239.793	119.5
240.027	131.5
240.26	111.5
240.494	130.5
240.728	137.5
240.961	133.5
241.195	136.5
241.429	122.5
241.662	131.5
241.896	139.5
242.13	121.5
242.363	140.5
242.597	125.5
242.83	117.5
243.064	132.5
243.298	150.5
243.531	146.5
243.765	135.5
243.998	135.5
244.232	136.5
244.465	131.5
244.699	125.5
244.932	130.5
245.166	132.5
245.399	133.5
245.633	142.5
245.866	142.5
246.099	138.5
246.333	129.5
246.566	134.5
246.8	137.5
247.033	136.5
247.266	150.5
247.5	160.5
247.733	138.5
247.966	165.5
248.2	155.5
248.433	180.5
248.666	165.5
248.899	167.5
249.133	178.5
249.366	177.5
249.599	169.5
249.832	169.5
250.066	179.5
250.299	197.5
250.532	184.5
250.765	221.5
250.998	205.5
251.231	207.5
251.465	200.5
251.698	182.5
251.931	180.5
252.164	175.5
252.397	172.5
252.63	178.5
252.863	184.5
253.096	183.5
253.329	193.5
253.562	201.5
253.795	184.5
254.028	194.5
254.261	201.5
254.494	191.5
254.727	221.5
254.96	229.5
255.193	219.5
255.426	212.5
255.659	219.5
255.892	256.5
256.124	298.5
256.357	305.5
256.59	265.5
256.823	242.5
257.056	209.5
257.289	214.5
257.521	193.5
257.754	221.5
257.987	199.5
258.22	209.5
258.452	190.5
258.685	175.5
258.918	189.5
259.151	197.5
259.383	199.5
259.616	223.5
259.849	202.5
260.081	226.5
260.314	217.5
260.547	227.5
260.779	212.5
261.012	222.5
261.244	218.5
261.477	207.5
261.71	201.5
261.942	218.5
262.175	219.5
262.407	217.5
262.64	194.5
262.872	203.5
263.105	202.5
263.337	200.5
263.57	183.5
263.802	212.5
264.035	204.5
264.267	208.5
264.499	212.5
264.732	200.5
264.964	199.5
265.197	210.5
265.429	217.5
265.661	212.5
265.894	218.5
266.126	221.5
266.358	214.5
266.591	214.5
266.823	216.5
267.055	224.5
267.287	227.5
267.52	206.5
267.752	223.5
267.984	215.5
268.216	222.5
268.448	236.5
268.681	236.5
268.913	233.5
269.145	219.5
269.377	222.5
269.609	251.5
269.841	242.5
270.073	247.5
270.306	250.5
270.538	278.5
270.77	275.5
271.002	260.5
271.234	267.5
271.466	266.5
271.698	269.5
271.93	275.5
272.162	270.5
272.394	280.5
272.626	278.5
272.858	272.5
273.09	248.5
273.322	244.5
273.553	268.5
273.785	251.5
274.017	255.5
274.249	249.5
274.481	244.5
274.713	262.5
274.945	257.5
275.176	257.5
275.408	248.5
275.64	236.5
275.872	265.5
276.104	271.5
276.335	237.5
276.567	279.5
276.799	267.5
277.031	276.5
277.262	285.5
277.494	288.5
277.726	303.5
277.957	267.5
278.189	263.5
278.421	256.5
278.652	257.5
278.884	262.5
279.115	245.5
279.347	259.5
279.579	244.5
279.81	267.5
280.042	260.5
280.273	264.5
280.505	271.5
280.736	288.5
280.968	270.5
281.199	285.5
281.431	278.5
281.662	284.5
281.894	261.5
282.125	263.5
282.356	298.5
282.588	293.5
282.819	279.5
283.051	268.5
283.282	291.5
283.513	278.5
283.745	278.5
283.976	266.5
284.207	283.5
284.439	282.5
284.67	274.5
284.901	281.5
285.132	269.5
285.364	279.5
285.595	288.5
285.826	279.5
286.057	283.5
286.288	292.5
286.52	293.5
286.751	284.5
286.982	279.5
287.213	285.5
287.444	308.5
287.675	281.5
287.906	289.5
288.138	287.5
288.369	290.5
288.6	300.5
288.831	297.5
289.062	294.5
289.293	289.5
289.524	291.5
289.755	293.5
289.986	306.5
290.217	284.5
290.448	299.5
290.679	277.5
290.91	285.5
291.141	275.5
291.371	300.5
291.602	279.5
291.833	291.5
292.064	292.5
292.295	305.5
292.526	281.5
292.757	291.5
292.987	277.5
293.218	297.5
293.449	287.5
293.68	303.5
293.91	297.5
294.141	287.5
294.372	281.5
294.603	319.5
294.833	284.5
295.064	287.5
295.295	292.5
295.525	298.5
295.756	296.5
295.987	307.5
296.217	331.5
296.448	331.5
296.679	315.5
296.909	312.5
297.14	303.5
297.37	322.5
297.601	319.5
297.831	301.5
298.062	321.5
298.292	299.5
298.523	319.5
298.753	313.5
298.984	314.5
299.214	315.5
299.445	303.5
299.675	321.5
299.905	322.5
300.136	335.5
300.366	327.5
300.597	314.5
300.827	316.5
301.057	333.5
301.288	340.5
301.518	342.5
301.748	336.5
301.979	337.5
302.209	343.5
302.439	338.5
302.669	332.5
302.9	327.5
303.13	326.5
303.36	338.5
303.59	340.5
303.82	343.5
304.051	337.5
304.281	320.5
304.511	326.5
304.741	295.5
304.971	332.5
305.201	333.5
305.431	330.5
305.661	323.5
305.891	319.5
306.121	318.5
306.352	323.5
306.582	323.5
306.812	323.5
307.042	348.5
307.272	313.5
307.502	325.5
307.731	346.5
307.961	333.5
308.191	311.5
308.421	318.5
308.651	316.5
308.881	338.5
309.111	360.5
309.341	327.5
309.571	354.5
309.8	356.5
310.03	345.5
310.26	354.5
310.49	351.5
310.72	351.5
310.949	386.5
311.179	359.5
311.409	342.5
311.639	348.5
311.868	363.5
312.098	357.5
312.328	357.5
312.557	374.5
312.787	367.5
313.017	378.5
313.246	382.5
313.476	359.5
313.706	373.5
313.935	356.5
314.165	377.5
314.394	378.5
314.624	386.5
314.853	362.5
315.083	374.5
315.312	383.5
315.542	367.5
315.771	354.5
316.001	347.5
316.23	357.5
316.46	364.5
316.689	342.5
316.919	382.5
317.148	377.5
317.377	369.5
317.607	372.5
317.836	360.5
318.065	359.5
318.295	347.5
318.524	355.5
318.753	374.5
318.983	364.5
319.212	372.5
319.441	364.5
319.67	375.5
319.9	361.5
320.129	364.5
320.358	374.5
320.587	379.5
320.816	374.5
321.046	372.5
321.275	381.5
321.504	376.5
321.733	371.5
321.962	388.5
322.191	383.5
322.42	395.5
322.649	400.5
322.878	404.5
323.108	401.5
323.337	427.5
323.566	428.5
323.795	466.5
324.024	478.5
324.253	561.5
324.482	773.5
324.71	1123.5
324.939	1577.5
325.168	1316.5
325.397	758.5
325.626	569.5
325.855	462.5
326.084	462.5
326.313	444.5
326.542	481.5
326.77	508.5
326.999	575.5
327.228	742.5
327.457	1055.5
327.686	1207.5
327.914	853.5
328.143	643.5
328.372	617.5
328.6	554.5
328.829	532.5
329.058	529.5
329.287	504.5
329.515	512.5
329.744	536.5
329.972	559.5
330.201	643.5
330.43	690.5
330.658	687.5
330.887	613.5
331.115	548.5
331.344	503.5
331.572	502.5
331.801	486.5
332.03	481.5
332.258	465.5
332.486	475.5
332.715	474.5
332.943	496.5
333.172	484.5
333.4	506.5
333.629	521.5
333.857	588.5
334.085	638.5
334.314	744.5
334.542	832.5
334.771	845.5
334.999	657.5
335.227	558.5
335.455	545.5
335.684	488.5
335.912	488.5
336.14	458.5
336.369	462.5
336.597	450.5
336.825	446.5
337.053	445.5
337.281	450.5
337.51	443.5
337.738	442.5
337.966	435.5
338.194	434.5
338.422	441.5
338.65	431.5
338.878	421.5
339.106	426.5
339.334	411.5
339.562	409.5
339.79	417.5
340.018	409.5
340.246	411.5
340.474	408.5
340.702	409.5
340.93	397.5
341.158	423.5
341.386	411.5
341.614	415.5
341.842	406.5
342.07	405.5
342.298	403.5
342.526	409.5
342.754	387.5
342.981	404.5
343.209	391.5
343.437	405.5
343.665	407.5
343.893	443.5
344.12	427.5
344.348	437.5
344.576	448.5
344.804	413.5
345.031	426.5
345.259	427.5
345.487	420.5
345.714	403.5
345.942	414.5
346.17	396.5
346.397	397.5
346.625	392.5
346.853	375.5
347.08	378.5
347.308	383.5
347.535	384.5
347.763	395.5
347.99	380.5
348.218	368.5
348.445	406.5
348.673	392.5
348.9	348.5
349.128	382.5
349.355	387.5
349.583	381.5
349.81	373.5
350.037	388.5
350.265	380.5
350.492	400.5
350.72	379.5
350.947	352.5
351.174	364.5
351.402	403.5
351.629	380.5
351.856	359.5
352.083	368.5
352.311	383.5
352.538	369.5
352.765	368.5
352.992	369.5
353.22	375.5
353.447	377.5
353.674	376.5
353.901	385.5
354.128	377.5
354.355	375.5
354.583	372.5
354.81	383.5
355.037	354.5
355.264	359.5
355.491	367.5
355.718	353.5
355.945	371.5
356.172	345.5
356.399	367.5
356.626	359.5
356.853	365.5
357.08	344.5
357.307	357.5
357.534	364.5
357.761	367.5
357.988	353.5
358.215	362.5
358.441	348.5
358.668	363.5
358.895	382.5
359.122	375.5
359.349	388.5
359.576	368.5
359.802	384.5
360.029	417.5
360.256	420.5
360.483	399.5
360.709	387.5
360.936	383.5
361.163	380.5
361.39	354.5
361.616	369.5
361.843	375.5
362.07	372.5
362.296	380.5
362.523	369.5
362.749	362.5
362.976	359.5
363.203	373.5
363.429	376.5
363.656	370.5
363.882	370.5
364.109	362.5
364.335	345.5
364.562	369.5
364.788	369.5
365.015	353.5
365.241	376.5
365.468	356.5
365.694	361.5
365.92	395.5
366.147	373.5
366.373	355.5
366.599	380.5
366.826	351.5
367.052	364.5
367.278	374.5
367.505	348.5
367.731	356.5
367.957	365.5
368.184	347.5
368.41	355.5
368.636	361.5
368.862	370.5
369.089	351.5
369.315	367.5
369.541	360.5
369.767	373.5
369.993	383.5
370.219	391.5
370.445	359.5
370.672	349.5
370.898	362.5
371.124	358.5
371.35	371.5
371.576	387.5
371.802	373.5
372.028	373.5
372.254	380.5
372.48	377.5
372.706	383.5
372.932	389.5
373.158	388.5
373.384	373.5
373.61	379.5
373.835	377.5
374.061	375.5
374.287	373.5
374.513	370.5
374.739	384.5
374.965	395.5
375.191	397.5
375.416	372.5
375.642	375.5
375.868	394.5
376.094	365.5
376.319	369.5
376.545	385.5
376.771	372.5
376.997	372.5
377.222	372.5
377.448	352.5
377.674	352.5
377.899	366.5
378.125	355.5
378.35	380.5
378.576	359.5
378.802	363.5
379.027	364.5
379.253	339.5
379.478	340.5
379.704	359.5
379.929	357.5
380.155	381.5
380.38	363.5
380.606	369.5
380.831	353.5
381.057	358.5
381.282	343.5
381.507	371.5
381.733	376.5
381.958	368.5
382.184	361.5
382.409	387.5
382.634	379.5
382.86	383.5
383.085	381.5
383.31	383.5
383.535	394.5
383.761	391.5
383.986	391.5
384.211	403.5
384.436	411.5
384.662	418.5
384.887	424.5
385.112	419.5
385.337	422.5
385.562	401.5
385.787	394.5
386.013	423.5
386.238	421.5
386.463	404.5
386.688	433.5
386.913	413.5
387.138	421.5
387.363	419.5
387.588	406.5
387.813	385.5
388.038	421.5
388.263	407.5
388.488	411.5
388.713	400.5
388.938	435.5
389.163	426.5
389.387	414.5
389.612	395.5
389.837	407.5
390.062	391.5
390.287	396.5
390.512	408.5
390.736	427.5
390.961	432.5
391.186	423.5
391.411	431.5
391.636	417.5
391.86	438.5
392.085	451.5
392.31	441.5
392.534	453.5
392.759	424.5
392.984	419.5
393.208	411.5
393.433	428.5
393.658	436.5
393.882	426.5
394.107	424.5
394.331	417.5
394.556	430.5
394.78	414.5
395.005	448.5
395.229	426.5
395.454	433.5
395.678	452.5
395.903	447.5
396.127	474.5
396.352	436.5
396.576	429.5
396.801	428.5
397.025	440.5
397.249	444.5
397.474	456.5
397.698	461.5
397.922	446.5
398.147	438.5
398.371	479.5
398.595	459.5
398.82	464.5
399.044	529.5
399.268	544.5
399.492	581.5
399.717	629.5
399.941	660.5
400.165	632.5
400.389	600.5
400.613	567.5
400.837	531.5
401.062	479.5
401.286	521.5
401.51	504.5
401.734	480.5
401.958	471.5
402.182	497.5
402.406	523.5
402.63	511.5
402.854	515.5
403.078	524.5
403.302	525.5
403.526	538.5
403.75	509.5
403.974	533.5
404.198	528.5
404.422	573.5
404.645	573.5
404.869	561.5
405.093	567.5
405.317	618.5
405.541	661.5
405.765	599.5
405.988	593.5
406.212	552.5
406.436	541.5
406.66	568.5
406.883	551.5
407.107	585.5
407.331	615.5
407.555	657.5
407.778	652.5
408.002	607.5
408.226	555.5
408.449	585.5
408.673	576.5
408.896	536.5
409.12	595.5
409.344	566.5
409.567	533.5
409.791	521.5
410.014	523.5
410.238	492.5
410.461	529.5
410.685	505.5
410.908	532.5
411.132	556.5
411.355	557.5
411.578	520.5
411.802	521.5
412.025	507.5
412.249	539.5
412.472	581.5
412.695	632.5
412.919	592.5
413.142	555.5
413.365	556.5
413.589	520.5
413.812	532.5
414.035	491.5
414.258	480.5
414.482	484.5
414.705	479.5
414.928	498.5
415.151	481.5
415.374	490.5
415.597	482.5
415.821	480.5
416.044	514.5
416.267	471.5
416.49	450.5
416.713	474.5
416.936	476.5
417.159	488.5
417.382	487.5
417.605	496.5
417.828	487.5
418.051	493.5
418.274	500.5
418.497	493.5
418.72	475.5
418.943	499.5
419.166	493.5
419.389	567.5
419.611	523.5
419.834	502.5
420.057	536.5
420.28	547.5
420.503	547.5
420.726	541.5
420.948	536.5
421.171	549.5
421.394	548.5
421.617	483.5
421.839	476.5
422.062	491.5
422.285	498.5
422.507	542.5
422.73	588.5
422.953	556.5
423.175	506.5
423.398	507.5
423.621	523.5
423.843	521.5
424.066	534.5
424.288	525.5
424.511	538.5
424.733	567.5
424.956	593.5
425.178	590.5
425.401	581.5
425.623	593.5
425.846	542.5
426.068	500.5
426.291	492.5
426.513	507.5
426.735	486.5
426.958	517.5
427.18	573.5
427.402	633.5
427.625	735.5
427.847	630.5
428.069	565.5
428.292	554.5
428.514	483.5
428.736	468.5
428.958	484.5
429.181	469.5
429.403	450.5
429.625	463.5
429.847	475.5
430.069	512.5
430.292	519.5
430.514	465.5
430.736	439.5
430.958	454.5
431.18	437.5
431.402	452.5
431.624	444.5
431.846	453.5
432.068	440.5
432.29	455.5
432.512	425.5
432.734	435.5
432.956	421.5
433.178	441.5
433.4	441.5
433.622	455.5
433.844	425.5
434.066	458.5
434.287	441.5
434.509	472.5
434.731	467.5
434.953	472.5
435.175	490.5
435.397	499.5
435.618	506.5
435.84	509.5
436.062	548.5
436.284	608.5
436.505	539.5
436.727	500.5
436.949	467.5
437.17	453.5
437.392	452.5
437.614	445.5
437.835	482.5
438.057	505.5
438.278	588.5
438.5	583.5
438.721	618.5
438.943	631.5
439.165	520.5
439.386	489.5
439.608	490.5
439.829	494.5
440.05	509.5
440.272	533.5
440.493	492.5
440.715	493.5
440.936	462.5
441.158	471.5
441.379	489.5
441.6	463.5
441.822	501.5
442.043	547.5
442.264	583.5
442.486	569.5
442.707	534.5
442.928	503.5
443.149	492.5
443.371	506.5
443.592	551.5
443.813	590.5
444.034	657.5
444.255	563.5
444.476	543.5
444.698	555.5
444.919	535.5
445.14	667.5
445.361	581.5
445.582	545.5
445.803	564.5
446.024	606.5
446.245	619.5
446.466	578.5
446.687	504.5
446.908	471.5
447.129	452.5
447.35	449.5
447.571	449.5
447.792	413.5
448.013	445.5
448.234	456.5
448.455	479.5
448.675	525.5
448.896	631.5
449.117	533.5
449.338	513.5
449.559	580.5
449.779	645.5
450	543.5
450.221	460.5
450.442	425.5
450.662	448.5
450.883	427.5
451.104	443.5
451.324	459.5
451.545	412.5
451.766	401.5
451.986	399.5
452.207	392.5
452.428	391.5
452.648	390.5
452.869	410.5
453.089	409.5
453.31	403.5
453.53	399.5
453.751	407.5
453.971	414.5
454.192	425.5
454.412	397.5
454.633	403.5
454.853	402.5
455.073	405.5
455.294	400.5
455.514	438.5
455.734	431.5
455.955	408.5
456.175	385.5
456.395	395.5
456.616	397.5
456.836	382.5
457.056	396.5
457.276	374.5
457.497	381.5
457.717	392.5
457.937	407.5
458.157	388.5
458.377	408.5
458.598	391.5
458.818	448.5
459.038	478.5
459.258	521.5
459.478	476.5
459.698	449.5
459.918	450.5
460.138	469.5
460.358	465.5
460.578	474.5
460.798	479.5
461.018	483.5
461.238	462.5
461.458	461.5
461.678	471.5
461.898	501.5
462.118	490.5
462.338	505.5
462.558	504.5
462.777	499.5
462.997	537.5
463.217	562.5
463.437	572.5
463.657	544.5
463.876	519.5
464.096	503.5
464.316	541.5
464.536	534.5
464.755	526.5
464.975	533.5
465.195	521.5
465.414	522.5
465.634	491.5
465.854	448.5
466.073	451.5
466.293	435.5
466.512	436.5
466.732	413.5
466.951	411.5
467.171	426.5
467.391	413.5
467.61	417.5
467.829	420.5
468.049	450.5
468.268	473.5
468.488	444.5
468.707	439.5
468.927	419.5
469.146	398.5
469.365	415.5
469.585	444.5
469.804	419.5
470.023	437.5
470.243	425.5
470.462	436.5
470.681	442.5
470.901	446.5
471.12	426.5
471.339	439.5
471.558	437.5
471.777	428.5
471.997	452.5
472.216	487.5
472.435	579.5
472.654	537.5
472.873	469.5
473.092	465.5
473.311	428.5
473.53	443.5
473.749	409.5
473.968	440.5
474.187	498.5
474.406	508.5
474.625	443.5
474.844	434.5
475.063	412.5
475.282	408.5
475.501	424.5
475.72	430.5
475.939	433.5
476.158	413.5
476.377	413.5
476.596	423.5
476.814	428.5
477.033	439.5
477.252	458.5
477.471	450.5
477.69	449.5
477.908	451.5
478.127	465.5
478.346	478.5
478.564	471.5
478.783	469.5
479.002	484.5
479.22	471.5
479.439	507.5
479.658	513.5
479.876	524.5
480.095	520.5
480.313	552.5
480.532	561.5
480.751	573.5
480.969	602.5
481.188	755.5
481.406	861.5
481.624	672.5
481.843	599.5
482.061	540.5
482.28	526.5
482.498	518.5
482.717	502.5
482.935	494.5
483.153	501.5
483.372	487.5
483.59	497.5
483.808	492.5
484.027	500.5
484.245	486.5
484.463	458.5
484.681	519.5
484.9	484.5
485.118	507.5
485.336	495.5
485.554	499.5
485.772	518.5
485.99	494.5
486.209	516.5
486.427	513.5
486.645	517.5
486.863	520.5
487.081	500.5
487.299	514.5
487.517	495.5
487.735	504.5
487.953	510.5
488.171	518.5
488.389	525.5
488.607	512.5
488.825	529.5
489.043	544.5
489.261	533.5
489.479	522.5
489.696	528.5
489.914	533.5
490.132	520.5
490.35	555.5
490.568	548.5
490.786	526.5
491.003	580.5
491.221	587.5
491.439	600.5
491.657	598.5
491.874	602.5
492.092	615.5
492.31	630.5
492.527	625.5
492.745	614.5
492.963	625.5
493.18	623.5
493.398	649.5
493.615	639.5
493.833	619.5
494.05	645.5
494.268	623.5
494.485	613.5
494.703	622.5
494.92	604.5
495.138	585.5
495.355	603.5
495.573	605.5
495.79	616.5
496.008	594.5
496.225	607.5
496.442	605.5
496.66	590.5
496.877	595.5
497.094	621.5
497.312	632.5
497.529	628.5
497.746	611.5
497.963	633.5
498.181	648.5
498.398	663.5
498.615	699.5
498.832	740.5
499.049	739.5
499.267	808.5
499.484	843.5
499.701	902.5
499.918	930.5
500.135	979.5
500.352	1108.5
500.569	1131.5
500.786	1160.5
501.003	1066.5
501.22	997.5
501.437	964.5
501.654	918.5
501.871	868.5
502.088	819.5
502.305	751.5
502.522	716.5
502.739	717.5
502.956	690.5
503.172	635.5
503.389	639.5
503.606	636.5
503.823	619.5
504.04	623.5
504.256	613.5
504.473	647.5
504.69	629.5
504.907	613.5
505.123	595.5
505.34	596.5
505.557	567.5
505.773	547.5
505.99	563.5
506.207	533.5
506.423	536.5
506.64	552.5
506.856	535.5
507.073	532.5
507.289	532.5
507.506	521.5
507.722	535.5
507.939	522.5
508.155	525.5
508.372	497.5
508.588	503.5
508.805	497.5
509.021	512.5
509.238	520.5
509.454	518.5
509.67	502.5
509.887	503.5
510.103	485.5
510.319	515.5
510.536	560.5
510.752	850.5
510.968	710.5
511.184	536.5
511.401	519.5
511.617	500.5
511.833	507.5
512.049	543.5
512.265	523.5
512.481	501.5
512.698	477.5
512.914	484.5
513.13	489.5
513.346	475.5
513.562	483.5
513.778	488.5
513.994	483.5
514.21	488.5
514.426	519.5
514.642	505.5
514.858	532.5
515.074	560.5
515.29	621.5
515.506	825.5
515.721	708.5
515.937	557.5
516.153	533.5
516.369	545.5
516.585	531.5
516.801	529.5
517.016	540.5
517.232	546.5
517.448	554.5
517.664	577.5
517.879	587.5
518.095	568.5
518.311	579.5
518.527	535.5
518.742	528.5
518.958	545.5
519.173	543.5
519.389	509.5
519.605	520.5
519.82	507.5
520.036	488.5
