Data from 1984.PennyLincolnUp.Lamp.En5.5.200Scan.071819.P1_HRD10591_16-59-21-968.txt Node
Date: Thu Jul 18 16:59:21 EDT 2019
User: cochatt
Spectrometer: HR+D1059
Trigger mode: 1
Integration Time (sec): 1.000000E-1
Scans to average: 1
Electric dark correction enabled: true
Nonlinearity correction enabled: false
Boxcar width: 0
XAxis mode: Wavelengths
Number of Pixels in Spectrum: 2048
>>>>>Begin Spectral Data<<<<<
223.165	-23.31
223.4	-23.31
223.635	-23.31
223.869	3.69
224.104	8.69
224.338	-24.31
224.573	-28.31
224.808	-11.31
225.042	-13.31
225.277	-10.31
225.511	-0.31
225.746	-0.31
225.98	8.69
226.215	6.69
226.449	12.69
226.683	18.69
226.918	27.69
227.152	24.69
227.387	12.69
227.621	36.69
227.856	42.69
228.09	58.69
228.324	45.69
228.559	42.69
228.793	61.69
229.027	95.69
229.262	93.69
229.496	89.69
229.73	115.69
229.964	124.69
230.199	111.69
230.433	89.69
230.667	105.69
230.901	113.69
231.136	100.69
231.37	101.69
231.604	105.69
231.838	104.69
232.072	106.69
232.306	95.69
232.541	120.69
232.775	121.69
233.009	114.69
233.243	105.69
233.477	124.69
233.711	107.69
233.945	110.69
234.179	103.69
234.413	111.69
234.647	118.69
234.881	114.69
235.115	113.69
235.349	110.69
235.583	94.69
235.817	115.69
236.051	127.69
236.285	122.69
236.519	115.69
236.753	105.69
236.987	120.69
237.221	136.69
237.455	163.69
237.689	154.69
237.922	126.69
238.156	109.69
238.39	119.69
238.624	111.69
238.858	120.69
239.091	112.69
239.325	110.69
239.559	115.69
239.793	118.69
240.027	118.69
240.26	126.69
240.494	126.69
240.728	128.69
240.961	124.69
241.195	138.69
241.429	127.69
241.662	125.69
241.896	127.69
242.13	122.69
242.363	108.69
242.597	121.69
242.83	127.69
243.064	133.69
243.298	129.69
243.531	121.69
243.765	127.69
243.998	138.69
244.232	141.69
244.465	129.69
244.699	136.69
244.932	142.69
245.166	137.69
245.399	147.69
245.633	130.69
245.866	133.69
246.099	127.69
246.333	158.69
246.566	150.69
246.8	135.69
247.033	149.69
247.266	147.69
247.5	148.69
247.733	155.69
247.966	158.69
248.2	153.69
248.433	154.69
248.666	165.69
248.899	151.69
249.133	162.69
249.366	164.69
249.599	167.69
249.832	154.69
250.066	167.69
250.299	156.69
250.532	195.69
250.765	214.69
250.998	210.69
251.231	212.69
251.465	182.69
251.698	182.69
251.931	178.69
252.164	171.69
252.397	174.69
252.63	181.69
252.863	184.69
253.096	178.69
253.329	194.69
253.562	189.69
253.795	189.69
254.028	192.69
254.261	177.69
254.494	190.69
254.727	212.69
254.96	207.69
255.193	223.69
255.426	201.69
255.659	210.69
255.892	217.69
256.124	228.69
256.357	258.69
256.59	218.69
256.823	202.69
257.056	191.69
257.289	213.69
257.521	184.69
257.754	189.69
257.987	197.69
258.22	188.69
258.452	187.69
258.685	200.69
258.918	208.69
259.151	178.69
259.383	189.69
259.616	201.69
259.849	195.69
260.081	196.69
260.314	213.69
260.547	239.69
260.779	206.69
261.012	203.69
261.244	191.69
261.477	201.69
261.71	186.69
261.942	201.69
262.175	194.69
262.407	203.69
262.64	182.69
262.872	203.69
263.105	186.69
263.337	193.69
263.57	194.69
263.802	207.69
264.035	190.69
264.267	197.69
264.499	200.69
264.732	194.69
264.964	199.69
265.197	203.69
265.429	193.69
265.661	208.69
265.894	206.69
266.126	196.69
266.358	200.69
266.591	203.69
266.823	209.69
267.055	215.69
267.287	204.69
267.52	227.69
267.752	199.69
267.984	211.69
268.216	215.69
268.448	213.69
268.681	208.69
268.913	214.69
269.145	223.69
269.377	231.69
269.609	241.69
269.841	230.69
270.073	242.69
270.306	238.69
270.538	266.69
270.77	251.69
271.002	264.69
271.234	274.69
271.466	232.69
271.698	245.69
271.93	240.69
272.162	283.69
272.394	252.69
272.626	249.69
272.858	253.69
273.09	257.69
273.322	249.69
273.553	250.69
273.785	253.69
274.017	228.69
274.249	230.69
274.481	227.69
274.713	241.69
274.945	265.69
275.176	234.69
275.408	243.69
275.64	233.69
275.872	234.69
276.104	247.69
276.335	262.69
276.567	269.69
276.799	239.69
277.031	270.69
277.262	276.69
277.494	275.69
277.726	266.69
277.957	251.69
278.189	260.69
278.421	250.69
278.652	258.69
278.884	248.69
279.115	248.69
279.347	252.69
279.579	245.69
279.81	255.69
280.042	262.69
280.273	254.69
280.505	263.69
280.736	269.69
280.968	249.69
281.199	244.69
281.431	257.69
281.662	258.69
281.894	267.69
282.125	259.69
282.356	272.69
282.588	272.69
282.819	291.69
283.051	274.69
283.282	265.69
283.513	258.69
283.745	290.69
283.976	283.69
284.207	277.69
284.439	272.69
284.67	280.69
284.901	283.69
285.132	288.69
285.364	276.69
285.595	273.69
285.826	280.69
286.057	269.69
286.288	271.69
286.52	279.69
286.751	289.69
286.982	283.69
287.213	280.69
287.444	273.69
287.675	275.69
287.906	277.69
288.138	277.69
288.369	299.69
288.6	296.69
288.831	279.69
289.062	287.69
289.293	304.69
289.524	287.69
289.755	272.69
289.986	297.69
290.217	283.69
290.448	294.69
290.679	296.69
290.91	291.69
291.141	297.69
291.371	279.69
291.602	287.69
291.833	287.69
292.064	281.69
292.295	290.69
292.526	283.69
292.757	297.69
292.987	282.69
293.218	278.69
293.449	283.69
293.68	300.69
293.91	281.69
294.141	294.69
294.372	271.69
294.603	279.69
294.833	281.69
295.064	286.69
295.295	294.69
295.525	288.69
295.756	292.69
295.987	304.69
296.217	321.69
296.448	320.69
296.679	312.69
296.909	302.69
297.14	292.69
297.37	282.69
297.601	299.69
297.831	294.69
298.062	312.69
298.292	287.69
298.523	310.69
298.753	294.69
298.984	312.69
299.214	306.69
299.445	289.69
299.675	304.69
299.905	318.69
300.136	302.69
300.366	307.69
300.597	298.69
300.827	336.69
301.057	338.69
301.288	335.69
301.518	338.69
301.748	322.69
301.979	335.69
302.209	327.69
302.439	328.69
302.669	329.69
302.9	326.69
303.13	323.69
303.36	318.69
303.59	333.69
303.82	335.69
304.051	320.69
304.281	323.69
304.511	318.69
304.741	338.69
304.971	333.69
305.201	337.69
305.431	326.69
305.661	315.69
305.891	330.69
306.121	336.69
306.352	322.69
306.582	330.69
306.812	320.69
307.042	330.69
307.272	312.69
307.502	312.69
307.731	344.69
307.961	329.69
308.191	331.69
308.421	332.69
308.651	332.69
308.881	336.69
309.111	313.69
309.341	318.69
309.571	340.69
309.8	333.69
310.03	324.69
310.26	331.69
310.49	347.69
310.72	352.69
310.949	371.69
311.179	357.69
311.409	357.69
311.639	361.69
311.868	362.69
312.098	329.69
312.328	356.69
312.557	356.69
312.787	368.69
313.017	383.69
313.246	363.69
313.476	358.69
313.706	347.69
313.935	352.69
314.165	363.69
314.394	371.69
314.624	368.69
314.853	379.69
315.083	363.69
315.312	346.69
315.542	352.69
315.771	360.69
316.001	358.69
316.23	356.69
316.46	350.69
316.689	350.69
316.919	336.69
317.148	357.69
317.377	368.69
317.607	370.69
317.836	348.69
318.065	356.69
318.295	361.69
318.524	338.69
318.753	339.69
318.983	347.69
319.212	351.69
319.441	344.69
319.67	345.69
319.9	370.69
320.129	351.69
320.358	374.69
320.587	355.69
320.816	368.69
321.046	360.69
321.275	384.69
321.504	361.69
321.733	358.69
321.962	362.69
322.191	381.69
322.42	392.69
322.649	373.69
322.878	400.69
323.108	416.69
323.337	411.69
323.566	421.69
323.795	426.69
324.024	489.69
324.253	566.69
324.482	716.69
324.71	1060.69
324.939	1481.69
325.168	1242.69
325.397	700.69
325.626	522.69
325.855	475.69
326.084	440.69
326.313	447.69
326.542	440.69
326.77	490.69
326.999	530.69
327.228	697.69
327.457	999.69
327.686	1168.69
327.914	807.69
328.143	611.69
328.372	535.69
328.6	524.69
328.829	480.69
329.058	487.69
329.287	487.69
329.515	498.69
329.744	452.69
329.972	516.69
330.201	542.69
330.43	577.69
330.658	587.69
330.887	544.69
331.115	537.69
331.344	454.69
331.572	464.69
331.801	472.69
332.03	456.69
332.258	435.69
332.486	452.69
332.715	439.69
332.943	440.69
333.172	476.69
333.4	502.69
333.629	502.69
333.857	537.69
334.085	582.69
334.314	601.69
334.542	688.69
334.771	694.69
334.999	576.69
335.227	508.69
335.455	480.69
335.684	463.69
335.912	472.69
336.14	445.69
336.369	458.69
336.597	441.69
336.825	455.69
337.053	434.69
337.281	406.69
337.51	423.69
337.738	434.69
337.966	409.69
338.194	436.69
338.422	428.69
338.65	396.69
338.878	411.69
339.106	408.69
339.334	390.69
339.562	393.69
339.79	414.69
340.018	388.69
340.246	408.69
340.474	400.69
340.702	409.69
340.93	394.69
341.158	412.69
341.386	397.69
341.614	382.69
341.842	395.69
342.07	384.69
342.298	382.69
342.526	382.69
342.754	402.69
342.981	380.69
343.209	397.69
343.437	416.69
343.665	393.69
343.893	440.69
344.12	430.69
344.348	432.69
344.576	405.69
344.804	408.69
345.031	405.69
345.259	412.69
345.487	400.69
345.714	387.69
345.942	408.69
346.17	386.69
346.397	367.69
346.625	369.69
346.853	375.69
347.08	386.69
347.308	382.69
347.535	387.69
347.763	371.69
347.99	367.69
348.218	386.69
348.445	387.69
348.673	375.69
348.9	374.69
349.128	370.69
349.355	370.69
349.583	366.69
349.81	359.69
350.037	378.69
350.265	362.69
350.492	352.69
350.72	359.69
350.947	371.69
351.174	374.69
351.402	369.69
351.629	363.69
351.856	354.69
352.083	372.69
352.311	384.69
352.538	403.69
352.765	366.69
352.992	366.69
353.22	353.69
353.447	374.69
353.674	351.69
353.901	358.69
354.128	349.69
354.355	337.69
354.583	355.69
354.81	359.69
355.037	364.69
355.264	374.69
355.491	354.69
355.718	345.69
355.945	360.69
356.172	363.69
356.399	337.69
356.626	344.69
356.853	349.69
357.08	370.69
357.307	354.69
357.534	350.69
357.761	342.69
357.988	335.69
358.215	358.69
358.441	352.69
358.668	362.69
358.895	355.69
359.122	368.69
359.349	353.69
359.576	373.69
359.802	390.69
360.029	390.69
360.256	386.69
360.483	378.69
360.709	368.69
360.936	386.69
361.163	371.69
361.39	384.69
361.616	359.69
361.843	358.69
362.07	359.69
362.296	357.69
362.523	372.69
362.749	359.69
362.976	357.69
363.203	362.69
363.429	360.69
363.656	363.69
363.882	370.69
364.109	368.69
364.335	356.69
364.562	360.69
364.788	352.69
365.015	344.69
365.241	362.69
365.468	354.69
365.694	360.69
365.92	369.69
366.147	342.69
366.373	350.69
366.599	343.69
366.826	338.69
367.052	336.69
367.278	369.69
367.505	353.69
367.731	345.69
367.957	344.69
368.184	330.69
368.41	362.69
368.636	345.69
368.862	350.69
369.089	340.69
369.315	346.69
369.541	364.69
369.767	357.69
369.993	351.69
370.219	381.69
370.445	367.69
370.672	376.69
370.898	372.69
371.124	369.69
371.35	371.69
371.576	373.69
371.802	361.69
372.028	362.69
372.254	361.69
372.48	360.69
372.706	351.69
372.932	392.69
373.158	369.69
373.384	361.69
373.61	374.69
373.835	372.69
374.061	352.69
374.287	384.69
374.513	366.69
374.739	383.69
374.965	389.69
375.191	379.69
375.416	376.69
375.642	366.69
375.868	364.69
376.094	392.69
376.319	371.69
376.545	339.69
376.771	363.69
376.997	371.69
377.222	350.69
377.448	360.69
377.674	354.69
377.899	352.69
378.125	359.69
378.35	350.69
378.576	353.69
378.802	344.69
379.027	354.69
379.253	353.69
379.478	352.69
379.704	353.69
379.929	369.69
380.155	364.69
380.38	358.69
380.606	369.69
380.831	339.69
381.057	358.69
381.282	370.69
381.507	360.69
381.733	375.69
381.958	361.69
382.184	353.69
382.409	333.69
382.634	367.69
382.86	372.69
383.085	370.69
383.31	373.69
383.535	396.69
383.761	396.69
383.986	391.69
384.211	398.69
384.436	379.69
384.662	395.69
384.887	417.69
385.112	387.69
385.337	403.69
385.562	424.69
385.787	394.69
386.013	400.69
386.238	409.69
386.463	426.69
386.688	409.69
386.913	410.69
387.138	397.69
387.363	403.69
387.588	421.69
387.813	406.69
388.038	390.69
388.263	410.69
388.488	410.69
388.713	383.69
388.938	410.69
389.163	417.69
389.387	411.69
389.612	401.69
389.837	405.69
390.062	407.69
390.287	396.69
390.512	395.69
390.736	404.69
390.961	410.69
391.186	402.69
391.411	416.69
391.636	423.69
391.86	419.69
392.085	419.69
392.31	436.69
392.534	434.69
392.759	430.69
392.984	425.69
393.208	422.69
393.433	421.69
393.658	426.69
393.882	409.69
394.107	408.69
394.331	426.69
394.556	417.69
394.78	425.69
395.005	414.69
395.229	421.69
395.454	427.69
395.678	452.69
395.903	450.69
396.127	447.69
396.352	426.69
396.576	440.69
396.801	441.69
397.025	432.69
397.249	450.69
397.474	446.69
397.698	447.69
397.922	446.69
398.147	458.69
398.371	475.69
398.595	472.69
398.82	494.69
399.044	511.69
399.268	519.69
399.492	575.69
399.717	635.69
399.941	647.69
400.165	624.69
400.389	594.69
400.613	559.69
400.837	507.69
401.062	496.69
401.286	478.69
401.51	480.69
401.734	482.69
401.958	479.69
402.182	481.69
402.406	500.69
402.63	499.69
402.854	513.69
403.078	502.69
403.302	527.69
403.526	518.69
403.75	535.69
403.974	530.69
404.198	507.69
404.422	527.69
404.645	511.69
404.869	526.69
405.093	557.69
405.317	608.69
405.541	630.69
405.765	578.69
405.988	550.69
406.212	538.69
406.436	547.69
406.66	530.69
406.883	541.69
407.107	568.69
407.331	568.69
407.555	659.69
407.778	640.69
408.002	593.69
408.226	589.69
408.449	560.69
408.673	537.69
408.896	564.69
409.12	582.69
409.344	548.69
409.567	546.69
409.791	512.69
410.014	520.69
410.238	498.69
410.461	495.69
410.685	493.69
410.908	522.69
411.132	543.69
411.355	521.69
411.578	538.69
411.802	506.69
412.025	521.69
412.249	499.69
412.472	551.69
412.695	565.69
412.919	596.69
413.142	537.69
413.365	518.69
413.589	531.69
413.812	473.69
414.035	492.69
414.258	482.69
414.482	481.69
414.705	486.69
414.928	469.69
415.151	484.69
415.374	464.69
415.597	464.69
415.821	475.69
416.044	448.69
416.267	464.69
416.49	479.69
416.713	471.69
416.936	456.69
417.159	472.69
417.382	482.69
417.605	466.69
417.828	470.69
418.051	487.69
418.274	471.69
418.497	457.69
418.72	476.69
418.943	483.69
419.166	479.69
419.389	509.69
419.611	530.69
419.834	526.69
420.057	516.69
420.28	519.69
420.503	530.69
420.726	515.69
420.948	513.69
421.171	523.69
421.394	522.69
421.617	518.69
421.839	490.69
422.062	489.69
422.285	481.69
422.507	523.69
422.73	584.69
422.953	576.69
423.175	501.69
423.398	503.69
423.621	502.69
423.843	512.69
424.066	513.69
424.288	524.69
424.511	529.69
424.733	546.69
424.956	593.69
425.178	567.69
425.401	584.69
425.623	590.69
425.846	508.69
426.068	489.69
426.291	480.69
426.513	483.69
426.735	498.69
426.958	519.69
427.18	560.69
427.402	643.69
427.625	693.69
427.847	615.69
428.069	578.69
428.292	539.69
428.514	480.69
428.736	457.69
428.958	478.69
429.181	443.69
429.403	454.69
429.625	453.69
429.847	482.69
430.069	499.69
430.292	496.69
430.514	458.69
430.736	450.69
430.958	443.69
431.18	440.69
431.402	426.69
431.624	434.69
431.846	426.69
432.068	437.69
432.29	442.69
432.512	451.69
432.734	442.69
432.956	439.69
433.178	432.69
433.4	431.69
433.622	431.69
433.844	448.69
434.066	447.69
434.287	433.69
434.509	471.69
434.731	458.69
434.953	459.69
435.175	473.69
435.397	466.69
435.618	500.69
435.84	507.69
436.062	558.69
436.284	598.69
436.505	512.69
436.727	470.69
436.949	452.69
437.17	446.69
437.392	440.69
437.614	457.69
437.835	455.69
438.057	517.69
438.278	564.69
438.5	572.69
438.721	614.69
438.943	642.69
439.165	517.69
439.386	483.69
439.608	457.69
439.829	480.69
440.05	476.69
440.272	507.69
440.493	479.69
440.715	472.69
440.936	460.69
441.158	473.69
441.379	472.69
441.6	483.69
441.822	503.69
442.043	511.69
442.264	546.69
442.486	566.69
442.707	514.69
442.928	514.69
443.149	504.69
443.371	510.69
443.592	534.69
443.813	589.69
444.034	633.69
444.255	560.69
444.476	533.69
444.698	547.69
444.919	530.69
445.14	601.69
445.361	579.69
445.582	496.69
445.803	552.69
446.024	566.69
446.245	624.69
446.466	553.69
446.687	500.69
446.908	465.69
447.129	466.69
447.35	440.69
447.571	453.69
447.792	426.69
448.013	422.69
448.234	438.69
448.455	479.69
448.675	523.69
448.896	601.69
449.117	514.69
449.338	494.69
449.559	573.69
449.779	625.69
450	523.69
450.221	460.69
450.442	434.69
450.662	427.69
450.883	415.69
451.104	432.69
451.324	442.69
451.545	406.69
451.766	410.69
451.986	405.69
452.207	392.69
452.428	393.69
452.648	380.69
452.869	392.69
453.089	389.69
453.31	423.69
453.53	395.69
453.751	379.69
453.971	399.69
454.192	392.69
454.412	387.69
454.633	397.69
454.853	385.69
455.073	373.69
455.294	397.69
455.514	439.69
455.734	448.69
455.955	372.69
456.175	372.69
456.395	372.69
456.616	368.69
456.836	379.69
457.056	377.69
457.276	354.69
457.497	382.69
457.717	379.69
457.937	390.69
458.157	381.69
458.377	391.69
458.598	412.69
458.818	444.69
459.038	473.69
459.258	491.69
459.478	483.69
459.698	446.69
459.918	425.69
460.138	422.69
460.358	474.69
460.578	457.69
460.798	468.69
461.018	468.69
461.238	463.69
461.458	466.69
461.678	444.69
461.898	474.69
462.118	455.69
462.338	487.69
462.558	486.69
462.777	504.69
462.997	552.69
463.217	570.69
463.437	552.69
463.657	525.69
463.876	525.69
464.096	515.69
464.316	502.69
464.536	514.69
464.755	492.69
464.975	493.69
465.195	508.69
465.414	515.69
465.634	484.69
465.854	454.69
466.073	426.69
466.293	440.69
466.512	441.69
466.732	412.69
466.951	405.69
467.171	397.69
467.391	438.69
467.61	415.69
467.829	446.69
468.049	420.69
468.268	433.69
468.488	452.69
468.707	409.69
468.927	392.69
469.146	395.69
469.365	417.69
469.585	397.69
469.804	412.69
470.023	412.69
470.243	415.69
470.462	417.69
470.681	437.69
470.901	445.69
471.12	438.69
471.339	386.69
471.558	403.69
471.777	414.69
471.997	428.69
472.216	444.69
472.435	525.69
472.654	484.69
472.873	442.69
473.092	414.69
473.311	425.69
473.53	417.69
473.749	421.69
473.968	447.69
474.187	500.69
474.406	489.69
474.625	446.69
474.844	441.69
475.063	415.69
475.282	416.69
475.501	426.69
475.72	421.69
475.939	421.69
476.158	405.69
476.377	412.69
476.596	425.69
476.814	426.69
477.033	420.69
477.252	422.69
477.471	425.69
477.69	442.69
477.908	453.69
478.127	467.69
478.346	471.69
478.564	473.69
478.783	483.69
479.002	466.69
479.22	500.69
479.439	479.69
479.658	515.69
479.876	509.69
480.095	523.69
480.313	542.69
480.532	529.69
480.751	547.69
480.969	563.69
481.188	641.69
481.406	734.69
481.624	598.69
481.843	528.69
482.061	534.69
482.28	506.69
482.498	488.69
482.717	494.69
482.935	487.69
483.153	472.69
483.372	460.69
483.59	475.69
483.808	475.69
484.027	466.69
484.245	466.69
484.463	461.69
484.681	489.69
484.9	458.69
485.118	489.69
485.336	471.69
485.554	485.69
485.772	483.69
485.99	505.69
486.209	487.69
486.427	496.69
486.645	501.69
486.863	509.69
487.081	519.69
487.299	505.69
487.517	498.69
487.735	495.69
487.953	503.69
488.171	496.69
488.389	511.69
488.607	492.69
488.825	505.69
489.043	489.69
489.261	494.69
489.479	492.69
489.696	497.69
489.914	513.69
490.132	498.69
490.35	524.69
490.568	510.69
490.786	528.69
491.003	564.69
491.221	531.69
491.439	544.69
491.657	567.69
491.874	576.69
492.092	575.69
492.31	568.69
492.527	591.69
492.745	591.69
492.963	588.69
493.18	582.69
493.398	588.69
493.615	596.69
493.833	594.69
494.05	583.69
494.268	603.69
494.485	599.69
494.703	566.69
494.92	582.69
495.138	578.69
495.355	584.69
495.573	564.69
495.79	558.69
496.008	580.69
496.225	579.69
496.442	581.69
496.66	594.69
496.877	572.69
497.094	596.69
497.312	600.69
497.529	624.69
497.746	605.69
497.963	649.69
498.181	642.69
498.398	655.69
498.615	682.69
498.832	722.69
499.049	722.69
499.267	768.69
499.484	851.69
499.701	854.69
499.918	912.69
500.135	999.69
500.352	1066.69
500.569	1104.69
500.786	1110.69
501.003	1057.69
501.22	1031.69
501.437	939.69
501.654	885.69
501.871	816.69
502.088	790.69
