Data from 1984.PennyLincolnUp.Lamp.En5.5.200Scan.071819.P1_HRD10591_16-57-57-969.txt Node
Date: Thu Jul 18 16:57:57 EDT 2019
User: cochatt
Spectrometer: HR+D1059
Trigger mode: 1
Integration Time (sec): 1.000000E-1
Scans to average: 1
Electric dark correction enabled: true
Nonlinearity correction enabled: false
Boxcar width: 0
XAxis mode: Wavelengths
Number of Pixels in Spectrum: 2048
>>>>>Begin Spectral Data<<<<<
223.165	-22.19
223.4	-22.19
223.635	-22.19
223.869	-18.19
224.104	-17.19
224.338	-9.19
224.573	-9.19
224.808	-14.19
225.042	-15.19
225.277	-3.19
225.511	-4.19
225.746	9.81
225.98	0.81
226.215	10.81
226.449	14.81
226.683	31.81
226.918	28.81
227.152	15.81
227.387	30.81
227.621	40.81
227.856	57.81
228.09	38.81
228.324	62.81
228.559	56.81
228.793	52.81
229.027	71.81
229.262	89.81
229.496	98.81
229.73	126.81
229.964	102.81
230.199	111.81
230.433	111.81
230.667	95.81
230.901	99.81
231.136	111.81
231.37	98.81
231.604	106.81
231.838	116.81
232.072	105.81
232.306	101.81
232.541	102.81
232.775	105.81
233.009	106.81
233.243	109.81
233.477	112.81
233.711	110.81
233.945	106.81
234.179	101.81
234.413	110.81
234.647	118.81
234.881	123.81
235.115	119.81
235.349	119.81
235.583	112.81
235.817	121.81
236.051	114.81
236.285	124.81
236.519	93.81
236.753	126.81
236.987	140.81
237.221	129.81
237.455	173.81
237.689	156.81
237.922	130.81
238.156	112.81
238.39	111.81
238.624	107.81
238.858	114.81
239.091	116.81
239.325	116.81
239.559	112.81
239.793	123.81
240.027	115.81
240.26	127.81
240.494	142.81
240.728	135.81
240.961	136.81
241.195	121.81
241.429	132.81
241.662	128.81
241.896	136.81
242.13	138.81
242.363	145.81
242.597	130.81
242.83	125.81
243.064	144.81
243.298	126.81
243.531	144.81
243.765	123.81
243.998	134.81
244.232	128.81
244.465	146.81
244.699	130.81
244.932	132.81
245.166	141.81
245.399	134.81
245.633	139.81
245.866	141.81
246.099	131.81
246.333	138.81
246.566	147.81
246.8	144.81
247.033	140.81
247.266	140.81
247.5	131.81
247.733	154.81
247.966	152.81
248.2	168.81
248.433	159.81
248.666	167.81
248.899	165.81
249.133	173.81
249.366	171.81
249.599	166.81
249.832	156.81
250.066	150.81
250.299	160.81
250.532	185.81
250.765	175.81
250.998	191.81
251.231	185.81
251.465	188.81
251.698	183.81
251.931	159.81
252.164	162.81
252.397	197.81
252.63	178.81
252.863	173.81
253.096	182.81
253.329	189.81
253.562	191.81
253.795	183.81
254.028	180.81
254.261	171.81
254.494	189.81
254.727	207.81
254.96	226.81
255.193	229.81
255.426	213.81
255.659	192.81
255.892	205.81
256.124	210.81
256.357	203.81
256.59	191.81
256.823	182.81
257.056	188.81
257.289	176.81
257.521	189.81
257.754	196.81
257.987	183.81
258.22	185.81
258.452	171.81
258.685	175.81
258.918	198.81
259.151	187.81
259.383	201.81
259.616	198.81
259.849	196.81
260.081	204.81
260.314	218.81
260.547	216.81
260.779	200.81
261.012	193.81
261.244	197.81
261.477	185.81
261.71	197.81
261.942	200.81
262.175	196.81
262.407	206.81
262.64	194.81
262.872	201.81
263.105	202.81
263.337	196.81
263.57	190.81
263.802	204.81
264.035	206.81
264.267	201.81
264.499	194.81
264.732	195.81
264.964	189.81
265.197	207.81
265.429	206.81
265.661	210.81
265.894	200.81
266.126	211.81
266.358	204.81
266.591	212.81
266.823	215.81
267.055	206.81
267.287	214.81
267.52	204.81
267.752	215.81
267.984	226.81
268.216	214.81
268.448	223.81
268.681	232.81
268.913	227.81
269.145	227.81
269.377	235.81
269.609	236.81
269.841	235.81
270.073	237.81
270.306	251.81
270.538	271.81
270.77	278.81
271.002	242.81
271.234	262.81
271.466	254.81
271.698	268.81
271.93	254.81
272.162	268.81
272.394	269.81
272.626	239.81
272.858	251.81
273.09	231.81
273.322	245.81
273.553	235.81
273.785	230.81
274.017	248.81
274.249	228.81
274.481	236.81
274.713	229.81
274.945	243.81
275.176	240.81
275.408	240.81
275.64	247.81
275.872	264.81
276.104	258.81
276.335	248.81
276.567	253.81
276.799	264.81
277.031	276.81
277.262	270.81
277.494	284.81
277.726	261.81
277.957	260.81
278.189	263.81
278.421	234.81
278.652	264.81
278.884	255.81
279.115	271.81
279.347	248.81
279.579	254.81
279.81	268.81
280.042	264.81
280.273	244.81
280.505	272.81
280.736	253.81
280.968	248.81
281.199	260.81
281.431	250.81
281.662	264.81
281.894	269.81
282.125	271.81
282.356	275.81
282.588	271.81
282.819	269.81
283.051	292.81
283.282	275.81
283.513	271.81
283.745	262.81
283.976	253.81
284.207	282.81
284.439	282.81
284.67	275.81
284.901	278.81
285.132	268.81
285.364	264.81
285.595	253.81
285.826	276.81
286.057	267.81
286.288	277.81
286.52	266.81
286.751	260.81
286.982	262.81
287.213	278.81
287.444	282.81
287.675	265.81
287.906	287.81
288.138	296.81
288.369	291.81
288.6	280.81
288.831	277.81
289.062	302.81
289.293	287.81
289.524	302.81
289.755	262.81
289.986	290.81
290.217	286.81
290.448	282.81
290.679	269.81
290.91	276.81
291.141	289.81
291.371	301.81
291.602	288.81
291.833	282.81
292.064	286.81
292.295	296.81
292.526	287.81
292.757	283.81
292.987	282.81
293.218	288.81
293.449	292.81
293.68	285.81
293.91	279.81
294.141	271.81
294.372	280.81
294.603	276.81
294.833	309.81
295.064	299.81
295.295	266.81
295.525	293.81
295.756	294.81
295.987	300.81
296.217	302.81
296.448	317.81
296.679	300.81
296.909	276.81
297.14	300.81
297.37	301.81
297.601	292.81
297.831	287.81
298.062	293.81
298.292	288.81
298.523	312.81
298.753	307.81
298.984	314.81
299.214	316.81
299.445	299.81
299.675	293.81
299.905	311.81
300.136	300.81
300.366	306.81
300.597	304.81
300.827	322.81
301.057	326.81
301.288	326.81
301.518	327.81
301.748	319.81
301.979	322.81
302.209	327.81
302.439	297.81
302.669	319.81
302.9	323.81
303.13	317.81
303.36	340.81
303.59	336.81
303.82	327.81
304.051	331.81
304.281	311.81
304.511	314.81
304.741	306.81
304.971	301.81
305.201	314.81
305.431	312.81
305.661	311.81
305.891	320.81
306.121	322.81
306.352	312.81
306.582	320.81
306.812	330.81
307.042	308.81
307.272	305.81
307.502	306.81
307.731	313.81
307.961	328.81
308.191	318.81
308.421	301.81
308.651	326.81
308.881	333.81
309.111	320.81
309.341	324.81
309.571	339.81
309.8	342.81
310.03	331.81
310.26	327.81
310.49	336.81
310.72	344.81
310.949	359.81
311.179	370.81
311.409	348.81
311.639	349.81
311.868	329.81
312.098	346.81
312.328	338.81
312.557	361.81
312.787	365.81
313.017	365.81
313.246	354.81
313.476	347.81
313.706	325.81
313.935	335.81
314.165	350.81
314.394	364.81
314.624	357.81
314.853	356.81
315.083	336.81
315.312	353.81
315.542	357.81
315.771	332.81
316.001	335.81
316.23	352.81
316.46	358.81
316.689	333.81
316.919	346.81
317.148	357.81
317.377	358.81
317.607	358.81
317.836	339.81
318.065	349.81
318.295	361.81
318.524	351.81
318.753	357.81
318.983	344.81
319.212	339.81
319.441	335.81
319.67	345.81
319.9	347.81
320.129	349.81
320.358	350.81
320.587	350.81
320.816	350.81
321.046	382.81
321.275	356.81
321.504	338.81
321.733	353.81
321.962	363.81
322.191	358.81
322.42	373.81
322.649	390.81
322.878	370.81
323.108	399.81
323.337	410.81
323.566	404.81
323.795	436.81
324.024	448.81
324.253	517.81
324.482	664.81
324.71	967.81
324.939	1318.81
325.168	1168.81
325.397	649.81
325.626	484.81
325.855	460.81
326.084	425.81
326.313	420.81
326.542	435.81
326.77	452.81
326.999	490.81
327.228	638.81
327.457	889.81
327.686	1032.81
327.914	719.81
328.143	543.81
328.372	477.81
328.6	456.81
328.829	453.81
329.058	454.81
329.287	471.81
329.515	433.81
329.744	432.81
329.972	436.81
330.201	459.81
330.43	468.81
330.658	475.81
330.887	471.81
331.115	454.81
331.344	429.81
331.572	414.81
331.801	424.81
332.03	428.81
332.258	428.81
332.486	430.81
332.715	414.81
332.943	428.81
333.172	431.81
333.4	457.81
333.629	454.81
333.857	494.81
334.085	461.81
334.314	473.81
334.542	479.81
334.771	481.81
334.999	462.81
335.227	446.81
335.455	432.81
335.684	437.81
335.912	423.81
336.14	417.81
336.369	405.81
336.597	411.81
336.825	421.81
337.053	397.81
337.281	420.81
337.51	406.81
337.738	426.81
337.966	402.81
338.194	413.81
338.422	399.81
338.65	399.81
338.878	407.81
339.106	405.81
339.334	393.81
339.562	382.81
339.79	388.81
340.018	388.81
340.246	412.81
340.474	392.81
340.702	394.81
340.93	404.81
341.158	372.81
341.386	391.81
341.614	394.81
341.842	376.81
342.07	380.81
342.298	379.81
342.526	379.81
342.754	366.81
342.981	370.81
343.209	381.81
343.437	407.81
343.665	411.81
343.893	446.81
344.12	420.81
344.348	430.81
344.576	421.81
344.804	405.81
345.031	405.81
345.259	401.81
345.487	392.81
345.714	386.81
345.942	376.81
346.17	378.81
346.397	366.81
346.625	355.81
346.853	369.81
347.08	355.81
347.308	390.81
347.535	352.81
347.763	384.81
347.99	384.81
348.218	364.81
348.445	396.81
348.673	377.81
348.9	366.81
349.128	364.81
349.355	359.81
349.583	362.81
349.81	372.81
350.037	356.81
350.265	373.81
350.492	365.81
350.72	357.81
350.947	370.81
351.174	359.81
351.402	369.81
351.629	382.81
351.856	346.81
352.083	363.81
352.311	372.81
352.538	378.81
352.765	371.81
352.992	359.81
353.22	363.81
353.447	350.81
353.674	360.81
353.901	370.81
354.128	356.81
354.355	360.81
354.583	354.81
354.81	357.81
355.037	329.81
355.264	354.81
355.491	354.81
355.718	359.81
355.945	354.81
356.172	340.81
356.399	349.81
356.626	350.81
356.853	353.81
357.08	342.81
357.307	341.81
357.534	355.81
357.761	378.81
357.988	366.81
358.215	354.81
358.441	350.81
358.668	337.81
358.895	347.81
359.122	343.81
359.349	357.81
359.576	360.81
359.802	357.81
360.029	382.81
360.256	380.81
360.483	371.81
360.709	378.81
360.936	365.81
361.163	354.81
361.39	351.81
361.616	345.81
361.843	362.81
362.07	354.81
362.296	368.81
362.523	354.81
362.749	352.81
362.976	345.81
363.203	374.81
363.429	358.81
363.656	366.81
363.882	346.81
364.109	353.81
364.335	350.81
364.562	364.81
364.788	351.81
365.015	335.81
365.241	351.81
365.468	359.81
365.694	363.81
365.92	341.81
366.147	327.81
366.373	348.81
366.599	345.81
366.826	335.81
367.052	344.81
367.278	358.81
367.505	349.81
367.731	346.81
367.957	363.81
368.184	358.81
368.41	358.81
368.636	356.81
368.862	353.81
369.089	368.81
369.315	361.81
369.541	367.81
369.767	354.81
369.993	351.81
370.219	341.81
370.445	364.81
370.672	367.81
370.898	359.81
371.124	356.81
371.35	362.81
371.576	355.81
371.802	347.81
372.028	380.81
372.254	350.81
372.48	356.81
372.706	360.81
372.932	368.81
373.158	359.81
373.384	355.81
373.61	354.81
373.835	347.81
374.061	362.81
374.287	346.81
374.513	363.81
374.739	389.81
374.965	376.81
375.191	382.81
375.416	373.81
375.642	379.81
375.868	361.81
376.094	361.81
376.319	373.81
376.545	350.81
376.771	353.81
376.997	364.81
377.222	354.81
377.448	365.81
377.674	346.81
377.899	351.81
378.125	361.81
378.35	363.81
378.576	372.81
378.802	352.81
379.027	368.81
379.253	360.81
379.478	353.81
379.704	352.81
379.929	354.81
380.155	365.81
380.38	373.81
380.606	360.81
380.831	380.81
381.057	371.81
381.282	343.81
381.507	348.81
381.733	355.81
381.958	358.81
382.184	358.81
382.409	381.81
382.634	396.81
382.86	365.81
383.085	370.81
383.31	389.81
383.535	365.81
383.761	390.81
383.986	378.81
384.211	404.81
384.436	394.81
384.662	404.81
384.887	398.81
385.112	413.81
385.337	409.81
385.562	427.81
385.787	408.81
386.013	423.81
386.238	405.81
386.463	407.81
386.688	407.81
386.913	406.81
387.138	406.81
387.363	428.81
387.588	395.81
387.813	410.81
388.038	396.81
388.263	411.81
388.488	409.81
388.713	403.81
388.938	396.81
389.163	390.81
389.387	408.81
389.612	390.81
389.837	415.81
390.062	417.81
390.287	434.81
390.512	373.81
390.736	414.81
390.961	388.81
391.186	418.81
391.411	404.81
391.636	424.81
391.86	442.81
392.085	440.81
392.31	408.81
392.534	441.81
392.759	434.81
392.984	428.81
393.208	429.81
393.433	436.81
393.658	422.81
393.882	430.81
394.107	418.81
394.331	431.81
394.556	412.81
394.78	414.81
395.005	417.81
395.229	414.81
395.454	438.81
395.678	444.81
395.903	436.81
396.127	440.81
396.352	432.81
396.576	443.81
396.801	421.81
397.025	445.81
397.249	445.81
397.474	435.81
397.698	424.81
397.922	463.81
398.147	439.81
398.371	466.81
398.595	470.81
398.82	470.81
399.044	515.81
399.268	536.81
399.492	572.81
399.717	618.81
399.941	639.81
400.165	607.81
400.389	588.81
400.613	541.81
400.837	500.81
401.062	517.81
401.286	473.81
401.51	481.81
401.734	475.81
401.958	494.81
402.182	493.81
402.406	500.81
402.63	481.81
402.854	487.81
403.078	499.81
403.302	506.81
403.526	514.81
403.75	517.81
403.974	535.81
404.198	536.81
404.422	525.81
404.645	533.81
404.869	541.81
405.093	536.81
405.317	536.81
405.541	546.81
405.765	543.81
405.988	528.81
406.212	520.81
406.436	535.81
406.66	539.81
406.883	552.81
407.107	551.81
407.331	605.81
407.555	628.81
407.778	607.81
408.002	615.81
408.226	562.81
408.449	549.81
408.673	539.81
408.896	560.81
409.12	578.81
409.344	557.81
409.567	512.81
409.791	502.81
410.014	511.81
410.238	492.81
410.461	500.81
410.685	523.81
410.908	490.81
411.132	521.81
411.355	540.81
411.578	527.81
411.802	506.81
412.025	498.81
412.249	502.81
412.472	517.81
412.695	526.81
412.919	519.81
413.142	463.81
413.365	478.81
413.589	489.81
413.812	445.81
414.035	469.81
414.258	443.81
414.482	475.81
414.705	467.81
414.928	479.81
415.151	467.81
415.374	472.81
415.597	461.81
415.821	460.81
416.044	457.81
416.267	470.81
416.49	471.81
416.713	460.81
416.936	466.81
417.159	458.81
417.382	454.81
417.605	451.81
417.828	475.81
418.051	486.81
418.274	460.81
418.497	452.81
418.72	471.81
418.943	478.81
419.166	491.81
419.389	549.81
419.611	532.81
419.834	495.81
420.057	510.81
420.28	504.81
420.503	503.81
420.726	468.81
420.948	475.81
421.171	490.81
421.394	515.81
421.617	472.81
421.839	477.81
422.062	487.81
422.285	485.81
422.507	505.81
422.73	562.81
422.953	532.81
423.175	530.81
423.398	494.81
423.621	494.81
423.843	517.81
424.066	502.81
424.288	496.81
424.511	534.81
424.733	546.81
424.956	580.81
425.178	548.81
425.401	559.81
425.623	602.81
425.846	522.81
426.068	491.81
426.291	495.81
426.513	462.81
426.735	461.81
426.958	490.81
427.18	558.81
427.402	618.81
427.625	663.81
427.847	603.81
428.069	502.81
428.292	490.81
428.514	472.81
428.736	439.81
428.958	459.81
429.181	458.81
429.403	436.81
429.625	447.81
429.847	475.81
430.069	482.81
430.292	489.81
430.514	431.81
430.736	429.81
430.958	438.81
431.18	447.81
431.402	445.81
431.624	442.81
431.846	431.81
432.068	420.81
432.29	447.81
432.512	419.81
432.734	416.81
432.956	445.81
433.178	425.81
433.4	421.81
433.622	419.81
433.844	437.81
434.066	412.81
434.287	432.81
434.509	448.81
434.731	448.81
434.953	461.81
435.175	466.81
435.397	502.81
435.618	479.81
435.84	495.81
436.062	565.81
436.284	571.81
436.505	500.81
436.727	476.81
436.949	448.81
437.17	425.81
437.392	439.81
437.614	436.81
437.835	455.81
438.057	506.81
438.278	566.81
438.5	547.81
438.721	613.81
438.943	598.81
439.165	499.81
439.386	467.81
439.608	460.81
439.829	441.81
440.05	480.81
440.272	492.81
440.493	487.81
440.715	457.81
440.936	471.81
441.158	439.81
441.379	457.81
441.6	451.81
441.822	471.81
442.043	500.81
442.264	559.81
442.486	579.81
442.707	525.81
442.928	487.81
443.149	471.81
443.371	494.81
443.592	514.81
443.813	578.81
444.034	617.81
444.255	550.81
444.476	524.81
444.698	528.81
444.919	526.81
445.14	627.81
445.361	554.81
445.582	541.81
445.803	567.81
446.024	584.81
446.245	592.81
446.466	558.81
446.687	481.81
446.908	453.81
447.129	443.81
447.35	437.81
447.571	455.81
447.792	414.81
448.013	411.81
448.234	436.81
448.455	468.81
448.675	519.81
448.896	574.81
449.117	526.81
449.338	491.81
449.559	546.81
449.779	633.81
450	510.81
450.221	434.81
450.442	410.81
450.662	418.81
450.883	449.81
451.104	424.81
451.324	426.81
451.545	403.81
451.766	422.81
451.986	391.81
452.207	405.81
452.428	387.81
452.648	418.81
452.869	398.81
453.089	398.81
453.31	411.81
453.53	395.81
453.751	386.81
453.971	384.81
454.192	395.81
454.412	388.81
454.633	390.81
454.853	384.81
455.073	392.81
455.294	405.81
455.514	441.81
455.734	424.81
455.955	385.81
456.175	378.81
456.395	380.81
456.616	365.81
456.836	367.81
457.056	376.81
457.276	356.81
457.497	364.81
457.717	379.81
457.937	378.81
458.157	396.81
458.377	393.81
458.598	411.81
458.818	438.81
459.038	470.81
459.258	488.81
459.478	464.81
459.698	450.81
459.918	429.81
460.138	422.81
460.358	445.81
460.578	450.81
460.798	471.81
461.018	463.81
461.238	455.81
461.458	445.81
461.678	478.81
461.898	484.81
462.118	462.81
462.338	487.81
462.558	470.81
462.777	526.81
462.997	529.81
463.217	556.81
463.437	550.81
463.657	536.81
463.876	508.81
464.096	525.81
464.316	505.81
464.536	520.81
464.755	504.81
464.975	492.81
465.195	474.81
465.414	523.81
465.634	478.81
465.854	444.81
466.073	426.81
466.293	430.81
466.512	408.81
466.732	414.81
466.951	391.81
467.171	413.81
467.391	414.81
467.61	411.81
467.829	410.81
468.049	392.81
468.268	398.81
468.488	425.81
468.707	408.81
468.927	382.81
469.146	399.81
469.365	409.81
469.585	411.81
469.804	418.81
470.023	413.81
470.243	415.81
470.462	416.81
470.681	424.81
470.901	416.81
471.12	418.81
471.339	414.81
471.558	410.81
471.777	416.81
471.997	410.81
472.216	409.81
472.435	428.81
472.654	414.81
472.873	408.81
473.092	384.81
473.311	406.81
473.53	404.81
473.749	411.81
473.968	434.81
474.187	486.81
474.406	492.81
474.625	438.81
474.844	410.81
475.063	404.81
475.282	397.81
475.501	397.81
475.72	398.81
475.939	407.81
476.158	400.81
476.377	416.81
476.596	404.81
476.814	417.81
477.033	423.81
477.252	448.81
477.471	415.81
477.69	439.81
477.908	474.81
478.127	429.81
478.346	451.81
478.564	474.81
478.783	471.81
479.002	474.81
479.22	484.81
479.439	472.81
479.658	499.81
479.876	489.81
480.095	501.81
480.313	519.81
480.532	528.81
480.751	513.81
480.969	521.81
481.188	533.81
481.406	551.81
481.624	510.81
481.843	503.81
482.061	486.81
482.28	472.81
482.498	458.81
482.717	456.81
482.935	454.81
483.153	471.81
483.372	453.81
483.59	467.81
483.808	470.81
484.027	469.81
484.245	470.81
484.463	464.81
484.681	460.81
484.9	452.81
485.118	487.81
485.336	486.81
485.554	469.81
485.772	474.81
485.99	472.81
486.209	486.81
486.427	481.81
486.645	479.81
486.863	499.81
487.081	484.81
487.299	499.81
487.517	513.81
487.735	513.81
487.953	494.81
488.171	484.81
488.389	480.81
488.607	476.81
488.825	493.81
489.043	482.81
489.261	492.81
489.479	487.81
489.696	483.81
489.914	463.81
490.132	519.81
490.35	495.81
490.568	525.81
490.786	510.81
491.003	502.81
491.221	522.81
491.439	533.81
491.657	528.81
491.874	534.81
492.092	514.81
492.31	550.81
492.527	551.81
492.745	549.81
492.963	553.81
493.18	555.81
493.398	558.81
493.615	548.81
493.833	566.81
494.05	558.81
494.268	544.81
494.485	533.81
494.703	567.81
494.92	551.81
495.138	557.81
495.355	564.81
495.573	542.81
495.79	569.81
496.008	580.81
496.225	578.81
496.442	553.81
496.66	543.81
496.877	564.81
497.094	581.81
497.312	588.81
497.529	594.81
497.746	627.81
497.963	632.81
498.181	622.81
498.398	654.81
498.615	666.81
498.832	684.81
499.049	719.81
499.267	760.81
499.484	812.81
499.701	861.81
499.918	930.81
500.135	1012.81
500.352	1080.81
500.569	1102.81
500.786	1117.81
501.003	1071.81
501.22	983.81
501.437	916.81
501.654	855.81
501.871	811.81
502.088	743.81
