Data from 1984.PennyLincolnUp.Lamp.En5.5.200Scan.071819.P1_HRD10591_16-59-19-968.txt Node
Date: Thu Jul 18 16:59:19 EDT 2019
User: cochatt
Spectrometer: HR+D1059
Trigger mode: 1
Integration Time (sec): 1.000000E-1
Scans to average: 1
Electric dark correction enabled: true
Nonlinearity correction enabled: false
Boxcar width: 0
XAxis mode: Wavelengths
Number of Pixels in Spectrum: 2048
>>>>>Begin Spectral Data<<<<<
223.165	-11.06
223.4	-11.06
223.635	-11.06
223.869	-9.06
224.104	-19.06
224.338	-20.06
224.573	-2.06
224.808	-15.06
225.042	-5.06
225.277	-17.06
225.511	-3.06
225.746	-8.06
225.98	6.94
226.215	20.94
226.449	13.94
226.683	36.94
226.918	23.94
227.152	6.94
227.387	33.94
227.621	31.94
227.856	33.94
228.09	41.94
228.324	49.94
228.559	40.94
228.793	71.94
229.027	81.94
229.262	85.94
229.496	105.94
229.73	99.94
229.964	103.94
230.199	99.94
230.433	118.94
230.667	102.94
230.901	100.94
231.136	94.94
231.37	95.94
231.604	96.94
231.838	98.94
232.072	116.94
232.306	113.94
232.541	109.94
232.775	128.94
233.009	119.94
233.243	111.94
233.477	103.94
233.711	92.94
233.945	111.94
234.179	111.94
234.413	108.94
234.647	113.94
234.881	99.94
235.115	110.94
235.349	119.94
235.583	101.94
235.817	111.94
236.051	121.94
236.285	109.94
236.519	123.94
236.753	122.94
236.987	137.94
237.221	155.94
237.455	163.94
237.689	156.94
237.922	126.94
238.156	127.94
238.39	125.94
238.624	125.94
238.858	110.94
239.091	124.94
239.325	100.94
239.559	120.94
239.793	117.94
240.027	129.94
240.26	129.94
240.494	136.94
240.728	137.94
240.961	128.94
241.195	122.94
241.429	129.94
241.662	125.94
241.896	125.94
242.13	119.94
242.363	129.94
242.597	137.94
242.83	125.94
243.064	124.94
243.298	118.94
243.531	121.94
243.765	139.94
243.998	139.94
244.232	143.94
244.465	139.94
244.699	128.94
244.932	128.94
245.166	132.94
245.399	134.94
245.633	158.94
245.866	141.94
246.099	127.94
246.333	139.94
246.566	144.94
246.8	127.94
247.033	136.94
247.266	125.94
247.5	145.94
247.733	159.94
247.966	161.94
248.2	160.94
248.433	172.94
248.666	163.94
248.899	165.94
249.133	164.94
249.366	180.94
249.599	168.94
249.832	180.94
250.066	181.94
250.299	154.94
250.532	190.94
250.765	189.94
250.998	209.94
251.231	208.94
251.465	178.94
251.698	169.94
251.931	159.94
252.164	177.94
252.397	179.94
252.63	173.94
252.863	175.94
253.096	177.94
253.329	199.94
253.562	179.94
253.795	196.94
254.028	195.94
254.261	187.94
254.494	188.94
254.727	211.94
254.96	242.94
255.193	218.94
255.426	214.94
255.659	225.94
255.892	229.94
256.124	252.94
256.357	273.94
256.59	231.94
256.823	198.94
257.056	209.94
257.289	194.94
257.521	185.94
257.754	206.94
257.987	192.94
258.22	200.94
258.452	194.94
258.685	184.94
258.918	196.94
259.151	179.94
259.383	199.94
259.616	203.94
259.849	211.94
260.081	219.94
260.314	209.94
260.547	226.94
260.779	209.94
261.012	193.94
261.244	194.94
261.477	205.94
261.71	193.94
261.942	204.94
262.175	201.94
262.407	202.94
262.64	199.94
262.872	192.94
263.105	188.94
263.337	168.94
263.57	197.94
263.802	192.94
264.035	202.94
264.267	199.94
264.499	199.94
264.732	188.94
264.964	194.94
265.197	199.94
265.429	197.94
265.661	213.94
265.894	198.94
266.126	195.94
266.358	204.94
266.591	210.94
266.823	210.94
267.055	219.94
267.287	213.94
267.52	215.94
267.752	214.94
267.984	222.94
268.216	221.94
268.448	209.94
268.681	211.94
268.913	224.94
269.145	249.94
269.377	251.94
269.609	236.94
269.841	226.94
270.073	237.94
270.306	263.94
270.538	275.94
270.77	255.94
271.002	255.94
271.234	267.94
271.466	245.94
271.698	267.94
271.93	268.94
272.162	259.94
272.394	261.94
272.626	263.94
272.858	254.94
273.09	258.94
273.322	238.94
273.553	256.94
273.785	256.94
274.017	248.94
274.249	247.94
274.481	211.94
274.713	236.94
274.945	232.94
275.176	242.94
275.408	264.94
275.64	242.94
275.872	258.94
276.104	241.94
276.335	261.94
276.567	249.94
276.799	251.94
277.031	267.94
277.262	288.94
277.494	278.94
277.726	275.94
277.957	255.94
278.189	242.94
278.421	262.94
278.652	265.94
278.884	266.94
279.115	261.94
279.347	263.94
279.579	262.94
279.81	264.94
280.042	260.94
280.273	277.94
280.505	268.94
280.736	240.94
280.968	278.94
281.199	261.94
281.431	277.94
281.662	263.94
281.894	275.94
282.125	257.94
282.356	251.94
282.588	285.94
282.819	296.94
283.051	258.94
283.282	255.94
283.513	267.94
283.745	265.94
283.976	278.94
284.207	272.94
284.439	274.94
284.67	264.94
284.901	275.94
285.132	263.94
285.364	267.94
285.595	278.94
285.826	287.94
286.057	285.94
286.288	273.94
286.52	259.94
286.751	300.94
286.982	279.94
287.213	279.94
287.444	279.94
287.675	289.94
287.906	289.94
288.138	299.94
288.369	294.94
288.6	285.94
288.831	291.94
289.062	294.94
289.293	294.94
289.524	277.94
289.755	290.94
289.986	300.94
290.217	289.94
290.448	294.94
290.679	279.94
290.91	289.94
291.141	284.94
291.371	312.94
291.602	285.94
291.833	288.94
292.064	277.94
292.295	295.94
292.526	271.94
292.757	282.94
292.987	285.94
293.218	269.94
293.449	285.94
293.68	286.94
293.91	313.94
294.141	293.94
294.372	293.94
294.603	289.94
294.833	291.94
295.064	291.94
295.295	278.94
295.525	291.94
295.756	295.94
295.987	307.94
296.217	319.94
296.448	289.94
296.679	295.94
296.909	291.94
297.14	293.94
297.37	295.94
297.601	300.94
297.831	285.94
298.062	299.94
298.292	298.94
298.523	302.94
298.753	316.94
298.984	299.94
299.214	303.94
299.445	307.94
299.675	307.94
299.905	315.94
300.136	307.94
300.366	314.94
300.597	309.94
300.827	311.94
301.057	321.94
301.288	317.94
301.518	315.94
301.748	327.94
301.979	316.94
302.209	310.94
302.439	337.94
302.669	323.94
302.9	319.94
303.13	329.94
303.36	333.94
303.59	335.94
303.82	329.94
304.051	324.94
304.281	326.94
304.511	316.94
304.741	322.94
304.971	324.94
305.201	337.94
305.431	313.94
305.661	331.94
305.891	291.94
306.121	319.94
306.352	306.94
306.582	319.94
306.812	308.94
307.042	307.94
307.272	320.94
307.502	324.94
307.731	330.94
307.961	327.94
308.191	331.94
308.421	336.94
308.651	346.94
308.881	329.94
309.111	328.94
309.341	355.94
309.571	343.94
309.8	349.94
310.03	343.94
310.26	344.94
310.49	349.94
310.72	364.94
310.949	356.94
311.179	342.94
311.409	352.94
311.639	332.94
311.868	353.94
312.098	340.94
312.328	338.94
312.557	360.94
312.787	377.94
313.017	349.94
313.246	344.94
313.476	367.94
313.706	330.94
313.935	372.94
314.165	377.94
314.394	368.94
314.624	354.94
314.853	350.94
315.083	374.94
315.312	355.94
315.542	348.94
315.771	362.94
316.001	355.94
316.23	347.94
316.46	345.94
316.689	348.94
316.919	360.94
317.148	365.94
317.377	357.94
317.607	354.94
317.836	363.94
318.065	349.94
318.295	357.94
318.524	344.94
318.753	332.94
318.983	333.94
319.212	359.94
319.441	388.94
319.67	373.94
319.9	367.94
320.129	356.94
320.358	362.94
320.587	365.94
320.816	369.94
321.046	368.94
321.275	381.94
321.504	380.94
321.733	348.94
321.962	390.94
322.191	387.94
322.42	391.94
322.649	392.94
322.878	404.94
323.108	388.94
323.337	410.94
323.566	425.94
323.795	443.94
324.024	484.94
324.253	525.94
324.482	722.94
324.71	1079.94
324.939	1469.94
325.168	1255.94
325.397	711.94
325.626	552.94
325.855	493.94
326.084	443.94
326.313	428.94
326.542	457.94
326.77	472.94
326.999	539.94
327.228	709.94
327.457	986.94
327.686	1151.94
327.914	803.94
328.143	617.94
328.372	569.94
328.6	520.94
328.829	478.94
329.058	507.94
329.287	480.94
329.515	495.94
329.744	475.94
329.972	513.94
330.201	541.94
330.43	611.94
330.658	600.94
330.887	550.94
331.115	516.94
331.344	469.94
331.572	454.94
331.801	455.94
332.03	469.94
332.258	451.94
332.486	453.94
332.715	430.94
332.943	468.94
333.172	473.94
333.4	478.94
333.629	509.94
333.857	497.94
334.085	548.94
334.314	635.94
334.542	666.94
334.771	702.94
334.999	592.94
335.227	527.94
335.455	498.94
335.684	479.94
335.912	439.94
336.14	452.94
336.369	448.94
336.597	449.94
336.825	442.94
337.053	424.94
337.281	408.94
337.51	419.94
337.738	425.94
337.966	421.94
338.194	409.94
338.422	408.94
338.65	404.94
338.878	399.94
339.106	372.94
339.334	417.94
339.562	403.94
339.79	409.94
340.018	408.94
340.246	403.94
340.474	419.94
340.702	397.94
340.93	384.94
341.158	391.94
341.386	394.94
341.614	403.94
341.842	395.94
342.07	383.94
342.298	389.94
342.526	376.94
342.754	384.94
342.981	364.94
343.209	389.94
343.437	413.94
343.665	444.94
343.893	421.94
344.12	427.94
344.348	428.94
344.576	403.94
344.804	420.94
345.031	417.94
345.259	415.94
345.487	388.94
345.714	408.94
345.942	367.94
346.17	380.94
346.397	383.94
346.625	365.94
346.853	379.94
347.08	375.94
347.308	358.94
347.535	391.94
347.763	369.94
347.99	360.94
348.218	379.94
348.445	375.94
348.673	385.94
348.9	360.94
349.128	365.94
349.355	359.94
349.583	378.94
349.81	383.94
350.037	347.94
350.265	351.94
350.492	367.94
350.72	373.94
350.947	384.94
351.174	381.94
351.402	387.94
351.629	383.94
351.856	372.94
352.083	383.94
352.311	377.94
352.538	371.94
352.765	383.94
352.992	371.94
353.22	363.94
353.447	373.94
353.674	371.94
353.901	346.94
354.128	367.94
354.355	357.94
354.583	371.94
354.81	357.94
355.037	357.94
355.264	355.94
355.491	351.94
355.718	342.94
355.945	360.94
356.172	330.94
356.399	337.94
356.626	359.94
356.853	353.94
357.08	336.94
357.307	379.94
357.534	333.94
357.761	369.94
357.988	353.94
358.215	355.94
358.441	358.94
358.668	351.94
358.895	355.94
359.122	352.94
359.349	363.94
359.576	374.94
359.802	385.94
360.029	364.94
360.256	396.94
360.483	376.94
360.709	367.94
360.936	378.94
361.163	369.94
361.39	374.94
361.616	361.94
361.843	383.94
362.07	350.94
362.296	374.94
362.523	361.94
362.749	364.94
362.976	368.94
363.203	365.94
363.429	358.94
363.656	339.94
363.882	357.94
364.109	356.94
364.335	372.94
364.562	353.94
364.788	364.94
365.015	349.94
365.241	359.94
365.468	365.94
365.694	362.94
365.92	369.94
366.147	344.94
366.373	343.94
366.599	367.94
366.826	364.94
367.052	347.94
367.278	367.94
367.505	358.94
367.731	347.94
367.957	347.94
368.184	369.94
368.41	343.94
368.636	343.94
368.862	376.94
369.089	347.94
369.315	354.94
369.541	354.94
369.767	340.94
369.993	358.94
370.219	354.94
370.445	336.94
370.672	365.94
370.898	351.94
371.124	369.94
371.35	361.94
371.576	335.94
371.802	327.94
372.028	347.94
372.254	359.94
372.48	355.94
372.706	357.94
372.932	396.94
373.158	372.94
373.384	360.94
373.61	364.94
373.835	376.94
374.061	371.94
374.287	346.94
374.513	350.94
374.739	359.94
374.965	370.94
375.191	399.94
375.416	374.94
375.642	394.94
375.868	385.94
376.094	377.94
376.319	366.94
376.545	364.94
376.771	361.94
376.997	355.94
377.222	359.94
377.448	368.94
377.674	363.94
377.899	345.94
378.125	326.94
378.35	346.94
378.576	357.94
378.802	329.94
379.027	337.94
379.253	368.94
379.478	359.94
379.704	362.94
379.929	369.94
380.155	360.94
380.38	357.94
380.606	354.94
380.831	377.94
381.057	371.94
381.282	362.94
381.507	379.94
381.733	353.94
381.958	364.94
382.184	358.94
382.409	382.94
382.634	367.94
382.86	382.94
383.085	385.94
383.31	371.94
383.535	364.94
383.761	376.94
383.986	381.94
384.211	387.94
384.436	397.94
384.662	371.94
384.887	403.94
385.112	390.94
385.337	403.94
385.562	407.94
385.787	402.94
386.013	410.94
386.238	396.94
386.463	409.94
386.688	423.94
386.913	398.94
387.138	399.94
387.363	402.94
387.588	397.94
387.813	411.94
388.038	406.94
388.263	424.94
388.488	409.94
388.713	396.94
388.938	416.94
389.163	387.94
389.387	409.94
389.612	397.94
389.837	397.94
390.062	418.94
390.287	408.94
390.512	390.94
390.736	393.94
390.961	399.94
391.186	403.94
391.411	433.94
391.636	427.94
391.86	419.94
392.085	444.94
392.31	435.94
392.534	429.94
392.759	424.94
392.984	415.94
393.208	430.94
393.433	408.94
393.658	428.94
393.882	406.94
394.107	427.94
394.331	407.94
394.556	420.94
394.78	426.94
395.005	394.94
395.229	422.94
395.454	436.94
395.678	423.94
395.903	465.94
396.127	435.94
396.352	449.94
396.576	437.94
396.801	419.94
397.025	429.94
397.249	415.94
397.474	427.94
397.698	420.94
397.922	437.94
398.147	457.94
398.371	456.94
398.595	476.94
398.82	475.94
399.044	471.94
399.268	513.94
399.492	577.94
399.717	629.94
399.941	633.94
400.165	630.94
400.389	585.94
400.613	556.94
400.837	521.94
401.062	484.94
401.286	479.94
401.51	474.94
401.734	476.94
401.958	492.94
402.182	474.94
402.406	473.94
402.63	496.94
402.854	495.94
403.078	474.94
403.302	515.94
403.526	490.94
403.75	527.94
403.974	524.94
404.198	523.94
404.422	526.94
404.645	538.94
404.869	537.94
405.093	562.94
405.317	604.94
405.541	628.94
405.765	575.94
405.988	530.94
406.212	554.94
406.436	534.94
406.66	554.94
406.883	577.94
407.107	585.94
407.331	591.94
407.555	645.94
407.778	639.94
408.002	600.94
408.226	567.94
408.449	554.94
408.673	581.94
408.896	555.94
409.12	580.94
409.344	553.94
409.567	523.94
409.791	535.94
410.014	529.94
410.238	493.94
410.461	496.94
410.685	527.94
410.908	511.94
411.132	521.94
411.355	554.94
411.578	521.94
411.802	509.94
412.025	497.94
412.249	528.94
412.472	563.94
412.695	608.94
412.919	577.94
413.142	541.94
413.365	489.94
413.589	508.94
413.812	505.94
414.035	479.94
414.258	477.94
414.482	469.94
414.705	482.94
414.928	472.94
415.151	479.94
415.374	482.94
415.597	493.94
415.821	476.94
416.044	477.94
416.267	443.94
416.49	469.94
416.713	465.94
416.936	454.94
417.159	461.94
417.382	490.94
417.605	482.94
417.828	494.94
418.051	487.94
418.274	482.94
418.497	485.94
418.72	483.94
418.943	483.94
419.166	501.94
419.389	542.94
419.611	527.94
419.834	535.94
420.057	516.94
420.28	517.94
420.503	516.94
420.726	513.94
420.948	524.94
421.171	519.94
421.394	525.94
421.617	476.94
421.839	497.94
422.062	493.94
422.285	479.94
422.507	508.94
422.73	551.94
422.953	547.94
423.175	516.94
423.398	519.94
423.621	524.94
423.843	528.94
424.066	523.94
424.288	519.94
424.511	520.94
424.733	555.94
424.956	587.94
425.178	562.94
425.401	553.94
425.623	594.94
425.846	515.94
426.068	490.94
426.291	485.94
426.513	464.94
426.735	498.94
426.958	519.94
427.18	549.94
427.402	635.94
427.625	687.94
427.847	606.94
428.069	595.94
428.292	543.94
428.514	489.94
428.736	469.94
428.958	464.94
429.181	444.94
429.403	450.94
429.625	443.94
429.847	478.94
430.069	495.94
430.292	514.94
430.514	474.94
430.736	454.94
430.958	440.94
431.18	425.94
431.402	433.94
431.624	436.94
431.846	449.94
432.068	440.94
432.29	442.94
432.512	440.94
432.734	438.94
432.956	431.94
433.178	434.94
433.4	474.94
433.622	441.94
433.844	455.94
434.066	452.94
434.287	431.94
434.509	437.94
434.731	457.94
434.953	467.94
435.175	492.94
435.397	469.94
435.618	484.94
435.84	503.94
436.062	562.94
436.284	585.94
436.505	505.94
436.727	478.94
436.949	475.94
437.17	447.94
437.392	441.94
437.614	453.94
437.835	472.94
438.057	539.94
438.278	588.94
438.5	573.94
438.721	633.94
438.943	629.94
439.165	506.94
439.386	492.94
439.608	465.94
439.829	467.94
440.05	483.94
440.272	505.94
440.493	466.94
440.715	458.94
440.936	463.94
441.158	470.94
441.379	472.94
441.6	458.94
441.822	473.94
442.043	493.94
442.264	543.94
442.486	580.94
442.707	522.94
442.928	484.94
443.149	487.94
443.371	497.94
443.592	532.94
443.813	573.94
444.034	647.94
444.255	572.94
444.476	551.94
444.698	531.94
444.919	536.94
445.14	600.94
445.361	554.94
445.582	544.94
445.803	550.94
446.024	599.94
446.245	606.94
446.466	561.94
446.687	505.94
446.908	466.94
447.129	452.94
447.35	450.94
447.571	445.94
447.792	423.94
448.013	439.94
448.234	429.94
448.455	457.94
448.675	524.94
448.896	590.94
449.117	549.94
449.338	488.94
449.559	550.94
449.779	651.94
450	526.94
450.221	451.94
450.442	436.94
450.662	409.94
450.883	427.94
451.104	437.94
451.324	415.94
451.545	409.94
451.766	415.94
451.986	420.94
452.207	395.94
452.428	395.94
452.648	402.94
452.869	403.94
453.089	407.94
453.31	403.94
453.53	392.94
453.751	399.94
453.971	395.94
454.192	413.94
454.412	395.94
454.633	393.94
454.853	396.94
455.073	378.94
455.294	408.94
455.514	446.94
455.734	427.94
455.955	391.94
456.175	375.94
456.395	368.94
456.616	365.94
456.836	387.94
457.056	373.94
457.276	365.94
457.497	386.94
457.717	395.94
457.937	379.94
458.157	374.94
458.377	390.94
458.598	380.94
458.818	441.94
459.038	475.94
459.258	511.94
459.478	447.94
459.698	442.94
459.918	459.94
460.138	428.94
460.358	456.94
460.578	473.94
460.798	461.94
461.018	467.94
461.238	480.94
461.458	465.94
461.678	460.94
461.898	482.94
462.118	475.94
462.338	484.94
462.558	490.94
462.777	507.94
462.997	513.94
463.217	562.94
463.437	560.94
463.657	535.94
463.876	516.94
464.096	511.94
464.316	522.94
464.536	509.94
464.755	496.94
464.975	513.94
465.195	531.94
465.414	527.94
465.634	468.94
465.854	438.94
466.073	459.94
466.293	440.94
466.512	423.94
466.732	419.94
466.951	437.94
467.171	400.94
467.391	426.94
467.61	412.94
467.829	427.94
468.049	410.94
468.268	457.94
468.488	420.94
468.707	418.94
468.927	405.94
469.146	407.94
469.365	401.94
469.585	426.94
469.804	444.94
470.023	437.94
470.243	443.94
470.462	434.94
470.681	438.94
470.901	429.94
471.12	427.94
471.339	437.94
471.558	415.94
471.777	428.94
471.997	431.94
472.216	441.94
472.435	518.94
472.654	460.94
472.873	424.94
473.092	428.94
473.311	418.94
473.53	407.94
473.749	444.94
473.968	452.94
474.187	495.94
474.406	511.94
474.625	433.94
474.844	414.94
475.063	421.94
475.282	423.94
475.501	412.94
475.72	424.94
475.939	414.94
476.158	433.94
476.377	419.94
476.596	420.94
476.814	426.94
477.033	431.94
477.252	437.94
477.471	436.94
477.69	449.94
477.908	435.94
478.127	465.94
478.346	460.94
478.564	463.94
478.783	469.94
479.002	472.94
479.22	499.94
479.439	484.94
479.658	493.94
479.876	496.94
480.095	525.94
480.313	524.94
480.532	551.94
480.751	534.94
480.969	560.94
481.188	662.94
481.406	721.94
481.624	594.94
481.843	552.94
482.061	537.94
482.28	492.94
482.498	499.94
482.717	459.94
482.935	463.94
483.153	488.94
483.372	475.94
483.59	469.94
483.808	487.94
484.027	492.94
484.245	480.94
484.463	476.94
484.681	476.94
484.9	490.94
485.118	510.94
485.336	479.94
485.554	483.94
485.772	497.94
485.99	483.94
486.209	496.94
486.427	499.94
486.645	470.94
486.863	495.94
487.081	499.94
487.299	480.94
487.517	497.94
487.735	517.94
487.953	524.94
488.171	502.94
488.389	495.94
488.607	492.94
488.825	484.94
489.043	493.94
489.261	521.94
489.479	519.94
489.696	507.94
489.914	511.94
490.132	497.94
490.35	525.94
490.568	517.94
490.786	549.94
491.003	525.94
491.221	567.94
491.439	555.94
491.657	583.94
491.874	584.94
492.092	577.94
492.31	597.94
492.527	584.94
492.745	595.94
492.963	577.94
493.18	605.94
493.398	599.94
493.615	591.94
493.833	600.94
494.05	604.94
494.268	592.94
494.485	583.94
494.703	585.94
494.92	587.94
495.138	588.94
495.355	566.94
495.573	571.94
495.79	577.94
496.008	586.94
496.225	575.94
496.442	601.94
496.66	571.94
496.877	574.94
497.094	580.94
497.312	607.94
497.529	589.94
497.746	633.94
497.963	616.94
498.181	651.94
498.398	677.94
498.615	710.94
498.832	699.94
499.049	739.94
499.267	745.94
499.484	823.94
499.701	855.94
499.918	941.94
500.135	991.94
500.352	1097.94
500.569	1119.94
500.786	1130.94
501.003	1109.94
501.22	971.94
501.437	935.94
501.654	832.94
501.871	841.94
502.088	774.94
