Data from 1984.PennyLincolnUp.Lamp.En5.5.200Scan.071819.P1_HRD10591_17-00-19-969.txt Node
Date: Thu Jul 18 17:00:19 EDT 2019
User: cochatt
Spectrometer: HR+D1059
Trigger mode: 1
Integration Time (sec): 1.000000E-1
Scans to average: 1
Electric dark correction enabled: true
Nonlinearity correction enabled: false
Boxcar width: 0
XAxis mode: Wavelengths
Number of Pixels in Spectrum: 2048
>>>>>Begin Spectral Data<<<<<
223.165	2.12
223.4	2.12
223.635	2.12
223.869	-15.88
224.104	-32.88
224.338	-24.88
224.573	-18.88
224.808	-12.88
225.042	-15.88
225.277	0.12
225.511	-2.88
225.746	16.12
225.98	1.12
226.215	14.12
226.449	0.12
226.683	31.12
226.918	28.12
227.152	31.12
227.387	38.12
227.621	23.12
227.856	42.12
228.09	42.12
228.324	46.12
228.559	64.12
228.793	58.12
229.027	81.12
229.262	89.12
229.496	100.12
229.73	107.12
229.964	114.12
230.199	101.12
230.433	100.12
230.667	109.12
230.901	97.12
231.136	98.12
231.37	94.12
231.604	100.12
231.838	99.12
232.072	105.12
232.306	109.12
232.541	108.12
232.775	105.12
233.009	107.12
233.243	106.12
233.477	97.12
233.711	105.12
233.945	99.12
234.179	101.12
234.413	118.12
234.647	120.12
234.881	113.12
235.115	110.12
235.349	108.12
235.583	114.12
235.817	92.12
236.051	116.12
236.285	121.12
236.519	115.12
236.753	124.12
236.987	129.12
237.221	142.12
237.455	148.12
237.689	143.12
237.922	122.12
238.156	114.12
238.39	106.12
238.624	103.12
238.858	119.12
239.091	122.12
239.325	129.12
239.559	129.12
239.793	117.12
240.027	129.12
240.26	116.12
240.494	126.12
240.728	111.12
240.961	125.12
241.195	107.12
241.429	116.12
241.662	126.12
241.896	117.12
242.13	116.12
242.363	127.12
242.597	117.12
242.83	141.12
243.064	121.12
243.298	125.12
243.531	123.12
243.765	124.12
243.998	142.12
244.232	137.12
244.465	153.12
244.699	135.12
244.932	146.12
245.166	130.12
245.399	143.12
245.633	154.12
245.866	139.12
246.099	145.12
246.333	146.12
246.566	142.12
246.8	143.12
247.033	143.12
247.266	138.12
247.5	144.12
247.733	153.12
247.966	160.12
248.2	146.12
248.433	153.12
248.666	160.12
248.899	177.12
249.133	178.12
249.366	173.12
249.599	160.12
249.832	160.12
250.066	160.12
250.299	181.12
250.532	187.12
250.765	214.12
250.998	201.12
251.231	185.12
251.465	199.12
251.698	174.12
251.931	174.12
252.164	166.12
252.397	172.12
252.63	178.12
252.863	184.12
253.096	186.12
253.329	188.12
253.562	185.12
253.795	180.12
254.028	183.12
254.261	199.12
254.494	178.12
254.727	198.12
254.96	226.12
255.193	226.12
255.426	203.12
255.659	216.12
255.892	222.12
256.124	272.12
256.357	283.12
256.59	258.12
256.823	227.12
257.056	208.12
257.289	206.12
257.521	214.12
257.754	196.12
257.987	197.12
258.22	188.12
258.452	189.12
258.685	201.12
258.918	202.12
259.151	181.12
259.383	170.12
259.616	182.12
259.849	192.12
260.081	185.12
260.314	201.12
260.547	218.12
260.779	197.12
261.012	205.12
261.244	200.12
261.477	198.12
261.71	218.12
261.942	198.12
262.175	200.12
262.407	205.12
262.64	198.12
262.872	201.12
263.105	201.12
263.337	199.12
263.57	194.12
263.802	200.12
264.035	186.12
264.267	194.12
264.499	189.12
264.732	204.12
264.964	220.12
265.197	212.12
265.429	217.12
265.661	194.12
265.894	201.12
266.126	196.12
266.358	192.12
266.591	214.12
266.823	217.12
267.055	206.12
267.287	208.12
267.52	209.12
267.752	217.12
267.984	217.12
268.216	216.12
268.448	209.12
268.681	205.12
268.913	232.12
269.145	228.12
269.377	237.12
269.609	216.12
269.841	232.12
270.073	243.12
270.306	252.12
270.538	267.12
270.77	257.12
271.002	262.12
271.234	227.12
271.466	259.12
271.698	251.12
271.93	271.12
272.162	266.12
272.394	270.12
272.626	252.12
272.858	245.12
273.09	237.12
273.322	247.12
273.553	235.12
273.785	226.12
274.017	221.12
274.249	247.12
274.481	248.12
274.713	239.12
274.945	239.12
275.176	248.12
275.408	271.12
275.64	229.12
275.872	258.12
276.104	246.12
276.335	255.12
276.567	248.12
276.799	262.12
277.031	282.12
277.262	272.12
277.494	257.12
277.726	269.12
277.957	286.12
278.189	267.12
278.421	246.12
278.652	278.12
278.884	245.12
279.115	251.12
279.347	254.12
279.579	251.12
279.81	260.12
280.042	254.12
280.273	264.12
280.505	264.12
280.736	257.12
280.968	255.12
281.199	254.12
281.431	280.12
281.662	260.12
281.894	262.12
282.125	258.12
282.356	265.12
282.588	293.12
282.819	285.12
283.051	266.12
283.282	252.12
283.513	262.12
283.745	277.12
283.976	279.12
284.207	266.12
284.439	262.12
284.67	252.12
284.901	274.12
285.132	285.12
285.364	276.12
285.595	269.12
285.826	258.12
286.057	261.12
286.288	260.12
286.52	265.12
286.751	273.12
286.982	299.12
287.213	274.12
287.444	272.12
287.675	272.12
287.906	287.12
288.138	285.12
288.369	303.12
288.6	273.12
288.831	285.12
289.062	289.12
289.293	280.12
289.524	281.12
289.755	266.12
289.986	280.12
290.217	271.12
290.448	283.12
290.679	285.12
290.91	284.12
291.141	280.12
291.371	287.12
291.602	280.12
291.833	273.12
292.064	260.12
292.295	263.12
292.526	278.12
292.757	293.12
292.987	282.12
293.218	280.12
293.449	276.12
293.68	278.12
293.91	274.12
294.141	286.12
294.372	274.12
294.603	284.12
294.833	291.12
295.064	297.12
295.295	279.12
295.525	264.12
295.756	291.12
295.987	297.12
296.217	312.12
296.448	299.12
296.679	306.12
296.909	288.12
297.14	301.12
297.37	295.12
297.601	302.12
297.831	302.12
298.062	291.12
298.292	309.12
298.523	306.12
298.753	305.12
298.984	291.12
299.214	304.12
299.445	286.12
299.675	301.12
299.905	295.12
300.136	300.12
300.366	303.12
300.597	307.12
300.827	297.12
301.057	309.12
301.288	326.12
301.518	319.12
301.748	306.12
301.979	324.12
302.209	318.12
302.439	321.12
302.669	315.12
302.9	310.12
303.13	301.12
303.36	314.12
303.59	324.12
303.82	314.12
304.051	328.12
304.281	335.12
304.511	316.12
304.741	308.12
304.971	316.12
305.201	292.12
305.431	305.12
305.661	318.12
305.891	310.12
306.121	320.12
306.352	309.12
306.582	327.12
306.812	329.12
307.042	307.12
307.272	315.12
307.502	312.12
307.731	327.12
307.961	324.12
308.191	313.12
308.421	312.12
308.651	326.12
308.881	306.12
309.111	302.12
309.341	310.12
309.571	334.12
309.8	337.12
310.03	347.12
310.26	336.12
310.49	334.12
310.72	344.12
310.949	324.12
311.179	349.12
311.409	333.12
311.639	367.12
311.868	346.12
312.098	338.12
312.328	353.12
312.557	355.12
312.787	352.12
313.017	349.12
313.246	350.12
313.476	337.12
313.706	344.12
313.935	347.12
314.165	367.12
314.394	349.12
314.624	368.12
314.853	368.12
315.083	356.12
315.312	363.12
315.542	378.12
315.771	344.12
316.001	362.12
316.23	350.12
316.46	356.12
316.689	364.12
316.919	349.12
317.148	348.12
317.377	362.12
317.607	365.12
317.836	350.12
318.065	352.12
318.295	345.12
318.524	353.12
318.753	337.12
318.983	346.12
319.212	348.12
319.441	362.12
319.67	368.12
319.9	359.12
320.129	362.12
320.358	357.12
320.587	357.12
320.816	370.12
321.046	341.12
321.275	359.12
321.504	372.12
321.733	372.12
321.962	369.12
322.191	374.12
322.42	380.12
322.649	394.12
322.878	387.12
323.108	401.12
323.337	384.12
323.566	401.12
323.795	440.12
324.024	478.12
324.253	554.12
324.482	724.12
324.71	1036.12
324.939	1432.12
325.168	1235.12
325.397	662.12
325.626	523.12
325.855	447.12
326.084	436.12
326.313	422.12
326.542	454.12
326.77	480.12
326.999	531.12
327.228	694.12
327.457	968.12
327.686	1132.12
327.914	799.12
328.143	594.12
328.372	582.12
328.6	537.12
328.829	476.12
329.058	522.12
329.287	476.12
329.515	482.12
329.744	475.12
329.972	526.12
330.201	602.12
330.43	646.12
330.658	622.12
330.887	551.12
331.115	534.12
331.344	469.12
331.572	471.12
331.801	468.12
332.03	461.12
332.258	459.12
332.486	456.12
332.715	451.12
332.943	456.12
333.172	479.12
333.4	470.12
333.629	524.12
333.857	553.12
334.085	597.12
334.314	650.12
334.542	733.12
334.771	762.12
334.999	613.12
335.227	550.12
335.455	484.12
335.684	471.12
335.912	459.12
336.14	461.12
336.369	422.12
336.597	448.12
336.825	432.12
337.053	414.12
337.281	433.12
337.51	425.12
337.738	423.12
337.966	426.12
338.194	394.12
338.422	413.12
338.65	401.12
338.878	395.12
339.106	417.12
339.334	398.12
339.562	367.12
339.79	407.12
340.018	388.12
340.246	398.12
340.474	393.12
340.702	409.12
340.93	394.12
341.158	388.12
341.386	383.12
341.614	393.12
341.842	391.12
342.07	417.12
342.298	395.12
342.526	386.12
342.754	387.12
342.981	383.12
343.209	384.12
343.437	414.12
343.665	417.12
343.893	426.12
344.12	431.12
344.348	417.12
344.576	419.12
344.804	410.12
345.031	407.12
345.259	398.12
345.487	400.12
345.714	377.12
345.942	377.12
346.17	378.12
346.397	365.12
346.625	357.12
346.853	392.12
347.08	365.12
347.308	367.12
347.535	370.12
347.763	375.12
347.99	377.12
348.218	375.12
348.445	384.12
348.673	375.12
348.9	361.12
349.128	376.12
349.355	376.12
349.583	366.12
349.81	356.12
350.037	344.12
350.265	378.12
350.492	338.12
350.72	364.12
350.947	339.12
351.174	356.12
351.402	364.12
351.629	383.12
351.856	363.12
352.083	374.12
352.311	372.12
352.538	360.12
352.765	370.12
352.992	378.12
353.22	343.12
353.447	357.12
353.674	364.12
353.901	361.12
354.128	362.12
354.355	350.12
354.583	346.12
354.81	374.12
355.037	360.12
355.264	338.12
355.491	349.12
355.718	373.12
355.945	364.12
356.172	353.12
356.399	357.12
356.626	350.12
356.853	343.12
357.08	332.12
357.307	344.12
357.534	339.12
357.761	354.12
357.988	350.12
358.215	358.12
358.441	346.12
358.668	360.12
358.895	360.12
359.122	354.12
359.349	370.12
359.576	347.12
359.802	368.12
360.029	365.12
360.256	394.12
360.483	390.12
360.709	344.12
360.936	380.12
361.163	355.12
361.39	346.12
361.616	346.12
361.843	364.12
362.07	375.12
362.296	355.12
362.523	344.12
362.749	357.12
362.976	371.12
363.203	351.12
363.429	361.12
363.656	355.12
363.882	346.12
364.109	357.12
364.335	344.12
364.562	361.12
364.788	337.12
365.015	328.12
365.241	338.12
365.468	347.12
365.694	365.12
365.92	358.12
366.147	353.12
366.373	349.12
366.599	348.12
366.826	346.12
367.052	354.12
367.278	347.12
367.505	354.12
367.731	352.12
367.957	348.12
368.184	341.12
368.41	356.12
368.636	349.12
368.862	353.12
369.089	380.12
369.315	360.12
369.541	365.12
369.767	356.12
369.993	361.12
370.219	351.12
370.445	362.12
370.672	338.12
370.898	366.12
371.124	365.12
371.35	349.12
371.576	356.12
371.802	356.12
372.028	364.12
372.254	369.12
372.48	346.12
372.706	388.12
372.932	381.12
373.158	371.12
373.384	361.12
373.61	355.12
373.835	370.12
374.061	359.12
374.287	370.12
374.513	368.12
374.739	354.12
374.965	388.12
375.191	343.12
375.416	383.12
375.642	378.12
375.868	368.12
376.094	366.12
376.319	373.12
376.545	357.12
376.771	360.12
376.997	365.12
377.222	358.12
377.448	364.12
377.674	359.12
377.899	357.12
378.125	357.12
378.35	352.12
378.576	343.12
378.802	339.12
379.027	348.12
379.253	352.12
379.478	349.12
379.704	340.12
379.929	355.12
380.155	361.12
380.38	350.12
380.606	372.12
380.831	359.12
381.057	352.12
381.282	367.12
381.507	341.12
381.733	353.12
381.958	387.12
382.184	377.12
382.409	368.12
382.634	356.12
382.86	374.12
383.085	368.12
383.31	382.12
383.535	393.12
383.761	366.12
383.986	384.12
384.211	373.12
384.436	404.12
384.662	388.12
384.887	395.12
385.112	393.12
385.337	409.12
385.562	408.12
385.787	408.12
386.013	418.12
386.238	410.12
386.463	420.12
386.688	395.12
386.913	374.12
387.138	398.12
387.363	411.12
387.588	408.12
387.813	394.12
388.038	390.12
388.263	380.12
388.488	388.12
388.713	386.12
388.938	392.12
389.163	395.12
389.387	398.12
389.612	397.12
389.837	392.12
390.062	413.12
390.287	406.12
390.512	390.12
390.736	390.12
390.961	414.12
391.186	402.12
391.411	411.12
391.636	422.12
391.86	423.12
392.085	423.12
392.31	439.12
392.534	412.12
392.759	411.12
392.984	420.12
393.208	434.12
393.433	426.12
393.658	406.12
393.882	422.12
394.107	405.12
394.331	419.12
394.556	384.12
394.78	413.12
395.005	416.12
395.229	442.12
395.454	410.12
395.678	444.12
395.903	433.12
396.127	466.12
396.352	439.12
396.576	416.12
396.801	422.12
397.025	406.12
397.249	420.12
397.474	434.12
397.698	414.12
397.922	440.12
398.147	457.12
398.371	452.12
398.595	457.12
398.82	470.12
399.044	487.12
399.268	526.12
399.492	548.12
399.717	626.12
399.941	631.12
400.165	603.12
400.389	577.12
400.613	536.12
400.837	500.12
401.062	489.12
401.286	501.12
401.51	484.12
401.734	477.12
401.958	472.12
402.182	468.12
402.406	488.12
402.63	482.12
402.854	494.12
403.078	480.12
403.302	505.12
403.526	493.12
403.75	512.12
403.974	548.12
404.198	541.12
404.422	542.12
404.645	549.12
404.869	533.12
405.093	583.12
405.317	616.12
405.541	657.12
405.765	589.12
405.988	546.12
406.212	552.12
406.436	568.12
406.66	536.12
406.883	522.12
407.107	570.12
407.331	600.12
407.555	634.12
407.778	630.12
408.002	598.12
408.226	574.12
408.449	530.12
408.673	533.12
408.896	528.12
409.12	558.12
409.344	552.12
409.567	526.12
409.791	527.12
410.014	518.12
410.238	477.12
410.461	497.12
410.685	503.12
410.908	513.12
411.132	528.12
411.355	548.12
411.578	523.12
411.802	517.12
412.025	488.12
412.249	537.12
412.472	569.12
412.695	609.12
412.919	586.12
413.142	520.12
413.365	511.12
413.589	497.12
413.812	486.12
414.035	480.12
414.258	486.12
414.482	487.12
414.705	497.12
414.928	453.12
415.151	474.12
415.374	468.12
415.597	467.12
415.821	470.12
416.044	478.12
416.267	458.12
416.49	468.12
416.713	448.12
416.936	465.12
417.159	473.12
417.382	466.12
417.605	473.12
417.828	461.12
418.051	489.12
418.274	485.12
418.497	466.12
418.72	475.12
418.943	456.12
419.166	487.12
419.389	528.12
419.611	520.12
419.834	517.12
420.057	523.12
420.28	493.12
420.503	524.12
420.726	509.12
420.948	520.12
421.171	516.12
421.394	534.12
421.617	486.12
421.839	484.12
422.062	486.12
422.285	483.12
422.507	493.12
422.73	571.12
422.953	529.12
423.175	513.12
423.398	499.12
423.621	490.12
423.843	489.12
424.066	502.12
424.288	504.12
424.511	512.12
424.733	549.12
424.956	581.12
425.178	546.12
425.401	566.12
425.623	577.12
425.846	506.12
426.068	487.12
426.291	472.12
426.513	464.12
426.735	477.12
426.958	499.12
427.18	542.12
427.402	642.12
427.625	672.12
427.847	600.12
428.069	590.12
428.292	516.12
428.514	471.12
428.736	462.12
428.958	454.12
429.181	453.12
429.403	437.12
429.625	452.12
429.847	462.12
430.069	504.12
430.292	513.12
430.514	452.12
430.736	432.12
430.958	449.12
431.18	434.12
431.402	420.12
431.624	407.12
431.846	427.12
432.068	443.12
432.29	448.12
432.512	430.12
432.734	449.12
432.956	429.12
433.178	444.12
433.4	421.12
433.622	428.12
433.844	435.12
434.066	423.12
434.287	408.12
434.509	424.12
434.731	476.12
434.953	464.12
435.175	478.12
435.397	475.12
435.618	483.12
435.84	509.12
436.062	547.12
436.284	543.12
436.505	489.12
436.727	462.12
436.949	437.12
437.17	422.12
437.392	434.12
437.614	448.12
437.835	451.12
438.057	494.12
438.278	545.12
438.5	560.12
438.721	625.12
438.943	600.12
439.165	490.12
439.386	450.12
439.608	472.12
439.829	442.12
440.05	475.12
440.272	512.12
440.493	468.12
440.715	460.12
440.936	469.12
441.158	453.12
441.379	466.12
441.6	472.12
441.822	461.12
442.043	497.12
442.264	552.12
442.486	577.12
442.707	504.12
442.928	490.12
443.149	485.12
443.371	480.12
443.592	541.12
443.813	584.12
444.034	602.12
444.255	551.12
444.476	502.12
444.698	531.12
444.919	514.12
445.14	626.12
445.361	594.12
445.582	536.12
445.803	523.12
446.024	569.12
446.245	570.12
446.466	532.12
446.687	473.12
446.908	468.12
447.129	455.12
447.35	440.12
447.571	430.12
447.792	425.12
448.013	431.12
448.234	429.12
448.455	466.12
448.675	522.12
448.896	589.12
449.117	522.12
449.338	505.12
449.559	550.12
449.779	626.12
450	516.12
450.221	455.12
450.442	412.12
450.662	402.12
450.883	419.12
451.104	418.12
451.324	413.12
451.545	411.12
451.766	413.12
451.986	404.12
452.207	394.12
452.428	390.12
452.648	393.12
452.869	378.12
453.089	397.12
453.31	378.12
453.53	381.12
453.751	394.12
453.971	396.12
454.192	405.12
454.412	388.12
454.633	376.12
454.853	396.12
455.073	397.12
455.294	390.12
455.514	433.12
455.734	406.12
455.955	392.12
456.175	358.12
456.395	375.12
456.616	370.12
456.836	347.12
457.056	386.12
457.276	372.12
457.497	370.12
457.717	380.12
457.937	385.12
458.157	370.12
458.377	388.12
458.598	412.12
458.818	445.12
459.038	470.12
459.258	481.12
459.478	462.12
459.698	420.12
459.918	429.12
460.138	435.12
460.358	457.12
460.578	455.12
460.798	451.12
461.018	467.12
461.238	463.12
461.458	464.12
461.678	454.12
461.898	501.12
462.118	462.12
462.338	478.12
462.558	493.12
462.777	467.12
462.997	519.12
463.217	547.12
463.437	536.12
463.657	540.12
463.876	489.12
464.096	516.12
464.316	530.12
464.536	517.12
464.755	529.12
464.975	493.12
465.195	519.12
465.414	546.12
465.634	460.12
465.854	445.12
466.073	433.12
466.293	426.12
466.512	396.12
466.732	407.12
466.951	407.12
467.171	395.12
467.391	420.12
467.61	387.12
467.829	410.12
468.049	438.12
468.268	441.12
468.488	427.12
468.707	411.12
468.927	418.12
469.146	406.12
469.365	426.12
469.585	422.12
469.804	414.12
470.023	433.12
470.243	423.12
470.462	419.12
470.681	425.12
470.901	415.12
471.12	437.12
471.339	409.12
471.558	434.12
471.777	417.12
471.997	442.12
472.216	459.12
472.435	554.12
472.654	517.12
472.873	469.12
473.092	442.12
473.311	437.12
473.53	434.12
473.749	393.12
473.968	432.12
474.187	491.12
474.406	477.12
474.625	437.12
474.844	411.12
475.063	389.12
475.282	411.12
475.501	420.12
475.72	408.12
475.939	405.12
476.158	415.12
476.377	417.12
476.596	427.12
476.814	442.12
477.033	429.12
477.252	422.12
477.471	446.12
477.69	453.12
477.908	448.12
478.127	456.12
478.346	479.12
478.564	461.12
478.783	469.12
479.002	472.12
479.22	481.12
479.439	504.12
479.658	514.12
479.876	491.12
480.095	512.12
480.313	541.12
480.532	528.12
480.751	539.12
480.969	571.12
481.188	717.12
481.406	817.12
481.624	624.12
481.843	554.12
482.061	524.12
482.28	526.12
482.498	504.12
482.717	494.12
482.935	475.12
483.153	503.12
483.372	482.12
483.59	468.12
483.808	452.12
484.027	470.12
484.245	504.12
484.463	484.12
484.681	462.12
484.9	470.12
485.118	471.12
485.336	474.12
485.554	482.12
485.772	488.12
485.99	488.12
486.209	489.12
486.427	484.12
486.645	493.12
486.863	508.12
487.081	486.12
487.299	508.12
487.517	475.12
487.735	488.12
487.953	500.12
488.171	489.12
488.389	493.12
488.607	478.12
488.825	501.12
489.043	514.12
489.261	497.12
489.479	545.12
489.696	522.12
489.914	514.12
490.132	522.12
490.35	533.12
490.568	527.12
490.786	532.12
491.003	540.12
491.221	556.12
491.439	584.12
491.657	571.12
491.874	578.12
492.092	585.12
492.31	588.12
492.527	601.12
492.745	598.12
492.963	638.12
493.18	621.12
493.398	611.12
493.615	598.12
493.833	606.12
494.05	596.12
494.268	601.12
494.485	585.12
494.703	570.12
494.92	600.12
495.138	588.12
495.355	590.12
495.573	581.12
495.79	580.12
496.008	575.12
496.225	576.12
496.442	567.12
496.66	593.12
496.877	582.12
497.094	590.12
497.312	597.12
497.529	583.12
497.746	603.12
497.963	593.12
498.181	644.12
498.398	660.12
498.615	662.12
498.832	710.12
499.049	726.12
499.267	784.12
499.484	813.12
499.701	868.12
499.918	917.12
500.135	1005.12
500.352	1043.12
500.569	1102.12
500.786	1132.12
501.003	1067.12
501.22	996.12
501.437	926.12
501.654	874.12
501.871	800.12
502.088	781.12
