Data from 1984.PennyLincolnUp.Lamp.En5.5.200Scan.071819.P1_HRD10591_16-57-18-967.txt Node
Date: Thu Jul 18 16:57:18 EDT 2019
User: cochatt
Spectrometer: HR+D1059
Trigger mode: 1
Integration Time (sec): 1.000000E-1
Scans to average: 1
Electric dark correction enabled: true
Nonlinearity correction enabled: false
Boxcar width: 0
XAxis mode: Wavelengths
Number of Pixels in Spectrum: 2048
>>>>>Begin Spectral Data<<<<<
223.165	-9.38
223.4	-9.38
223.635	-9.38
223.869	-17.38
224.104	-16.38
224.338	-8.38
224.573	-14.38
224.808	-8.38
225.042	-3.38
225.277	-12.38
225.511	1.62
225.746	3.62
225.98	4.62
226.215	3.62
226.449	10.62
226.683	22.62
226.918	20.62
227.152	22.62
227.387	36.62
227.621	30.62
227.856	40.62
228.09	36.62
228.324	57.62
228.559	60.62
228.793	62.62
229.027	86.62
229.262	80.62
229.496	102.62
229.73	93.62
229.964	111.62
230.199	98.62
230.433	94.62
230.667	95.62
230.901	108.62
231.136	106.62
231.37	105.62
231.604	94.62
231.838	102.62
232.072	109.62
232.306	95.62
232.541	104.62
232.775	99.62
233.009	101.62
233.243	109.62
233.477	104.62
233.711	109.62
233.945	112.62
234.179	105.62
234.413	101.62
234.647	111.62
234.881	104.62
235.115	108.62
235.349	93.62
235.583	116.62
235.817	101.62
236.051	106.62
236.285	120.62
236.519	108.62
236.753	106.62
236.987	117.62
237.221	137.62
237.455	139.62
237.689	140.62
237.922	114.62
238.156	127.62
238.39	113.62
238.624	113.62
238.858	106.62
239.091	111.62
239.325	132.62
239.559	126.62
239.793	129.62
240.027	126.62
240.26	117.62
240.494	114.62
240.728	118.62
240.961	115.62
241.195	126.62
241.429	122.62
241.662	119.62
241.896	117.62
242.13	115.62
242.363	131.62
242.597	112.62
242.83	121.62
243.064	118.62
243.298	127.62
243.531	128.62
243.765	122.62
243.998	129.62
244.232	116.62
244.465	127.62
244.699	126.62
244.932	125.62
245.166	126.62
245.399	153.62
245.633	127.62
245.866	129.62
246.099	130.62
246.333	129.62
246.566	128.62
246.8	135.62
247.033	135.62
247.266	140.62
247.5	148.62
247.733	153.62
247.966	138.62
248.2	151.62
248.433	133.62
248.666	154.62
248.899	152.62
249.133	151.62
249.366	139.62
249.599	165.62
249.832	150.62
250.066	143.62
250.299	138.62
250.532	140.62
250.765	155.62
250.998	151.62
251.231	174.62
251.465	170.62
251.698	157.62
251.931	160.62
252.164	165.62
252.397	172.62
252.63	153.62
252.863	164.62
253.096	165.62
253.329	162.62
253.562	173.62
253.795	188.62
254.028	188.62
254.261	180.62
254.494	170.62
254.727	169.62
254.96	216.62
255.193	181.62
255.426	165.62
255.659	184.62
255.892	187.62
256.124	169.62
256.357	181.62
256.59	163.62
256.823	167.62
257.056	177.62
257.289	169.62
257.521	181.62
257.754	174.62
257.987	169.62
258.22	171.62
258.452	192.62
258.685	157.62
258.918	174.62
259.151	195.62
259.383	169.62
259.616	187.62
259.849	174.62
260.081	175.62
260.314	181.62
260.547	204.62
260.779	181.62
261.012	190.62
261.244	174.62
261.477	186.62
261.71	175.62
261.942	179.62
262.175	186.62
262.407	182.62
262.64	181.62
262.872	180.62
263.105	178.62
263.337	190.62
263.57	192.62
263.802	183.62
264.035	190.62
264.267	179.62
264.499	177.62
264.732	203.62
264.964	189.62
265.197	197.62
265.429	200.62
265.661	189.62
265.894	183.62
266.126	186.62
266.358	187.62
266.591	185.62
266.823	185.62
267.055	185.62
267.287	200.62
267.52	202.62
267.752	182.62
267.984	201.62
268.216	209.62
268.448	197.62
268.681	189.62
268.913	212.62
269.145	199.62
269.377	203.62
269.609	203.62
269.841	206.62
270.073	204.62
270.306	230.62
270.538	237.62
270.77	222.62
271.002	226.62
271.234	239.62
271.466	226.62
271.698	220.62
271.93	256.62
272.162	241.62
272.394	242.62
272.626	227.62
272.858	231.62
273.09	229.62
273.322	224.62
273.553	210.62
273.785	210.62
274.017	216.62
274.249	232.62
274.481	219.62
274.713	210.62
274.945	228.62
275.176	203.62
275.408	219.62
275.64	228.62
275.872	207.62
276.104	220.62
276.335	223.62
276.567	207.62
276.799	231.62
277.031	236.62
277.262	233.62
277.494	249.62
277.726	243.62
277.957	238.62
278.189	229.62
278.421	228.62
278.652	230.62
278.884	253.62
279.115	219.62
279.347	225.62
279.579	221.62
279.81	223.62
280.042	229.62
280.273	227.62
280.505	232.62
280.736	237.62
280.968	216.62
281.199	234.62
281.431	242.62
281.662	243.62
281.894	235.62
282.125	240.62
282.356	232.62
282.588	235.62
282.819	257.62
283.051	227.62
283.282	226.62
283.513	257.62
283.745	257.62
283.976	250.62
284.207	246.62
284.439	244.62
284.67	245.62
284.901	234.62
285.132	225.62
285.364	243.62
285.595	247.62
285.826	248.62
286.057	239.62
286.288	234.62
286.52	246.62
286.751	260.62
286.982	278.62
287.213	247.62
287.444	274.62
287.675	276.62
287.906	265.62
288.138	253.62
288.369	264.62
288.6	266.62
288.831	252.62
289.062	282.62
289.293	252.62
289.524	259.62
289.755	263.62
289.986	265.62
290.217	268.62
290.448	267.62
290.679	262.62
290.91	267.62
291.141	251.62
291.371	271.62
291.602	248.62
291.833	269.62
292.064	265.62
292.295	262.62
292.526	247.62
292.757	262.62
292.987	270.62
293.218	250.62
293.449	285.62
293.68	271.62
293.91	280.62
294.141	279.62
294.372	268.62
294.603	271.62
294.833	269.62
295.064	268.62
295.295	280.62
295.525	284.62
295.756	262.62
295.987	259.62
296.217	287.62
296.448	274.62
296.679	274.62
296.909	260.62
297.14	271.62
297.37	277.62
297.601	281.62
297.831	271.62
298.062	284.62
298.292	280.62
298.523	279.62
298.753	269.62
298.984	276.62
299.214	280.62
299.445	298.62
299.675	286.62
299.905	277.62
300.136	275.62
300.366	281.62
300.597	278.62
300.827	286.62
301.057	272.62
301.288	295.62
301.518	292.62
301.748	287.62
301.979	303.62
302.209	310.62
302.439	290.62
302.669	285.62
302.9	290.62
303.13	295.62
303.36	300.62
303.59	300.62
303.82	292.62
304.051	302.62
304.281	291.62
304.511	309.62
304.741	301.62
304.971	287.62
305.201	315.62
305.431	314.62
305.661	294.62
305.891	272.62
306.121	279.62
306.352	289.62
306.582	292.62
306.812	293.62
307.042	298.62
307.272	286.62
307.502	282.62
307.731	303.62
307.961	292.62
308.191	286.62
308.421	305.62
308.651	303.62
308.881	305.62
309.111	305.62
309.341	293.62
309.571	291.62
309.8	311.62
310.03	303.62
310.26	305.62
310.49	316.62
310.72	293.62
310.949	306.62
311.179	316.62
311.409	316.62
311.639	318.62
311.868	325.62
312.098	303.62
312.328	309.62
312.557	306.62
312.787	316.62
313.017	307.62
313.246	312.62
313.476	320.62
313.706	322.62
313.935	326.62
314.165	319.62
314.394	319.62
314.624	315.62
314.853	322.62
315.083	329.62
315.312	313.62
315.542	310.62
315.771	311.62
316.001	310.62
316.23	305.62
316.46	301.62
316.689	320.62
316.919	314.62
317.148	324.62
317.377	335.62
317.607	314.62
317.836	310.62
318.065	330.62
318.295	302.62
318.524	321.62
318.753	307.62
318.983	310.62
319.212	324.62
319.441	318.62
319.67	325.62
319.9	311.62
320.129	312.62
320.358	303.62
320.587	328.62
320.816	326.62
321.046	327.62
321.275	327.62
321.504	331.62
321.733	335.62
321.962	327.62
322.191	326.62
322.42	331.62
322.649	329.62
322.878	331.62
323.108	338.62
323.337	357.62
323.566	339.62
323.795	371.62
324.024	361.62
324.253	400.62
324.482	510.62
324.71	644.62
324.939	870.62
325.168	779.62
325.397	482.62
325.626	389.62
325.855	365.62
326.084	352.62
326.313	361.62
326.542	348.62
326.77	371.62
326.999	403.62
327.228	488.62
327.457	659.62
327.686	718.62
327.914	535.62
328.143	415.62
328.372	387.62
328.6	356.62
328.829	371.62
329.058	371.62
329.287	369.62
329.515	387.62
329.744	342.62
329.972	363.62
330.201	345.62
330.43	351.62
330.658	359.62
330.887	355.62
331.115	375.62
331.344	377.62
331.572	378.62
331.801	360.62
332.03	375.62
332.258	363.62
332.486	385.62
332.715	371.62
332.943	380.62
333.172	385.62
333.4	399.62
333.629	446.62
333.857	410.62
334.085	425.62
334.314	423.62
334.542	432.62
334.771	424.62
334.999	405.62
335.227	399.62
335.455	406.62
335.684	393.62
335.912	399.62
336.14	377.62
336.369	377.62
336.597	398.62
336.825	390.62
337.053	396.62
337.281	389.62
337.51	383.62
337.738	374.62
337.966	375.62
338.194	366.62
338.422	359.62
338.65	363.62
338.878	374.62
339.106	351.62
339.334	362.62
339.562	366.62
339.79	357.62
340.018	373.62
340.246	363.62
340.474	358.62
340.702	353.62
340.93	348.62
341.158	372.62
341.386	366.62
341.614	354.62
341.842	333.62
342.07	355.62
342.298	333.62
342.526	341.62
342.754	360.62
342.981	362.62
343.209	366.62
343.437	364.62
343.665	370.62
343.893	398.62
344.12	415.62
344.348	393.62
344.576	373.62
344.804	375.62
345.031	361.62
345.259	353.62
345.487	365.62
345.714	345.62
345.942	341.62
346.17	358.62
346.397	330.62
346.625	353.62
346.853	337.62
347.08	336.62
347.308	332.62
347.535	334.62
347.763	339.62
347.99	334.62
348.218	347.62
348.445	352.62
348.673	327.62
348.9	338.62
349.128	334.62
349.355	315.62
349.583	324.62
349.81	338.62
350.037	323.62
350.265	332.62
350.492	311.62
350.72	324.62
350.947	323.62
351.174	318.62
351.402	327.62
351.629	355.62
351.856	333.62
352.083	339.62
352.311	329.62
352.538	334.62
352.765	326.62
352.992	329.62
353.22	335.62
353.447	318.62
353.674	321.62
353.901	342.62
354.128	324.62
354.355	309.62
354.583	343.62
354.81	326.62
355.037	318.62
355.264	329.62
355.491	311.62
355.718	333.62
355.945	340.62
356.172	315.62
356.399	325.62
356.626	321.62
356.853	326.62
357.08	335.62
357.307	325.62
357.534	307.62
357.761	329.62
357.988	326.62
358.215	340.62
358.441	345.62
358.668	340.62
358.895	337.62
359.122	327.62
359.349	318.62
359.576	331.62
359.802	344.62
360.029	331.62
360.256	344.62
360.483	342.62
360.709	322.62
360.936	316.62
361.163	335.62
361.39	333.62
361.616	335.62
361.843	339.62
362.07	327.62
362.296	343.62
362.523	326.62
362.749	338.62
362.976	353.62
363.203	331.62
363.429	327.62
363.656	314.62
363.882	322.62
364.109	319.62
364.335	330.62
364.562	352.62
364.788	315.62
365.015	314.62
365.241	325.62
365.468	319.62
365.694	331.62
365.92	310.62
366.147	336.62
366.373	318.62
366.599	331.62
366.826	323.62
367.052	325.62
367.278	327.62
367.505	314.62
367.731	328.62
367.957	317.62
368.184	323.62
368.41	327.62
368.636	313.62
368.862	324.62
369.089	333.62
369.315	332.62
369.541	341.62
369.767	322.62
369.993	311.62
370.219	321.62
370.445	324.62
370.672	309.62
370.898	329.62
371.124	314.62
371.35	330.62
371.576	342.62
371.802	345.62
372.028	332.62
372.254	328.62
372.48	328.62
372.706	347.62
372.932	341.62
373.158	341.62
373.384	341.62
373.61	317.62
373.835	342.62
374.061	322.62
374.287	353.62
374.513	329.62
374.739	357.62
374.965	339.62
375.191	346.62
375.416	350.62
375.642	353.62
375.868	349.62
376.094	332.62
376.319	346.62
376.545	317.62
376.771	342.62
376.997	344.62
377.222	348.62
377.448	352.62
377.674	344.62
377.899	333.62
378.125	333.62
378.35	315.62
378.576	341.62
378.802	326.62
379.027	335.62
379.253	362.62
379.478	345.62
379.704	332.62
379.929	323.62
380.155	322.62
380.38	346.62
380.606	322.62
380.831	321.62
381.057	332.62
381.282	344.62
381.507	333.62
381.733	343.62
381.958	335.62
382.184	325.62
382.409	330.62
382.634	323.62
382.86	335.62
383.085	367.62
383.31	366.62
383.535	363.62
383.761	362.62
383.986	357.62
384.211	366.62
384.436	383.62
384.662	379.62
384.887	384.62
385.112	396.62
385.337	387.62
385.562	359.62
385.787	383.62
386.013	389.62
386.238	402.62
386.463	379.62
386.688	383.62
386.913	382.62
387.138	394.62
387.363	357.62
387.588	407.62
387.813	384.62
388.038	358.62
388.263	396.62
388.488	395.62
388.713	363.62
388.938	385.62
389.163	367.62
389.387	361.62
389.612	358.62
389.837	381.62
390.062	344.62
390.287	370.62
390.512	355.62
390.736	378.62
390.961	359.62
391.186	379.62
391.411	391.62
391.636	381.62
391.86	383.62
392.085	417.62
392.31	417.62
392.534	395.62
392.759	386.62
392.984	376.62
393.208	387.62
393.433	402.62
393.658	396.62
393.882	373.62
394.107	390.62
394.331	389.62
394.556	383.62
394.78	363.62
395.005	407.62
395.229	401.62
395.454	391.62
395.678	401.62
395.903	414.62
396.127	414.62
396.352	425.62
396.576	392.62
396.801	389.62
397.025	397.62
397.249	397.62
397.474	410.62
397.698	385.62
397.922	403.62
398.147	418.62
398.371	418.62
398.595	442.62
398.82	443.62
399.044	450.62
399.268	491.62
399.492	527.62
399.717	570.62
399.941	600.62
400.165	567.62
400.389	531.62
400.613	485.62
400.837	466.62
401.062	452.62
401.286	443.62
401.51	435.62
401.734	433.62
401.958	428.62
402.182	443.62
402.406	458.62
402.63	467.62
402.854	450.62
403.078	459.62
403.302	471.62
403.526	462.62
403.75	475.62
403.974	489.62
404.198	461.62
404.422	475.62
404.645	495.62
404.869	476.62
405.093	454.62
405.317	467.62
405.541	494.62
405.765	478.62
405.988	458.62
406.212	460.62
406.436	465.62
406.66	473.62
406.883	482.62
407.107	496.62
407.331	524.62
407.555	580.62
407.778	536.62
408.002	545.62
408.226	512.62
408.449	507.62
408.673	525.62
408.896	484.62
409.12	520.62
409.344	514.62
409.567	477.62
409.791	485.62
410.014	462.62
410.238	446.62
410.461	472.62
410.685	457.62
410.908	453.62
411.132	474.62
411.355	487.62
411.578	476.62
411.802	442.62
412.025	440.62
412.249	449.62
412.472	465.62
412.695	446.62
412.919	445.62
413.142	425.62
413.365	423.62
413.589	424.62
413.812	429.62
414.035	412.62
414.258	434.62
414.482	419.62
414.705	427.62
414.928	418.62
415.151	428.62
415.374	420.62
415.597	416.62
415.821	457.62
416.044	421.62
416.267	419.62
416.49	411.62
416.713	413.62
416.936	407.62
417.159	407.62
417.382	414.62
417.605	446.62
417.828	430.62
418.051	431.62
418.274	434.62
418.497	437.62
418.72	429.62
418.943	426.62
419.166	458.62
419.389	478.62
419.611	482.62
419.834	467.62
420.057	439.62
420.28	430.62
420.503	443.62
420.726	427.62
420.948	438.62
421.171	452.62
421.394	453.62
421.617	446.62
421.839	422.62
422.062	446.62
422.285	444.62
422.507	455.62
422.73	498.62
422.953	474.62
423.175	438.62
423.398	442.62
423.621	459.62
423.843	481.62
424.066	466.62
424.288	463.62
424.511	461.62
424.733	476.62
424.956	498.62
425.178	500.62
425.401	491.62
425.623	523.62
425.846	462.62
426.068	444.62
426.291	422.62
426.513	425.62
426.735	427.62
426.958	463.62
427.18	475.62
427.402	538.62
427.625	581.62
427.847	503.62
428.069	452.62
428.292	434.62
428.514	398.62
428.736	418.62
428.958	395.62
429.181	398.62
429.403	397.62
429.625	391.62
429.847	410.62
430.069	459.62
430.292	416.62
430.514	403.62
430.736	395.62
430.958	404.62
431.18	377.62
431.402	403.62
431.624	399.62
431.846	399.62
432.068	404.62
432.29	410.62
432.512	406.62
432.734	408.62
432.956	394.62
433.178	387.62
433.4	362.62
433.622	400.62
433.844	408.62
434.066	398.62
434.287	382.62
434.509	413.62
434.731	414.62
434.953	425.62
435.175	415.62
435.397	421.62
435.618	442.62
435.84	449.62
436.062	473.62
436.284	507.62
436.505	454.62
436.727	414.62
436.949	395.62
437.17	403.62
437.392	392.62
437.614	409.62
437.835	391.62
438.057	446.62
438.278	486.62
438.5	481.62
438.721	509.62
438.943	517.62
439.165	457.62
439.386	410.62
439.608	417.62
439.829	420.62
440.05	417.62
440.272	435.62
440.493	418.62
440.715	414.62
440.936	410.62
441.158	390.62
441.379	408.62
441.6	421.62
441.822	429.62
442.043	454.62
442.264	501.62
442.486	494.62
442.707	465.62
442.928	443.62
443.149	455.62
443.371	426.62
443.592	475.62
443.813	498.62
444.034	519.62
444.255	476.62
444.476	476.62
444.698	473.62
444.919	492.62
445.14	585.62
445.361	518.62
445.582	475.62
445.803	475.62
446.024	486.62
446.245	477.62
446.466	467.62
446.687	422.62
446.908	406.62
447.129	410.62
447.35	382.62
447.571	404.62
447.792	383.62
448.013	391.62
448.234	392.62
448.455	409.62
448.675	467.62
448.896	488.62
449.117	454.62
449.338	430.62
449.559	493.62
449.779	521.62
450	438.62
450.221	381.62
450.442	389.62
450.662	385.62
450.883	379.62
451.104	394.62
451.324	380.62
451.545	353.62
451.766	378.62
451.986	379.62
452.207	377.62
452.428	354.62
452.648	337.62
452.869	359.62
453.089	345.62
453.31	349.62
453.53	359.62
453.751	353.62
453.971	347.62
454.192	365.62
454.412	333.62
454.633	340.62
454.853	339.62
455.073	343.62
455.294	373.62
455.514	387.62
455.734	371.62
455.955	345.62
456.175	339.62
456.395	350.62
456.616	346.62
456.836	362.62
457.056	344.62
457.276	332.62
457.497	350.62
457.717	353.62
457.937	348.62
458.157	361.62
458.377	366.62
458.598	378.62
458.818	366.62
459.038	393.62
459.258	413.62
459.478	419.62
459.698	416.62
459.918	395.62
460.138	402.62
460.358	428.62
460.578	435.62
460.798	420.62
461.018	444.62
461.238	444.62
461.458	435.62
461.678	412.62
461.898	420.62
462.118	449.62
462.338	468.62
462.558	452.62
462.777	466.62
462.997	498.62
463.217	535.62
463.437	525.62
463.657	477.62
463.876	479.62
464.096	493.62
464.316	457.62
464.536	461.62
464.755	485.62
464.975	467.62
465.195	459.62
465.414	455.62
465.634	404.62
465.854	404.62
466.073	399.62
466.293	370.62
466.512	388.62
466.732	377.62
466.951	376.62
467.171	382.62
467.391	384.62
467.61	361.62
467.829	377.62
468.049	369.62
468.268	364.62
468.488	356.62
468.707	356.62
468.927	347.62
469.146	358.62
469.365	361.62
469.585	370.62
469.804	364.62
470.023	379.62
470.243	381.62
470.462	378.62
470.681	396.62
470.901	399.62
471.12	389.62
471.339	346.62
471.558	379.62
471.777	373.62
471.997	364.62
472.216	371.62
472.435	354.62
472.654	353.62
472.873	358.62
473.092	383.62
473.311	383.62
473.53	374.62
473.749	364.62
473.968	378.62
474.187	407.62
474.406	444.62
474.625	381.62
474.844	363.62
475.063	359.62
475.282	358.62
475.501	380.62
475.72	363.62
475.939	382.62
476.158	375.62
476.377	390.62
476.596	374.62
476.814	401.62
477.033	388.62
477.252	404.62
477.471	409.62
477.69	394.62
477.908	412.62
478.127	425.62
478.346	400.62
478.564	413.62
478.783	438.62
479.002	439.62
479.22	427.62
479.439	424.62
479.658	437.62
479.876	455.62
480.095	458.62
480.313	485.62
480.532	464.62
480.751	476.62
480.969	457.62
481.188	437.62
481.406	438.62
481.624	431.62
481.843	424.62
482.061	424.62
482.28	419.62
482.498	426.62
482.717	396.62
482.935	423.62
483.153	421.62
483.372	431.62
483.59	427.62
483.808	404.62
484.027	410.62
484.245	419.62
484.463	429.62
484.681	429.62
484.9	449.62
485.118	440.62
485.336	433.62
485.554	439.62
485.772	438.62
485.99	417.62
486.209	430.62
486.427	447.62
486.645	441.62
486.863	460.62
487.081	442.62
487.299	448.62
487.517	459.62
487.735	458.62
487.953	438.62
488.171	451.62
488.389	450.62
488.607	426.62
488.825	444.62
489.043	425.62
489.261	435.62
489.479	422.62
489.696	445.62
489.914	439.62
490.132	441.62
490.35	455.62
490.568	460.62
490.786	463.62
491.003	449.62
491.221	461.62
491.439	472.62
491.657	446.62
491.874	468.62
492.092	470.62
492.31	478.62
492.527	474.62
492.745	465.62
492.963	462.62
493.18	461.62
493.398	483.62
493.615	475.62
493.833	494.62
494.05	487.62
494.268	480.62
494.485	504.62
494.703	500.62
494.92	487.62
495.138	478.62
495.355	471.62
495.573	482.62
495.79	489.62
496.008	490.62
496.225	504.62
496.442	484.62
496.66	505.62
496.877	492.62
497.094	496.62
497.312	511.62
497.529	537.62
497.746	543.62
497.963	545.62
498.181	547.62
498.398	562.62
498.615	593.62
498.832	621.62
499.049	662.62
499.267	671.62
499.484	738.62
499.701	780.62
499.918	854.62
500.135	907.62
500.352	984.62
500.569	1046.62
500.786	998.62
501.003	964.62
501.22	895.62
501.437	829.62
501.654	782.62
501.871	747.62
502.088	681.62
502.305	645.62
