Data from 1984.PennyLincolnUp.Lamp.En5.5.200Scan.071819.P1_HRD10591_16-58-54-969.txt Node
Date: Thu Jul 18 16:58:54 EDT 2019
User: cochatt
Spectrometer: HR+D1059
Trigger mode: 1
Integration Time (sec): 1.000000E-1
Scans to average: 1
Electric dark correction enabled: true
Nonlinearity correction enabled: false
Boxcar width: 0
XAxis mode: Wavelengths
Number of Pixels in Spectrum: 2048
>>>>>Begin Spectral Data<<<<<
223.165	-19.81
223.4	-19.81
223.635	-19.81
223.869	-9.81
224.104	-12.81
224.338	-26.81
224.573	-10.81
224.808	-13.81
225.042	-9.81
225.277	-4.81
225.511	3.19
225.746	-2.81
225.98	16.19
226.215	-3.81
226.449	6.19
226.683	29.19
226.918	36.19
227.152	24.19
227.387	38.19
227.621	37.19
227.856	64.19
228.09	56.19
228.324	52.19
228.559	56.19
228.793	74.19
229.027	84.19
229.262	89.19
229.496	96.19
229.73	107.19
229.964	127.19
230.199	97.19
230.433	86.19
230.667	100.19
230.901	104.19
231.136	113.19
231.37	94.19
231.604	87.19
231.838	110.19
232.072	104.19
232.306	120.19
232.541	106.19
232.775	109.19
233.009	89.19
233.243	111.19
233.477	106.19
233.711	114.19
233.945	115.19
234.179	106.19
234.413	108.19
234.647	106.19
234.881	107.19
235.115	120.19
235.349	91.19
235.583	120.19
235.817	122.19
236.051	118.19
236.285	117.19
236.519	121.19
236.753	134.19
236.987	119.19
237.221	148.19
237.455	171.19
237.689	136.19
237.922	121.19
238.156	102.19
238.39	113.19
238.624	106.19
238.858	115.19
239.091	110.19
239.325	111.19
239.559	114.19
239.793	120.19
240.027	122.19
240.26	122.19
240.494	136.19
240.728	134.19
240.961	132.19
241.195	125.19
241.429	128.19
241.662	130.19
241.896	119.19
242.13	122.19
242.363	126.19
242.597	136.19
242.83	128.19
243.064	121.19
243.298	136.19
243.531	124.19
243.765	125.19
243.998	116.19
244.232	154.19
244.465	148.19
244.699	128.19
244.932	121.19
245.166	141.19
245.399	135.19
245.633	128.19
245.866	129.19
246.099	146.19
246.333	136.19
246.566	134.19
246.8	132.19
247.033	128.19
247.266	147.19
247.5	160.19
247.733	158.19
247.966	165.19
248.2	153.19
248.433	160.19
248.666	150.19
248.899	153.19
249.133	155.19
249.366	188.19
249.599	170.19
249.832	155.19
250.066	167.19
250.299	173.19
250.532	172.19
250.765	202.19
250.998	196.19
251.231	186.19
251.465	172.19
251.698	181.19
251.931	177.19
252.164	172.19
252.397	165.19
252.63	161.19
252.863	196.19
253.096	174.19
253.329	183.19
253.562	194.19
253.795	192.19
254.028	200.19
254.261	193.19
254.494	186.19
254.727	203.19
254.96	219.19
255.193	227.19
255.426	221.19
255.659	210.19
255.892	210.19
256.124	243.19
256.357	262.19
256.59	217.19
256.823	212.19
257.056	204.19
257.289	190.19
257.521	183.19
257.754	192.19
257.987	176.19
258.22	192.19
258.452	182.19
258.685	178.19
258.918	178.19
259.151	205.19
259.383	196.19
259.616	189.19
259.849	205.19
260.081	199.19
260.314	195.19
260.547	221.19
260.779	198.19
261.012	198.19
261.244	215.19
261.477	205.19
261.71	194.19
261.942	192.19
262.175	215.19
262.407	202.19
262.64	204.19
262.872	201.19
263.105	206.19
263.337	204.19
263.57	200.19
263.802	199.19
264.035	186.19
264.267	201.19
264.499	205.19
264.732	197.19
264.964	205.19
265.197	196.19
265.429	206.19
265.661	188.19
265.894	206.19
266.126	197.19
266.358	196.19
266.591	203.19
266.823	211.19
267.055	212.19
267.287	208.19
267.52	214.19
267.752	204.19
267.984	202.19
268.216	214.19
268.448	194.19
268.681	226.19
268.913	233.19
269.145	236.19
269.377	229.19
269.609	231.19
269.841	239.19
270.073	249.19
270.306	250.19
270.538	274.19
270.77	266.19
271.002	272.19
271.234	243.19
271.466	258.19
271.698	254.19
271.93	259.19
272.162	280.19
272.394	262.19
272.626	265.19
272.858	258.19
273.09	253.19
273.322	238.19
273.553	242.19
273.785	245.19
274.017	237.19
274.249	237.19
274.481	207.19
274.713	252.19
274.945	247.19
275.176	226.19
275.408	221.19
275.64	250.19
275.872	237.19
276.104	238.19
276.335	243.19
276.567	240.19
276.799	263.19
277.031	272.19
277.262	284.19
277.494	261.19
277.726	272.19
277.957	254.19
278.189	275.19
278.421	251.19
278.652	256.19
278.884	257.19
279.115	244.19
279.347	256.19
279.579	264.19
279.81	266.19
280.042	252.19
280.273	256.19
280.505	241.19
280.736	262.19
280.968	238.19
281.199	251.19
281.431	259.19
281.662	264.19
281.894	270.19
282.125	256.19
282.356	270.19
282.588	277.19
282.819	292.19
283.051	274.19
283.282	273.19
283.513	256.19
283.745	269.19
283.976	268.19
284.207	267.19
284.439	278.19
284.67	250.19
284.901	268.19
285.132	272.19
285.364	262.19
285.595	258.19
285.826	252.19
286.057	290.19
286.288	272.19
286.52	282.19
286.751	271.19
286.982	266.19
287.213	278.19
287.444	296.19
287.675	287.19
287.906	279.19
288.138	283.19
288.369	294.19
288.6	277.19
288.831	281.19
289.062	276.19
289.293	272.19
289.524	278.19
289.755	271.19
289.986	284.19
290.217	278.19
290.448	263.19
290.679	270.19
290.91	278.19
291.141	284.19
291.371	305.19
291.602	300.19
291.833	288.19
292.064	300.19
292.295	284.19
292.526	281.19
292.757	281.19
292.987	283.19
293.218	267.19
293.449	266.19
293.68	279.19
293.91	293.19
294.141	295.19
294.372	264.19
294.603	285.19
294.833	274.19
295.064	274.19
295.295	295.19
295.525	293.19
295.756	290.19
295.987	295.19
296.217	312.19
296.448	305.19
296.679	295.19
296.909	280.19
297.14	270.19
297.37	283.19
297.601	316.19
297.831	298.19
298.062	297.19
298.292	291.19
298.523	300.19
298.753	317.19
298.984	323.19
299.214	315.19
299.445	309.19
299.675	279.19
299.905	294.19
300.136	283.19
300.366	294.19
300.597	309.19
300.827	333.19
301.057	325.19
301.288	307.19
301.518	323.19
301.748	311.19
301.979	314.19
302.209	317.19
302.439	314.19
302.669	316.19
302.9	320.19
303.13	313.19
303.36	329.19
303.59	334.19
303.82	325.19
304.051	331.19
304.281	313.19
304.511	310.19
304.741	316.19
304.971	320.19
305.201	312.19
305.431	310.19
305.661	298.19
305.891	312.19
306.121	310.19
306.352	293.19
306.582	316.19
306.812	316.19
307.042	323.19
307.272	313.19
307.502	321.19
307.731	328.19
307.961	320.19
308.191	310.19
308.421	305.19
308.651	315.19
308.881	308.19
309.111	319.19
309.341	348.19
309.571	336.19
309.8	329.19
310.03	338.19
310.26	347.19
310.49	359.19
310.72	332.19
310.949	354.19
311.179	354.19
311.409	337.19
311.639	332.19
311.868	336.19
312.098	344.19
312.328	324.19
312.557	362.19
312.787	340.19
313.017	361.19
313.246	354.19
313.476	340.19
313.706	351.19
313.935	335.19
314.165	345.19
314.394	359.19
314.624	368.19
314.853	361.19
315.083	333.19
315.312	334.19
315.542	331.19
315.771	331.19
316.001	344.19
316.23	352.19
316.46	333.19
316.689	334.19
316.919	355.19
317.148	359.19
317.377	343.19
317.607	371.19
317.836	349.19
318.065	352.19
318.295	336.19
318.524	337.19
318.753	342.19
318.983	337.19
319.212	343.19
319.441	362.19
319.67	362.19
319.9	350.19
320.129	346.19
320.358	346.19
320.587	344.19
320.816	346.19
321.046	356.19
321.275	352.19
321.504	377.19
321.733	359.19
321.962	373.19
322.191	376.19
322.42	345.19
322.649	364.19
322.878	388.19
323.108	398.19
323.337	408.19
323.566	425.19
323.795	430.19
324.024	457.19
324.253	515.19
324.482	703.19
324.71	1034.19
324.939	1386.19
325.168	1177.19
325.397	674.19
325.626	500.19
325.855	454.19
326.084	444.19
326.313	420.19
326.542	435.19
326.77	455.19
326.999	527.19
327.228	648.19
327.457	938.19
327.686	1109.19
327.914	766.19
328.143	589.19
328.372	539.19
328.6	506.19
328.829	467.19
329.058	478.19
329.287	489.19
329.515	476.19
329.744	452.19
329.972	476.19
330.201	522.19
330.43	554.19
330.658	545.19
330.887	508.19
331.115	478.19
331.344	445.19
331.572	441.19
331.801	434.19
332.03	458.19
332.258	419.19
332.486	412.19
332.715	458.19
332.943	473.19
333.172	482.19
333.4	461.19
333.629	485.19
333.857	503.19
334.085	547.19
334.314	578.19
334.542	612.19
334.771	618.19
334.999	541.19
335.227	474.19
335.455	477.19
335.684	465.19
335.912	412.19
336.14	422.19
336.369	417.19
336.597	435.19
336.825	446.19
337.053	412.19
337.281	406.19
337.51	420.19
337.738	413.19
337.966	415.19
338.194	427.19
338.422	401.19
338.65	405.19
338.878	387.19
339.106	388.19
339.334	395.19
339.562	389.19
339.79	387.19
340.018	391.19
340.246	393.19
340.474	379.19
340.702	352.19
340.93	380.19
341.158	398.19
341.386	387.19
341.614	392.19
341.842	398.19
342.07	383.19
342.298	369.19
342.526	362.19
342.754	373.19
342.981	384.19
343.209	381.19
343.437	385.19
343.665	392.19
343.893	428.19
344.12	443.19
344.348	412.19
344.576	396.19
344.804	414.19
345.031	406.19
345.259	388.19
345.487	372.19
345.714	383.19
345.942	368.19
346.17	400.19
346.397	408.19
346.625	356.19
346.853	364.19
347.08	363.19
347.308	371.19
347.535	386.19
347.763	388.19
347.99	380.19
348.218	376.19
348.445	369.19
348.673	373.19
348.9	375.19
349.128	362.19
349.355	381.19
349.583	349.19
349.81	343.19
350.037	350.19
350.265	346.19
350.492	360.19
350.72	376.19
350.947	360.19
351.174	376.19
351.402	365.19
351.629	366.19
351.856	352.19
352.083	369.19
352.311	372.19
352.538	349.19
352.765	373.19
352.992	371.19
353.22	352.19
353.447	357.19
353.674	360.19
353.901	351.19
354.128	338.19
354.355	347.19
354.583	335.19
354.81	334.19
355.037	332.19
355.264	336.19
355.491	355.19
355.718	357.19
355.945	326.19
356.172	337.19
356.399	340.19
356.626	354.19
356.853	332.19
357.08	360.19
357.307	364.19
357.534	352.19
357.761	340.19
357.988	353.19
358.215	336.19
358.441	343.19
358.668	357.19
358.895	352.19
359.122	348.19
359.349	349.19
359.576	363.19
359.802	375.19
360.029	386.19
360.256	372.19
360.483	364.19
360.709	349.19
360.936	361.19
361.163	344.19
361.39	356.19
361.616	347.19
361.843	348.19
362.07	354.19
362.296	365.19
362.523	365.19
362.749	365.19
362.976	377.19
363.203	340.19
363.429	352.19
363.656	336.19
363.882	366.19
364.109	337.19
364.335	359.19
364.562	341.19
364.788	343.19
365.015	343.19
365.241	343.19
365.468	353.19
365.694	354.19
365.92	349.19
366.147	344.19
366.373	353.19
366.599	356.19
366.826	342.19
367.052	353.19
367.278	363.19
367.505	346.19
367.731	338.19
367.957	347.19
368.184	352.19
368.41	344.19
368.636	347.19
368.862	359.19
369.089	333.19
369.315	348.19
369.541	365.19
369.767	332.19
369.993	354.19
370.219	348.19
370.445	336.19
370.672	368.19
370.898	335.19
371.124	337.19
371.35	354.19
371.576	336.19
371.802	356.19
372.028	374.19
372.254	365.19
372.48	370.19
372.706	365.19
372.932	344.19
373.158	364.19
373.384	350.19
373.61	349.19
373.835	347.19
374.061	363.19
374.287	359.19
374.513	355.19
374.739	356.19
374.965	369.19
375.191	381.19
375.416	388.19
375.642	369.19
375.868	371.19
376.094	366.19
376.319	356.19
376.545	374.19
376.771	356.19
376.997	365.19
377.222	348.19
377.448	357.19
377.674	355.19
377.899	348.19
378.125	362.19
378.35	350.19
378.576	356.19
378.802	342.19
379.027	338.19
379.253	352.19
379.478	353.19
379.704	354.19
379.929	361.19
380.155	358.19
380.38	345.19
380.606	365.19
380.831	343.19
381.057	379.19
381.282	342.19
381.507	342.19
381.733	373.19
381.958	363.19
382.184	363.19
382.409	390.19
382.634	374.19
382.86	345.19
383.085	366.19
383.31	378.19
383.535	364.19
383.761	368.19
383.986	367.19
384.211	373.19
384.436	385.19
384.662	377.19
384.887	382.19
385.112	392.19
385.337	409.19
385.562	409.19
385.787	405.19
386.013	388.19
386.238	376.19
386.463	388.19
386.688	408.19
386.913	404.19
387.138	410.19
387.363	394.19
387.588	397.19
387.813	391.19
388.038	397.19
388.263	389.19
388.488	402.19
388.713	398.19
388.938	413.19
389.163	395.19
389.387	388.19
389.612	393.19
389.837	396.19
390.062	400.19
390.287	396.19
390.512	372.19
390.736	382.19
390.961	379.19
391.186	384.19
391.411	416.19
391.636	394.19
391.86	434.19
392.085	436.19
392.31	452.19
392.534	427.19
392.759	435.19
392.984	403.19
393.208	404.19
393.433	399.19
393.658	398.19
393.882	390.19
394.107	408.19
394.331	418.19
394.556	406.19
394.78	422.19
395.005	427.19
395.229	398.19
395.454	409.19
395.678	445.19
395.903	435.19
396.127	444.19
396.352	435.19
396.576	427.19
396.801	420.19
397.025	417.19
397.249	417.19
397.474	433.19
397.698	427.19
397.922	454.19
398.147	437.19
398.371	432.19
398.595	454.19
398.82	472.19
399.044	504.19
399.268	506.19
399.492	574.19
399.717	610.19
399.941	632.19
400.165	596.19
400.389	586.19
400.613	542.19
400.837	515.19
401.062	509.19
401.286	488.19
401.51	484.19
401.734	470.19
401.958	472.19
402.182	495.19
402.406	475.19
402.63	503.19
402.854	481.19
403.078	507.19
403.302	496.19
403.526	525.19
403.75	503.19
403.974	520.19
404.198	526.19
404.422	532.19
404.645	524.19
404.869	518.19
405.093	538.19
405.317	560.19
405.541	580.19
405.765	528.19
405.988	535.19
406.212	518.19
406.436	536.19
406.66	517.19
406.883	537.19
407.107	555.19
407.331	603.19
407.555	608.19
407.778	646.19
408.002	599.19
408.226	563.19
408.449	547.19
408.673	530.19
408.896	540.19
409.12	564.19
409.344	544.19
409.567	502.19
409.791	492.19
410.014	501.19
410.238	488.19
410.461	503.19
410.685	493.19
410.908	493.19
411.132	518.19
411.355	514.19
411.578	523.19
411.802	497.19
412.025	496.19
412.249	502.19
412.472	522.19
412.695	594.19
412.919	557.19
413.142	525.19
413.365	496.19
413.589	496.19
413.812	466.19
414.035	469.19
414.258	457.19
414.482	469.19
414.705	460.19
414.928	476.19
415.151	467.19
415.374	473.19
415.597	453.19
415.821	461.19
416.044	448.19
416.267	444.19
416.49	459.19
416.713	468.19
416.936	458.19
417.159	444.19
417.382	450.19
417.605	458.19
417.828	495.19
418.051	484.19
418.274	449.19
418.497	479.19
418.72	467.19
418.943	466.19
419.166	509.19
419.389	521.19
419.611	496.19
419.834	494.19
420.057	527.19
420.28	516.19
420.503	505.19
420.726	476.19
420.948	488.19
421.171	505.19
421.394	511.19
421.617	455.19
421.839	474.19
422.062	464.19
422.285	479.19
422.507	524.19
422.73	579.19
422.953	527.19
423.175	481.19
423.398	483.19
423.621	493.19
423.843	520.19
424.066	497.19
424.288	508.19
424.511	507.19
424.733	567.19
424.956	573.19
425.178	533.19
425.401	530.19
425.623	564.19
425.846	504.19
426.068	455.19
426.291	475.19
426.513	465.19
426.735	487.19
426.958	496.19
427.18	545.19
427.402	610.19
427.625	650.19
427.847	600.19
428.069	553.19
428.292	513.19
428.514	468.19
428.736	470.19
428.958	436.19
429.181	424.19
429.403	442.19
429.625	440.19
429.847	454.19
430.069	480.19
430.292	469.19
430.514	440.19
430.736	411.19
430.958	437.19
431.18	420.19
431.402	424.19
431.624	421.19
431.846	425.19
432.068	425.19
432.29	433.19
432.512	418.19
432.734	433.19
432.956	416.19
433.178	444.19
433.4	433.19
433.622	438.19
433.844	428.19
434.066	427.19
434.287	441.19
434.509	444.19
434.731	454.19
434.953	465.19
435.175	436.19
435.397	481.19
435.618	460.19
435.84	485.19
436.062	540.19
436.284	573.19
436.505	501.19
436.727	473.19
436.949	436.19
437.17	450.19
437.392	443.19
437.614	441.19
437.835	454.19
438.057	480.19
438.278	555.19
438.5	554.19
438.721	610.19
438.943	587.19
439.165	500.19
439.386	460.19
439.608	464.19
439.829	472.19
440.05	491.19
440.272	491.19
440.493	488.19
440.715	460.19
440.936	440.19
441.158	435.19
441.379	450.19
441.6	465.19
441.822	477.19
442.043	496.19
442.264	543.19
442.486	566.19
442.707	503.19
442.928	484.19
443.149	508.19
443.371	513.19
443.592	520.19
443.813	574.19
444.034	603.19
444.255	540.19
444.476	522.19
444.698	510.19
444.919	502.19
445.14	613.19
445.361	550.19
445.582	533.19
445.803	554.19
446.024	566.19
446.245	594.19
446.466	546.19
446.687	486.19
446.908	465.19
447.129	446.19
447.35	439.19
447.571	426.19
447.792	443.19
448.013	432.19
448.234	453.19
448.455	459.19
448.675	516.19
448.896	589.19
449.117	524.19
449.338	486.19
449.559	556.19
449.779	597.19
450	508.19
450.221	459.19
450.442	412.19
450.662	406.19
450.883	412.19
451.104	422.19
451.324	401.19
451.545	420.19
451.766	409.19
451.986	400.19
452.207	389.19
452.428	368.19
452.648	371.19
452.869	378.19
453.089	410.19
453.31	396.19
453.53	396.19
453.751	396.19
453.971	375.19
454.192	391.19
454.412	379.19
454.633	370.19
454.853	394.19
455.073	387.19
455.294	408.19
455.514	440.19
455.734	433.19
455.955	389.19
456.175	370.19
456.395	372.19
456.616	381.19
456.836	370.19
457.056	382.19
457.276	381.19
457.497	379.19
457.717	370.19
457.937	372.19
458.157	388.19
458.377	406.19
458.598	403.19
458.818	430.19
459.038	462.19
459.258	469.19
459.478	442.19
459.698	435.19
459.918	432.19
460.138	420.19
460.358	438.19
460.578	446.19
460.798	490.19
461.018	445.19
461.238	455.19
461.458	472.19
461.678	442.19
461.898	465.19
462.118	454.19
462.338	472.19
462.558	493.19
462.777	505.19
462.997	526.19
463.217	569.19
463.437	559.19
463.657	522.19
463.876	518.19
464.096	532.19
464.316	496.19
464.536	501.19
464.755	513.19
464.975	509.19
465.195	490.19
465.414	520.19
465.634	467.19
465.854	455.19
466.073	442.19
466.293	395.19
466.512	417.19
466.732	403.19
466.951	400.19
467.171	402.19
467.391	409.19
467.61	418.19
467.829	424.19
468.049	407.19
468.268	422.19
468.488	436.19
468.707	406.19
468.927	388.19
469.146	382.19
469.365	412.19
469.585	388.19
469.804	412.19
470.023	406.19
470.243	425.19
470.462	420.19
470.681	431.19
470.901	420.19
471.12	420.19
471.339	422.19
471.558	425.19
471.777	391.19
471.997	435.19
472.216	428.19
472.435	461.19
472.654	446.19
472.873	442.19
473.092	389.19
473.311	394.19
473.53	415.19
473.749	386.19
473.968	425.19
474.187	477.19
474.406	484.19
474.625	433.19
474.844	406.19
475.063	412.19
475.282	394.19
475.501	404.19
475.72	408.19
475.939	413.19
476.158	428.19
476.377	396.19
476.596	402.19
476.814	408.19
477.033	420.19
477.252	427.19
477.471	430.19
477.69	434.19
477.908	436.19
478.127	469.19
478.346	454.19
478.564	481.19
478.783	462.19
479.002	484.19
479.22	471.19
479.439	467.19
479.658	473.19
479.876	474.19
480.095	484.19
480.313	494.19
480.532	529.19
480.751	528.19
480.969	541.19
481.188	605.19
481.406	646.19
481.624	552.19
481.843	508.19
482.061	476.19
482.28	479.19
482.498	478.19
482.717	461.19
482.935	452.19
483.153	486.19
483.372	457.19
483.59	470.19
483.808	446.19
484.027	430.19
484.245	470.19
484.463	460.19
484.681	486.19
484.9	474.19
485.118	487.19
485.336	482.19
485.554	463.19
485.772	463.19
485.99	465.19
486.209	472.19
486.427	481.19
486.645	467.19
486.863	482.19
487.081	470.19
487.299	490.19
487.517	491.19
487.735	473.19
487.953	479.19
488.171	492.19
488.389	493.19
488.607	509.19
488.825	505.19
489.043	477.19
489.261	493.19
489.479	499.19
489.696	494.19
489.914	501.19
490.132	517.19
490.35	509.19
490.568	517.19
490.786	514.19
491.003	531.19
491.221	537.19
491.439	542.19
491.657	535.19
491.874	563.19
492.092	546.19
492.31	554.19
492.527	556.19
492.745	585.19
492.963	564.19
493.18	552.19
493.398	583.19
493.615	573.19
493.833	587.19
494.05	581.19
494.268	580.19
494.485	579.19
494.703	586.19
494.92	561.19
495.138	563.19
495.355	575.19
495.573	571.19
495.79	550.19
496.008	576.19
496.225	562.19
496.442	562.19
496.66	584.19
496.877	568.19
497.094	579.19
497.312	560.19
497.529	596.19
497.746	620.19
497.963	608.19
498.181	638.19
498.398	669.19
498.615	673.19
498.832	694.19
499.049	709.19
499.267	743.19
499.484	798.19
499.701	837.19
499.918	904.19
500.135	1002.19
500.352	1028.19
500.569	1061.19
500.786	1108.19
501.003	1076.19
501.22	1010.19
501.437	902.19
501.654	857.19
501.871	827.19
502.088	757.19
