Data from 1984.PennyLincolnUp.Lamp.En5.5.200Scan.071819.P1_HRD10591_16-57-53-968.txt Node
Date: Thu Jul 18 16:57:53 EDT 2019
User: cochatt
Spectrometer: HR+D1059
Trigger mode: 1
Integration Time (sec): 1.000000E-1
Scans to average: 1
Electric dark correction enabled: true
Nonlinearity correction enabled: false
Boxcar width: 0
XAxis mode: Wavelengths
Number of Pixels in Spectrum: 2048
>>>>>Begin Spectral Data<<<<<
223.165	-9.44
223.4	-9.44
223.635	-9.44
223.869	-10.44
224.104	-15.44
224.338	-10.44
224.573	-12.44
224.808	-10.44
225.042	-15.44
225.277	0.56
225.511	-6.44
225.746	-5.44
225.98	9.56
226.215	15.56
226.449	4.56
226.683	6.56
226.918	17.56
227.152	41.56
227.387	24.56
227.621	40.56
227.856	35.56
228.09	46.56
228.324	38.56
228.559	67.56
228.793	58.56
229.027	111.56
229.262	93.56
229.496	97.56
229.73	105.56
229.964	125.56
230.199	122.56
230.433	104.56
230.667	105.56
230.901	102.56
231.136	104.56
231.37	112.56
231.604	121.56
231.838	109.56
232.072	121.56
232.306	116.56
232.541	124.56
232.775	115.56
233.009	112.56
233.243	117.56
233.477	108.56
233.711	115.56
233.945	107.56
234.179	120.56
234.413	124.56
234.647	97.56
234.881	119.56
235.115	121.56
235.349	110.56
235.583	129.56
235.817	124.56
236.051	111.56
236.285	112.56
236.519	136.56
236.753	119.56
236.987	123.56
237.221	127.56
237.455	157.56
237.689	144.56
237.922	128.56
238.156	124.56
238.39	121.56
238.624	110.56
238.858	120.56
239.091	126.56
239.325	135.56
239.559	126.56
239.793	134.56
240.027	134.56
240.26	149.56
240.494	133.56
240.728	128.56
240.961	130.56
241.195	134.56
241.429	124.56
241.662	140.56
241.896	133.56
242.13	139.56
242.363	119.56
242.597	137.56
242.83	127.56
243.064	133.56
243.298	136.56
243.531	118.56
243.765	138.56
243.998	136.56
244.232	132.56
244.465	138.56
244.699	155.56
244.932	134.56
245.166	137.56
245.399	148.56
245.633	133.56
245.866	138.56
246.099	137.56
246.333	136.56
246.566	136.56
246.8	147.56
247.033	145.56
247.266	145.56
247.5	141.56
247.733	152.56
247.966	161.56
248.2	162.56
248.433	161.56
248.666	141.56
248.899	164.56
249.133	159.56
249.366	184.56
249.599	164.56
249.832	148.56
250.066	156.56
250.299	170.56
250.532	162.56
250.765	191.56
250.998	188.56
251.231	188.56
251.465	176.56
251.698	175.56
251.931	174.56
252.164	180.56
252.397	182.56
252.63	184.56
252.863	178.56
253.096	190.56
253.329	192.56
253.562	212.56
253.795	167.56
254.028	172.56
254.261	196.56
254.494	197.56
254.727	201.56
254.96	218.56
255.193	223.56
255.426	211.56
255.659	201.56
255.892	200.56
256.124	201.56
256.357	201.56
256.59	193.56
256.823	209.56
257.056	199.56
257.289	196.56
257.521	200.56
257.754	180.56
257.987	185.56
258.22	185.56
258.452	189.56
258.685	176.56
258.918	173.56
259.151	208.56
259.383	162.56
259.616	191.56
259.849	196.56
260.081	201.56
260.314	208.56
260.547	224.56
260.779	227.56
261.012	208.56
261.244	204.56
261.477	215.56
261.71	207.56
261.942	202.56
262.175	215.56
262.407	189.56
262.64	195.56
262.872	191.56
263.105	200.56
263.337	192.56
263.57	204.56
263.802	199.56
264.035	188.56
264.267	196.56
264.499	203.56
264.732	185.56
264.964	180.56
265.197	208.56
265.429	207.56
265.661	188.56
265.894	196.56
266.126	187.56
266.358	212.56
266.591	198.56
266.823	206.56
267.055	203.56
267.287	213.56
267.52	211.56
267.752	244.56
267.984	216.56
268.216	199.56
268.448	210.56
268.681	219.56
268.913	220.56
269.145	234.56
269.377	234.56
269.609	249.56
269.841	225.56
270.073	227.56
270.306	257.56
270.538	262.56
270.77	259.56
271.002	245.56
271.234	251.56
271.466	245.56
271.698	264.56
271.93	273.56
272.162	272.56
272.394	249.56
272.626	268.56
272.858	257.56
273.09	235.56
273.322	244.56
273.553	230.56
273.785	230.56
274.017	226.56
274.249	247.56
274.481	230.56
274.713	230.56
274.945	245.56
275.176	246.56
275.408	246.56
275.64	237.56
275.872	257.56
276.104	247.56
276.335	231.56
276.567	258.56
276.799	256.56
277.031	264.56
277.262	283.56
277.494	280.56
277.726	267.56
277.957	252.56
278.189	264.56
278.421	247.56
278.652	268.56
278.884	262.56
279.115	255.56
279.347	266.56
279.579	244.56
279.81	259.56
280.042	253.56
280.273	256.56
280.505	264.56
280.736	249.56
280.968	247.56
281.199	267.56
281.431	254.56
281.662	268.56
281.894	262.56
282.125	253.56
282.356	263.56
282.588	276.56
282.819	267.56
283.051	283.56
283.282	260.56
283.513	282.56
283.745	259.56
283.976	267.56
284.207	281.56
284.439	259.56
284.67	254.56
284.901	262.56
285.132	272.56
285.364	278.56
285.595	274.56
285.826	252.56
286.057	278.56
286.288	289.56
286.52	280.56
286.751	280.56
286.982	273.56
287.213	279.56
287.444	279.56
287.675	282.56
287.906	293.56
288.138	294.56
288.369	295.56
288.6	300.56
288.831	286.56
289.062	291.56
289.293	282.56
289.524	270.56
289.755	276.56
289.986	282.56
290.217	286.56
290.448	288.56
290.679	293.56
290.91	306.56
291.141	300.56
291.371	275.56
291.602	276.56
291.833	279.56
292.064	280.56
292.295	270.56
292.526	297.56
292.757	277.56
292.987	296.56
293.218	298.56
293.449	285.56
293.68	294.56
293.91	266.56
294.141	280.56
294.372	270.56
294.603	285.56
294.833	281.56
295.064	284.56
295.295	280.56
295.525	295.56
295.756	283.56
295.987	286.56
296.217	310.56
296.448	315.56
296.679	296.56
296.909	287.56
297.14	310.56
297.37	296.56
297.601	287.56
297.831	282.56
298.062	307.56
298.292	292.56
298.523	297.56
298.753	295.56
298.984	312.56
299.214	316.56
299.445	302.56
299.675	308.56
299.905	294.56
300.136	321.56
300.366	306.56
300.597	285.56
300.827	310.56
301.057	329.56
301.288	330.56
301.518	324.56
301.748	318.56
301.979	337.56
302.209	322.56
302.439	330.56
302.669	336.56
302.9	314.56
303.13	305.56
303.36	318.56
303.59	319.56
303.82	331.56
304.051	338.56
304.281	327.56
304.511	326.56
304.741	298.56
304.971	322.56
305.201	313.56
305.431	314.56
305.661	336.56
305.891	329.56
306.121	330.56
306.352	334.56
306.582	325.56
306.812	326.56
307.042	328.56
307.272	312.56
307.502	319.56
307.731	310.56
307.961	325.56
308.191	329.56
308.421	310.56
308.651	320.56
308.881	331.56
309.111	324.56
309.341	336.56
309.571	334.56
309.8	318.56
310.03	330.56
310.26	328.56
310.49	328.56
310.72	350.56
310.949	363.56
311.179	361.56
311.409	362.56
311.639	333.56
311.868	337.56
312.098	334.56
312.328	350.56
312.557	345.56
312.787	365.56
313.017	356.56
313.246	346.56
313.476	338.56
313.706	345.56
313.935	343.56
314.165	338.56
314.394	365.56
314.624	332.56
314.853	349.56
315.083	366.56
315.312	340.56
315.542	346.56
315.771	349.56
316.001	332.56
316.23	356.56
316.46	327.56
316.689	372.56
316.919	348.56
317.148	345.56
317.377	359.56
317.607	352.56
317.836	359.56
318.065	373.56
318.295	352.56
318.524	328.56
318.753	322.56
318.983	343.56
319.212	345.56
319.441	343.56
319.67	327.56
319.9	342.56
320.129	348.56
320.358	359.56
320.587	336.56
320.816	352.56
321.046	343.56
321.275	342.56
321.504	353.56
321.733	360.56
321.962	363.56
322.191	370.56
322.42	397.56
322.649	374.56
322.878	385.56
323.108	390.56
323.337	404.56
323.566	401.56
323.795	413.56
324.024	457.56
324.253	504.56
324.482	666.56
324.71	957.56
324.939	1306.56
325.168	1133.56
325.397	656.56
325.626	510.56
325.855	449.56
326.084	420.56
326.313	429.56
326.542	429.56
326.77	462.56
326.999	505.56
327.228	650.56
327.457	875.56
327.686	1044.56
327.914	738.56
328.143	532.56
328.372	477.56
328.6	454.56
328.829	458.56
329.058	452.56
329.287	458.56
329.515	433.56
329.744	416.56
329.972	410.56
330.201	436.56
330.43	476.56
330.658	481.56
330.887	452.56
331.115	471.56
331.344	451.56
331.572	431.56
331.801	432.56
332.03	418.56
332.258	446.56
332.486	426.56
332.715	413.56
332.943	438.56
333.172	470.56
333.4	463.56
333.629	484.56
333.857	467.56
334.085	485.56
334.314	486.56
334.542	488.56
334.771	485.56
334.999	460.56
335.227	441.56
335.455	456.56
335.684	437.56
335.912	423.56
336.14	423.56
336.369	407.56
336.597	415.56
336.825	413.56
337.053	403.56
337.281	425.56
337.51	401.56
337.738	416.56
337.966	434.56
338.194	400.56
338.422	400.56
338.65	402.56
338.878	400.56
339.106	393.56
339.334	394.56
339.562	407.56
339.79	378.56
340.018	399.56
340.246	402.56
340.474	393.56
340.702	377.56
340.93	393.56
341.158	399.56
341.386	397.56
341.614	402.56
341.842	379.56
342.07	400.56
342.298	391.56
342.526	365.56
342.754	373.56
342.981	390.56
343.209	382.56
343.437	391.56
343.665	393.56
343.893	426.56
344.12	421.56
344.348	429.56
344.576	415.56
344.804	404.56
345.031	398.56
345.259	413.56
345.487	393.56
345.714	392.56
345.942	375.56
346.17	381.56
346.397	354.56
346.625	353.56
346.853	355.56
347.08	379.56
347.308	377.56
347.535	355.56
347.763	384.56
347.99	389.56
348.218	380.56
348.445	382.56
348.673	374.56
348.9	373.56
349.128	367.56
349.355	359.56
349.583	373.56
349.81	355.56
350.037	353.56
350.265	360.56
350.492	363.56
350.72	355.56
350.947	358.56
351.174	365.56
351.402	380.56
351.629	370.56
351.856	372.56
352.083	362.56
352.311	388.56
352.538	375.56
352.765	369.56
352.992	373.56
353.22	366.56
353.447	365.56
353.674	368.56
353.901	349.56
354.128	347.56
354.355	368.56
354.583	359.56
354.81	347.56
355.037	339.56
355.264	353.56
355.491	363.56
355.718	356.56
355.945	361.56
356.172	360.56
356.399	353.56
356.626	358.56
356.853	373.56
357.08	330.56
357.307	337.56
357.534	342.56
357.761	362.56
357.988	379.56
358.215	336.56
358.441	345.56
358.668	359.56
358.895	357.56
359.122	345.56
359.349	381.56
359.576	360.56
359.802	377.56
360.029	381.56
360.256	400.56
360.483	375.56
360.709	370.56
360.936	381.56
361.163	372.56
361.39	361.56
361.616	358.56
361.843	372.56
362.07	367.56
362.296	387.56
362.523	368.56
362.749	365.56
362.976	376.56
363.203	337.56
363.429	360.56
363.656	348.56
363.882	362.56
364.109	357.56
364.335	346.56
364.562	363.56
364.788	368.56
365.015	356.56
365.241	344.56
365.468	346.56
365.694	329.56
365.92	362.56
366.147	344.56
366.373	346.56
366.599	338.56
366.826	345.56
367.052	359.56
367.278	350.56
367.505	356.56
367.731	361.56
367.957	345.56
368.184	352.56
368.41	350.56
368.636	341.56
368.862	369.56
369.089	352.56
369.315	369.56
369.541	350.56
369.767	359.56
369.993	359.56
370.219	347.56
370.445	373.56
370.672	357.56
370.898	358.56
371.124	353.56
371.35	358.56
371.576	366.56
371.802	366.56
372.028	360.56
372.254	369.56
372.48	377.56
372.706	379.56
372.932	374.56
373.158	384.56
373.384	384.56
373.61	359.56
373.835	362.56
374.061	364.56
374.287	360.56
374.513	378.56
374.739	376.56
374.965	384.56
375.191	381.56
375.416	375.56
375.642	378.56
375.868	369.56
376.094	396.56
376.319	388.56
376.545	349.56
376.771	374.56
376.997	359.56
377.222	368.56
377.448	362.56
377.674	358.56
377.899	353.56
378.125	353.56
378.35	359.56
378.576	364.56
378.802	378.56
379.027	349.56
379.253	369.56
379.478	341.56
379.704	366.56
379.929	362.56
380.155	351.56
380.38	344.56
380.606	357.56
380.831	354.56
381.057	349.56
381.282	372.56
381.507	366.56
381.733	364.56
381.958	356.56
382.184	380.56
382.409	367.56
382.634	373.56
382.86	374.56
383.085	378.56
383.31	397.56
383.535	386.56
383.761	383.56
383.986	376.56
384.211	386.56
384.436	407.56
384.662	399.56
384.887	402.56
385.112	405.56
385.337	421.56
385.562	409.56
385.787	408.56
386.013	432.56
386.238	415.56
386.463	408.56
386.688	409.56
386.913	386.56
387.138	396.56
387.363	408.56
387.588	392.56
387.813	408.56
388.038	398.56
388.263	408.56
388.488	416.56
388.713	398.56
388.938	408.56
389.163	406.56
389.387	406.56
389.612	394.56
389.837	404.56
390.062	417.56
390.287	412.56
390.512	390.56
390.736	403.56
390.961	414.56
391.186	413.56
391.411	410.56
391.636	435.56
391.86	444.56
392.085	425.56
392.31	444.56
392.534	428.56
392.759	426.56
392.984	410.56
393.208	429.56
393.433	405.56
393.658	419.56
393.882	393.56
394.107	395.56
394.331	420.56
394.556	412.56
394.78	409.56
395.005	413.56
395.229	413.56
395.454	427.56
395.678	441.56
395.903	452.56
396.127	462.56
396.352	460.56
396.576	429.56
396.801	417.56
397.025	415.56
397.249	442.56
397.474	426.56
397.698	453.56
397.922	439.56
398.147	457.56
398.371	449.56
398.595	465.56
398.82	487.56
399.044	486.56
399.268	506.56
399.492	584.56
399.717	626.56
399.941	652.56
400.165	615.56
400.389	582.56
400.613	537.56
400.837	488.56
401.062	472.56
401.286	516.56
401.51	482.56
401.734	465.56
401.958	485.56
402.182	471.56
402.406	479.56
402.63	500.56
402.854	473.56
403.078	504.56
403.302	512.56
403.526	524.56
403.75	518.56
403.974	521.56
404.198	504.56
404.422	528.56
404.645	509.56
404.869	515.56
405.093	545.56
405.317	574.56
405.541	557.56
405.765	506.56
405.988	522.56
406.212	559.56
406.436	537.56
406.66	529.56
406.883	541.56
407.107	555.56
407.331	607.56
407.555	628.56
407.778	640.56
408.002	604.56
408.226	545.56
408.449	571.56
408.673	540.56
408.896	566.56
409.12	576.56
409.344	556.56
409.567	552.56
409.791	526.56
410.014	504.56
410.238	513.56
410.461	496.56
410.685	512.56
410.908	522.56
411.132	522.56
411.355	528.56
411.578	510.56
411.802	507.56
412.025	509.56
412.249	514.56
412.472	505.56
412.695	490.56
412.919	508.56
413.142	478.56
413.365	477.56
413.589	472.56
413.812	483.56
414.035	453.56
414.258	471.56
414.482	472.56
414.705	477.56
414.928	477.56
415.151	474.56
415.374	478.56
415.597	453.56
415.821	465.56
416.044	464.56
416.267	482.56
416.49	457.56
416.713	462.56
416.936	477.56
417.159	449.56
417.382	483.56
417.605	482.56
417.828	462.56
418.051	472.56
418.274	497.56
418.497	473.56
418.72	466.56
418.943	462.56
419.166	502.56
419.389	543.56
419.611	512.56
419.834	500.56
420.057	493.56
420.28	487.56
420.503	496.56
420.726	483.56
420.948	478.56
421.171	516.56
421.394	514.56
421.617	481.56
421.839	476.56
422.062	467.56
422.285	488.56
422.507	516.56
422.73	581.56
422.953	573.56
423.175	521.56
423.398	520.56
423.621	520.56
423.843	505.56
424.066	491.56
424.288	494.56
424.511	523.56
424.733	574.56
424.956	577.56
425.178	567.56
425.401	562.56
425.623	576.56
425.846	513.56
426.068	479.56
426.291	499.56
426.513	487.56
426.735	492.56
426.958	495.56
427.18	560.56
427.402	622.56
427.625	685.56
427.847	598.56
428.069	536.56
428.292	504.56
428.514	458.56
428.736	460.56
428.958	474.56
429.181	431.56
429.403	440.56
429.625	457.56
429.847	468.56
430.069	512.56
430.292	522.56
430.514	470.56
430.736	452.56
430.958	428.56
431.18	434.56
431.402	439.56
431.624	444.56
431.846	449.56
432.068	428.56
432.29	435.56
432.512	474.56
432.734	455.56
432.956	429.56
433.178	452.56
433.4	432.56
433.622	437.56
433.844	420.56
434.066	438.56
434.287	441.56
434.509	450.56
434.731	463.56
434.953	464.56
435.175	489.56
435.397	471.56
435.618	485.56
435.84	517.56
436.062	570.56
436.284	592.56
436.505	523.56
436.727	482.56
436.949	438.56
437.17	445.56
437.392	443.56
437.614	449.56
437.835	456.56
438.057	494.56
438.278	578.56
438.5	589.56
438.721	593.56
438.943	608.56
439.165	496.56
439.386	473.56
439.608	480.56
439.829	448.56
440.05	476.56
440.272	503.56
440.493	486.56
440.715	463.56
440.936	456.56
441.158	454.56
441.379	444.56
441.6	471.56
441.822	494.56
442.043	511.56
442.264	564.56
442.486	568.56
442.707	524.56
442.928	502.56
443.149	499.56
443.371	516.56
443.592	544.56
443.813	589.56
444.034	622.56
444.255	565.56
444.476	504.56
444.698	510.56
444.919	518.56
445.14	620.56
445.361	567.56
445.582	496.56
445.803	530.56
446.024	570.56
446.245	583.56
446.466	545.56
446.687	481.56
446.908	469.56
447.129	459.56
447.35	450.56
447.571	433.56
447.792	438.56
448.013	444.56
448.234	421.56
448.455	455.56
448.675	521.56
448.896	587.56
449.117	529.56
449.338	498.56
449.559	554.56
449.779	604.56
450	515.56
450.221	426.56
450.442	428.56
450.662	410.56
450.883	436.56
451.104	428.56
451.324	430.56
451.545	410.56
451.766	414.56
451.986	393.56
452.207	394.56
452.428	405.56
452.648	406.56
452.869	391.56
453.089	394.56
453.31	401.56
453.53	379.56
453.751	408.56
453.971	384.56
454.192	393.56
454.412	401.56
454.633	403.56
454.853	399.56
455.073	368.56
455.294	412.56
455.514	427.56
455.734	437.56
455.955	380.56
456.175	382.56
456.395	367.56
456.616	392.56
456.836	366.56
457.056	378.56
457.276	357.56
457.497	388.56
457.717	367.56
457.937	360.56
458.157	392.56
458.377	387.56
458.598	412.56
458.818	427.56
459.038	489.56
459.258	471.56
459.478	462.56
459.698	440.56
459.918	434.56
460.138	475.56
460.358	475.56
460.578	476.56
460.798	457.56
461.018	463.56
461.238	473.56
461.458	453.56
461.678	465.56
461.898	478.56
462.118	460.56
462.338	486.56
462.558	482.56
462.777	530.56
462.997	529.56
463.217	571.56
463.437	547.56
463.657	521.56
463.876	538.56
464.096	514.56
464.316	504.56
464.536	505.56
464.755	492.56
464.975	495.56
465.195	511.56
465.414	524.56
465.634	480.56
465.854	450.56
466.073	458.56
466.293	420.56
466.512	431.56
466.732	409.56
466.951	422.56
467.171	417.56
467.391	411.56
467.61	418.56
467.829	400.56
468.049	422.56
468.268	411.56
468.488	393.56
468.707	394.56
468.927	390.56
469.146	398.56
469.365	414.56
469.585	414.56
469.804	402.56
470.023	418.56
470.243	405.56
470.462	434.56
470.681	440.56
470.901	446.56
471.12	445.56
471.339	413.56
471.558	404.56
471.777	408.56
471.997	393.56
472.216	392.56
472.435	427.56
472.654	426.56
472.873	398.56
473.092	411.56
473.311	399.56
473.53	405.56
473.749	382.56
473.968	418.56
474.187	464.56
474.406	502.56
474.625	452.56
474.844	410.56
475.063	416.56
475.282	394.56
475.501	408.56
475.72	411.56
475.939	419.56
476.158	408.56
476.377	393.56
476.596	405.56
476.814	416.56
477.033	434.56
477.252	458.56
477.471	428.56
477.69	452.56
477.908	455.56
478.127	464.56
478.346	449.56
478.564	460.56
478.783	473.56
479.002	470.56
479.22	467.56
479.439	473.56
479.658	490.56
479.876	494.56
480.095	485.56
480.313	536.56
480.532	541.56
480.751	524.56
480.969	524.56
481.188	535.56
481.406	518.56
481.624	501.56
481.843	473.56
482.061	482.56
482.28	465.56
482.498	462.56
482.717	477.56
482.935	455.56
483.153	447.56
483.372	449.56
483.59	472.56
483.808	463.56
484.027	479.56
484.245	449.56
484.463	465.56
484.681	481.56
484.9	454.56
485.118	473.56
485.336	470.56
485.554	480.56
485.772	460.56
485.99	472.56
486.209	482.56
486.427	474.56
486.645	464.56
486.863	489.56
487.081	508.56
487.299	490.56
487.517	470.56
487.735	492.56
487.953	493.56
488.171	473.56
488.389	482.56
488.607	486.56
488.825	494.56
489.043	480.56
489.261	498.56
489.479	486.56
489.696	489.56
489.914	473.56
490.132	492.56
490.35	498.56
490.568	513.56
490.786	505.56
491.003	513.56
491.221	509.56
491.439	530.56
491.657	524.56
491.874	540.56
492.092	529.56
492.31	539.56
492.527	556.56
492.745	539.56
492.963	553.56
493.18	566.56
493.398	529.56
493.615	550.56
493.833	536.56
494.05	557.56
494.268	553.56
494.485	575.56
494.703	556.56
494.92	550.56
495.138	544.56
495.355	552.56
495.573	525.56
495.79	554.56
496.008	582.56
496.225	575.56
496.442	558.56
496.66	552.56
496.877	568.56
497.094	580.56
497.312	597.56
497.529	585.56
497.746	594.56
497.963	622.56
498.181	611.56
498.398	642.56
498.615	670.56
498.832	711.56
499.049	749.56
499.267	756.56
499.484	792.56
499.701	854.56
499.918	937.56
500.135	984.56
500.352	1071.56
500.569	1074.56
500.786	1095.56
501.003	1038.56
501.22	996.56
501.437	898.56
501.654	840.56
501.871	806.56
502.088	770.56
