Data from 1984.PennyLincolnUp.Lamp.En5.5.200Scan.071819.P1_HRD10591_17-00-22-968.txt Node
Date: Thu Jul 18 17:00:22 EDT 2019
User: cochatt
Spectrometer: HR+D1059
Trigger mode: 1
Integration Time (sec): 1.000000E-1
Scans to average: 1
Electric dark correction enabled: true
Nonlinearity correction enabled: false
Boxcar width: 0
XAxis mode: Wavelengths
Number of Pixels in Spectrum: 2048
>>>>>Begin Spectral Data<<<<<
223.165	-23.06
223.4	-23.06
223.635	-23.06
223.869	-21.06
224.104	-14.06
224.338	-11.06
224.573	-7.06
224.808	-7.06
225.042	-16.06
225.277	-11.06
225.511	7.94
225.746	13.94
225.98	9.94
226.215	18.94
226.449	12.94
226.683	16.94
226.918	12.94
227.152	16.94
227.387	43.94
227.621	45.94
227.856	43.94
228.09	51.94
228.324	51.94
228.559	49.94
228.793	79.94
229.027	85.94
229.262	106.94
229.496	100.94
229.73	109.94
229.964	126.94
230.199	111.94
230.433	102.94
230.667	107.94
230.901	93.94
231.136	101.94
231.37	107.94
231.604	115.94
231.838	106.94
232.072	114.94
232.306	124.94
232.541	116.94
232.775	104.94
233.009	107.94
233.243	126.94
233.477	108.94
233.711	113.94
233.945	126.94
234.179	108.94
234.413	105.94
234.647	117.94
234.881	123.94
235.115	133.94
235.349	102.94
235.583	107.94
235.817	119.94
236.051	131.94
236.285	121.94
236.519	125.94
236.753	137.94
236.987	123.94
237.221	144.94
237.455	181.94
237.689	135.94
237.922	123.94
238.156	123.94
238.39	136.94
238.624	125.94
238.858	137.94
239.091	116.94
239.325	117.94
239.559	142.94
239.793	118.94
240.027	127.94
240.26	120.94
240.494	135.94
240.728	131.94
240.961	141.94
241.195	131.94
241.429	143.94
241.662	139.94
241.896	128.94
242.13	143.94
242.363	143.94
242.597	123.94
242.83	137.94
243.064	142.94
243.298	135.94
243.531	143.94
243.765	148.94
243.998	147.94
244.232	125.94
244.465	135.94
244.699	141.94
244.932	161.94
245.166	140.94
245.399	156.94
245.633	141.94
245.866	133.94
246.099	133.94
246.333	128.94
246.566	149.94
246.8	163.94
247.033	137.94
247.266	144.94
247.5	143.94
247.733	148.94
247.966	153.94
248.2	168.94
248.433	155.94
248.666	150.94
248.899	176.94
249.133	168.94
249.366	173.94
249.599	176.94
249.832	156.94
250.066	171.94
250.299	187.94
250.532	195.94
250.765	230.94
250.998	208.94
251.231	202.94
251.465	202.94
251.698	195.94
251.931	191.94
252.164	191.94
252.397	179.94
252.63	175.94
252.863	190.94
253.096	173.94
253.329	181.94
253.562	183.94
253.795	189.94
254.028	192.94
254.261	179.94
254.494	189.94
254.727	192.94
254.96	216.94
255.193	226.94
255.426	199.94
255.659	225.94
255.892	246.94
256.124	295.94
256.357	313.94
256.59	253.94
256.823	245.94
257.056	232.94
257.289	213.94
257.521	211.94
257.754	206.94
257.987	202.94
258.22	216.94
258.452	183.94
258.685	214.94
258.918	196.94
259.151	192.94
259.383	195.94
259.616	199.94
259.849	204.94
260.081	204.94
260.314	222.94
260.547	217.94
260.779	201.94
261.012	202.94
261.244	204.94
261.477	212.94
261.71	209.94
261.942	204.94
262.175	203.94
262.407	203.94
262.64	207.94
262.872	197.94
263.105	187.94
263.337	214.94
263.57	210.94
263.802	220.94
264.035	194.94
264.267	191.94
264.499	190.94
264.732	198.94
264.964	204.94
265.197	206.94
265.429	211.94
265.661	212.94
265.894	209.94
266.126	222.94
266.358	218.94
266.591	213.94
266.823	221.94
267.055	216.94
267.287	226.94
267.52	211.94
267.752	216.94
267.984	219.94
268.216	235.94
268.448	239.94
268.681	234.94
268.913	210.94
269.145	240.94
269.377	253.94
269.609	256.94
269.841	239.94
270.073	256.94
270.306	274.94
270.538	278.94
270.77	272.94
271.002	254.94
271.234	246.94
271.466	259.94
271.698	252.94
271.93	275.94
272.162	267.94
272.394	277.94
272.626	254.94
272.858	260.94
273.09	245.94
273.322	239.94
273.553	245.94
273.785	249.94
274.017	272.94
274.249	263.94
274.481	248.94
274.713	257.94
274.945	239.94
275.176	247.94
275.408	252.94
275.64	263.94
275.872	248.94
276.104	248.94
276.335	256.94
276.567	282.94
276.799	272.94
277.031	301.94
277.262	303.94
277.494	283.94
277.726	295.94
277.957	271.94
278.189	271.94
278.421	273.94
278.652	258.94
278.884	244.94
279.115	273.94
279.347	263.94
279.579	287.94
279.81	272.94
280.042	269.94
280.273	272.94
280.505	264.94
280.736	271.94
280.968	258.94
281.199	267.94
281.431	280.94
281.662	274.94
281.894	263.94
282.125	261.94
282.356	280.94
282.588	289.94
282.819	291.94
283.051	281.94
283.282	290.94
283.513	271.94
283.745	274.94
283.976	275.94
284.207	279.94
284.439	279.94
284.67	267.94
284.901	290.94
285.132	265.94
285.364	269.94
285.595	294.94
285.826	283.94
286.057	271.94
286.288	296.94
286.52	285.94
286.751	256.94
286.982	281.94
287.213	262.94
287.444	288.94
287.675	292.94
287.906	283.94
288.138	300.94
288.369	311.94
288.6	289.94
288.831	302.94
289.062	297.94
289.293	291.94
289.524	276.94
289.755	303.94
289.986	287.94
290.217	281.94
290.448	278.94
290.679	299.94
290.91	281.94
291.141	288.94
291.371	285.94
291.602	280.94
291.833	299.94
292.064	281.94
292.295	281.94
292.526	282.94
292.757	297.94
292.987	310.94
293.218	280.94
293.449	289.94
293.68	303.94
293.91	306.94
294.141	283.94
294.372	295.94
294.603	296.94
294.833	295.94
295.064	274.94
295.295	294.94
295.525	302.94
295.756	300.94
295.987	302.94
296.217	311.94
296.448	317.94
296.679	302.94
296.909	312.94
297.14	316.94
297.37	310.94
297.601	312.94
297.831	277.94
298.062	323.94
298.292	301.94
298.523	295.94
298.753	311.94
298.984	315.94
299.214	318.94
299.445	320.94
299.675	309.94
299.905	323.94
300.136	312.94
300.366	313.94
300.597	315.94
300.827	311.94
301.057	326.94
301.288	341.94
301.518	332.94
301.748	329.94
301.979	328.94
302.209	317.94
302.439	344.94
302.669	335.94
302.9	354.94
303.13	333.94
303.36	337.94
303.59	344.94
303.82	339.94
304.051	339.94
304.281	324.94
304.511	319.94
304.741	317.94
304.971	330.94
305.201	341.94
305.431	331.94
305.661	309.94
305.891	326.94
306.121	330.94
306.352	317.94
306.582	349.94
306.812	314.94
307.042	327.94
307.272	327.94
307.502	336.94
307.731	347.94
307.961	336.94
308.191	333.94
308.421	329.94
308.651	321.94
308.881	328.94
309.111	331.94
309.341	341.94
309.571	344.94
309.8	357.94
310.03	346.94
310.26	354.94
310.49	336.94
310.72	359.94
310.949	362.94
311.179	354.94
311.409	357.94
311.639	334.94
311.868	349.94
312.098	351.94
312.328	364.94
312.557	379.94
312.787	383.94
313.017	366.94
313.246	358.94
313.476	348.94
313.706	353.94
313.935	357.94
314.165	387.94
314.394	361.94
314.624	372.94
314.853	360.94
315.083	365.94
315.312	365.94
315.542	359.94
315.771	355.94
316.001	361.94
316.23	360.94
316.46	358.94
316.689	357.94
316.919	380.94
317.148	359.94
317.377	377.94
317.607	353.94
317.836	350.94
318.065	359.94
318.295	373.94
318.524	377.94
318.753	353.94
318.983	348.94
319.212	356.94
319.441	347.94
319.67	347.94
319.9	359.94
320.129	380.94
320.358	375.94
320.587	359.94
320.816	349.94
321.046	367.94
321.275	378.94
321.504	368.94
321.733	360.94
321.962	360.94
322.191	396.94
322.42	381.94
322.649	392.94
322.878	412.94
323.108	411.94
323.337	417.94
323.566	433.94
323.795	457.94
324.024	525.94
324.253	572.94
324.482	749.94
324.71	1080.94
324.939	1503.94
325.168	1283.94
325.397	723.94
325.626	527.94
325.855	466.94
326.084	463.94
326.313	445.94
326.542	459.94
326.77	491.94
326.999	545.94
327.228	716.94
327.457	1007.94
327.686	1170.94
327.914	820.94
328.143	609.94
328.372	621.94
328.6	556.94
328.829	523.94
329.058	522.94
329.287	528.94
329.515	503.94
329.744	491.94
329.972	563.94
330.201	628.94
330.43	666.94
330.658	633.94
330.887	603.94
331.115	544.94
331.344	486.94
331.572	486.94
331.801	484.94
332.03	480.94
332.258	470.94
332.486	470.94
332.715	488.94
332.943	495.94
333.172	506.94
333.4	533.94
333.629	519.94
333.857	554.94
334.085	648.94
334.314	692.94
334.542	804.94
334.771	803.94
334.999	664.94
335.227	569.94
335.455	525.94
335.684	489.94
335.912	485.94
336.14	490.94
336.369	455.94
336.597	461.94
336.825	448.94
337.053	444.94
337.281	447.94
337.51	448.94
337.738	437.94
337.966	422.94
338.194	425.94
338.422	429.94
338.65	431.94
338.878	422.94
339.106	401.94
339.334	410.94
339.562	419.94
339.79	407.94
340.018	414.94
340.246	413.94
340.474	422.94
340.702	415.94
340.93	403.94
341.158	389.94
341.386	400.94
341.614	396.94
341.842	401.94
342.07	397.94
342.298	405.94
342.526	395.94
342.754	407.94
342.981	391.94
343.209	390.94
343.437	404.94
343.665	417.94
343.893	421.94
344.12	438.94
344.348	444.94
344.576	428.94
344.804	431.94
345.031	416.94
345.259	424.94
345.487	394.94
345.714	385.94
345.942	408.94
346.17	400.94
346.397	385.94
346.625	396.94
346.853	391.94
347.08	381.94
347.308	379.94
347.535	381.94
347.763	399.94
347.99	380.94
348.218	398.94
348.445	405.94
348.673	374.94
348.9	374.94
349.128	380.94
349.355	366.94
349.583	380.94
349.81	375.94
350.037	374.94
350.265	372.94
350.492	379.94
350.72	376.94
350.947	375.94
351.174	389.94
351.402	368.94
351.629	380.94
351.856	379.94
352.083	372.94
352.311	393.94
352.538	379.94
352.765	357.94
352.992	370.94
353.22	383.94
353.447	377.94
353.674	366.94
353.901	373.94
354.128	369.94
354.355	362.94
354.583	374.94
354.81	371.94
355.037	363.94
355.264	352.94
355.491	361.94
355.718	359.94
355.945	376.94
356.172	345.94
356.399	354.94
356.626	377.94
356.853	347.94
357.08	369.94
357.307	364.94
357.534	341.94
357.761	360.94
357.988	365.94
358.215	363.94
358.441	364.94
358.668	356.94
358.895	362.94
359.122	367.94
359.349	378.94
359.576	365.94
359.802	381.94
360.029	406.94
360.256	417.94
360.483	382.94
360.709	372.94
360.936	379.94
361.163	375.94
361.39	366.94
361.616	374.94
361.843	361.94
362.07	373.94
362.296	373.94
362.523	383.94
362.749	352.94
362.976	381.94
363.203	383.94
363.429	357.94
363.656	387.94
363.882	351.94
364.109	353.94
364.335	373.94
364.562	356.94
364.788	377.94
365.015	364.94
365.241	370.94
365.468	374.94
365.694	371.94
365.92	385.94
366.147	377.94
366.373	358.94
366.599	365.94
366.826	377.94
367.052	361.94
367.278	355.94
367.505	351.94
367.731	387.94
367.957	349.94
368.184	366.94
368.41	371.94
368.636	365.94
368.862	365.94
369.089	388.94
369.315	373.94
369.541	380.94
369.767	365.94
369.993	362.94
370.219	353.94
370.445	359.94
370.672	371.94
370.898	367.94
371.124	377.94
371.35	373.94
371.576	366.94
371.802	383.94
372.028	361.94
372.254	367.94
372.48	376.94
372.706	375.94
372.932	373.94
373.158	361.94
373.384	389.94
373.61	377.94
373.835	359.94
374.061	369.94
374.287	369.94
374.513	375.94
374.739	399.94
374.965	384.94
375.191	406.94
375.416	393.94
375.642	369.94
375.868	375.94
376.094	365.94
376.319	387.94
376.545	371.94
376.771	378.94
376.997	368.94
377.222	375.94
377.448	377.94
377.674	364.94
377.899	373.94
378.125	361.94
378.35	356.94
378.576	373.94
378.802	347.94
379.027	361.94
379.253	360.94
379.478	349.94
379.704	348.94
379.929	356.94
380.155	368.94
380.38	352.94
380.606	381.94
380.831	340.94
381.057	366.94
381.282	358.94
381.507	376.94
381.733	369.94
381.958	376.94
382.184	381.94
382.409	374.94
382.634	369.94
382.86	381.94
383.085	373.94
383.31	399.94
383.535	385.94
383.761	388.94
383.986	385.94
384.211	384.94
384.436	398.94
384.662	395.94
384.887	426.94
385.112	430.94
385.337	412.94
385.562	401.94
385.787	410.94
386.013	440.94
386.238	416.94
386.463	397.94
386.688	401.94
386.913	409.94
387.138	401.94
387.363	415.94
387.588	407.94
387.813	405.94
388.038	423.94
388.263	432.94
388.488	413.94
388.713	412.94
388.938	404.94
389.163	385.94
389.387	399.94
389.612	396.94
389.837	404.94
390.062	401.94
390.287	409.94
390.512	407.94
390.736	402.94
390.961	426.94
391.186	414.94
391.411	415.94
391.636	425.94
391.86	431.94
392.085	445.94
392.31	450.94
392.534	429.94
392.759	428.94
392.984	436.94
393.208	423.94
393.433	437.94
393.658	423.94
393.882	439.94
394.107	425.94
394.331	424.94
394.556	425.94
394.78	420.94
395.005	419.94
395.229	427.94
395.454	445.94
395.678	427.94
395.903	463.94
396.127	467.94
396.352	454.94
396.576	438.94
396.801	423.94
397.025	433.94
397.249	445.94
397.474	451.94
397.698	446.94
397.922	464.94
398.147	450.94
398.371	470.94
398.595	461.94
398.82	485.94
399.044	524.94
399.268	539.94
399.492	590.94
399.717	618.94
399.941	630.94
400.165	636.94
400.389	581.94
400.613	543.94
400.837	515.94
401.062	487.94
401.286	502.94
401.51	495.94
401.734	469.94
401.958	460.94
402.182	476.94
402.406	508.94
402.63	519.94
402.854	509.94
403.078	499.94
403.302	521.94
403.526	525.94
403.75	527.94
403.974	524.94
404.198	538.94
404.422	546.94
404.645	550.94
404.869	559.94
405.093	612.94
405.317	621.94
405.541	652.94
405.765	582.94
405.988	563.94
406.212	559.94
406.436	556.94
406.66	545.94
406.883	568.94
407.107	591.94
407.331	592.94
407.555	644.94
407.778	637.94
408.002	596.94
408.226	566.94
408.449	554.94
408.673	542.94
408.896	561.94
409.12	582.94
409.344	579.94
409.567	515.94
409.791	540.94
410.014	504.94
410.238	520.94
410.461	503.94
410.685	507.94
410.908	531.94
411.132	533.94
411.355	524.94
411.578	533.94
411.802	525.94
412.025	514.94
412.249	545.94
412.472	583.94
412.695	640.94
412.919	619.94
413.142	539.94
413.365	524.94
413.589	496.94
413.812	505.94
414.035	480.94
414.258	501.94
414.482	484.94
414.705	489.94
414.928	515.94
415.151	490.94
415.374	469.94
415.597	488.94
415.821	471.94
416.044	474.94
416.267	470.94
416.49	485.94
416.713	471.94
416.936	473.94
417.159	482.94
417.382	475.94
417.605	495.94
417.828	493.94
418.051	485.94
418.274	475.94
418.497	478.94
418.72	478.94
418.943	470.94
419.166	516.94
419.389	521.94
419.611	515.94
419.834	535.94
420.057	519.94
420.28	547.94
420.503	570.94
420.726	523.94
420.948	524.94
421.171	540.94
421.394	539.94
421.617	522.94
421.839	500.94
422.062	525.94
422.285	502.94
422.507	517.94
422.73	579.94
422.953	563.94
423.175	519.94
423.398	511.94
423.621	515.94
423.843	520.94
424.066	510.94
424.288	522.94
424.511	528.94
424.733	547.94
424.956	583.94
425.178	590.94
425.401	551.94
425.623	568.94
425.846	515.94
426.068	495.94
426.291	500.94
426.513	472.94
426.735	493.94
426.958	505.94
427.18	559.94
427.402	644.94
427.625	691.94
427.847	620.94
428.069	611.94
428.292	556.94
428.514	506.94
428.736	469.94
428.958	471.94
429.181	453.94
429.403	442.94
429.625	464.94
429.847	482.94
430.069	500.94
430.292	503.94
430.514	446.94
430.736	457.94
430.958	446.94
431.18	448.94
431.402	450.94
431.624	437.94
431.846	442.94
432.068	435.94
432.29	439.94
432.512	417.94
432.734	428.94
432.956	425.94
433.178	442.94
433.4	457.94
433.622	476.94
433.844	453.94
434.066	435.94
434.287	434.94
434.509	465.94
434.731	459.94
434.953	484.94
435.175	475.94
435.397	508.94
435.618	472.94
435.84	503.94
436.062	558.94
436.284	605.94
436.505	541.94
436.727	492.94
436.949	444.94
437.17	469.94
437.392	454.94
437.614	453.94
437.835	471.94
438.057	503.94
438.278	563.94
438.5	583.94
438.721	631.94
438.943	576.94
439.165	501.94
439.386	470.94
439.608	459.94
439.829	469.94
440.05	479.94
440.272	557.94
440.493	505.94
440.715	472.94
440.936	453.94
441.158	469.94
441.379	476.94
441.6	464.94
441.822	486.94
442.043	508.94
442.264	551.94
442.486	573.94
442.707	526.94
442.928	487.94
443.149	497.94
443.371	520.94
443.592	548.94
443.813	599.94
444.034	631.94
444.255	545.94
444.476	517.94
444.698	547.94
444.919	543.94
445.14	644.94
445.361	597.94
445.582	547.94
445.803	558.94
446.024	589.94
446.245	615.94
446.466	555.94
446.687	500.94
446.908	484.94
447.129	464.94
447.35	451.94
447.571	419.94
447.792	439.94
448.013	437.94
448.234	461.94
448.455	471.94
448.675	522.94
448.896	601.94
449.117	525.94
449.338	522.94
449.559	577.94
449.779	640.94
450	530.94
450.221	453.94
450.442	440.94
450.662	439.94
450.883	435.94
451.104	443.94
451.324	437.94
451.545	421.94
451.766	419.94
451.986	409.94
452.207	399.94
452.428	407.94
452.648	411.94
452.869	411.94
453.089	398.94
453.31	407.94
453.53	420.94
453.751	403.94
453.971	405.94
454.192	408.94
454.412	406.94
454.633	401.94
454.853	379.94
455.073	402.94
455.294	403.94
455.514	451.94
455.734	428.94
455.955	396.94
456.175	379.94
456.395	387.94
456.616	367.94
456.836	366.94
457.056	384.94
457.276	387.94
457.497	386.94
457.717	377.94
457.937	405.94
458.157	394.94
458.377	407.94
458.598	395.94
458.818	429.94
459.038	483.94
459.258	528.94
459.478	468.94
459.698	458.94
459.918	455.94
460.138	464.94
460.358	463.94
460.578	483.94
460.798	493.94
461.018	476.94
461.238	479.94
461.458	474.94
461.678	462.94
461.898	468.94
462.118	478.94
462.338	500.94
462.558	503.94
462.777	516.94
462.997	532.94
463.217	567.94
463.437	577.94
463.657	536.94
463.876	529.94
464.096	517.94
464.316	541.94
464.536	532.94
464.755	503.94
464.975	507.94
465.195	519.94
465.414	538.94
465.634	502.94
465.854	454.94
466.073	443.94
466.293	439.94
466.512	422.94
466.732	419.94
466.951	425.94
467.171	407.94
467.391	412.94
467.61	416.94
467.829	435.94
468.049	443.94
468.268	477.94
468.488	448.94
468.707	438.94
468.927	429.94
469.146	429.94
469.365	416.94
469.585	409.94
469.804	420.94
470.023	437.94
470.243	435.94
470.462	420.94
470.681	448.94
470.901	441.94
471.12	407.94
471.339	449.94
471.558	416.94
471.777	443.94
471.997	441.94
472.216	459.94
472.435	584.94
472.654	563.94
472.873	478.94
473.092	446.94
473.311	432.94
473.53	443.94
473.749	441.94
473.968	454.94
474.187	484.94
474.406	524.94
474.625	457.94
474.844	405.94
475.063	446.94
475.282	410.94
475.501	414.94
475.72	445.94
475.939	429.94
476.158	419.94
476.377	430.94
476.596	442.94
476.814	443.94
477.033	448.94
477.252	438.94
477.471	443.94
477.69	463.94
477.908	462.94
478.127	474.94
478.346	458.94
478.564	466.94
478.783	484.94
479.002	487.94
479.22	500.94
479.439	497.94
479.658	489.94
479.876	520.94
480.095	522.94
480.313	537.94
480.532	528.94
480.751	548.94
480.969	580.94
481.188	733.94
481.406	831.94
481.624	661.94
481.843	597.94
482.061	577.94
482.28	551.94
482.498	530.94
482.717	504.94
482.935	485.94
483.153	487.94
483.372	487.94
483.59	493.94
483.808	476.94
484.027	482.94
484.245	501.94
484.463	467.94
484.681	496.94
484.9	471.94
485.118	506.94
485.336	491.94
485.554	521.94
485.772	487.94
485.99	495.94
486.209	501.94
486.427	500.94
486.645	501.94
486.863	521.94
487.081	513.94
487.299	526.94
487.517	519.94
487.735	521.94
487.953	500.94
488.171	527.94
488.389	509.94
488.607	493.94
488.825	511.94
489.043	516.94
489.261	526.94
489.479	525.94
489.696	529.94
489.914	547.94
490.132	551.94
490.35	551.94
490.568	523.94
490.786	559.94
491.003	563.94
491.221	584.94
491.439	555.94
491.657	574.94
491.874	580.94
492.092	597.94
492.31	636.94
492.527	599.94
492.745	619.94
492.963	622.94
493.18	634.94
493.398	633.94
493.615	623.94
493.833	611.94
494.05	612.94
494.268	621.94
494.485	616.94
494.703	605.94
494.92	600.94
495.138	603.94
495.355	572.94
495.573	596.94
495.79	593.94
496.008	589.94
496.225	590.94
496.442	606.94
496.66	607.94
496.877	615.94
497.094	599.94
497.312	604.94
497.529	637.94
497.746	631.94
497.963	624.94
498.181	661.94
498.398	670.94
498.615	672.94
498.832	724.94
499.049	748.94
499.267	782.94
499.484	833.94
499.701	877.94
499.918	926.94
500.135	983.94
500.352	1094.94
500.569	1143.94
500.786	1121.94
501.003	1101.94
501.22	1022.94
501.437	923.94
501.654	899.94
501.871	848.94
