Data from 1984.PennyLincolnUp.Lamp.En5.5.200Scan.071819.P1_HRD10591_16-58-24-969.txt Node
Date: Thu Jul 18 16:58:24 EDT 2019
User: cochatt
Spectrometer: HR+D1059
Trigger mode: 1
Integration Time (sec): 1.000000E-1
Scans to average: 1
Electric dark correction enabled: true
Nonlinearity correction enabled: false
Boxcar width: 0
XAxis mode: Wavelengths
Number of Pixels in Spectrum: 2048
>>>>>Begin Spectral Data<<<<<
223.165	-26.31
223.4	-26.31
223.635	-26.31
223.869	-20.31
224.104	-11.31
224.338	-23.31
224.573	-3.31
224.808	-3.31
225.042	-11.31
225.277	-5.31
225.511	-6.31
225.746	-11.31
225.98	6.69
226.215	8.69
226.449	19.69
226.683	22.69
226.918	32.69
227.152	31.69
227.387	19.69
227.621	28.69
227.856	46.69
228.09	39.69
228.324	35.69
228.559	48.69
228.793	67.69
229.027	102.69
229.262	87.69
229.496	97.69
229.73	102.69
229.964	113.69
230.199	118.69
230.433	99.69
230.667	108.69
230.901	93.69
231.136	92.69
231.37	89.69
231.604	97.69
231.838	103.69
232.072	103.69
232.306	114.69
232.541	101.69
232.775	115.69
233.009	120.69
233.243	97.69
233.477	92.69
233.711	104.69
233.945	105.69
234.179	102.69
234.413	113.69
234.647	107.69
234.881	113.69
235.115	109.69
235.349	116.69
235.583	113.69
235.817	115.69
236.051	120.69
236.285	104.69
236.519	100.69
236.753	115.69
236.987	130.69
237.221	143.69
237.455	168.69
237.689	132.69
237.922	106.69
238.156	124.69
238.39	111.69
238.624	122.69
238.858	111.69
239.091	104.69
239.325	124.69
239.559	114.69
239.793	122.69
240.027	120.69
240.26	124.69
240.494	130.69
240.728	138.69
240.961	139.69
241.195	127.69
241.429	132.69
241.662	121.69
241.896	117.69
242.13	117.69
242.363	125.69
242.597	139.69
242.83	133.69
243.064	116.69
243.298	138.69
243.531	128.69
243.765	127.69
243.998	128.69
244.232	130.69
244.465	133.69
244.699	123.69
244.932	139.69
245.166	133.69
245.399	142.69
245.633	148.69
245.866	145.69
246.099	142.69
246.333	130.69
246.566	147.69
246.8	130.69
247.033	130.69
247.266	141.69
247.5	140.69
247.733	156.69
247.966	150.69
248.2	152.69
248.433	142.69
248.666	144.69
248.899	148.69
249.133	157.69
249.366	186.69
249.599	178.69
249.832	162.69
250.066	160.69
250.299	179.69
250.532	183.69
250.765	181.69
250.998	182.69
251.231	185.69
251.465	177.69
251.698	163.69
251.931	167.69
252.164	165.69
252.397	167.69
252.63	174.69
252.863	185.69
253.096	197.69
253.329	177.69
253.562	181.69
253.795	193.69
254.028	192.69
254.261	193.69
254.494	179.69
254.727	210.69
254.96	215.69
255.193	213.69
255.426	197.69
255.659	212.69
255.892	208.69
256.124	219.69
256.357	242.69
256.59	214.69
256.823	216.69
257.056	177.69
257.289	188.69
257.521	171.69
257.754	174.69
257.987	184.69
258.22	186.69
258.452	188.69
258.685	190.69
258.918	177.69
259.151	180.69
259.383	209.69
259.616	201.69
259.849	201.69
260.081	191.69
260.314	216.69
260.547	212.69
260.779	194.69
261.012	203.69
261.244	196.69
261.477	208.69
261.71	195.69
261.942	205.69
262.175	195.69
262.407	196.69
262.64	190.69
262.872	182.69
263.105	188.69
263.337	197.69
263.57	185.69
263.802	190.69
264.035	168.69
264.267	194.69
264.499	197.69
264.732	200.69
264.964	200.69
265.197	195.69
265.429	214.69
265.661	185.69
265.894	198.69
266.126	216.69
266.358	209.69
266.591	197.69
266.823	192.69
267.055	197.69
267.287	209.69
267.52	205.69
267.752	205.69
267.984	213.69
268.216	220.69
268.448	215.69
268.681	217.69
268.913	226.69
269.145	236.69
269.377	236.69
269.609	236.69
269.841	232.69
270.073	221.69
270.306	233.69
270.538	264.69
270.77	262.69
271.002	260.69
271.234	248.69
271.466	235.69
271.698	258.69
271.93	260.69
272.162	247.69
272.394	258.69
272.626	248.69
272.858	259.69
273.09	253.69
273.322	260.69
273.553	235.69
273.785	238.69
274.017	231.69
274.249	232.69
274.481	237.69
274.713	230.69
274.945	238.69
275.176	229.69
275.408	229.69
275.64	243.69
275.872	241.69
276.104	233.69
276.335	253.69
276.567	248.69
276.799	244.69
277.031	276.69
277.262	268.69
277.494	282.69
277.726	261.69
277.957	254.69
278.189	258.69
278.421	250.69
278.652	249.69
278.884	249.69
279.115	243.69
279.347	240.69
279.579	239.69
279.81	252.69
280.042	259.69
280.273	252.69
280.505	246.69
280.736	266.69
280.968	252.69
281.199	225.69
281.431	251.69
281.662	251.69
281.894	260.69
282.125	274.69
282.356	257.69
282.588	272.69
282.819	291.69
283.051	253.69
283.282	256.69
283.513	261.69
283.745	253.69
283.976	265.69
284.207	259.69
284.439	274.69
284.67	279.69
284.901	262.69
285.132	269.69
285.364	273.69
285.595	267.69
285.826	252.69
286.057	256.69
286.288	267.69
286.52	265.69
286.751	265.69
286.982	264.69
287.213	270.69
287.444	262.69
287.675	276.69
287.906	277.69
288.138	277.69
288.369	262.69
288.6	286.69
288.831	275.69
289.062	285.69
289.293	258.69
289.524	290.69
289.755	267.69
289.986	276.69
290.217	284.69
290.448	283.69
290.679	286.69
290.91	267.69
291.141	272.69
291.371	275.69
291.602	275.69
291.833	276.69
292.064	288.69
292.295	262.69
292.526	279.69
292.757	286.69
292.987	279.69
293.218	271.69
293.449	303.69
293.68	284.69
293.91	283.69
294.141	290.69
294.372	279.69
294.603	269.69
294.833	284.69
295.064	269.69
295.295	271.69
295.525	264.69
295.756	307.69
295.987	292.69
296.217	304.69
296.448	304.69
296.679	297.69
296.909	297.69
297.14	290.69
297.37	286.69
297.601	287.69
297.831	285.69
298.062	276.69
298.292	292.69
298.523	296.69
298.753	308.69
298.984	296.69
299.214	300.69
299.445	307.69
299.675	292.69
299.905	315.69
300.136	304.69
300.366	286.69
300.597	297.69
300.827	310.69
301.057	296.69
301.288	316.69
301.518	302.69
301.748	308.69
301.979	315.69
302.209	320.69
302.439	307.69
302.669	306.69
302.9	304.69
303.13	321.69
303.36	302.69
303.59	319.69
303.82	321.69
304.051	327.69
304.281	316.69
304.511	307.69
304.741	314.69
304.971	317.69
305.201	314.69
305.431	306.69
305.661	297.69
305.891	296.69
306.121	317.69
306.352	328.69
306.582	312.69
306.812	313.69
307.042	326.69
307.272	324.69
307.502	330.69
307.731	308.69
307.961	314.69
308.191	314.69
308.421	314.69
308.651	324.69
308.881	307.69
309.111	304.69
309.341	327.69
309.571	325.69
309.8	341.69
310.03	304.69
310.26	324.69
310.49	324.69
310.72	331.69
310.949	341.69
311.179	336.69
311.409	332.69
311.639	336.69
311.868	327.69
312.098	331.69
312.328	323.69
312.557	352.69
312.787	327.69
313.017	348.69
313.246	356.69
313.476	328.69
313.706	328.69
313.935	344.69
314.165	361.69
314.394	357.69
314.624	362.69
314.853	342.69
315.083	347.69
315.312	340.69
315.542	349.69
315.771	355.69
316.001	342.69
316.23	349.69
316.46	330.69
316.689	338.69
316.919	329.69
317.148	357.69
317.377	340.69
317.607	351.69
317.836	344.69
318.065	342.69
318.295	328.69
318.524	355.69
318.753	345.69
318.983	344.69
319.212	342.69
319.441	351.69
319.67	324.69
319.9	358.69
320.129	358.69
320.358	333.69
320.587	329.69
320.816	361.69
321.046	360.69
321.275	356.69
321.504	353.69
321.733	349.69
321.962	348.69
322.191	370.69
322.42	374.69
322.649	383.69
322.878	405.69
323.108	381.69
323.337	406.69
323.566	409.69
323.795	420.69
324.024	451.69
324.253	525.69
324.482	699.69
324.71	975.69
324.939	1340.69
325.168	1172.69
325.397	660.69
325.626	511.69
325.855	453.69
326.084	432.69
326.313	416.69
326.542	421.69
326.77	465.69
326.999	508.69
327.228	667.69
327.457	925.69
327.686	1093.69
327.914	756.69
328.143	536.69
328.372	512.69
328.6	461.69
328.829	428.69
329.058	444.69
329.287	450.69
329.515	459.69
329.744	435.69
329.972	456.69
330.201	484.69
330.43	510.69
330.658	498.69
330.887	488.69
331.115	508.69
331.344	468.69
331.572	445.69
331.801	423.69
332.03	425.69
332.258	404.69
332.486	434.69
332.715	450.69
332.943	429.69
333.172	440.69
333.4	450.69
333.629	444.69
333.857	467.69
334.085	496.69
334.314	509.69
334.542	560.69
334.771	581.69
334.999	492.69
335.227	467.69
335.455	443.69
335.684	425.69
335.912	442.69
336.14	416.69
336.369	413.69
336.597	385.69
336.825	427.69
337.053	408.69
337.281	410.69
337.51	426.69
337.738	408.69
337.966	421.69
338.194	394.69
338.422	401.69
338.65	408.69
338.878	399.69
339.106	391.69
339.334	384.69
339.562	392.69
339.79	371.69
340.018	383.69
340.246	372.69
340.474	414.69
340.702	372.69
340.93	391.69
341.158	372.69
341.386	372.69
341.614	398.69
341.842	376.69
342.07	362.69
342.298	390.69
342.526	372.69
342.754	364.69
342.981	376.69
343.209	391.69
343.437	386.69
343.665	396.69
343.893	425.69
344.12	419.69
344.348	418.69
344.576	392.69
344.804	409.69
345.031	391.69
345.259	377.69
345.487	377.69
345.714	369.69
345.942	372.69
346.17	382.69
346.397	360.69
346.625	364.69
346.853	357.69
347.08	346.69
347.308	354.69
347.535	374.69
347.763	389.69
347.99	384.69
348.218	346.69
348.445	388.69
348.673	376.69
348.9	380.69
349.128	358.69
349.355	365.69
349.583	373.69
349.81	347.69
350.037	363.69
350.265	365.69
350.492	372.69
350.72	365.69
350.947	364.69
351.174	361.69
351.402	369.69
351.629	363.69
351.856	347.69
352.083	365.69
352.311	364.69
352.538	372.69
352.765	374.69
352.992	377.69
353.22	358.69
353.447	352.69
353.674	363.69
353.901	355.69
354.128	337.69
354.355	340.69
354.583	343.69
354.81	347.69
355.037	353.69
355.264	330.69
355.491	330.69
355.718	334.69
355.945	336.69
356.172	349.69
356.399	345.69
356.626	345.69
356.853	343.69
357.08	348.69
357.307	333.69
357.534	347.69
357.761	331.69
357.988	338.69
358.215	367.69
358.441	350.69
358.668	350.69
358.895	334.69
359.122	353.69
359.349	342.69
359.576	361.69
359.802	354.69
360.029	399.69
360.256	393.69
360.483	373.69
360.709	352.69
360.936	368.69
361.163	350.69
361.39	352.69
361.616	349.69
361.843	366.69
362.07	358.69
362.296	362.69
362.523	342.69
362.749	344.69
362.976	346.69
363.203	351.69
363.429	360.69
363.656	360.69
363.882	347.69
364.109	356.69
364.335	349.69
364.562	356.69
364.788	328.69
365.015	321.69
365.241	341.69
365.468	336.69
365.694	351.69
365.92	336.69
366.147	364.69
366.373	333.69
366.599	354.69
366.826	368.69
367.052	341.69
367.278	347.69
367.505	343.69
367.731	336.69
367.957	348.69
368.184	345.69
368.41	348.69
368.636	345.69
368.862	347.69
369.089	336.69
369.315	343.69
369.541	321.69
369.767	320.69
369.993	362.69
370.219	360.69
370.445	340.69
370.672	334.69
370.898	354.69
371.124	345.69
371.35	365.69
371.576	350.69
371.802	339.69
372.028	363.69
372.254	353.69
372.48	360.69
372.706	340.69
372.932	330.69
373.158	340.69
373.384	356.69
373.61	358.69
373.835	365.69
374.061	364.69
374.287	348.69
374.513	368.69
374.739	366.69
374.965	351.69
375.191	389.69
375.416	358.69
375.642	362.69
375.868	377.69
376.094	378.69
376.319	344.69
376.545	347.69
376.771	352.69
376.997	360.69
377.222	353.69
377.448	356.69
377.674	336.69
377.899	354.69
378.125	358.69
378.35	340.69
378.576	358.69
378.802	346.69
379.027	333.69
379.253	331.69
379.478	349.69
379.704	359.69
379.929	336.69
380.155	351.69
380.38	358.69
380.606	342.69
380.831	350.69
381.057	353.69
381.282	353.69
381.507	345.69
381.733	360.69
381.958	365.69
382.184	351.69
382.409	377.69
382.634	358.69
382.86	350.69
383.085	347.69
383.31	370.69
383.535	378.69
383.761	385.69
383.986	363.69
384.211	366.69
384.436	390.69
384.662	388.69
384.887	412.69
385.112	399.69
385.337	382.69
385.562	395.69
385.787	389.69
386.013	399.69
386.238	423.69
386.463	420.69
386.688	396.69
386.913	392.69
387.138	385.69
387.363	404.69
387.588	397.69
387.813	381.69
388.038	381.69
388.263	380.69
388.488	391.69
388.713	390.69
388.938	403.69
389.163	385.69
389.387	384.69
389.612	386.69
389.837	365.69
390.062	386.69
390.287	392.69
390.512	397.69
390.736	395.69
390.961	398.69
391.186	384.69
391.411	398.69
391.636	412.69
391.86	438.69
392.085	439.69
392.31	409.69
392.534	398.69
392.759	422.69
392.984	407.69
393.208	414.69
393.433	408.69
393.658	403.69
393.882	409.69
394.107	426.69
394.331	405.69
394.556	385.69
394.78	402.69
395.005	423.69
395.229	399.69
395.454	429.69
395.678	420.69
395.903	425.69
396.127	439.69
396.352	429.69
396.576	436.69
396.801	391.69
397.025	419.69
397.249	418.69
397.474	438.69
397.698	437.69
397.922	432.69
398.147	455.69
398.371	457.69
398.595	453.69
398.82	467.69
399.044	500.69
399.268	524.69
399.492	558.69
399.717	605.69
399.941	624.69
400.165	613.69
400.389	573.69
400.613	505.69
400.837	503.69
401.062	472.69
401.286	485.69
401.51	478.69
401.734	469.69
401.958	459.69
402.182	480.69
402.406	471.69
402.63	483.69
402.854	515.69
403.078	489.69
403.302	502.69
403.526	518.69
403.75	505.69
403.974	519.69
404.198	494.69
404.422	520.69
404.645	522.69
404.869	534.69
405.093	529.69
405.317	552.69
405.541	564.69
405.765	550.69
405.988	529.69
406.212	524.69
406.436	524.69
406.66	537.69
406.883	504.69
407.107	560.69
407.331	568.69
407.555	618.69
407.778	620.69
408.002	574.69
408.226	560.69
408.449	545.69
408.673	542.69
408.896	535.69
409.12	554.69
409.344	525.69
409.567	505.69
409.791	514.69
410.014	483.69
410.238	485.69
410.461	506.69
410.685	482.69
410.908	500.69
411.132	536.69
411.355	538.69
411.578	516.69
411.802	496.69
412.025	491.69
412.249	502.69
412.472	522.69
412.695	551.69
412.919	522.69
413.142	504.69
413.365	484.69
413.589	501.69
413.812	464.69
414.035	450.69
414.258	458.69
414.482	468.69
414.705	462.69
414.928	478.69
415.151	492.69
415.374	477.69
415.597	460.69
415.821	468.69
416.044	448.69
416.267	450.69
416.49	435.69
416.713	428.69
416.936	472.69
417.159	466.69
417.382	477.69
417.605	469.69
417.828	457.69
418.051	488.69
418.274	456.69
418.497	452.69
418.72	479.69
418.943	472.69
419.166	488.69
419.389	507.69
419.611	508.69
419.834	516.69
420.057	502.69
420.28	494.69
420.503	510.69
420.726	491.69
420.948	499.69
421.171	512.69
421.394	515.69
421.617	470.69
421.839	474.69
422.062	459.69
422.285	476.69
422.507	509.69
422.73	573.69
422.953	535.69
423.175	502.69
423.398	484.69
423.621	485.69
423.843	501.69
424.066	509.69
424.288	493.69
424.511	518.69
424.733	544.69
424.956	590.69
425.178	583.69
425.401	545.69
425.623	539.69
425.846	484.69
426.068	468.69
426.291	473.69
426.513	444.69
426.735	465.69
426.958	496.69
427.18	526.69
427.402	599.69
427.625	658.69
427.847	593.69
428.069	546.69
428.292	504.69
428.514	460.69
428.736	442.69
428.958	463.69
429.181	438.69
429.403	452.69
429.625	424.69
429.847	454.69
430.069	483.69
430.292	497.69
430.514	438.69
430.736	418.69
430.958	418.69
431.18	426.69
431.402	432.69
431.624	405.69
431.846	413.69
432.068	427.69
432.29	414.69
432.512	429.69
432.734	412.69
432.956	420.69
433.178	426.69
433.4	452.69
433.622	440.69
433.844	438.69
434.066	407.69
434.287	440.69
434.509	437.69
434.731	467.69
434.953	472.69
435.175	445.69
435.397	474.69
435.618	457.69
435.84	491.69
436.062	524.69
436.284	582.69
436.505	490.69
436.727	480.69
436.949	456.69
437.17	424.69
437.392	434.69
437.614	426.69
437.835	436.69
438.057	489.69
438.278	542.69
438.5	534.69
438.721	618.69
438.943	589.69
439.165	500.69
439.386	459.69
439.608	441.69
439.829	432.69
440.05	478.69
440.272	510.69
440.493	476.69
440.715	467.69
440.936	453.69
441.158	461.69
441.379	450.69
441.6	459.69
441.822	472.69
442.043	493.69
442.264	542.69
442.486	576.69
442.707	522.69
442.928	485.69
443.149	479.69
443.371	495.69
443.592	497.69
443.813	592.69
444.034	601.69
444.255	561.69
444.476	505.69
444.698	514.69
444.919	539.69
445.14	628.69
445.361	563.69
445.582	500.69
445.803	540.69
446.024	577.69
446.245	588.69
446.466	536.69
446.687	481.69
446.908	444.69
447.129	416.69
447.35	437.69
447.571	444.69
447.792	421.69
448.013	434.69
448.234	425.69
448.455	452.69
448.675	522.69
448.896	584.69
449.117	523.69
449.338	489.69
449.559	564.69
449.779	596.69
450	514.69
450.221	452.69
450.442	414.69
450.662	409.69
450.883	414.69
451.104	405.69
451.324	408.69
451.545	423.69
451.766	377.69
451.986	379.69
452.207	393.69
452.428	395.69
452.648	406.69
452.869	373.69
453.089	407.69
453.31	386.69
453.53	375.69
453.751	390.69
453.971	368.69
454.192	398.69
454.412	378.69
454.633	384.69
454.853	373.69
455.073	374.69
455.294	400.69
455.514	437.69
455.734	388.69
455.955	380.69
456.175	384.69
456.395	364.69
456.616	379.69
456.836	351.69
457.056	362.69
457.276	348.69
457.497	364.69
457.717	368.69
457.937	374.69
458.157	355.69
458.377	372.69
458.598	376.69
458.818	423.69
459.038	460.69
459.258	461.69
459.478	449.69
459.698	453.69
459.918	440.69
460.138	411.69
460.358	448.69
460.578	461.69
460.798	446.69
461.018	453.69
461.238	457.69
461.458	436.69
461.678	438.69
461.898	429.69
462.118	432.69
462.338	474.69
462.558	485.69
462.777	497.69
462.997	517.69
463.217	525.69
463.437	545.69
463.657	524.69
463.876	501.69
464.096	522.69
464.316	511.69
464.536	492.69
464.755	526.69
464.975	477.69
465.195	505.69
465.414	501.69
465.634	454.69
465.854	427.69
466.073	440.69
466.293	433.69
466.512	410.69
466.732	406.69
466.951	387.69
467.171	412.69
467.391	401.69
467.61	390.69
467.829	406.69
468.049	405.69
468.268	402.69
468.488	396.69
468.707	390.69
468.927	387.69
469.146	385.69
469.365	395.69
469.585	402.69
469.804	426.69
470.023	408.69
470.243	406.69
470.462	400.69
470.681	424.69
470.901	416.69
471.12	389.69
471.339	406.69
471.558	414.69
471.777	399.69
471.997	425.69
472.216	406.69
472.435	449.69
472.654	429.69
472.873	410.69
473.092	415.69
473.311	378.69
473.53	394.69
473.749	409.69
473.968	408.69
474.187	444.69
474.406	488.69
474.625	428.69
474.844	391.69
475.063	389.69
475.282	382.69
475.501	403.69
475.72	401.69
475.939	398.69
476.158	388.69
476.377	404.69
476.596	426.69
476.814	412.69
477.033	407.69
477.252	424.69
477.471	428.69
477.69	445.69
477.908	412.69
478.127	423.69
478.346	444.69
478.564	461.69
478.783	461.69
479.002	476.69
479.22	466.69
479.439	460.69
479.658	495.69
479.876	491.69
480.095	504.69
480.313	524.69
480.532	498.69
480.751	511.69
480.969	530.69
481.188	562.69
481.406	594.69
481.624	517.69
481.843	485.69
482.061	474.69
482.28	484.69
482.498	447.69
482.717	469.69
482.935	462.69
483.153	461.69
483.372	449.69
483.59	456.69
483.808	463.69
484.027	442.69
484.245	471.69
484.463	475.69
484.681	468.69
484.9	454.69
485.118	469.69
485.336	476.69
485.554	470.69
485.772	483.69
485.99	468.69
486.209	478.69
486.427	461.69
486.645	456.69
486.863	495.69
487.081	478.69
487.299	514.69
487.517	487.69
487.735	491.69
487.953	481.69
488.171	484.69
488.389	481.69
488.607	476.69
488.825	477.69
489.043	470.69
489.261	496.69
489.479	474.69
489.696	483.69
489.914	500.69
490.132	486.69
490.35	515.69
490.568	490.69
490.786	486.69
491.003	527.69
491.221	525.69
491.439	512.69
491.657	534.69
491.874	526.69
492.092	542.69
492.31	532.69
492.527	546.69
492.745	553.69
492.963	564.69
493.18	546.69
493.398	553.69
493.615	547.69
493.833	540.69
494.05	554.69
494.268	545.69
494.485	540.69
494.703	554.69
494.92	552.69
495.138	561.69
495.355	573.69
495.573	561.69
495.79	550.69
496.008	578.69
496.225	539.69
496.442	552.69
496.66	570.69
496.877	568.69
497.094	562.69
497.312	574.69
497.529	562.69
497.746	592.69
497.963	614.69
498.181	628.69
498.398	621.69
498.615	668.69
498.832	708.69
499.049	732.69
499.267	744.69
499.484	808.69
499.701	825.69
499.918	895.69
500.135	949.69
500.352	1042.69
500.569	1078.69
500.786	1088.69
501.003	1042.69
501.22	980.69
501.437	910.69
501.654	859.69
501.871	791.69
502.088	734.69
