Data from 1984.PennyLincolnUp.Lamp.En5.5.200Scan.071819.P1_HRD10591_16-57-41-967.txt Node
Date: Thu Jul 18 16:57:41 EDT 2019
User: cochatt
Spectrometer: HR+D1059
Trigger mode: 1
Integration Time (sec): 1.000000E-1
Scans to average: 1
Electric dark correction enabled: true
Nonlinearity correction enabled: false
Boxcar width: 0
XAxis mode: Wavelengths
Number of Pixels in Spectrum: 2048
>>>>>Begin Spectral Data<<<<<
223.165	-11.06
223.4	-11.06
223.635	-11.06
223.869	-8.06
224.104	-25.06
224.338	-18.06
224.573	-24.06
224.808	12.94
225.042	-2.06
225.277	-19.06
225.511	1.94
225.746	-1.06
225.98	-12.06
226.215	11.94
226.449	16.94
226.683	21.94
226.918	17.94
227.152	36.94
227.387	36.94
227.621	40.94
227.856	50.94
228.09	43.94
228.324	53.94
228.559	47.94
228.793	63.94
229.027	74.94
229.262	77.94
229.496	81.94
229.73	99.94
229.964	127.94
230.199	109.94
230.433	104.94
230.667	106.94
230.901	102.94
231.136	110.94
231.37	111.94
231.604	84.94
231.838	107.94
232.072	109.94
232.306	109.94
232.541	98.94
232.775	104.94
233.009	123.94
233.243	101.94
233.477	98.94
233.711	117.94
233.945	97.94
234.179	111.94
234.413	106.94
234.647	103.94
234.881	99.94
235.115	114.94
235.349	109.94
235.583	110.94
235.817	111.94
236.051	88.94
236.285	106.94
236.519	103.94
236.753	119.94
236.987	111.94
237.221	135.94
237.455	168.94
237.689	147.94
237.922	124.94
238.156	118.94
238.39	106.94
238.624	120.94
238.858	96.94
239.091	117.94
239.325	120.94
239.559	107.94
239.793	115.94
240.027	113.94
240.26	136.94
240.494	121.94
240.728	112.94
240.961	116.94
241.195	132.94
241.429	110.94
241.662	137.94
241.896	118.94
242.13	119.94
242.363	118.94
242.597	122.94
242.83	118.94
243.064	126.94
243.298	120.94
243.531	133.94
243.765	129.94
243.998	126.94
244.232	129.94
244.465	134.94
244.699	99.94
244.932	124.94
245.166	127.94
245.399	147.94
245.633	147.94
245.866	142.94
246.099	123.94
246.333	137.94
246.566	137.94
246.8	132.94
247.033	130.94
247.266	135.94
247.5	138.94
247.733	148.94
247.966	138.94
248.2	131.94
248.433	151.94
248.666	154.94
248.899	153.94
249.133	153.94
249.366	163.94
249.599	163.94
249.832	171.94
250.066	161.94
250.299	151.94
250.532	152.94
250.765	171.94
250.998	175.94
251.231	181.94
251.465	162.94
251.698	164.94
251.931	162.94
252.164	157.94
252.397	161.94
252.63	153.94
252.863	171.94
253.096	174.94
253.329	177.94
253.562	192.94
253.795	174.94
254.028	183.94
254.261	179.94
254.494	181.94
254.727	183.94
254.96	217.94
255.193	205.94
255.426	185.94
255.659	185.94
255.892	176.94
256.124	166.94
256.357	179.94
256.59	181.94
256.823	173.94
257.056	170.94
257.289	175.94
257.521	176.94
257.754	172.94
257.987	176.94
258.22	162.94
258.452	189.94
258.685	176.94
258.918	171.94
259.151	182.94
259.383	186.94
259.616	188.94
259.849	191.94
260.081	190.94
260.314	200.94
260.547	193.94
260.779	188.94
261.012	196.94
261.244	198.94
261.477	198.94
261.71	189.94
261.942	192.94
262.175	192.94
262.407	184.94
262.64	195.94
262.872	188.94
263.105	175.94
263.337	177.94
263.57	184.94
263.802	163.94
264.035	191.94
264.267	185.94
264.499	184.94
264.732	197.94
264.964	188.94
265.197	184.94
265.429	195.94
265.661	199.94
265.894	185.94
266.126	186.94
266.358	179.94
266.591	179.94
266.823	208.94
267.055	191.94
267.287	201.94
267.52	192.94
267.752	211.94
267.984	208.94
268.216	203.94
268.448	203.94
268.681	196.94
268.913	206.94
269.145	209.94
269.377	222.94
269.609	230.94
269.841	210.94
270.073	231.94
270.306	245.94
270.538	221.94
270.77	255.94
271.002	242.94
271.234	253.94
271.466	251.94
271.698	250.94
271.93	241.94
272.162	261.94
272.394	264.94
272.626	242.94
272.858	256.94
273.09	216.94
273.322	226.94
273.553	231.94
273.785	222.94
274.017	219.94
274.249	229.94
274.481	239.94
274.713	229.94
274.945	221.94
275.176	218.94
275.408	219.94
275.64	231.94
275.872	231.94
276.104	237.94
276.335	221.94
276.567	242.94
276.799	223.94
277.031	245.94
277.262	271.94
277.494	255.94
277.726	256.94
277.957	263.94
278.189	251.94
278.421	231.94
278.652	245.94
278.884	235.94
279.115	255.94
279.347	233.94
279.579	236.94
279.81	230.94
280.042	227.94
280.273	256.94
280.505	244.94
280.736	246.94
280.968	241.94
281.199	241.94
281.431	243.94
281.662	239.94
281.894	252.94
282.125	237.94
282.356	259.94
282.588	270.94
282.819	273.94
283.051	266.94
283.282	238.94
283.513	231.94
283.745	257.94
283.976	257.94
284.207	262.94
284.439	265.94
284.67	272.94
284.901	253.94
285.132	277.94
285.364	255.94
285.595	257.94
285.826	264.94
286.057	277.94
286.288	266.94
286.52	266.94
286.751	270.94
286.982	289.94
287.213	242.94
287.444	267.94
287.675	287.94
287.906	261.94
288.138	272.94
288.369	292.94
288.6	282.94
288.831	269.94
289.062	277.94
289.293	276.94
289.524	279.94
289.755	262.94
289.986	267.94
290.217	275.94
290.448	266.94
290.679	264.94
290.91	270.94
291.141	247.94
291.371	273.94
291.602	271.94
291.833	268.94
292.064	278.94
292.295	277.94
292.526	263.94
292.757	277.94
292.987	280.94
293.218	267.94
293.449	282.94
293.68	276.94
293.91	259.94
294.141	273.94
294.372	262.94
294.603	269.94
294.833	283.94
295.064	261.94
295.295	267.94
295.525	263.94
295.756	272.94
295.987	301.94
296.217	309.94
296.448	292.94
296.679	296.94
296.909	291.94
297.14	270.94
297.37	290.94
297.601	290.94
297.831	258.94
298.062	267.94
298.292	283.94
298.523	288.94
298.753	288.94
298.984	288.94
299.214	296.94
299.445	294.94
299.675	310.94
299.905	301.94
300.136	280.94
300.366	293.94
300.597	286.94
300.827	291.94
301.057	310.94
301.288	320.94
301.518	313.94
301.748	327.94
301.979	293.94
302.209	314.94
302.439	317.94
302.669	313.94
302.9	297.94
303.13	291.94
303.36	289.94
303.59	315.94
303.82	313.94
304.051	304.94
304.281	301.94
304.511	307.94
304.741	295.94
304.971	305.94
305.201	296.94
305.431	301.94
305.661	312.94
305.891	303.94
306.121	298.94
306.352	313.94
306.582	309.94
306.812	314.94
307.042	289.94
307.272	297.94
307.502	292.94
307.731	317.94
307.961	301.94
308.191	309.94
308.421	289.94
308.651	320.94
308.881	305.94
309.111	312.94
309.341	313.94
309.571	318.94
309.8	325.94
310.03	333.94
310.26	324.94
310.49	315.94
310.72	342.94
310.949	325.94
311.179	327.94
311.409	317.94
311.639	334.94
311.868	324.94
312.098	319.94
312.328	327.94
312.557	349.94
312.787	350.94
313.017	341.94
313.246	348.94
313.476	340.94
313.706	309.94
313.935	342.94
314.165	320.94
314.394	338.94
314.624	331.94
314.853	339.94
315.083	347.94
315.312	346.94
315.542	326.94
315.771	332.94
316.001	334.94
316.23	321.94
316.46	337.94
316.689	341.94
316.919	321.94
317.148	325.94
317.377	326.94
317.607	330.94
317.836	337.94
318.065	310.94
318.295	342.94
318.524	337.94
318.753	338.94
318.983	328.94
319.212	325.94
319.441	348.94
319.67	354.94
319.9	319.94
320.129	317.94
320.358	331.94
320.587	367.94
320.816	336.94
321.046	341.94
321.275	353.94
321.504	346.94
321.733	349.94
321.962	357.94
322.191	347.94
322.42	332.94
322.649	351.94
322.878	369.94
323.108	379.94
323.337	396.94
323.566	381.94
323.795	386.94
324.024	434.94
324.253	458.94
324.482	612.94
324.71	862.94
324.939	1202.94
325.168	1056.94
325.397	617.94
325.626	451.94
325.855	411.94
326.084	385.94
326.313	384.94
326.542	411.94
326.77	420.94
326.999	448.94
327.228	583.94
327.457	822.94
327.686	932.94
327.914	643.94
328.143	487.94
328.372	441.94
328.6	427.94
328.829	407.94
329.058	433.94
329.287	424.94
329.515	415.94
329.744	404.94
329.972	375.94
330.201	403.94
330.43	429.94
330.658	418.94
330.887	422.94
331.115	447.94
331.344	404.94
331.572	410.94
331.801	413.94
332.03	417.94
332.258	405.94
332.486	396.94
332.715	404.94
332.943	424.94
333.172	440.94
333.4	436.94
333.629	439.94
333.857	446.94
334.085	443.94
334.314	442.94
334.542	422.94
334.771	424.94
334.999	403.94
335.227	419.94
335.455	405.94
335.684	417.94
335.912	424.94
336.14	401.94
336.369	396.94
336.597	402.94
336.825	395.94
337.053	397.94
337.281	398.94
337.51	382.94
337.738	394.94
337.966	375.94
338.194	388.94
338.422	387.94
338.65	383.94
338.878	374.94
339.106	370.94
339.334	411.94
339.562	379.94
339.79	362.94
340.018	368.94
340.246	385.94
340.474	391.94
340.702	386.94
340.93	379.94
341.158	372.94
341.386	375.94
341.614	359.94
341.842	363.94
342.07	350.94
342.298	377.94
342.526	370.94
342.754	346.94
342.981	357.94
343.209	384.94
343.437	375.94
343.665	410.94
343.893	424.94
344.12	403.94
344.348	433.94
344.576	417.94
344.804	390.94
345.031	381.94
345.259	369.94
345.487	374.94
345.714	371.94
345.942	363.94
346.17	363.94
346.397	354.94
346.625	372.94
346.853	350.94
347.08	347.94
347.308	361.94
347.535	355.94
347.763	366.94
347.99	349.94
348.218	349.94
348.445	366.94
348.673	343.94
348.9	349.94
349.128	347.94
349.355	342.94
349.583	353.94
349.81	347.94
350.037	326.94
350.265	352.94
350.492	333.94
350.72	336.94
350.947	370.94
351.174	362.94
351.402	348.94
351.629	334.94
351.856	341.94
352.083	328.94
352.311	351.94
352.538	351.94
352.765	343.94
352.992	345.94
353.22	336.94
353.447	339.94
353.674	356.94
353.901	324.94
354.128	345.94
354.355	336.94
354.583	327.94
354.81	323.94
355.037	340.94
355.264	340.94
355.491	331.94
355.718	350.94
355.945	338.94
356.172	360.94
356.399	337.94
356.626	335.94
356.853	338.94
357.08	318.94
357.307	349.94
357.534	330.94
357.761	322.94
357.988	344.94
358.215	359.94
358.441	341.94
358.668	350.94
358.895	344.94
359.122	341.94
359.349	347.94
359.576	352.94
359.802	341.94
360.029	354.94
360.256	370.94
360.483	357.94
360.709	339.94
360.936	341.94
361.163	366.94
361.39	359.94
361.616	348.94
361.843	346.94
362.07	345.94
362.296	352.94
362.523	353.94
362.749	350.94
362.976	345.94
363.203	345.94
363.429	331.94
363.656	337.94
363.882	333.94
364.109	322.94
364.335	329.94
364.562	332.94
364.788	352.94
365.015	344.94
365.241	329.94
365.468	321.94
365.694	328.94
365.92	338.94
366.147	329.94
366.373	346.94
366.599	334.94
366.826	339.94
367.052	341.94
367.278	329.94
367.505	337.94
367.731	329.94
367.957	334.94
368.184	339.94
368.41	331.94
368.636	347.94
368.862	339.94
369.089	334.94
369.315	347.94
369.541	331.94
369.767	359.94
369.993	350.94
370.219	342.94
370.445	334.94
370.672	343.94
370.898	342.94
371.124	353.94
371.35	346.94
371.576	346.94
371.802	353.94
372.028	328.94
372.254	342.94
372.48	347.94
372.706	357.94
372.932	365.94
373.158	360.94
373.384	356.94
373.61	339.94
373.835	341.94
374.061	330.94
374.287	354.94
374.513	352.94
374.739	357.94
374.965	360.94
375.191	362.94
375.416	347.94
375.642	359.94
375.868	378.94
376.094	346.94
376.319	336.94
376.545	357.94
376.771	338.94
376.997	350.94
377.222	342.94
377.448	344.94
377.674	353.94
377.899	341.94
378.125	351.94
378.35	354.94
378.576	335.94
378.802	337.94
379.027	335.94
379.253	326.94
379.478	321.94
379.704	336.94
379.929	335.94
380.155	357.94
380.38	355.94
380.606	355.94
380.831	356.94
381.057	353.94
381.282	363.94
381.507	355.94
381.733	330.94
381.958	339.94
382.184	342.94
382.409	361.94
382.634	375.94
382.86	349.94
383.085	357.94
383.31	356.94
383.535	364.94
383.761	381.94
383.986	368.94
384.211	370.94
384.436	393.94
384.662	363.94
384.887	373.94
385.112	373.94
385.337	381.94
385.562	399.94
385.787	376.94
386.013	379.94
386.238	392.94
386.463	410.94
386.688	389.94
386.913	417.94
387.138	377.94
387.363	382.94
387.588	383.94
387.813	393.94
388.038	382.94
388.263	388.94
388.488	376.94
388.713	384.94
388.938	393.94
389.163	372.94
389.387	374.94
389.612	363.94
389.837	399.94
390.062	361.94
390.287	377.94
390.512	385.94
390.736	395.94
390.961	395.94
391.186	389.94
391.411	402.94
391.636	393.94
391.86	402.94
392.085	429.94
392.31	431.94
392.534	415.94
392.759	423.94
392.984	399.94
393.208	387.94
393.433	396.94
393.658	409.94
393.882	402.94
394.107	401.94
394.331	392.94
394.556	395.94
394.78	403.94
395.005	381.94
395.229	385.94
395.454	407.94
395.678	415.94
395.903	412.94
396.127	413.94
396.352	433.94
396.576	415.94
396.801	415.94
397.025	407.94
397.249	433.94
397.474	441.94
397.698	434.94
397.922	432.94
398.147	435.94
398.371	423.94
398.595	427.94
398.82	448.94
399.044	500.94
399.268	494.94
399.492	552.94
399.717	597.94
399.941	606.94
400.165	592.94
400.389	542.94
400.613	529.94
400.837	479.94
401.062	470.94
401.286	448.94
401.51	473.94
401.734	454.94
401.958	446.94
402.182	466.94
402.406	462.94
402.63	465.94
402.854	480.94
403.078	499.94
403.302	487.94
403.526	501.94
403.75	498.94
403.974	481.94
404.198	511.94
404.422	494.94
404.645	485.94
404.869	493.94
405.093	484.94
405.317	521.94
405.541	525.94
405.765	520.94
405.988	487.94
406.212	497.94
406.436	514.94
406.66	517.94
406.883	503.94
407.107	545.94
407.331	573.94
407.555	605.94
407.778	607.94
408.002	576.94
408.226	553.94
408.449	539.94
408.673	501.94
408.896	505.94
409.12	544.94
409.344	520.94
409.567	472.94
409.791	490.94
410.014	483.94
410.238	462.94
410.461	456.94
410.685	493.94
410.908	475.94
411.132	486.94
411.355	512.94
411.578	501.94
411.802	479.94
412.025	467.94
412.249	466.94
412.472	470.94
412.695	490.94
412.919	462.94
413.142	435.94
413.365	469.94
413.589	454.94
413.812	450.94
414.035	437.94
414.258	450.94
414.482	445.94
414.705	425.94
414.928	451.94
415.151	451.94
415.374	461.94
415.597	476.94
415.821	450.94
416.044	448.94
416.267	442.94
416.49	438.94
416.713	439.94
416.936	440.94
417.159	452.94
417.382	439.94
417.605	454.94
417.828	453.94
418.051	478.94
418.274	463.94
418.497	431.94
418.72	447.94
418.943	455.94
419.166	472.94
419.389	494.94
419.611	475.94
419.834	473.94
420.057	449.94
420.28	457.94
420.503	451.94
420.726	443.94
420.948	478.94
421.171	466.94
421.394	495.94
421.617	467.94
421.839	465.94
422.062	484.94
422.285	469.94
422.507	483.94
422.73	533.94
422.953	513.94
423.175	485.94
423.398	480.94
423.621	469.94
423.843	497.94
424.066	492.94
424.288	483.94
424.511	487.94
424.733	512.94
424.956	533.94
425.178	549.94
425.401	529.94
425.623	547.94
425.846	469.94
426.068	467.94
426.291	484.94
426.513	464.94
426.735	462.94
426.958	481.94
427.18	512.94
427.402	605.94
427.625	644.94
427.847	549.94
428.069	475.94
428.292	450.94
428.514	461.94
428.736	421.94
428.958	425.94
429.181	423.94
429.403	427.94
429.625	430.94
429.847	445.94
430.069	479.94
430.292	470.94
430.514	441.94
430.736	461.94
430.958	424.94
431.18	405.94
431.402	419.94
431.624	442.94
431.846	407.94
432.068	421.94
432.29	419.94
432.512	417.94
432.734	432.94
432.956	414.94
433.178	407.94
433.4	403.94
433.622	422.94
433.844	423.94
434.066	400.94
434.287	425.94
434.509	431.94
434.731	432.94
434.953	434.94
435.175	433.94
435.397	466.94
435.618	453.94
435.84	481.94
436.062	520.94
436.284	552.94
436.505	469.94
436.727	465.94
436.949	438.94
437.17	415.94
437.392	416.94
437.614	421.94
437.835	451.94
438.057	457.94
438.278	518.94
438.5	517.94
438.721	578.94
438.943	582.94
439.165	459.94
439.386	438.94
439.608	471.94
439.829	455.94
440.05	478.94
440.272	477.94
440.493	453.94
440.715	417.94
440.936	447.94
441.158	435.94
441.379	447.94
441.6	448.94
441.822	486.94
442.043	472.94
442.264	524.94
442.486	534.94
442.707	506.94
442.928	487.94
443.149	469.94
443.371	483.94
443.592	484.94
443.813	546.94
444.034	602.94
444.255	541.94
444.476	488.94
444.698	505.94
444.919	505.94
445.14	604.94
445.361	541.94
445.582	506.94
445.803	509.94
446.024	548.94
446.245	531.94
446.466	495.94
446.687	481.94
446.908	461.94
447.129	466.94
447.35	420.94
447.571	414.94
447.792	408.94
448.013	407.94
448.234	406.94
448.455	430.94
448.675	496.94
448.896	576.94
449.117	502.94
449.338	475.94
449.559	517.94
449.779	589.94
450	447.94
450.221	419.94
450.442	415.94
450.662	417.94
450.883	394.94
451.104	403.94
451.324	408.94
451.545	403.94
451.766	381.94
451.986	383.94
452.207	391.94
452.428	368.94
452.648	380.94
452.869	375.94
453.089	377.94
453.31	377.94
453.53	376.94
453.751	389.94
453.971	379.94
454.192	370.94
454.412	371.94
454.633	363.94
454.853	365.94
455.073	363.94
455.294	371.94
455.514	409.94
455.734	401.94
455.955	367.94
456.175	345.94
456.395	344.94
456.616	355.94
456.836	377.94
457.056	362.94
457.276	359.94
457.497	360.94
457.717	357.94
457.937	364.94
458.157	375.94
458.377	374.94
458.598	375.94
458.818	396.94
459.038	437.94
459.258	458.94
459.478	423.94
459.698	424.94
459.918	427.94
460.138	431.94
460.358	437.94
460.578	441.94
460.798	451.94
461.018	436.94
461.238	433.94
461.458	441.94
461.678	433.94
461.898	455.94
462.118	440.94
462.338	466.94
462.558	480.94
462.777	487.94
462.997	517.94
463.217	541.94
463.437	537.94
463.657	504.94
463.876	489.94
464.096	490.94
464.316	482.94
464.536	483.94
464.755	477.94
464.975	482.94
465.195	481.94
465.414	469.94
465.634	452.94
465.854	429.94
466.073	406.94
466.293	401.94
466.512	399.94
466.732	398.94
466.951	384.94
467.171	398.94
467.391	387.94
467.61	404.94
467.829	394.94
468.049	373.94
468.268	385.94
468.488	375.94
468.707	411.94
468.927	378.94
469.146	387.94
469.365	388.94
469.585	385.94
469.804	388.94
470.023	386.94
470.243	390.94
470.462	421.94
470.681	403.94
470.901	409.94
471.12	390.94
471.339	410.94
471.558	387.94
471.777	387.94
471.997	393.94
472.216	380.94
472.435	390.94
472.654	387.94
472.873	401.94
473.092	381.94
473.311	395.94
473.53	369.94
473.749	383.94
473.968	423.94
474.187	462.94
474.406	458.94
474.625	407.94
474.844	385.94
475.063	395.94
475.282	361.94
475.501	379.94
475.72	393.94
475.939	384.94
476.158	398.94
476.377	399.94
476.596	376.94
476.814	393.94
477.033	395.94
477.252	412.94
477.471	407.94
477.69	414.94
477.908	421.94
478.127	432.94
478.346	445.94
478.564	440.94
478.783	447.94
479.002	460.94
479.22	451.94
479.439	459.94
479.658	471.94
479.876	464.94
480.095	446.94
480.313	499.94
480.532	481.94
480.751	501.94
480.969	458.94
481.188	483.94
481.406	482.94
481.624	475.94
481.843	454.94
482.061	433.94
482.28	435.94
482.498	429.94
482.717	426.94
482.935	448.94
483.153	441.94
483.372	441.94
483.59	475.94
483.808	454.94
484.027	447.94
484.245	451.94
484.463	431.94
484.681	425.94
484.9	437.94
485.118	448.94
485.336	464.94
485.554	456.94
485.772	481.94
485.99	469.94
486.209	459.94
486.427	469.94
486.645	471.94
486.863	464.94
487.081	473.94
487.299	478.94
487.517	475.94
487.735	459.94
487.953	472.94
488.171	481.94
488.389	468.94
488.607	447.94
488.825	460.94
489.043	459.94
489.261	469.94
489.479	478.94
489.696	479.94
489.914	455.94
490.132	495.94
490.35	481.94
490.568	479.94
490.786	471.94
491.003	479.94
491.221	465.94
491.439	504.94
491.657	489.94
491.874	507.94
492.092	499.94
492.31	502.94
492.527	531.94
492.745	522.94
492.963	505.94
493.18	512.94
493.398	515.94
493.615	521.94
493.833	511.94
494.05	520.94
494.268	513.94
494.485	520.94
494.703	527.94
494.92	521.94
495.138	523.94
495.355	551.94
495.573	535.94
495.79	541.94
496.008	522.94
496.225	559.94
496.442	536.94
496.66	547.94
496.877	550.94
497.094	583.94
497.312	555.94
497.529	550.94
497.746	577.94
497.963	581.94
498.181	573.94
498.398	615.94
498.615	641.94
498.832	677.94
499.049	717.94
499.267	737.94
499.484	778.94
499.701	812.94
499.918	861.94
500.135	945.94
500.352	1037.94
500.569	1053.94
500.786	1056.94
501.003	986.94
501.22	957.94
501.437	884.94
501.654	816.94
501.871	809.94
502.088	730.94
