Data from 1984.PennyLincolnUp.Lamp.En5.5.200Scan.071819.P1_HRD10591_17-00-10-971.txt Node
Date: Thu Jul 18 17:00:10 EDT 2019
User: cochatt
Spectrometer: HR+D1059
Trigger mode: 1
Integration Time (sec): 1.000000E-1
Scans to average: 1
Electric dark correction enabled: true
Nonlinearity correction enabled: false
Boxcar width: 0
XAxis mode: Wavelengths
Number of Pixels in Spectrum: 2048
>>>>>Begin Spectral Data<<<<<
223.165	-18.38
223.4	-18.38
223.635	-18.38
223.869	-20.38
224.104	-9.38
224.338	-16.38
224.573	-11.38
224.808	-17.38
225.042	1.62
225.277	-13.38
225.511	-1.38
225.746	-8.38
225.98	-3.38
226.215	19.62
226.449	13.62
226.683	30.62
226.918	28.62
227.152	25.62
227.387	26.62
227.621	45.62
227.856	34.62
228.09	41.62
228.324	53.62
228.559	34.62
228.793	64.62
229.027	105.62
229.262	96.62
229.496	115.62
229.73	116.62
229.964	121.62
230.199	118.62
230.433	85.62
230.667	92.62
230.901	104.62
231.136	97.62
231.37	100.62
231.604	111.62
231.838	109.62
232.072	111.62
232.306	108.62
232.541	106.62
232.775	105.62
233.009	112.62
233.243	99.62
233.477	126.62
233.711	105.62
233.945	113.62
234.179	108.62
234.413	108.62
234.647	101.62
234.881	110.62
235.115	91.62
235.349	107.62
235.583	112.62
235.817	120.62
236.051	121.62
236.285	119.62
236.519	100.62
236.753	109.62
236.987	110.62
237.221	149.62
237.455	173.62
237.689	168.62
237.922	131.62
238.156	111.62
238.39	103.62
238.624	112.62
238.858	114.62
239.091	127.62
239.325	110.62
239.559	112.62
239.793	111.62
240.027	131.62
240.26	135.62
240.494	129.62
240.728	118.62
240.961	131.62
241.195	148.62
241.429	125.62
241.662	138.62
241.896	134.62
242.13	116.62
242.363	126.62
242.597	131.62
242.83	128.62
243.064	113.62
243.298	119.62
243.531	119.62
243.765	133.62
243.998	128.62
244.232	130.62
244.465	131.62
244.699	138.62
244.932	134.62
245.166	156.62
245.399	147.62
245.633	129.62
245.866	128.62
246.099	142.62
246.333	147.62
246.566	134.62
246.8	143.62
247.033	144.62
247.266	148.62
247.5	133.62
247.733	136.62
247.966	138.62
248.2	149.62
248.433	142.62
248.666	153.62
248.899	149.62
249.133	160.62
249.366	176.62
249.599	171.62
249.832	176.62
250.066	160.62
250.299	167.62
250.532	186.62
250.765	227.62
250.998	218.62
251.231	211.62
251.465	189.62
251.698	176.62
251.931	182.62
252.164	184.62
252.397	187.62
252.63	178.62
252.863	182.62
253.096	178.62
253.329	191.62
253.562	192.62
253.795	171.62
254.028	181.62
254.261	176.62
254.494	208.62
254.727	217.62
254.96	228.62
255.193	223.62
255.426	204.62
255.659	217.62
255.892	254.62
256.124	294.62
256.357	286.62
256.59	255.62
256.823	228.62
257.056	194.62
257.289	198.62
257.521	209.62
257.754	195.62
257.987	201.62
258.22	184.62
258.452	197.62
258.685	201.62
258.918	189.62
259.151	200.62
259.383	188.62
259.616	204.62
259.849	208.62
260.081	220.62
260.314	224.62
260.547	215.62
260.779	196.62
261.012	212.62
261.244	194.62
261.477	190.62
261.71	206.62
261.942	202.62
262.175	215.62
262.407	187.62
262.64	203.62
262.872	203.62
263.105	200.62
263.337	202.62
263.57	187.62
263.802	191.62
264.035	209.62
264.267	217.62
264.499	210.62
264.732	208.62
264.964	204.62
265.197	199.62
265.429	211.62
265.661	195.62
265.894	213.62
266.126	209.62
266.358	207.62
266.591	217.62
266.823	202.62
267.055	195.62
267.287	224.62
267.52	205.62
267.752	215.62
267.984	206.62
268.216	210.62
268.448	223.62
268.681	220.62
268.913	237.62
269.145	232.62
269.377	236.62
269.609	246.62
269.841	245.62
270.073	234.62
270.306	239.62
270.538	278.62
270.77	274.62
271.002	255.62
271.234	219.62
271.466	256.62
271.698	266.62
271.93	278.62
272.162	283.62
272.394	262.62
272.626	241.62
272.858	253.62
273.09	246.62
273.322	239.62
273.553	247.62
273.785	236.62
274.017	268.62
274.249	247.62
274.481	235.62
274.713	232.62
274.945	246.62
275.176	256.62
275.408	253.62
275.64	248.62
275.872	240.62
276.104	260.62
276.335	280.62
276.567	279.62
276.799	255.62
277.031	266.62
277.262	302.62
277.494	294.62
277.726	275.62
277.957	267.62
278.189	281.62
278.421	274.62
278.652	266.62
278.884	251.62
279.115	254.62
279.347	262.62
279.579	258.62
279.81	274.62
280.042	287.62
280.273	278.62
280.505	271.62
280.736	260.62
280.968	263.62
281.199	270.62
281.431	287.62
281.662	262.62
281.894	254.62
282.125	265.62
282.356	280.62
282.588	271.62
282.819	301.62
283.051	266.62
283.282	289.62
283.513	274.62
283.745	255.62
283.976	267.62
284.207	266.62
284.439	279.62
284.67	270.62
284.901	264.62
285.132	260.62
285.364	288.62
285.595	276.62
285.826	286.62
286.057	282.62
286.288	293.62
286.52	260.62
286.751	269.62
286.982	309.62
287.213	282.62
287.444	286.62
287.675	289.62
287.906	311.62
288.138	302.62
288.369	303.62
288.6	291.62
288.831	289.62
289.062	296.62
289.293	295.62
289.524	286.62
289.755	277.62
289.986	281.62
290.217	280.62
290.448	300.62
290.679	286.62
290.91	295.62
291.141	279.62
291.371	289.62
291.602	285.62
291.833	290.62
292.064	298.62
292.295	297.62
292.526	282.62
292.757	283.62
292.987	297.62
293.218	290.62
293.449	280.62
293.68	264.62
293.91	275.62
294.141	273.62
294.372	272.62
294.603	303.62
294.833	283.62
295.064	302.62
295.295	304.62
295.525	311.62
295.756	292.62
295.987	286.62
296.217	309.62
296.448	306.62
296.679	298.62
296.909	299.62
297.14	290.62
297.37	284.62
297.601	310.62
297.831	292.62
298.062	304.62
298.292	316.62
298.523	310.62
298.753	283.62
298.984	309.62
299.214	307.62
299.445	307.62
299.675	314.62
299.905	313.62
300.136	324.62
300.366	295.62
300.597	313.62
300.827	311.62
301.057	322.62
301.288	330.62
301.518	328.62
301.748	319.62
301.979	320.62
302.209	339.62
302.439	328.62
302.669	329.62
302.9	326.62
303.13	323.62
303.36	312.62
303.59	329.62
303.82	345.62
304.051	334.62
304.281	312.62
304.511	314.62
304.741	331.62
304.971	320.62
305.201	345.62
305.431	327.62
305.661	321.62
305.891	314.62
306.121	317.62
306.352	314.62
306.582	320.62
306.812	315.62
307.042	339.62
307.272	316.62
307.502	329.62
307.731	350.62
307.961	326.62
308.191	318.62
308.421	334.62
308.651	321.62
308.881	324.62
309.111	318.62
309.341	319.62
309.571	342.62
309.8	335.62
310.03	338.62
310.26	337.62
310.49	353.62
310.72	342.62
310.949	350.62
311.179	351.62
311.409	355.62
311.639	362.62
311.868	330.62
312.098	345.62
312.328	354.62
312.557	361.62
312.787	371.62
313.017	362.62
313.246	384.62
313.476	366.62
313.706	348.62
313.935	370.62
314.165	361.62
314.394	361.62
314.624	364.62
314.853	363.62
315.083	355.62
315.312	361.62
315.542	364.62
315.771	348.62
316.001	370.62
316.23	349.62
316.46	349.62
316.689	373.62
316.919	360.62
317.148	375.62
317.377	357.62
317.607	348.62
317.836	354.62
318.065	342.62
318.295	357.62
318.524	346.62
318.753	368.62
318.983	362.62
319.212	361.62
319.441	374.62
319.67	377.62
319.9	388.62
320.129	370.62
320.358	374.62
320.587	358.62
320.816	362.62
321.046	364.62
321.275	366.62
321.504	383.62
321.733	375.62
321.962	378.62
322.191	380.62
322.42	375.62
322.649	418.62
322.878	406.62
323.108	411.62
323.337	406.62
323.566	442.62
323.795	455.62
324.024	471.62
324.253	560.62
324.482	754.62
324.71	1104.62
324.939	1548.62
325.168	1286.62
325.397	717.62
325.626	514.62
325.855	459.62
326.084	474.62
326.313	444.62
326.542	460.62
326.77	483.62
326.999	559.62
327.228	730.62
327.457	1005.62
327.686	1205.62
327.914	854.62
328.143	645.62
328.372	596.62
328.6	558.62
328.829	516.62
329.058	516.62
329.287	529.62
329.515	540.62
329.744	530.62
329.972	563.62
330.201	626.62
330.43	715.62
330.658	656.62
330.887	584.62
331.115	532.62
331.344	487.62
331.572	445.62
331.801	494.62
332.03	478.62
332.258	475.62
332.486	455.62
332.715	491.62
332.943	473.62
333.172	501.62
333.4	489.62
333.629	532.62
333.857	578.62
334.085	623.62
334.314	716.62
334.542	839.62
334.771	836.62
334.999	656.62
335.227	553.62
335.455	506.62
335.684	477.62
335.912	463.62
336.14	462.62
336.369	430.62
336.597	475.62
336.825	432.62
337.053	440.62
337.281	443.62
337.51	432.62
337.738	432.62
337.966	436.62
338.194	424.62
338.422	427.62
338.65	422.62
338.878	409.62
339.106	414.62
339.334	443.62
339.562	430.62
339.79	400.62
340.018	407.62
340.246	397.62
340.474	403.62
340.702	379.62
340.93	418.62
341.158	380.62
341.386	387.62
341.614	412.62
341.842	399.62
342.07	388.62
342.298	403.62
342.526	380.62
342.754	385.62
342.981	403.62
343.209	392.62
343.437	418.62
343.665	391.62
343.893	421.62
344.12	417.62
344.348	420.62
344.576	433.62
344.804	402.62
345.031	415.62
345.259	403.62
345.487	400.62
345.714	382.62
345.942	390.62
346.17	393.62
346.397	380.62
346.625	385.62
346.853	391.62
347.08	376.62
347.308	369.62
347.535	388.62
347.763	368.62
347.99	386.62
348.218	382.62
348.445	384.62
348.673	384.62
348.9	381.62
349.128	379.62
349.355	377.62
349.583	369.62
349.81	375.62
350.037	385.62
350.265	359.62
350.492	355.62
350.72	371.62
350.947	372.62
351.174	366.62
351.402	372.62
351.629	376.62
351.856	385.62
352.083	394.62
352.311	378.62
352.538	380.62
352.765	366.62
352.992	373.62
353.22	364.62
353.447	366.62
353.674	373.62
353.901	365.62
354.128	348.62
354.355	356.62
354.583	352.62
354.81	360.62
355.037	349.62
355.264	363.62
355.491	342.62
355.718	355.62
355.945	329.62
356.172	337.62
356.399	355.62
356.626	360.62
356.853	347.62
357.08	350.62
357.307	371.62
357.534	346.62
357.761	334.62
357.988	360.62
358.215	371.62
358.441	359.62
358.668	339.62
358.895	368.62
359.122	338.62
359.349	353.62
359.576	350.62
359.802	370.62
360.029	402.62
360.256	387.62
360.483	396.62
360.709	380.62
360.936	353.62
361.163	366.62
361.39	390.62
361.616	360.62
361.843	382.62
362.07	380.62
362.296	355.62
362.523	370.62
362.749	368.62
362.976	368.62
363.203	359.62
363.429	341.62
363.656	341.62
363.882	344.62
364.109	347.62
364.335	360.62
364.562	354.62
364.788	362.62
365.015	351.62
365.241	353.62
365.468	362.62
365.694	344.62
365.92	371.62
366.147	338.62
366.373	339.62
366.599	358.62
366.826	334.62
367.052	355.62
367.278	360.62
367.505	340.62
367.731	362.62
367.957	345.62
368.184	350.62
368.41	356.62
368.636	380.62
368.862	350.62
369.089	352.62
369.315	351.62
369.541	385.62
369.767	360.62
369.993	361.62
370.219	361.62
370.445	344.62
370.672	359.62
370.898	338.62
371.124	338.62
371.35	371.62
371.576	365.62
371.802	357.62
372.028	370.62
372.254	366.62
372.48	352.62
372.706	355.62
372.932	371.62
373.158	358.62
373.384	378.62
373.61	370.62
373.835	385.62
374.061	384.62
374.287	355.62
374.513	355.62
374.739	379.62
374.965	368.62
375.191	384.62
375.416	404.62
375.642	394.62
375.868	394.62
376.094	379.62
376.319	381.62
376.545	368.62
376.771	368.62
376.997	371.62
377.222	354.62
377.448	378.62
377.674	356.62
377.899	344.62
378.125	342.62
378.35	364.62
378.576	375.62
378.802	368.62
379.027	356.62
379.253	366.62
379.478	364.62
379.704	346.62
379.929	371.62
380.155	374.62
380.38	350.62
380.606	344.62
380.831	357.62
381.057	384.62
381.282	366.62
381.507	362.62
381.733	363.62
381.958	354.62
382.184	362.62
382.409	371.62
382.634	378.62
382.86	378.62
383.085	384.62
383.31	376.62
383.535	402.62
383.761	380.62
383.986	391.62
384.211	402.62
384.436	402.62
384.662	400.62
384.887	388.62
385.112	405.62
385.337	409.62
385.562	409.62
385.787	417.62
386.013	416.62
386.238	417.62
386.463	425.62
386.688	422.62
386.913	399.62
387.138	424.62
387.363	400.62
387.588	394.62
387.813	397.62
388.038	399.62
388.263	400.62
388.488	404.62
388.713	403.62
388.938	415.62
389.163	423.62
389.387	403.62
389.612	417.62
389.837	387.62
390.062	412.62
390.287	413.62
390.512	408.62
390.736	402.62
390.961	405.62
391.186	418.62
391.411	421.62
391.636	440.62
391.86	432.62
392.085	432.62
392.31	444.62
392.534	444.62
392.759	440.62
392.984	422.62
393.208	402.62
393.433	412.62
393.658	410.62
393.882	409.62
394.107	415.62
394.331	431.62
394.556	427.62
394.78	411.62
395.005	432.62
395.229	421.62
395.454	438.62
395.678	442.62
395.903	440.62
396.127	463.62
396.352	444.62
396.576	459.62
396.801	435.62
397.025	440.62
397.249	435.62
397.474	439.62
397.698	451.62
397.922	445.62
398.147	456.62
398.371	452.62
398.595	452.62
398.82	471.62
399.044	513.62
399.268	528.62
399.492	575.62
399.717	639.62
399.941	670.62
400.165	627.62
400.389	595.62
400.613	518.62
400.837	514.62
401.062	506.62
401.286	502.62
401.51	499.62
401.734	487.62
401.958	485.62
402.182	481.62
402.406	526.62
402.63	500.62
402.854	499.62
403.078	519.62
403.302	501.62
403.526	520.62
403.75	533.62
403.974	542.62
404.198	547.62
404.422	543.62
404.645	553.62
404.869	560.62
405.093	588.62
405.317	606.62
405.541	639.62
405.765	573.62
405.988	545.62
406.212	555.62
406.436	560.62
406.66	552.62
406.883	548.62
407.107	589.62
407.331	602.62
407.555	644.62
407.778	656.62
408.002	614.62
408.226	574.62
408.449	546.62
408.673	544.62
408.896	567.62
409.12	587.62
409.344	569.62
409.567	550.62
409.791	519.62
410.014	499.62
410.238	512.62
410.461	502.62
410.685	516.62
410.908	530.62
411.132	520.62
411.355	548.62
411.578	529.62
411.802	514.62
412.025	523.62
412.249	542.62
412.472	596.62
412.695	620.62
412.919	612.62
413.142	567.62
413.365	554.62
413.589	500.62
413.812	492.62
414.035	502.62
414.258	486.62
414.482	482.62
414.705	482.62
414.928	473.62
415.151	497.62
415.374	488.62
415.597	475.62
415.821	486.62
416.044	482.62
416.267	465.62
416.49	501.62
416.713	480.62
416.936	483.62
417.159	474.62
417.382	502.62
417.605	496.62
417.828	497.62
418.051	491.62
418.274	492.62
418.497	483.62
418.72	488.62
418.943	470.62
419.166	527.62
419.389	532.62
419.611	519.62
419.834	524.62
420.057	532.62
420.28	533.62
420.503	544.62
420.726	544.62
420.948	518.62
421.171	544.62
421.394	525.62
421.617	490.62
421.839	497.62
422.062	499.62
422.285	498.62
422.507	535.62
422.73	556.62
422.953	555.62
423.175	505.62
423.398	511.62
423.621	509.62
423.843	521.62
424.066	518.62
424.288	517.62
424.511	528.62
424.733	565.62
424.956	584.62
425.178	572.62
425.401	564.62
425.623	578.62
425.846	520.62
426.068	489.62
426.291	500.62
426.513	473.62
426.735	479.62
426.958	527.62
427.18	546.62
427.402	662.62
427.625	690.62
427.847	638.62
428.069	603.62
428.292	574.62
428.514	479.62
428.736	479.62
428.958	465.62
429.181	454.62
429.403	449.62
429.625	463.62
429.847	484.62
430.069	514.62
430.292	523.62
430.514	426.62
430.736	430.62
430.958	455.62
431.18	454.62
431.402	418.62
431.624	420.62
431.846	416.62
432.068	421.62
432.29	456.62
432.512	445.62
432.734	442.62
432.956	434.62
433.178	436.62
433.4	440.62
433.622	446.62
433.844	446.62
434.066	448.62
434.287	449.62
434.509	443.62
434.731	455.62
434.953	491.62
435.175	487.62
435.397	497.62
435.618	502.62
435.84	524.62
436.062	579.62
436.284	613.62
436.505	512.62
436.727	485.62
436.949	427.62
437.17	438.62
437.392	465.62
437.614	438.62
437.835	465.62
438.057	518.62
438.278	583.62
438.5	566.62
438.721	652.62
438.943	613.62
439.165	520.62
439.386	470.62
439.608	487.62
439.829	477.62
440.05	495.62
440.272	498.62
440.493	521.62
440.715	465.62
440.936	470.62
441.158	449.62
441.379	458.62
441.6	496.62
441.822	500.62
442.043	539.62
442.264	566.62
442.486	583.62
442.707	524.62
442.928	494.62
443.149	495.62
443.371	497.62
443.592	530.62
443.813	594.62
444.034	638.62
444.255	574.62
444.476	523.62
444.698	539.62
444.919	548.62
445.14	662.62
445.361	597.62
445.582	520.62
445.803	555.62
446.024	627.62
446.245	593.62
446.466	562.62
446.687	506.62
446.908	455.62
447.129	451.62
447.35	446.62
447.571	446.62
447.792	423.62
448.013	427.62
448.234	444.62
448.455	455.62
448.675	532.62
448.896	619.62
449.117	543.62
449.338	503.62
449.559	568.62
449.779	624.62
450	548.62
450.221	442.62
450.442	424.62
450.662	439.62
450.883	431.62
451.104	437.62
451.324	420.62
451.545	402.62
451.766	437.62
451.986	422.62
452.207	388.62
452.428	412.62
452.648	403.62
452.869	404.62
453.089	400.62
453.31	394.62
453.53	400.62
453.751	391.62
453.971	376.62
454.192	411.62
454.412	400.62
454.633	387.62
454.853	396.62
455.073	373.62
455.294	386.62
455.514	434.62
455.734	446.62
455.955	406.62
456.175	385.62
456.395	374.62
456.616	378.62
456.836	367.62
457.056	379.62
457.276	409.62
457.497	384.62
457.717	397.62
457.937	382.62
458.157	388.62
458.377	401.62
458.598	388.62
458.818	439.62
459.038	494.62
459.258	496.62
459.478	465.62
459.698	437.62
459.918	448.62
460.138	449.62
460.358	453.62
460.578	468.62
460.798	465.62
461.018	505.62
461.238	482.62
461.458	472.62
461.678	491.62
461.898	456.62
462.118	470.62
462.338	467.62
462.558	504.62
462.777	517.62
462.997	555.62
463.217	575.62
463.437	587.62
463.657	564.62
463.876	527.62
464.096	506.62
464.316	522.62
464.536	527.62
464.755	510.62
464.975	500.62
465.195	506.62
465.414	536.62
465.634	504.62
465.854	458.62
466.073	438.62
466.293	439.62
466.512	423.62
466.732	425.62
466.951	427.62
467.171	407.62
467.391	432.62
467.61	421.62
467.829	427.62
468.049	466.62
468.268	463.62
468.488	433.62
468.707	415.62
468.927	430.62
469.146	404.62
469.365	403.62
469.585	407.62
469.804	429.62
470.023	441.62
470.243	432.62
470.462	425.62
470.681	456.62
470.901	443.62
471.12	448.62
471.339	430.62
471.558	429.62
471.777	409.62
471.997	460.62
472.216	472.62
472.435	610.62
472.654	558.62
472.873	467.62
473.092	433.62
473.311	435.62
473.53	443.62
473.749	449.62
473.968	451.62
474.187	487.62
474.406	515.62
474.625	454.62
474.844	434.62
475.063	436.62
475.282	425.62
475.501	427.62
475.72	438.62
475.939	424.62
476.158	425.62
476.377	419.62
476.596	428.62
476.814	427.62
477.033	435.62
477.252	424.62
477.471	444.62
477.69	450.62
477.908	456.62
478.127	458.62
478.346	446.62
478.564	463.62
478.783	465.62
479.002	472.62
479.22	477.62
479.439	500.62
479.658	524.62
479.876	513.62
480.095	513.62
480.313	532.62
480.532	555.62
480.751	551.62
480.969	616.62
481.188	753.62
481.406	846.62
481.624	659.62
481.843	584.62
482.061	542.62
482.28	518.62
482.498	506.62
482.717	513.62
482.935	498.62
483.153	499.62
483.372	491.62
483.59	473.62
483.808	466.62
484.027	495.62
484.245	502.62
484.463	498.62
484.681	504.62
484.9	500.62
485.118	500.62
485.336	482.62
485.554	504.62
485.772	512.62
485.99	524.62
486.209	485.62
486.427	497.62
486.645	478.62
486.863	497.62
487.081	495.62
487.299	513.62
487.517	492.62
487.735	501.62
487.953	525.62
488.171	516.62
488.389	508.62
488.607	495.62
488.825	506.62
489.043	511.62
489.261	521.62
489.479	529.62
489.696	521.62
489.914	540.62
490.132	525.62
490.35	527.62
490.568	540.62
490.786	558.62
491.003	527.62
491.221	555.62
491.439	587.62
491.657	590.62
491.874	615.62
492.092	589.62
492.31	602.62
492.527	608.62
492.745	587.62
492.963	613.62
493.18	619.62
493.398	614.62
493.615	607.62
493.833	614.62
494.05	611.62
494.268	591.62
494.485	583.62
494.703	592.62
494.92	606.62
495.138	595.62
495.355	591.62
495.573	594.62
495.79	598.62
496.008	610.62
496.225	576.62
496.442	584.62
496.66	600.62
496.877	606.62
497.094	622.62
497.312	601.62
497.529	599.62
497.746	638.62
497.963	647.62
498.181	661.62
498.398	671.62
498.615	674.62
498.832	706.62
499.049	723.62
499.267	762.62
499.484	844.62
499.701	889.62
499.918	922.62
500.135	985.62
500.352	1087.62
500.569	1117.62
500.786	1115.62
501.003	1097.62
501.22	1010.62
501.437	951.62
501.654	889.62
501.871	848.62
