Data from 1984.PennyLincolnUp.Lamp.En5.5.200Scan.071819.P1_HRD10591_16-57-42-968.txt Node
Date: Thu Jul 18 16:57:42 EDT 2019
User: cochatt
Spectrometer: HR+D1059
Trigger mode: 1
Integration Time (sec): 1.000000E-1
Scans to average: 1
Electric dark correction enabled: true
Nonlinearity correction enabled: false
Boxcar width: 0
XAxis mode: Wavelengths
Number of Pixels in Spectrum: 2048
>>>>>Begin Spectral Data<<<<<
223.165	-17.5
223.4	-17.5
223.635	-17.5
223.869	-15.5
224.104	-19.5
224.338	-7.5
224.573	-20.5
224.808	-10.5
225.042	-17.5
225.277	-15.5
225.511	-3.5
225.746	7.5
225.98	21.5
226.215	11.5
226.449	13.5
226.683	21.5
226.918	20.5
227.152	31.5
227.387	25.5
227.621	29.5
227.856	43.5
228.09	37.5
228.324	40.5
228.559	53.5
228.793	60.5
229.027	65.5
229.262	85.5
229.496	96.5
229.73	96.5
229.964	114.5
230.199	94.5
230.433	91.5
230.667	97.5
230.901	93.5
231.136	90.5
231.37	94.5
231.604	114.5
231.838	94.5
232.072	111.5
232.306	102.5
232.541	111.5
232.775	108.5
233.009	113.5
233.243	122.5
233.477	98.5
233.711	115.5
233.945	95.5
234.179	111.5
234.413	95.5
234.647	111.5
234.881	102.5
235.115	111.5
235.349	129.5
235.583	120.5
235.817	100.5
236.051	100.5
236.285	115.5
236.519	121.5
236.753	115.5
236.987	118.5
237.221	137.5
237.455	159.5
237.689	122.5
237.922	117.5
238.156	125.5
238.39	118.5
238.624	115.5
238.858	124.5
239.091	124.5
239.325	104.5
239.559	93.5
239.793	102.5
240.027	119.5
240.26	122.5
240.494	131.5
240.728	130.5
240.961	128.5
241.195	123.5
241.429	123.5
241.662	123.5
241.896	115.5
242.13	127.5
242.363	135.5
242.597	125.5
242.83	135.5
243.064	134.5
243.298	115.5
243.531	130.5
243.765	135.5
243.998	140.5
244.232	122.5
244.465	123.5
244.699	140.5
244.932	125.5
245.166	125.5
245.399	140.5
245.633	142.5
245.866	140.5
246.099	140.5
246.333	127.5
246.566	129.5
246.8	124.5
247.033	139.5
247.266	155.5
247.5	151.5
247.733	145.5
247.966	156.5
248.2	153.5
248.433	145.5
248.666	160.5
248.899	150.5
249.133	181.5
249.366	158.5
249.599	169.5
249.832	148.5
250.066	153.5
250.299	160.5
250.532	161.5
250.765	172.5
250.998	181.5
251.231	168.5
251.465	161.5
251.698	167.5
251.931	178.5
252.164	177.5
252.397	169.5
252.63	164.5
252.863	187.5
253.096	191.5
253.329	173.5
253.562	170.5
253.795	181.5
254.028	190.5
254.261	179.5
254.494	167.5
254.727	189.5
254.96	208.5
255.193	218.5
255.426	188.5
255.659	181.5
255.892	178.5
256.124	199.5
256.357	182.5
256.59	171.5
256.823	187.5
257.056	186.5
257.289	193.5
257.521	190.5
257.754	175.5
257.987	182.5
258.22	173.5
258.452	185.5
258.685	161.5
258.918	170.5
259.151	179.5
259.383	197.5
259.616	181.5
259.849	188.5
260.081	190.5
260.314	202.5
260.547	205.5
260.779	206.5
261.012	203.5
261.244	194.5
261.477	194.5
261.71	184.5
261.942	195.5
262.175	205.5
262.407	179.5
262.64	193.5
262.872	181.5
263.105	175.5
263.337	187.5
263.57	191.5
263.802	169.5
264.035	194.5
264.267	197.5
264.499	188.5
264.732	192.5
264.964	191.5
265.197	187.5
265.429	209.5
265.661	210.5
265.894	185.5
266.126	215.5
266.358	199.5
266.591	214.5
266.823	195.5
267.055	211.5
267.287	200.5
267.52	207.5
267.752	200.5
267.984	209.5
268.216	218.5
268.448	221.5
268.681	220.5
268.913	212.5
269.145	214.5
269.377	223.5
269.609	230.5
269.841	232.5
270.073	227.5
270.306	209.5
270.538	240.5
270.77	248.5
271.002	235.5
271.234	242.5
271.466	243.5
271.698	253.5
271.93	240.5
272.162	268.5
272.394	257.5
272.626	247.5
272.858	250.5
273.09	239.5
273.322	221.5
273.553	226.5
273.785	253.5
274.017	222.5
274.249	238.5
274.481	240.5
274.713	231.5
274.945	243.5
275.176	243.5
275.408	234.5
275.64	243.5
275.872	223.5
276.104	240.5
276.335	251.5
276.567	263.5
276.799	235.5
277.031	251.5
277.262	263.5
277.494	278.5
277.726	280.5
277.957	259.5
278.189	251.5
278.421	244.5
278.652	246.5
278.884	253.5
279.115	225.5
279.347	236.5
279.579	244.5
279.81	233.5
280.042	243.5
280.273	234.5
280.505	264.5
280.736	251.5
280.968	237.5
281.199	236.5
281.431	242.5
281.662	259.5
281.894	252.5
282.125	261.5
282.356	269.5
282.588	246.5
282.819	273.5
283.051	275.5
283.282	258.5
283.513	249.5
283.745	263.5
283.976	247.5
284.207	271.5
284.439	250.5
284.67	254.5
284.901	266.5
285.132	263.5
285.364	265.5
285.595	265.5
285.826	261.5
286.057	266.5
286.288	265.5
286.52	271.5
286.751	261.5
286.982	267.5
287.213	269.5
287.444	263.5
287.675	267.5
287.906	282.5
288.138	284.5
288.369	287.5
288.6	295.5
288.831	260.5
289.062	273.5
289.293	273.5
289.524	281.5
289.755	275.5
289.986	247.5
290.217	281.5
290.448	274.5
290.679	267.5
290.91	287.5
291.141	287.5
291.371	278.5
291.602	274.5
291.833	276.5
292.064	276.5
292.295	288.5
292.526	280.5
292.757	271.5
292.987	281.5
293.218	267.5
293.449	267.5
293.68	285.5
293.91	266.5
294.141	280.5
294.372	270.5
294.603	285.5
294.833	278.5
295.064	263.5
295.295	269.5
295.525	278.5
295.756	285.5
295.987	280.5
296.217	303.5
296.448	305.5
296.679	292.5
296.909	293.5
297.14	281.5
297.37	304.5
297.601	287.5
297.831	287.5
298.062	272.5
298.292	293.5
298.523	287.5
298.753	298.5
298.984	302.5
299.214	291.5
299.445	294.5
299.675	307.5
299.905	279.5
300.136	289.5
300.366	307.5
300.597	305.5
300.827	316.5
301.057	300.5
301.288	284.5
301.518	313.5
301.748	309.5
301.979	322.5
302.209	299.5
302.439	296.5
302.669	274.5
302.9	306.5
303.13	304.5
303.36	318.5
303.59	315.5
303.82	326.5
304.051	321.5
304.281	295.5
304.511	309.5
304.741	294.5
304.971	309.5
305.201	309.5
305.431	306.5
305.661	318.5
305.891	289.5
306.121	310.5
306.352	304.5
306.582	315.5
306.812	297.5
307.042	315.5
307.272	298.5
307.502	308.5
307.731	296.5
307.961	309.5
308.191	321.5
308.421	313.5
308.651	304.5
308.881	313.5
309.111	314.5
309.341	337.5
309.571	300.5
309.8	325.5
310.03	311.5
310.26	315.5
310.49	306.5
310.72	323.5
310.949	345.5
311.179	325.5
311.409	333.5
311.639	312.5
311.868	331.5
312.098	326.5
312.328	346.5
312.557	330.5
312.787	353.5
313.017	354.5
313.246	353.5
313.476	341.5
313.706	336.5
313.935	333.5
314.165	346.5
314.394	331.5
314.624	348.5
314.853	321.5
315.083	332.5
315.312	347.5
315.542	321.5
315.771	339.5
316.001	336.5
316.23	332.5
316.46	335.5
316.689	363.5
316.919	333.5
317.148	341.5
317.377	345.5
317.607	347.5
317.836	340.5
318.065	344.5
318.295	329.5
318.524	348.5
318.753	326.5
318.983	345.5
319.212	337.5
319.441	328.5
319.67	340.5
319.9	337.5
320.129	333.5
320.358	338.5
320.587	361.5
320.816	353.5
321.046	332.5
321.275	364.5
321.504	355.5
321.733	355.5
321.962	339.5
322.191	339.5
322.42	362.5
322.649	367.5
322.878	377.5
323.108	371.5
323.337	368.5
323.566	381.5
323.795	407.5
324.024	441.5
324.253	516.5
324.482	646.5
324.71	889.5
324.939	1203.5
325.168	1059.5
325.397	610.5
325.626	461.5
325.855	427.5
326.084	408.5
326.313	405.5
326.542	425.5
326.77	442.5
326.999	482.5
327.228	557.5
327.457	843.5
327.686	962.5
327.914	691.5
328.143	503.5
328.372	458.5
328.6	415.5
328.829	401.5
329.058	417.5
329.287	434.5
329.515	419.5
329.744	403.5
329.972	414.5
330.201	404.5
330.43	445.5
330.658	405.5
330.887	459.5
331.115	436.5
331.344	420.5
331.572	408.5
331.801	399.5
332.03	408.5
332.258	395.5
332.486	396.5
332.715	417.5
332.943	417.5
333.172	438.5
333.4	432.5
333.629	432.5
333.857	461.5
334.085	457.5
334.314	425.5
334.542	449.5
334.771	423.5
334.999	434.5
335.227	420.5
335.455	419.5
335.684	433.5
335.912	417.5
336.14	454.5
336.369	396.5
336.597	402.5
336.825	387.5
337.053	404.5
337.281	402.5
337.51	415.5
337.738	402.5
337.966	378.5
338.194	388.5
338.422	368.5
338.65	376.5
338.878	394.5
339.106	387.5
339.334	377.5
339.562	393.5
339.79	379.5
340.018	368.5
340.246	379.5
340.474	368.5
340.702	376.5
340.93	368.5
341.158	376.5
341.386	387.5
341.614	374.5
341.842	370.5
342.07	354.5
342.298	355.5
342.526	375.5
342.754	380.5
342.981	372.5
343.209	371.5
343.437	389.5
343.665	387.5
343.893	404.5
344.12	417.5
344.348	412.5
344.576	409.5
344.804	408.5
345.031	404.5
345.259	409.5
345.487	379.5
345.714	364.5
345.942	361.5
346.17	372.5
346.397	365.5
346.625	371.5
346.853	367.5
347.08	376.5
347.308	359.5
347.535	354.5
347.763	369.5
347.99	381.5
348.218	359.5
348.445	360.5
348.673	349.5
348.9	352.5
349.128	375.5
349.355	340.5
349.583	335.5
349.81	342.5
350.037	367.5
350.265	331.5
350.492	363.5
350.72	354.5
350.947	341.5
351.174	352.5
351.402	355.5
351.629	331.5
351.856	342.5
352.083	360.5
352.311	366.5
352.538	353.5
352.765	360.5
352.992	344.5
353.22	348.5
353.447	359.5
353.674	348.5
353.901	331.5
354.128	334.5
354.355	347.5
354.583	338.5
354.81	330.5
355.037	340.5
355.264	333.5
355.491	347.5
355.718	347.5
355.945	350.5
356.172	348.5
356.399	341.5
356.626	345.5
356.853	335.5
357.08	330.5
357.307	358.5
357.534	340.5
357.761	346.5
357.988	333.5
358.215	333.5
358.441	351.5
358.668	334.5
358.895	346.5
359.122	348.5
359.349	362.5
359.576	359.5
359.802	344.5
360.029	368.5
360.256	369.5
360.483	377.5
360.709	356.5
360.936	358.5
361.163	355.5
361.39	347.5
361.616	349.5
361.843	336.5
362.07	333.5
362.296	352.5
362.523	352.5
362.749	322.5
362.976	332.5
363.203	344.5
363.429	325.5
363.656	344.5
363.882	348.5
364.109	325.5
364.335	354.5
364.562	343.5
364.788	327.5
365.015	327.5
365.241	315.5
365.468	336.5
365.694	335.5
365.92	328.5
366.147	337.5
366.373	329.5
366.599	348.5
366.826	343.5
367.052	345.5
367.278	335.5
367.505	351.5
367.731	327.5
367.957	344.5
368.184	349.5
368.41	334.5
368.636	361.5
368.862	351.5
369.089	364.5
369.315	328.5
369.541	339.5
369.767	328.5
369.993	348.5
370.219	355.5
370.445	352.5
370.672	343.5
370.898	337.5
371.124	340.5
371.35	348.5
371.576	355.5
371.802	353.5
372.028	351.5
372.254	332.5
372.48	354.5
372.706	352.5
372.932	373.5
373.158	364.5
373.384	356.5
373.61	367.5
373.835	339.5
374.061	343.5
374.287	330.5
374.513	340.5
374.739	369.5
374.965	370.5
375.191	368.5
375.416	373.5
375.642	344.5
375.868	360.5
376.094	332.5
376.319	342.5
376.545	353.5
376.771	348.5
376.997	347.5
377.222	340.5
377.448	347.5
377.674	346.5
377.899	344.5
378.125	342.5
378.35	355.5
378.576	330.5
378.802	332.5
379.027	354.5
379.253	336.5
379.478	359.5
379.704	348.5
379.929	347.5
380.155	336.5
380.38	332.5
380.606	356.5
380.831	340.5
381.057	349.5
381.282	358.5
381.507	330.5
381.733	335.5
381.958	350.5
382.184	329.5
382.409	352.5
382.634	382.5
382.86	377.5
383.085	368.5
383.31	354.5
383.535	359.5
383.761	353.5
383.986	385.5
384.211	382.5
384.436	389.5
384.662	377.5
384.887	381.5
385.112	395.5
385.337	406.5
385.562	391.5
385.787	383.5
386.013	386.5
386.238	408.5
386.463	392.5
386.688	394.5
386.913	398.5
387.138	379.5
387.363	382.5
387.588	375.5
387.813	380.5
388.038	397.5
388.263	417.5
388.488	387.5
388.713	397.5
388.938	408.5
389.163	385.5
389.387	391.5
389.612	372.5
389.837	387.5
390.062	385.5
390.287	392.5
390.512	400.5
390.736	377.5
390.961	406.5
391.186	389.5
391.411	391.5
391.636	413.5
391.86	406.5
392.085	431.5
392.31	428.5
392.534	423.5
392.759	412.5
392.984	420.5
393.208	408.5
393.433	401.5
393.658	402.5
393.882	417.5
394.107	409.5
394.331	429.5
394.556	394.5
394.78	385.5
395.005	411.5
395.229	408.5
395.454	413.5
395.678	407.5
395.903	441.5
396.127	435.5
396.352	425.5
396.576	424.5
396.801	392.5
397.025	403.5
397.249	428.5
397.474	407.5
397.698	427.5
397.922	432.5
398.147	447.5
398.371	437.5
398.595	467.5
398.82	466.5
399.044	490.5
399.268	518.5
399.492	566.5
399.717	607.5
399.941	623.5
400.165	592.5
400.389	585.5
400.613	511.5
400.837	475.5
401.062	483.5
401.286	477.5
401.51	459.5
401.734	445.5
401.958	473.5
402.182	476.5
402.406	484.5
402.63	485.5
402.854	478.5
403.078	492.5
403.302	493.5
403.526	492.5
403.75	522.5
403.974	502.5
404.198	488.5
404.422	492.5
404.645	506.5
404.869	489.5
405.093	508.5
405.317	512.5
405.541	562.5
405.765	512.5
405.988	491.5
406.212	499.5
406.436	541.5
406.66	518.5
406.883	529.5
407.107	559.5
407.331	574.5
407.555	618.5
407.778	599.5
408.002	572.5
408.226	563.5
408.449	535.5
408.673	523.5
408.896	556.5
409.12	547.5
409.344	560.5
409.567	511.5
409.791	514.5
410.014	498.5
410.238	466.5
410.461	477.5
410.685	504.5
410.908	508.5
411.132	519.5
411.355	525.5
411.578	520.5
411.802	465.5
412.025	463.5
412.249	482.5
412.472	480.5
412.695	479.5
412.919	492.5
413.142	467.5
413.365	454.5
413.589	467.5
413.812	453.5
414.035	442.5
414.258	462.5
414.482	439.5
414.705	469.5
414.928	461.5
415.151	467.5
415.374	448.5
415.597	443.5
415.821	440.5
416.044	439.5
416.267	436.5
416.49	448.5
416.713	423.5
416.936	439.5
417.159	433.5
417.382	459.5
417.605	444.5
417.828	450.5
418.051	469.5
418.274	466.5
418.497	443.5
418.72	449.5
418.943	444.5
419.166	466.5
419.389	511.5
419.611	481.5
419.834	490.5
420.057	461.5
420.28	474.5
420.503	467.5
420.726	460.5
420.948	455.5
421.171	489.5
421.394	517.5
421.617	484.5
421.839	468.5
422.062	452.5
422.285	451.5
422.507	496.5
422.73	535.5
422.953	523.5
423.175	483.5
423.398	466.5
423.621	491.5
423.843	491.5
424.066	517.5
424.288	491.5
424.511	484.5
424.733	531.5
424.956	571.5
425.178	539.5
425.401	525.5
425.623	555.5
425.846	489.5
426.068	472.5
426.291	461.5
426.513	461.5
426.735	456.5
426.958	498.5
427.18	541.5
427.402	584.5
427.625	626.5
427.847	554.5
428.069	476.5
428.292	476.5
428.514	453.5
428.736	424.5
428.958	424.5
429.181	415.5
429.403	417.5
429.625	433.5
429.847	461.5
430.069	483.5
430.292	466.5
430.514	434.5
430.736	448.5
430.958	413.5
431.18	420.5
431.402	409.5
431.624	404.5
431.846	411.5
432.068	439.5
432.29	417.5
432.512	424.5
432.734	439.5
432.956	422.5
433.178	428.5
433.4	412.5
433.622	411.5
433.844	429.5
434.066	406.5
434.287	432.5
434.509	416.5
434.731	455.5
434.953	449.5
435.175	466.5
435.397	461.5
435.618	467.5
435.84	470.5
436.062	530.5
436.284	550.5
436.505	493.5
436.727	441.5
436.949	440.5
437.17	433.5
437.392	435.5
437.614	416.5
437.835	435.5
438.057	500.5
438.278	560.5
438.5	533.5
438.721	596.5
438.943	582.5
439.165	469.5
439.386	447.5
439.608	450.5
439.829	427.5
440.05	465.5
440.272	474.5
440.493	476.5
440.715	458.5
440.936	440.5
441.158	453.5
441.379	452.5
441.6	449.5
441.822	470.5
442.043	485.5
442.264	545.5
442.486	552.5
442.707	485.5
442.928	504.5
443.149	478.5
443.371	487.5
443.592	506.5
443.813	559.5
444.034	585.5
444.255	546.5
444.476	514.5
444.698	506.5
444.919	497.5
445.14	616.5
445.361	513.5
445.582	491.5
445.803	515.5
446.024	564.5
446.245	561.5
446.466	513.5
446.687	455.5
446.908	447.5
447.129	441.5
447.35	429.5
447.571	433.5
447.792	408.5
448.013	404.5
448.234	428.5
448.455	449.5
448.675	519.5
448.896	560.5
449.117	490.5
449.338	474.5
449.559	520.5
449.779	581.5
450	496.5
450.221	433.5
450.442	428.5
450.662	401.5
450.883	417.5
451.104	419.5
451.324	416.5
451.545	391.5
451.766	376.5
451.986	395.5
452.207	378.5
452.428	393.5
452.648	379.5
452.869	375.5
453.089	372.5
453.31	403.5
453.53	389.5
453.751	377.5
453.971	370.5
454.192	376.5
454.412	373.5
454.633	391.5
454.853	379.5
455.073	368.5
455.294	387.5
455.514	425.5
455.734	423.5
455.955	368.5
456.175	361.5
456.395	354.5
456.616	363.5
456.836	354.5
457.056	354.5
457.276	364.5
457.497	377.5
457.717	355.5
457.937	378.5
458.157	381.5
458.377	371.5
458.598	411.5
458.818	402.5
459.038	432.5
459.258	447.5
459.478	423.5
459.698	408.5
459.918	417.5
460.138	410.5
460.358	432.5
460.578	452.5
460.798	447.5
461.018	454.5
461.238	450.5
461.458	442.5
461.678	458.5
461.898	473.5
462.118	450.5
462.338	475.5
462.558	488.5
462.777	487.5
462.997	520.5
463.217	552.5
463.437	547.5
463.657	531.5
463.876	507.5
464.096	499.5
464.316	487.5
464.536	499.5
464.755	502.5
464.975	476.5
465.195	487.5
465.414	517.5
465.634	428.5
465.854	432.5
466.073	425.5
466.293	403.5
466.512	418.5
466.732	394.5
466.951	412.5
467.171	393.5
467.391	378.5
467.61	400.5
467.829	384.5
468.049	404.5
468.268	392.5
468.488	385.5
468.707	377.5
468.927	388.5
469.146	377.5
469.365	379.5
469.585	387.5
469.804	404.5
470.023	395.5
470.243	389.5
470.462	412.5
470.681	395.5
470.901	396.5
471.12	403.5
471.339	406.5
471.558	391.5
471.777	394.5
471.997	400.5
472.216	376.5
472.435	388.5
472.654	383.5
472.873	369.5
473.092	381.5
473.311	373.5
473.53	374.5
473.749	387.5
473.968	401.5
474.187	441.5
474.406	476.5
474.625	439.5
474.844	387.5
475.063	380.5
475.282	385.5
475.501	403.5
475.72	414.5
475.939	406.5
476.158	402.5
476.377	393.5
476.596	405.5
476.814	404.5
477.033	395.5
477.252	410.5
477.471	428.5
477.69	416.5
477.908	427.5
478.127	432.5
478.346	464.5
478.564	459.5
478.783	459.5
479.002	468.5
479.22	482.5
479.439	444.5
479.658	453.5
479.876	456.5
480.095	458.5
480.313	493.5
480.532	498.5
480.751	511.5
480.969	481.5
481.188	465.5
481.406	488.5
481.624	471.5
481.843	460.5
482.061	457.5
482.28	455.5
482.498	442.5
482.717	459.5
482.935	446.5
483.153	443.5
483.372	457.5
483.59	433.5
483.808	438.5
484.027	423.5
484.245	442.5
484.463	461.5
484.681	438.5
484.9	444.5
485.118	444.5
485.336	442.5
485.554	444.5
485.772	461.5
485.99	457.5
486.209	458.5
486.427	468.5
486.645	443.5
486.863	472.5
487.081	480.5
487.299	468.5
487.517	461.5
487.735	465.5
487.953	472.5
488.171	499.5
488.389	460.5
488.607	473.5
488.825	441.5
489.043	456.5
489.261	484.5
489.479	461.5
489.696	485.5
489.914	461.5
490.132	468.5
490.35	490.5
490.568	487.5
490.786	493.5
491.003	511.5
491.221	515.5
491.439	501.5
491.657	492.5
491.874	498.5
492.092	483.5
492.31	487.5
492.527	507.5
492.745	519.5
492.963	522.5
493.18	544.5
493.398	535.5
493.615	543.5
493.833	525.5
494.05	523.5
494.268	511.5
494.485	525.5
494.703	522.5
494.92	535.5
495.138	548.5
495.355	524.5
495.573	549.5
495.79	540.5
496.008	539.5
496.225	540.5
496.442	554.5
496.66	549.5
496.877	548.5
497.094	556.5
497.312	565.5
497.529	615.5
497.746	592.5
497.963	600.5
498.181	612.5
498.398	615.5
498.615	653.5
498.832	678.5
499.049	681.5
499.267	751.5
499.484	769.5
499.701	829.5
499.918	894.5
500.135	943.5
500.352	1030.5
500.569	1084.5
500.786	1067.5
501.003	1038.5
501.22	989.5
501.437	867.5
501.654	837.5
501.871	792.5
502.088	731.5
502.305	704.5
502.522	695.5
502.739	639.5
502.956	615.5
503.172	607.5
503.389	617.5
503.606	596.5
503.823	592.5
504.04	576.5
504.256	597.5
504.473	598.5
504.69	562.5
504.907	586.5
505.123	571.5
505.34	552.5
505.557	544.5
505.773	536.5
505.99	523.5
506.207	508.5
506.423	498.5
506.64	488.5
506.856	473.5
507.073	487.5
507.289	479.5
507.506	496.5
507.722	492.5
507.939	479.5
508.155	497.5
508.372	480.5
508.588	469.5
508.805	490.5
509.021	464.5
509.238	457.5
509.454	471.5
509.67	478.5
509.887	471.5
510.103	467.5
510.319	467.5
510.536	495.5
510.752	733.5
510.968	610.5
511.184	470.5
511.401	470.5
511.617	464.5
511.833	449.5
512.049	422.5
512.265	459.5
512.481	439.5
512.698	447.5
512.914	440.5
513.13	441.5
513.346	434.5
513.562	437.5
513.778	437.5
513.994	438.5
514.21	441.5
514.426	444.5
514.642	451.5
514.858	487.5
515.074	507.5
515.29	560.5
515.506	701.5
515.721	608.5
515.937	484.5
516.153	462.5
516.369	499.5
516.585	492.5
516.801	516.5
517.016	507.5
517.232	547.5
517.448	543.5
517.664	538.5
517.879	537.5
518.095	551.5
518.311	517.5
518.527	515.5
518.742	511.5
518.958	496.5
519.173	486.5
519.389	479.5
519.605	460.5
519.82	460.5
520.036	472.5
