Data from 1984.PennyLincolnUp.Lamp.En5.5.200Scan.071819.P1_HRD10591_16-59-01-968.txt Node
Date: Thu Jul 18 16:59:01 EDT 2019
User: cochatt
Spectrometer: HR+D1059
Trigger mode: 1
Integration Time (sec): 1.000000E-1
Scans to average: 1
Electric dark correction enabled: true
Nonlinearity correction enabled: false
Boxcar width: 0
XAxis mode: Wavelengths
Number of Pixels in Spectrum: 2048
>>>>>Begin Spectral Data<<<<<
223.165	-6.25
223.4	-6.25
223.635	-6.25
223.869	-23.25
224.104	-17.25
224.338	-10.25
224.573	-14.25
224.808	-10.25
225.042	-4.25
225.277	-4.25
225.511	-7.25
225.746	3.75
225.98	6.75
226.215	-5.25
226.449	11.75
226.683	24.75
226.918	33.75
227.152	21.75
227.387	20.75
227.621	33.75
227.856	41.75
228.09	40.75
228.324	47.75
228.559	52.75
228.793	65.75
229.027	89.75
229.262	107.75
229.496	96.75
229.73	107.75
229.964	121.75
230.199	115.75
230.433	113.75
230.667	102.75
230.901	103.75
231.136	99.75
231.37	114.75
231.604	115.75
231.838	103.75
232.072	114.75
232.306	117.75
232.541	118.75
232.775	109.75
233.009	105.75
233.243	120.75
233.477	99.75
233.711	96.75
233.945	128.75
234.179	107.75
234.413	129.75
234.647	107.75
234.881	107.75
235.115	118.75
235.349	109.75
235.583	118.75
235.817	132.75
236.051	116.75
236.285	102.75
236.519	109.75
236.753	124.75
236.987	125.75
237.221	141.75
237.455	173.75
237.689	157.75
237.922	129.75
238.156	137.75
238.39	122.75
238.624	107.75
238.858	118.75
239.091	119.75
239.325	120.75
239.559	110.75
239.793	129.75
240.027	139.75
240.26	113.75
240.494	131.75
240.728	117.75
240.961	130.75
241.195	132.75
241.429	126.75
241.662	124.75
241.896	135.75
242.13	135.75
242.363	123.75
242.597	119.75
242.83	131.75
243.064	134.75
243.298	127.75
243.531	132.75
243.765	141.75
243.998	126.75
244.232	115.75
244.465	126.75
244.699	139.75
244.932	131.75
245.166	126.75
245.399	141.75
245.633	136.75
245.866	127.75
246.099	133.75
246.333	139.75
246.566	164.75
246.8	129.75
247.033	131.75
247.266	151.75
247.5	146.75
247.733	139.75
247.966	142.75
248.2	154.75
248.433	139.75
248.666	164.75
248.899	156.75
249.133	166.75
249.366	182.75
249.599	164.75
249.832	163.75
250.066	147.75
250.299	164.75
250.532	187.75
250.765	192.75
250.998	196.75
251.231	198.75
251.465	190.75
251.698	168.75
251.931	175.75
252.164	174.75
252.397	172.75
252.63	174.75
252.863	178.75
253.096	195.75
253.329	189.75
253.562	200.75
253.795	191.75
254.028	198.75
254.261	192.75
254.494	198.75
254.727	194.75
254.96	228.75
255.193	228.75
255.426	215.75
255.659	206.75
255.892	215.75
256.124	251.75
256.357	247.75
256.59	237.75
256.823	203.75
257.056	212.75
257.289	192.75
257.521	199.75
257.754	181.75
257.987	185.75
258.22	200.75
258.452	187.75
258.685	194.75
258.918	183.75
259.151	200.75
259.383	196.75
259.616	192.75
259.849	193.75
260.081	199.75
260.314	205.75
260.547	212.75
260.779	215.75
261.012	193.75
261.244	197.75
261.477	206.75
261.71	199.75
261.942	181.75
262.175	199.75
262.407	197.75
262.64	206.75
262.872	181.75
263.105	192.75
263.337	193.75
263.57	205.75
263.802	206.75
264.035	190.75
264.267	188.75
264.499	181.75
264.732	206.75
264.964	197.75
265.197	212.75
265.429	207.75
265.661	194.75
265.894	206.75
266.126	198.75
266.358	204.75
266.591	206.75
266.823	193.75
267.055	209.75
267.287	228.75
267.52	200.75
267.752	215.75
267.984	200.75
268.216	232.75
268.448	231.75
268.681	230.75
268.913	233.75
269.145	225.75
269.377	249.75
269.609	251.75
269.841	236.75
270.073	248.75
270.306	235.75
270.538	262.75
270.77	260.75
271.002	253.75
271.234	260.75
271.466	255.75
271.698	247.75
271.93	254.75
272.162	255.75
272.394	271.75
272.626	260.75
272.858	262.75
273.09	261.75
273.322	244.75
273.553	238.75
273.785	259.75
274.017	246.75
274.249	234.75
274.481	243.75
274.713	223.75
274.945	261.75
275.176	226.75
275.408	253.75
275.64	243.75
275.872	240.75
276.104	262.75
276.335	252.75
276.567	253.75
276.799	275.75
277.031	268.75
277.262	271.75
277.494	271.75
277.726	277.75
277.957	253.75
278.189	257.75
278.421	271.75
278.652	235.75
278.884	251.75
279.115	245.75
279.347	246.75
279.579	251.75
279.81	259.75
280.042	244.75
280.273	268.75
280.505	263.75
280.736	264.75
280.968	255.75
281.199	260.75
281.431	266.75
281.662	254.75
281.894	273.75
282.125	268.75
282.356	280.75
282.588	279.75
282.819	275.75
283.051	274.75
283.282	282.75
283.513	281.75
283.745	249.75
283.976	266.75
284.207	263.75
284.439	262.75
284.67	275.75
284.901	285.75
285.132	267.75
285.364	275.75
285.595	283.75
285.826	278.75
286.057	264.75
286.288	284.75
286.52	255.75
286.751	271.75
286.982	287.75
287.213	269.75
287.444	276.75
287.675	301.75
287.906	278.75
288.138	284.75
288.369	292.75
288.6	295.75
288.831	289.75
289.062	271.75
289.293	272.75
289.524	271.75
289.755	277.75
289.986	285.75
290.217	290.75
290.448	284.75
290.679	299.75
290.91	290.75
291.141	256.75
291.371	277.75
291.602	281.75
291.833	281.75
292.064	293.75
292.295	283.75
292.526	282.75
292.757	296.75
292.987	289.75
293.218	282.75
293.449	297.75
293.68	284.75
293.91	270.75
294.141	280.75
294.372	285.75
294.603	287.75
294.833	285.75
295.064	277.75
295.295	283.75
295.525	269.75
295.756	279.75
295.987	292.75
296.217	298.75
296.448	294.75
296.679	295.75
296.909	311.75
297.14	301.75
297.37	300.75
297.601	277.75
297.831	307.75
298.062	302.75
298.292	317.75
298.523	304.75
298.753	298.75
298.984	300.75
299.214	322.75
299.445	301.75
299.675	308.75
299.905	299.75
300.136	301.75
300.366	321.75
300.597	293.75
300.827	307.75
301.057	324.75
301.288	333.75
301.518	316.75
301.748	339.75
301.979	332.75
302.209	323.75
302.439	329.75
302.669	299.75
302.9	343.75
303.13	337.75
303.36	324.75
303.59	315.75
303.82	331.75
304.051	304.75
304.281	317.75
304.511	333.75
304.741	312.75
304.971	318.75
305.201	283.75
305.431	302.75
305.661	310.75
305.891	332.75
306.121	328.75
306.352	317.75
306.582	330.75
306.812	324.75
307.042	314.75
307.272	316.75
307.502	325.75
307.731	317.75
307.961	313.75
308.191	326.75
308.421	315.75
308.651	323.75
308.881	323.75
309.111	330.75
309.341	334.75
309.571	326.75
309.8	328.75
310.03	350.75
310.26	346.75
310.49	341.75
310.72	346.75
310.949	366.75
311.179	353.75
311.409	347.75
311.639	326.75
311.868	361.75
312.098	347.75
312.328	358.75
312.557	365.75
312.787	355.75
313.017	353.75
313.246	355.75
313.476	334.75
313.706	365.75
313.935	357.75
314.165	372.75
314.394	360.75
314.624	355.75
314.853	348.75
315.083	357.75
315.312	352.75
315.542	344.75
315.771	351.75
316.001	341.75
316.23	356.75
316.46	348.75
316.689	355.75
316.919	353.75
317.148	362.75
317.377	364.75
317.607	370.75
317.836	358.75
318.065	353.75
318.295	339.75
318.524	356.75
318.753	347.75
318.983	358.75
319.212	318.75
319.441	340.75
319.67	358.75
319.9	369.75
320.129	353.75
320.358	355.75
320.587	346.75
320.816	362.75
321.046	339.75
321.275	367.75
321.504	365.75
321.733	363.75
321.962	379.75
322.191	378.75
322.42	378.75
322.649	376.75
322.878	389.75
323.108	399.75
323.337	427.75
323.566	420.75
323.795	436.75
324.024	469.75
324.253	536.75
324.482	712.75
324.71	1002.75
324.939	1406.75
325.168	1243.75
325.397	691.75
325.626	519.75
325.855	462.75
326.084	451.75
326.313	453.75
326.542	448.75
326.77	491.75
326.999	545.75
327.228	676.75
327.457	953.75
327.686	1141.75
327.914	790.75
328.143	586.75
328.372	525.75
328.6	512.75
328.829	487.75
329.058	484.75
329.287	500.75
329.515	493.75
329.744	486.75
329.972	494.75
330.201	510.75
330.43	569.75
330.658	547.75
330.887	535.75
331.115	499.75
331.344	452.75
331.572	469.75
331.801	444.75
332.03	422.75
332.258	430.75
332.486	431.75
332.715	454.75
332.943	474.75
333.172	458.75
333.4	485.75
333.629	509.75
333.857	520.75
334.085	565.75
334.314	580.75
334.542	637.75
334.771	632.75
334.999	549.75
335.227	486.75
335.455	476.75
335.684	443.75
335.912	445.75
336.14	455.75
336.369	431.75
336.597	454.75
336.825	452.75
337.053	426.75
337.281	420.75
337.51	422.75
337.738	414.75
337.966	411.75
338.194	391.75
338.422	433.75
338.65	407.75
338.878	413.75
339.106	407.75
339.334	407.75
339.562	408.75
339.79	393.75
340.018	405.75
340.246	388.75
340.474	398.75
340.702	398.75
340.93	396.75
341.158	390.75
341.386	396.75
341.614	414.75
341.842	381.75
342.07	405.75
342.298	399.75
342.526	389.75
342.754	384.75
342.981	384.75
343.209	380.75
343.437	404.75
343.665	417.75
343.893	427.75
344.12	431.75
344.348	444.75
344.576	423.75
344.804	395.75
345.031	412.75
345.259	405.75
345.487	385.75
345.714	387.75
345.942	347.75
346.17	388.75
346.397	375.75
346.625	374.75
346.853	379.75
347.08	372.75
347.308	373.75
347.535	374.75
347.763	386.75
347.99	367.75
348.218	383.75
348.445	382.75
348.673	378.75
348.9	373.75
349.128	383.75
349.355	388.75
349.583	378.75
349.81	366.75
350.037	358.75
350.265	367.75
350.492	350.75
350.72	373.75
350.947	359.75
351.174	371.75
351.402	403.75
351.629	363.75
351.856	373.75
352.083	381.75
352.311	380.75
352.538	373.75
352.765	384.75
352.992	378.75
353.22	381.75
353.447	358.75
353.674	346.75
353.901	379.75
354.128	357.75
354.355	344.75
354.583	359.75
354.81	377.75
355.037	363.75
355.264	355.75
355.491	346.75
355.718	349.75
355.945	355.75
356.172	351.75
356.399	338.75
356.626	350.75
356.853	349.75
357.08	355.75
357.307	362.75
357.534	355.75
357.761	355.75
357.988	381.75
358.215	360.75
358.441	343.75
358.668	357.75
358.895	334.75
359.122	342.75
359.349	341.75
359.576	371.75
359.802	377.75
360.029	378.75
360.256	402.75
360.483	378.75
360.709	373.75
360.936	371.75
361.163	360.75
361.39	365.75
361.616	362.75
361.843	382.75
362.07	375.75
362.296	375.75
362.523	366.75
362.749	345.75
362.976	361.75
363.203	354.75
363.429	373.75
363.656	353.75
363.882	353.75
364.109	372.75
364.335	354.75
364.562	351.75
364.788	366.75
365.015	358.75
365.241	366.75
365.468	335.75
365.694	361.75
365.92	361.75
366.147	369.75
366.373	355.75
366.599	356.75
366.826	344.75
367.052	362.75
367.278	354.75
367.505	360.75
367.731	350.75
367.957	354.75
368.184	372.75
368.41	352.75
368.636	354.75
368.862	373.75
369.089	365.75
369.315	340.75
369.541	360.75
369.767	339.75
369.993	380.75
370.219	368.75
370.445	345.75
370.672	351.75
370.898	363.75
371.124	350.75
371.35	346.75
371.576	379.75
371.802	388.75
372.028	372.75
372.254	374.75
372.48	363.75
372.706	363.75
372.932	373.75
373.158	369.75
373.384	373.75
373.61	353.75
373.835	371.75
374.061	363.75
374.287	362.75
374.513	366.75
374.739	376.75
374.965	389.75
375.191	407.75
375.416	389.75
375.642	377.75
375.868	371.75
376.094	380.75
376.319	372.75
376.545	352.75
376.771	352.75
376.997	359.75
377.222	357.75
377.448	361.75
377.674	357.75
377.899	362.75
378.125	376.75
378.35	353.75
378.576	345.75
378.802	340.75
379.027	351.75
379.253	370.75
379.478	360.75
379.704	353.75
379.929	339.75
380.155	359.75
380.38	342.75
380.606	359.75
380.831	366.75
381.057	375.75
381.282	375.75
381.507	371.75
381.733	363.75
381.958	351.75
382.184	349.75
382.409	377.75
382.634	371.75
382.86	384.75
383.085	393.75
383.31	375.75
383.535	379.75
383.761	362.75
383.986	385.75
384.211	363.75
384.436	381.75
384.662	405.75
384.887	398.75
385.112	413.75
385.337	422.75
385.562	405.75
385.787	381.75
386.013	413.75
386.238	420.75
386.463	410.75
386.688	398.75
386.913	417.75
387.138	418.75
387.363	410.75
387.588	398.75
387.813	392.75
388.038	398.75
388.263	390.75
388.488	408.75
388.713	387.75
388.938	406.75
389.163	393.75
389.387	400.75
389.612	391.75
389.837	397.75
390.062	399.75
390.287	409.75
390.512	383.75
390.736	410.75
390.961	414.75
391.186	399.75
391.411	413.75
391.636	417.75
391.86	436.75
392.085	457.75
392.31	445.75
392.534	439.75
392.759	430.75
392.984	426.75
393.208	417.75
393.433	419.75
393.658	393.75
393.882	396.75
394.107	429.75
394.331	426.75
394.556	410.75
394.78	424.75
395.005	415.75
395.229	413.75
395.454	425.75
395.678	440.75
395.903	452.75
396.127	450.75
396.352	419.75
396.576	448.75
396.801	426.75
397.025	418.75
397.249	433.75
397.474	456.75
397.698	430.75
397.922	444.75
398.147	471.75
398.371	461.75
398.595	465.75
398.82	487.75
399.044	478.75
399.268	523.75
399.492	580.75
399.717	614.75
399.941	639.75
400.165	605.75
400.389	599.75
400.613	513.75
400.837	505.75
401.062	482.75
401.286	486.75
401.51	486.75
401.734	469.75
401.958	474.75
402.182	492.75
402.406	488.75
402.63	508.75
402.854	510.75
403.078	518.75
403.302	501.75
403.526	535.75
403.75	515.75
403.974	542.75
404.198	500.75
404.422	528.75
404.645	513.75
404.869	533.75
405.093	553.75
405.317	607.75
405.541	607.75
405.765	566.75
405.988	559.75
406.212	562.75
406.436	543.75
406.66	558.75
406.883	519.75
407.107	565.75
407.331	600.75
407.555	656.75
407.778	637.75
408.002	599.75
408.226	567.75
408.449	550.75
408.673	553.75
408.896	572.75
409.12	588.75
409.344	568.75
409.567	497.75
409.791	503.75
410.014	497.75
410.238	509.75
410.461	514.75
410.685	500.75
410.908	511.75
411.132	514.75
411.355	539.75
411.578	533.75
411.802	501.75
412.025	486.75
412.249	511.75
412.472	555.75
412.695	569.75
412.919	569.75
413.142	534.75
413.365	528.75
413.589	494.75
413.812	477.75
414.035	469.75
414.258	484.75
414.482	482.75
414.705	474.75
414.928	481.75
415.151	468.75
415.374	475.75
415.597	465.75
415.821	478.75
416.044	452.75
416.267	451.75
416.49	463.75
416.713	472.75
416.936	467.75
417.159	452.75
417.382	487.75
417.605	483.75
417.828	484.75
418.051	478.75
418.274	467.75
418.497	469.75
418.72	490.75
418.943	504.75
419.166	521.75
419.389	527.75
419.611	540.75
419.834	520.75
420.057	532.75
420.28	539.75
420.503	531.75
420.726	504.75
420.948	503.75
421.171	526.75
421.394	536.75
421.617	483.75
421.839	483.75
422.062	501.75
422.285	479.75
422.507	513.75
422.73	561.75
422.953	539.75
423.175	525.75
423.398	510.75
423.621	497.75
423.843	523.75
424.066	517.75
424.288	513.75
424.511	511.75
424.733	544.75
424.956	615.75
425.178	568.75
425.401	571.75
425.623	579.75
425.846	527.75
426.068	470.75
426.291	483.75
426.513	491.75
426.735	506.75
426.958	523.75
427.18	542.75
427.402	626.75
427.625	673.75
427.847	600.75
428.069	539.75
428.292	519.75
428.514	506.75
428.736	478.75
428.958	462.75
429.181	457.75
429.403	457.75
429.625	472.75
429.847	464.75
430.069	505.75
430.292	517.75
430.514	467.75
430.736	463.75
430.958	445.75
431.18	437.75
431.402	449.75
431.624	423.75
431.846	429.75
432.068	420.75
432.29	448.75
432.512	437.75
432.734	438.75
432.956	434.75
433.178	448.75
433.4	446.75
433.622	445.75
433.844	433.75
434.066	436.75
434.287	445.75
434.509	439.75
434.731	473.75
434.953	474.75
435.175	477.75
435.397	482.75
435.618	478.75
435.84	503.75
436.062	546.75
436.284	603.75
436.505	505.75
436.727	485.75
436.949	453.75
437.17	462.75
437.392	440.75
437.614	445.75
437.835	475.75
438.057	508.75
438.278	556.75
438.5	577.75
438.721	617.75
438.943	599.75
439.165	519.75
439.386	474.75
439.608	481.75
439.829	468.75
440.05	492.75
440.272	493.75
440.493	503.75
440.715	451.75
440.936	447.75
441.158	454.75
441.379	458.75
441.6	473.75
441.822	486.75
442.043	492.75
442.264	557.75
442.486	563.75
442.707	513.75
442.928	486.75
443.149	503.75
443.371	515.75
443.592	555.75
443.813	597.75
444.034	617.75
444.255	552.75
444.476	533.75
444.698	524.75
444.919	533.75
445.14	635.75
445.361	578.75
445.582	528.75
445.803	538.75
446.024	595.75
446.245	587.75
446.466	545.75
446.687	503.75
446.908	473.75
447.129	457.75
447.35	435.75
447.571	445.75
447.792	437.75
448.013	451.75
448.234	454.75
448.455	459.75
448.675	546.75
448.896	588.75
449.117	511.75
449.338	510.75
449.559	553.75
449.779	615.75
450	513.75
450.221	454.75
450.442	427.75
450.662	438.75
450.883	430.75
451.104	424.75
451.324	415.75
451.545	411.75
451.766	433.75
451.986	401.75
452.207	417.75
452.428	406.75
452.648	402.75
452.869	401.75
453.089	401.75
453.31	415.75
453.53	413.75
453.751	413.75
453.971	394.75
454.192	403.75
454.412	425.75
454.633	405.75
454.853	401.75
455.073	386.75
455.294	395.75
455.514	443.75
455.734	441.75
455.955	390.75
456.175	380.75
456.395	378.75
456.616	381.75
456.836	367.75
457.056	379.75
457.276	395.75
457.497	388.75
457.717	363.75
457.937	373.75
458.157	394.75
458.377	399.75
458.598	408.75
458.818	427.75
459.038	469.75
459.258	473.75
459.478	457.75
459.698	438.75
459.918	443.75
460.138	429.75
460.358	471.75
460.578	471.75
460.798	477.75
461.018	474.75
461.238	487.75
461.458	470.75
461.678	455.75
461.898	463.75
462.118	474.75
462.338	489.75
462.558	495.75
462.777	513.75
462.997	537.75
463.217	579.75
463.437	553.75
463.657	508.75
463.876	522.75
464.096	532.75
464.316	530.75
464.536	537.75
464.755	531.75
464.975	502.75
465.195	498.75
465.414	527.75
465.634	476.75
465.854	461.75
466.073	434.75
466.293	439.75
466.512	409.75
466.732	409.75
466.951	417.75
467.171	408.75
467.391	431.75
467.61	422.75
467.829	416.75
468.049	434.75
468.268	453.75
468.488	437.75
468.707	405.75
468.927	403.75
469.146	402.75
469.365	392.75
469.585	415.75
469.804	417.75
470.023	431.75
470.243	431.75
470.462	441.75
470.681	430.75
470.901	453.75
471.12	429.75
471.339	430.75
471.558	414.75
471.777	398.75
471.997	431.75
472.216	451.75
472.435	491.75
472.654	475.75
472.873	457.75
473.092	427.75
473.311	428.75
473.53	414.75
473.749	406.75
473.968	437.75
474.187	491.75
474.406	489.75
474.625	426.75
474.844	409.75
475.063	407.75
475.282	401.75
475.501	403.75
475.72	406.75
475.939	417.75
476.158	413.75
476.377	424.75
476.596	420.75
476.814	424.75
477.033	434.75
477.252	424.75
477.471	426.75
477.69	460.75
477.908	437.75
478.127	462.75
478.346	448.75
478.564	473.75
478.783	479.75
479.002	506.75
479.22	473.75
479.439	508.75
479.658	498.75
479.876	473.75
480.095	495.75
480.313	516.75
480.532	533.75
480.751	514.75
480.969	527.75
481.188	618.75
481.406	659.75
481.624	577.75
481.843	519.75
482.061	495.75
482.28	508.75
482.498	504.75
482.717	467.75
482.935	471.75
483.153	470.75
483.372	490.75
483.59	463.75
483.808	457.75
484.027	453.75
484.245	464.75
484.463	475.75
484.681	487.75
484.9	487.75
485.118	485.75
485.336	474.75
485.554	492.75
485.772	497.75
485.99	526.75
486.209	489.75
486.427	479.75
486.645	508.75
486.863	475.75
487.081	480.75
487.299	500.75
487.517	521.75
487.735	465.75
487.953	473.75
488.171	500.75
488.389	507.75
488.607	506.75
488.825	505.75
489.043	490.75
489.261	513.75
489.479	514.75
489.696	522.75
489.914	512.75
490.132	531.75
490.35	515.75
490.568	511.75
490.786	517.75
491.003	524.75
491.221	563.75
491.439	568.75
491.657	560.75
491.874	557.75
492.092	583.75
492.31	550.75
492.527	575.75
492.745	591.75
492.963	597.75
493.18	565.75
493.398	575.75
493.615	594.75
493.833	592.75
494.05	566.75
494.268	589.75
494.485	574.75
494.703	590.75
494.92	584.75
495.138	583.75
495.355	579.75
495.573	561.75
495.79	569.75
496.008	589.75
496.225	574.75
496.442	584.75
496.66	565.75
496.877	585.75
497.094	589.75
497.312	597.75
497.529	612.75
497.746	607.75
497.963	599.75
498.181	635.75
498.398	647.75
498.615	665.75
498.832	708.75
499.049	710.75
499.267	753.75
499.484	829.75
499.701	878.75
499.918	920.75
500.135	988.75
500.352	1047.75
500.569	1147.75
500.786	1112.75
501.003	1068.75
501.22	986.75
501.437	919.75
501.654	861.75
501.871	820.75
502.088	775.75
