Data from 1984.PennyLincolnUp.Lamp.En5.5.200Scan.071819.P1_HRD10591_16-59-27-969.txt Node
Date: Thu Jul 18 16:59:27 EDT 2019
User: cochatt
Spectrometer: HR+D1059
Trigger mode: 1
Integration Time (sec): 1.000000E-1
Scans to average: 1
Electric dark correction enabled: true
Nonlinearity correction enabled: false
Boxcar width: 0
XAxis mode: Wavelengths
Number of Pixels in Spectrum: 2048
>>>>>Begin Spectral Data<<<<<
223.165	-11.81
223.4	-11.81
223.635	-11.81
223.869	-9.81
224.104	-14.81
224.338	-22.81
224.573	-10.81
224.808	-13.81
225.042	-3.81
225.277	-16.81
225.511	-8.81
225.746	3.19
225.98	5.19
226.215	9.19
226.449	24.19
226.683	30.19
226.918	14.19
227.152	27.19
227.387	24.19
227.621	31.19
227.856	48.19
228.09	46.19
228.324	43.19
228.559	52.19
228.793	70.19
229.027	95.19
229.262	87.19
229.496	90.19
229.73	103.19
229.964	106.19
230.199	106.19
230.433	103.19
230.667	107.19
230.901	92.19
231.136	94.19
231.37	108.19
231.604	112.19
231.838	91.19
232.072	102.19
232.306	98.19
232.541	115.19
232.775	119.19
233.009	109.19
233.243	114.19
233.477	119.19
233.711	132.19
233.945	124.19
234.179	119.19
234.413	108.19
234.647	114.19
234.881	113.19
235.115	114.19
235.349	98.19
235.583	122.19
235.817	122.19
236.051	111.19
236.285	122.19
236.519	124.19
236.753	127.19
236.987	134.19
237.221	150.19
237.455	176.19
237.689	142.19
237.922	121.19
238.156	121.19
238.39	111.19
238.624	105.19
238.858	118.19
239.091	123.19
239.325	118.19
239.559	125.19
239.793	118.19
240.027	121.19
240.26	141.19
240.494	115.19
240.728	138.19
240.961	134.19
241.195	136.19
241.429	131.19
241.662	116.19
241.896	116.19
242.13	116.19
242.363	120.19
242.597	147.19
242.83	130.19
243.064	122.19
243.298	132.19
243.531	142.19
243.765	115.19
243.998	142.19
244.232	135.19
244.465	140.19
244.699	135.19
244.932	140.19
245.166	132.19
245.399	135.19
245.633	147.19
245.866	133.19
246.099	143.19
246.333	134.19
246.566	148.19
246.8	133.19
247.033	139.19
247.266	147.19
247.5	152.19
247.733	153.19
247.966	141.19
248.2	152.19
248.433	154.19
248.666	164.19
248.899	166.19
249.133	173.19
249.366	184.19
249.599	190.19
249.832	153.19
250.066	152.19
250.299	173.19
250.532	180.19
250.765	205.19
250.998	198.19
251.231	187.19
251.465	183.19
251.698	173.19
251.931	173.19
252.164	156.19
252.397	169.19
252.63	167.19
252.863	179.19
253.096	182.19
253.329	178.19
253.562	198.19
253.795	193.19
254.028	185.19
254.261	183.19
254.494	197.19
254.727	214.19
254.96	210.19
255.193	205.19
255.426	189.19
255.659	207.19
255.892	228.19
256.124	252.19
256.357	268.19
256.59	239.19
256.823	204.19
257.056	214.19
257.289	219.19
257.521	189.19
257.754	194.19
257.987	183.19
258.22	193.19
258.452	192.19
258.685	190.19
258.918	192.19
259.151	198.19
259.383	207.19
259.616	197.19
259.849	195.19
260.081	200.19
260.314	205.19
260.547	210.19
260.779	194.19
261.012	221.19
261.244	198.19
261.477	193.19
261.71	210.19
261.942	201.19
262.175	208.19
262.407	199.19
262.64	207.19
262.872	196.19
263.105	192.19
263.337	198.19
263.57	211.19
263.802	201.19
264.035	215.19
264.267	209.19
264.499	199.19
264.732	190.19
264.964	191.19
265.197	205.19
265.429	201.19
265.661	197.19
265.894	226.19
266.126	198.19
266.358	193.19
266.591	215.19
266.823	205.19
267.055	206.19
267.287	201.19
267.52	197.19
267.752	215.19
267.984	216.19
268.216	229.19
268.448	195.19
268.681	225.19
268.913	215.19
269.145	250.19
269.377	238.19
269.609	255.19
269.841	254.19
270.073	232.19
270.306	258.19
270.538	264.19
270.77	262.19
271.002	251.19
271.234	254.19
271.466	267.19
271.698	260.19
271.93	252.19
272.162	263.19
272.394	261.19
272.626	261.19
272.858	253.19
273.09	244.19
273.322	239.19
273.553	231.19
273.785	238.19
274.017	233.19
274.249	248.19
274.481	262.19
274.713	253.19
274.945	242.19
275.176	235.19
275.408	237.19
275.64	252.19
275.872	235.19
276.104	250.19
276.335	234.19
276.567	235.19
276.799	253.19
277.031	280.19
277.262	276.19
277.494	280.19
277.726	279.19
277.957	236.19
278.189	258.19
278.421	246.19
278.652	260.19
278.884	257.19
279.115	244.19
279.347	250.19
279.579	264.19
279.81	266.19
280.042	263.19
280.273	266.19
280.505	256.19
280.736	250.19
280.968	245.19
281.199	266.19
281.431	251.19
281.662	263.19
281.894	237.19
282.125	267.19
282.356	277.19
282.588	292.19
282.819	304.19
283.051	268.19
283.282	267.19
283.513	284.19
283.745	281.19
283.976	275.19
284.207	254.19
284.439	274.19
284.67	272.19
284.901	269.19
285.132	252.19
285.364	250.19
285.595	271.19
285.826	262.19
286.057	283.19
286.288	295.19
286.52	276.19
286.751	296.19
286.982	284.19
287.213	267.19
287.444	280.19
287.675	274.19
287.906	278.19
288.138	295.19
288.369	287.19
288.6	282.19
288.831	311.19
289.062	278.19
289.293	294.19
289.524	295.19
289.755	280.19
289.986	272.19
290.217	300.19
290.448	300.19
290.679	311.19
290.91	279.19
291.141	282.19
291.371	266.19
291.602	284.19
291.833	284.19
292.064	279.19
292.295	295.19
292.526	269.19
292.757	290.19
292.987	277.19
293.218	277.19
293.449	289.19
293.68	284.19
293.91	292.19
294.141	284.19
294.372	275.19
294.603	298.19
294.833	271.19
295.064	295.19
295.295	286.19
295.525	294.19
295.756	286.19
295.987	300.19
296.217	303.19
296.448	319.19
296.679	294.19
296.909	286.19
297.14	293.19
297.37	302.19
297.601	316.19
297.831	310.19
298.062	288.19
298.292	290.19
298.523	309.19
298.753	305.19
298.984	293.19
299.214	291.19
299.445	303.19
299.675	315.19
299.905	321.19
300.136	304.19
300.366	313.19
300.597	295.19
300.827	310.19
301.057	309.19
301.288	334.19
301.518	320.19
301.748	330.19
301.979	318.19
302.209	315.19
302.439	320.19
302.669	313.19
302.9	315.19
303.13	293.19
303.36	332.19
303.59	324.19
303.82	329.19
304.051	314.19
304.281	294.19
304.511	309.19
304.741	320.19
304.971	308.19
305.201	304.19
305.431	320.19
305.661	317.19
305.891	294.19
306.121	315.19
306.352	318.19
306.582	307.19
306.812	329.19
307.042	351.19
307.272	321.19
307.502	324.19
307.731	335.19
307.961	335.19
308.191	312.19
308.421	326.19
308.651	322.19
308.881	324.19
309.111	319.19
309.341	320.19
309.571	333.19
309.8	362.19
310.03	335.19
310.26	340.19
310.49	349.19
310.72	344.19
310.949	346.19
311.179	341.19
311.409	323.19
311.639	340.19
311.868	330.19
312.098	345.19
312.328	358.19
312.557	366.19
312.787	354.19
313.017	367.19
313.246	344.19
313.476	361.19
313.706	350.19
313.935	363.19
314.165	359.19
314.394	363.19
314.624	366.19
314.853	365.19
315.083	368.19
315.312	336.19
315.542	331.19
315.771	340.19
316.001	360.19
316.23	344.19
316.46	341.19
316.689	327.19
316.919	343.19
317.148	351.19
317.377	380.19
317.607	354.19
317.836	355.19
318.065	346.19
318.295	349.19
318.524	344.19
318.753	353.19
318.983	358.19
319.212	356.19
319.441	351.19
319.67	352.19
319.9	355.19
320.129	343.19
320.358	347.19
320.587	352.19
320.816	367.19
321.046	350.19
321.275	347.19
321.504	347.19
321.733	364.19
321.962	376.19
322.191	379.19
322.42	385.19
322.649	384.19
322.878	387.19
323.108	402.19
323.337	384.19
323.566	404.19
323.795	440.19
324.024	486.19
324.253	520.19
324.482	694.19
324.71	1014.19
324.939	1443.19
325.168	1198.19
325.397	684.19
325.626	521.19
325.855	463.19
326.084	455.19
326.313	434.19
326.542	429.19
326.77	466.19
326.999	520.19
327.228	667.19
327.457	920.19
327.686	1100.19
327.914	754.19
328.143	588.19
328.372	517.19
328.6	499.19
328.829	457.19
329.058	476.19
329.287	474.19
329.515	455.19
329.744	470.19
329.972	497.19
330.201	538.19
330.43	558.19
330.658	562.19
330.887	526.19
331.115	488.19
331.344	478.19
331.572	458.19
331.801	457.19
332.03	437.19
332.258	429.19
332.486	448.19
332.715	454.19
332.943	438.19
333.172	463.19
333.4	477.19
333.629	498.19
333.857	518.19
334.085	550.19
334.314	583.19
334.542	654.19
334.771	646.19
334.999	564.19
335.227	490.19
335.455	465.19
335.684	470.19
335.912	467.19
336.14	446.19
336.369	441.19
336.597	430.19
336.825	435.19
337.053	436.19
337.281	438.19
337.51	405.19
337.738	382.19
337.966	411.19
338.194	400.19
338.422	421.19
338.65	414.19
338.878	414.19
339.106	416.19
339.334	388.19
339.562	400.19
339.79	384.19
340.018	400.19
340.246	394.19
340.474	407.19
340.702	417.19
340.93	388.19
341.158	383.19
341.386	399.19
341.614	399.19
341.842	378.19
342.07	375.19
342.298	390.19
342.526	378.19
342.754	380.19
342.981	384.19
343.209	384.19
343.437	392.19
343.665	403.19
343.893	416.19
344.12	446.19
344.348	450.19
344.576	399.19
344.804	382.19
345.031	412.19
345.259	393.19
345.487	386.19
345.714	381.19
345.942	370.19
346.17	384.19
346.397	380.19
346.625	376.19
346.853	374.19
347.08	375.19
347.308	354.19
347.535	378.19
347.763	372.19
347.99	379.19
348.218	384.19
348.445	409.19
348.673	380.19
348.9	380.19
349.128	372.19
349.355	364.19
349.583	370.19
349.81	352.19
350.037	376.19
350.265	372.19
350.492	333.19
350.72	357.19
350.947	361.19
351.174	371.19
351.402	374.19
351.629	369.19
351.856	374.19
352.083	359.19
352.311	379.19
352.538	362.19
352.765	388.19
352.992	363.19
353.22	360.19
353.447	375.19
353.674	360.19
353.901	351.19
354.128	353.19
354.355	357.19
354.583	350.19
354.81	366.19
355.037	344.19
355.264	335.19
355.491	359.19
355.718	342.19
355.945	352.19
356.172	333.19
356.399	371.19
356.626	355.19
356.853	335.19
357.08	346.19
357.307	346.19
357.534	360.19
357.761	343.19
357.988	362.19
358.215	353.19
358.441	349.19
358.668	356.19
358.895	372.19
359.122	379.19
359.349	382.19
359.576	356.19
359.802	364.19
360.029	378.19
360.256	412.19
360.483	381.19
360.709	356.19
360.936	350.19
361.163	365.19
361.39	360.19
361.616	357.19
361.843	382.19
362.07	379.19
362.296	365.19
362.523	360.19
362.749	359.19
362.976	354.19
363.203	364.19
363.429	336.19
363.656	353.19
363.882	363.19
364.109	340.19
364.335	351.19
364.562	343.19
364.788	339.19
365.015	348.19
365.241	359.19
365.468	349.19
365.694	352.19
365.92	368.19
366.147	344.19
366.373	348.19
366.599	346.19
366.826	362.19
367.052	339.19
367.278	352.19
367.505	344.19
367.731	359.19
367.957	362.19
368.184	348.19
368.41	346.19
368.636	335.19
368.862	369.19
369.089	364.19
369.315	358.19
369.541	341.19
369.767	340.19
369.993	348.19
370.219	358.19
370.445	354.19
370.672	357.19
370.898	354.19
371.124	371.19
371.35	346.19
371.576	367.19
371.802	358.19
372.028	359.19
372.254	375.19
372.48	374.19
372.706	348.19
372.932	384.19
373.158	360.19
373.384	368.19
373.61	377.19
373.835	344.19
374.061	371.19
374.287	382.19
374.513	377.19
374.739	376.19
374.965	370.19
375.191	375.19
375.416	360.19
375.642	377.19
375.868	380.19
376.094	363.19
376.319	366.19
376.545	355.19
376.771	354.19
376.997	358.19
377.222	366.19
377.448	364.19
377.674	347.19
377.899	353.19
378.125	339.19
378.35	352.19
378.576	367.19
378.802	358.19
379.027	340.19
379.253	367.19
379.478	356.19
379.704	342.19
379.929	351.19
380.155	354.19
380.38	358.19
380.606	356.19
380.831	357.19
381.057	355.19
381.282	379.19
381.507	371.19
381.733	366.19
381.958	344.19
382.184	361.19
382.409	363.19
382.634	384.19
382.86	368.19
383.085	363.19
383.31	371.19
383.535	371.19
383.761	373.19
383.986	388.19
384.211	396.19
384.436	390.19
384.662	384.19
384.887	383.19
385.112	383.19
385.337	406.19
385.562	402.19
385.787	399.19
386.013	419.19
386.238	396.19
386.463	405.19
386.688	415.19
386.913	391.19
387.138	411.19
387.363	422.19
387.588	407.19
387.813	404.19
388.038	408.19
388.263	380.19
388.488	416.19
388.713	400.19
388.938	387.19
389.163	410.19
389.387	399.19
389.612	394.19
389.837	397.19
390.062	398.19
390.287	405.19
390.512	395.19
390.736	399.19
390.961	396.19
391.186	424.19
391.411	418.19
391.636	406.19
391.86	423.19
392.085	437.19
392.31	444.19
392.534	422.19
392.759	428.19
392.984	416.19
393.208	412.19
393.433	420.19
393.658	393.19
393.882	411.19
394.107	409.19
394.331	424.19
394.556	396.19
394.78	411.19
395.005	420.19
395.229	412.19
395.454	412.19
395.678	428.19
395.903	447.19
396.127	437.19
396.352	441.19
396.576	428.19
396.801	419.19
397.025	426.19
397.249	411.19
397.474	420.19
397.698	420.19
397.922	449.19
398.147	434.19
398.371	454.19
398.595	469.19
398.82	470.19
399.044	484.19
399.268	501.19
399.492	562.19
399.717	617.19
399.941	622.19
400.165	617.19
400.389	572.19
400.613	502.19
400.837	522.19
401.062	479.19
401.286	486.19
401.51	485.19
401.734	495.19
401.958	479.19
402.182	457.19
402.406	499.19
402.63	501.19
402.854	499.19
403.078	497.19
403.302	505.19
403.526	518.19
403.75	531.19
403.974	497.19
404.198	547.19
404.422	543.19
404.645	538.19
404.869	539.19
405.093	560.19
405.317	584.19
405.541	598.19
405.765	565.19
405.988	544.19
406.212	523.19
406.436	548.19
406.66	542.19
406.883	528.19
407.107	547.19
407.331	607.19
407.555	639.19
407.778	642.19
408.002	587.19
408.226	554.19
408.449	556.19
408.673	532.19
408.896	556.19
409.12	563.19
409.344	538.19
409.567	508.19
409.791	503.19
410.014	493.19
410.238	499.19
410.461	484.19
410.685	495.19
410.908	513.19
411.132	526.19
411.355	532.19
411.578	536.19
411.802	503.19
412.025	500.19
412.249	502.19
412.472	570.19
412.695	597.19
412.919	586.19
413.142	530.19
413.365	526.19
413.589	507.19
413.812	479.19
414.035	480.19
414.258	482.19
414.482	469.19
414.705	482.19
414.928	466.19
415.151	466.19
415.374	468.19
415.597	470.19
415.821	454.19
416.044	464.19
416.267	463.19
416.49	466.19
416.713	455.19
416.936	463.19
417.159	455.19
417.382	470.19
417.605	463.19
417.828	464.19
418.051	488.19
418.274	483.19
418.497	456.19
418.72	468.19
418.943	484.19
419.166	500.19
419.389	531.19
419.611	530.19
419.834	505.19
420.057	539.19
420.28	517.19
420.503	540.19
420.726	484.19
420.948	526.19
421.171	524.19
421.394	539.19
421.617	472.19
421.839	472.19
422.062	472.19
422.285	478.19
422.507	512.19
422.73	566.19
422.953	551.19
423.175	518.19
423.398	498.19
423.621	495.19
423.843	486.19
424.066	516.19
424.288	503.19
424.511	510.19
424.733	522.19
424.956	590.19
425.178	562.19
425.401	581.19
425.623	571.19
425.846	498.19
426.068	473.19
426.291	485.19
426.513	480.19
426.735	478.19
426.958	500.19
427.18	570.19
427.402	624.19
427.625	684.19
427.847	603.19
428.069	576.19
428.292	508.19
428.514	474.19
428.736	451.19
428.958	466.19
429.181	437.19
429.403	442.19
429.625	460.19
429.847	470.19
430.069	484.19
430.292	503.19
430.514	442.19
430.736	443.19
430.958	413.19
431.18	429.19
431.402	427.19
431.624	446.19
431.846	435.19
432.068	452.19
432.29	431.19
432.512	421.19
432.734	419.19
432.956	444.19
433.178	457.19
433.4	447.19
433.622	435.19
433.844	419.19
434.066	440.19
434.287	441.19
434.509	450.19
434.731	454.19
434.953	463.19
435.175	500.19
435.397	467.19
435.618	482.19
435.84	494.19
436.062	558.19
436.284	578.19
436.505	506.19
436.727	504.19
436.949	443.19
437.17	434.19
437.392	455.19
437.614	454.19
437.835	457.19
438.057	518.19
438.278	547.19
438.5	554.19
438.721	606.19
438.943	603.19
439.165	482.19
439.386	472.19
439.608	464.19
439.829	480.19
440.05	454.19
440.272	508.19
440.493	480.19
440.715	470.19
440.936	478.19
441.158	446.19
441.379	453.19
441.6	484.19
441.822	472.19
442.043	502.19
442.264	533.19
442.486	551.19
442.707	499.19
442.928	478.19
443.149	483.19
443.371	486.19
443.592	517.19
443.813	583.19
444.034	604.19
444.255	548.19
444.476	527.19
444.698	520.19
444.919	544.19
445.14	639.19
445.361	558.19
445.582	529.19
445.803	531.19
446.024	583.19
446.245	580.19
446.466	536.19
446.687	461.19
446.908	452.19
447.129	451.19
447.35	470.19
447.571	420.19
447.792	424.19
448.013	416.19
448.234	440.19
448.455	477.19
448.675	511.19
448.896	581.19
449.117	493.19
449.338	485.19
449.559	535.19
449.779	601.19
450	509.19
450.221	452.19
450.442	423.19
450.662	429.19
450.883	424.19
451.104	452.19
451.324	402.19
451.545	415.19
451.766	410.19
451.986	398.19
452.207	389.19
452.428	401.19
452.648	394.19
452.869	412.19
453.089	423.19
453.31	418.19
453.53	390.19
453.751	391.19
453.971	399.19
454.192	414.19
454.412	400.19
454.633	384.19
454.853	387.19
455.073	393.19
455.294	406.19
455.514	426.19
455.734	427.19
455.955	403.19
456.175	379.19
456.395	374.19
456.616	355.19
456.836	365.19
457.056	358.19
457.276	365.19
457.497	391.19
457.717	386.19
457.937	404.19
458.157	388.19
458.377	378.19
458.598	406.19
458.818	417.19
459.038	462.19
459.258	494.19
459.478	478.19
459.698	450.19
459.918	408.19
460.138	446.19
460.358	463.19
460.578	476.19
460.798	464.19
461.018	469.19
461.238	450.19
461.458	462.19
461.678	458.19
461.898	469.19
462.118	466.19
462.338	504.19
462.558	500.19
462.777	519.19
462.997	536.19
463.217	545.19
463.437	554.19
463.657	534.19
463.876	514.19
464.096	515.19
464.316	504.19
464.536	526.19
464.755	495.19
464.975	508.19
465.195	512.19
465.414	537.19
465.634	488.19
465.854	450.19
466.073	425.19
466.293	435.19
466.512	430.19
466.732	408.19
466.951	414.19
467.171	404.19
467.391	436.19
467.61	435.19
467.829	422.19
468.049	423.19
468.268	439.19
468.488	416.19
468.707	406.19
468.927	395.19
469.146	397.19
469.365	406.19
469.585	391.19
469.804	417.19
470.023	424.19
470.243	396.19
470.462	410.19
470.681	435.19
470.901	436.19
471.12	417.19
471.339	426.19
471.558	422.19
471.777	420.19
471.997	410.19
472.216	440.19
472.435	482.19
472.654	464.19
472.873	442.19
473.092	415.19
473.311	424.19
473.53	408.19
473.749	414.19
473.968	454.19
474.187	487.19
474.406	490.19
474.625	442.19
474.844	414.19
475.063	411.19
475.282	420.19
475.501	427.19
475.72	424.19
475.939	428.19
476.158	414.19
476.377	412.19
476.596	419.19
476.814	413.19
477.033	445.19
477.252	438.19
477.471	422.19
477.69	430.19
477.908	448.19
478.127	452.19
478.346	466.19
478.564	446.19
478.783	445.19
479.002	466.19
479.22	479.19
479.439	507.19
479.658	482.19
479.876	500.19
480.095	487.19
480.313	536.19
480.532	527.19
480.751	555.19
480.969	542.19
481.188	656.19
481.406	673.19
481.624	584.19
481.843	514.19
482.061	509.19
482.28	495.19
482.498	508.19
482.717	494.19
482.935	483.19
483.153	488.19
483.372	466.19
483.59	488.19
483.808	475.19
484.027	480.19
484.245	482.19
484.463	466.19
484.681	467.19
484.9	479.19
485.118	461.19
485.336	474.19
485.554	472.19
485.772	508.19
485.99	481.19
486.209	493.19
486.427	494.19
486.645	479.19
486.863	483.19
487.081	502.19
487.299	475.19
487.517	490.19
487.735	473.19
487.953	490.19
488.171	499.19
488.389	494.19
488.607	490.19
488.825	493.19
489.043	497.19
489.261	490.19
489.479	512.19
489.696	494.19
489.914	509.19
490.132	524.19
490.35	522.19
490.568	517.19
490.786	535.19
491.003	532.19
491.221	534.19
491.439	536.19
491.657	559.19
491.874	560.19
492.092	572.19
492.31	574.19
492.527	573.19
492.745	602.19
492.963	590.19
493.18	595.19
493.398	613.19
493.615	603.19
493.833	610.19
494.05	614.19
494.268	574.19
494.485	562.19
494.703	572.19
494.92	579.19
495.138	565.19
495.355	578.19
495.573	551.19
495.79	584.19
496.008	563.19
496.225	578.19
496.442	587.19
496.66	594.19
496.877	573.19
497.094	592.19
497.312	618.19
497.529	591.19
497.746	612.19
497.963	628.19
498.181	632.19
498.398	636.19
498.615	687.19
498.832	705.19
499.049	710.19
499.267	760.19
499.484	806.19
499.701	846.19
499.918	877.19
500.135	990.19
500.352	1070.19
500.569	1100.19
500.786	1117.19
501.003	1077.19
501.22	979.19
501.437	904.19
501.654	882.19
501.871	802.19
502.088	751.19
