Data from 1984.PennyLincolnUp.Lamp.En5.5.200Scan.071819.P1_HRD10591_17-00-21-968.txt Node
Date: Thu Jul 18 17:00:21 EDT 2019
User: cochatt
Spectrometer: HR+D1059
Trigger mode: 1
Integration Time (sec): 1.000000E-1
Scans to average: 1
Electric dark correction enabled: true
Nonlinearity correction enabled: false
Boxcar width: 0
XAxis mode: Wavelengths
Number of Pixels in Spectrum: 2048
>>>>>Begin Spectral Data<<<<<
223.165	-11.88
223.4	-11.88
223.635	-11.88
223.869	-17.88
224.104	-35.88
224.338	-19.88
224.573	-13.88
224.808	0.12
225.042	-3.88
225.277	-14.88
225.511	10.12
225.746	6.12
225.98	-2.88
226.215	21.12
226.449	13.12
226.683	16.12
226.918	24.12
227.152	30.12
227.387	47.12
227.621	40.12
227.856	49.12
228.09	47.12
228.324	49.12
228.559	40.12
228.793	71.12
229.027	89.12
229.262	95.12
229.496	100.12
229.73	112.12
229.964	126.12
230.199	124.12
230.433	106.12
230.667	117.12
230.901	114.12
231.136	110.12
231.37	105.12
231.604	109.12
231.838	104.12
232.072	113.12
232.306	116.12
232.541	109.12
232.775	122.12
233.009	107.12
233.243	112.12
233.477	98.12
233.711	111.12
233.945	124.12
234.179	118.12
234.413	125.12
234.647	126.12
234.881	110.12
235.115	119.12
235.349	114.12
235.583	123.12
235.817	113.12
236.051	121.12
236.285	128.12
236.519	129.12
236.753	112.12
236.987	121.12
237.221	132.12
237.455	168.12
237.689	147.12
237.922	143.12
238.156	128.12
238.39	122.12
238.624	129.12
238.858	130.12
239.091	122.12
239.325	128.12
239.559	115.12
239.793	128.12
240.027	127.12
240.26	117.12
240.494	130.12
240.728	119.12
240.961	134.12
241.195	131.12
241.429	137.12
241.662	143.12
241.896	149.12
242.13	144.12
242.363	126.12
242.597	130.12
242.83	122.12
243.064	130.12
243.298	138.12
243.531	139.12
243.765	132.12
243.998	138.12
244.232	123.12
244.465	136.12
244.699	148.12
244.932	135.12
245.166	136.12
245.399	150.12
245.633	149.12
245.866	129.12
246.099	137.12
246.333	149.12
246.566	161.12
246.8	152.12
247.033	144.12
247.266	154.12
247.5	171.12
247.733	160.12
247.966	176.12
248.2	143.12
248.433	150.12
248.666	170.12
248.899	172.12
249.133	180.12
249.366	180.12
249.599	185.12
249.832	179.12
250.066	185.12
250.299	185.12
250.532	210.12
250.765	222.12
250.998	216.12
251.231	214.12
251.465	204.12
251.698	192.12
251.931	174.12
252.164	183.12
252.397	176.12
252.63	203.12
252.863	199.12
253.096	199.12
253.329	198.12
253.562	194.12
253.795	203.12
254.028	185.12
254.261	203.12
254.494	191.12
254.727	209.12
254.96	223.12
255.193	222.12
255.426	233.12
255.659	231.12
255.892	260.12
256.124	300.12
256.357	300.12
256.59	277.12
256.823	232.12
257.056	214.12
257.289	214.12
257.521	210.12
257.754	190.12
257.987	217.12
258.22	208.12
258.452	210.12
258.685	209.12
258.918	198.12
259.151	200.12
259.383	204.12
259.616	192.12
259.849	209.12
260.081	197.12
260.314	214.12
260.547	225.12
260.779	208.12
261.012	206.12
261.244	212.12
261.477	202.12
261.71	202.12
261.942	220.12
262.175	208.12
262.407	222.12
262.64	204.12
262.872	200.12
263.105	210.12
263.337	198.12
263.57	193.12
263.802	208.12
264.035	214.12
264.267	220.12
264.499	192.12
264.732	208.12
264.964	204.12
265.197	201.12
265.429	213.12
265.661	214.12
265.894	205.12
266.126	218.12
266.358	227.12
266.591	204.12
266.823	202.12
267.055	229.12
267.287	218.12
267.52	202.12
267.752	211.12
267.984	227.12
268.216	209.12
268.448	220.12
268.681	224.12
268.913	232.12
269.145	263.12
269.377	245.12
269.609	257.12
269.841	229.12
270.073	241.12
270.306	252.12
270.538	278.12
270.77	270.12
271.002	265.12
271.234	260.12
271.466	261.12
271.698	260.12
271.93	264.12
272.162	271.12
272.394	261.12
272.626	266.12
272.858	266.12
273.09	249.12
273.322	264.12
273.553	236.12
273.785	249.12
274.017	260.12
274.249	249.12
274.481	238.12
274.713	261.12
274.945	245.12
275.176	254.12
275.408	248.12
275.64	261.12
275.872	274.12
276.104	269.12
276.335	274.12
276.567	265.12
276.799	285.12
277.031	281.12
277.262	287.12
277.494	297.12
277.726	289.12
277.957	285.12
278.189	256.12
278.421	254.12
278.652	270.12
278.884	261.12
279.115	255.12
279.347	290.12
279.579	274.12
279.81	290.12
280.042	266.12
280.273	282.12
280.505	264.12
280.736	268.12
280.968	274.12
281.199	277.12
281.431	275.12
281.662	279.12
281.894	281.12
282.125	276.12
282.356	297.12
282.588	308.12
282.819	292.12
283.051	279.12
283.282	279.12
283.513	268.12
283.745	267.12
283.976	266.12
284.207	272.12
284.439	279.12
284.67	269.12
284.901	275.12
285.132	266.12
285.364	285.12
285.595	276.12
285.826	287.12
286.057	272.12
286.288	273.12
286.52	267.12
286.751	288.12
286.982	292.12
287.213	288.12
287.444	288.12
287.675	297.12
287.906	287.12
288.138	296.12
288.369	313.12
288.6	295.12
288.831	289.12
289.062	289.12
289.293	298.12
289.524	302.12
289.755	296.12
289.986	291.12
290.217	298.12
290.448	294.12
290.679	291.12
290.91	305.12
291.141	303.12
291.371	295.12
291.602	295.12
291.833	300.12
292.064	308.12
292.295	292.12
292.526	296.12
292.757	296.12
292.987	297.12
293.218	304.12
293.449	274.12
293.68	290.12
293.91	284.12
294.141	295.12
294.372	309.12
294.603	298.12
294.833	298.12
295.064	304.12
295.295	298.12
295.525	297.12
295.756	297.12
295.987	324.12
296.217	324.12
296.448	311.12
296.679	312.12
296.909	317.12
297.14	315.12
297.37	316.12
297.601	310.12
297.831	318.12
298.062	311.12
298.292	317.12
298.523	312.12
298.753	301.12
298.984	318.12
299.214	300.12
299.445	310.12
299.675	295.12
299.905	322.12
300.136	312.12
300.366	316.12
300.597	319.12
300.827	326.12
301.057	336.12
301.288	334.12
301.518	309.12
301.748	348.12
301.979	356.12
302.209	342.12
302.439	329.12
302.669	325.12
302.9	314.12
303.13	312.12
303.36	360.12
303.59	338.12
303.82	343.12
304.051	339.12
304.281	336.12
304.511	340.12
304.741	333.12
304.971	311.12
305.201	323.12
305.431	324.12
305.661	341.12
305.891	336.12
306.121	324.12
306.352	325.12
306.582	342.12
306.812	329.12
307.042	338.12
307.272	333.12
307.502	351.12
307.731	335.12
307.961	340.12
308.191	337.12
308.421	321.12
308.651	333.12
308.881	323.12
309.111	333.12
309.341	327.12
309.571	337.12
309.8	349.12
310.03	344.12
310.26	353.12
310.49	349.12
310.72	339.12
310.949	356.12
311.179	377.12
311.409	359.12
311.639	340.12
311.868	373.12
312.098	350.12
312.328	348.12
312.557	357.12
312.787	369.12
313.017	356.12
313.246	369.12
313.476	347.12
313.706	372.12
313.935	369.12
314.165	370.12
314.394	361.12
314.624	380.12
314.853	366.12
315.083	365.12
315.312	365.12
315.542	356.12
315.771	366.12
316.001	356.12
316.23	359.12
316.46	368.12
316.689	359.12
316.919	365.12
317.148	370.12
317.377	373.12
317.607	368.12
317.836	372.12
318.065	363.12
318.295	366.12
318.524	358.12
318.753	366.12
318.983	390.12
319.212	389.12
319.441	375.12
319.67	381.12
319.9	352.12
320.129	354.12
320.358	366.12
320.587	352.12
320.816	374.12
321.046	382.12
321.275	396.12
321.504	382.12
321.733	378.12
321.962	386.12
322.191	396.12
322.42	396.12
322.649	410.12
322.878	405.12
323.108	411.12
323.337	425.12
323.566	409.12
323.795	443.12
324.024	475.12
324.253	559.12
324.482	776.12
324.71	1066.12
324.939	1521.12
325.168	1302.12
325.397	725.12
325.626	548.12
325.855	486.12
326.084	422.12
326.313	456.12
326.542	466.12
326.77	476.12
326.999	557.12
327.228	702.12
327.457	1025.12
327.686	1216.12
327.914	863.12
328.143	634.12
328.372	620.12
328.6	566.12
328.829	523.12
329.058	500.12
329.287	513.12
329.515	520.12
329.744	530.12
329.972	561.12
330.201	641.12
330.43	724.12
330.658	667.12
330.887	589.12
331.115	555.12
331.344	520.12
331.572	474.12
331.801	475.12
332.03	488.12
332.258	500.12
332.486	456.12
332.715	470.12
332.943	484.12
333.172	507.12
333.4	500.12
333.629	531.12
333.857	566.12
334.085	637.12
334.314	705.12
334.542	841.12
334.771	849.12
334.999	678.12
335.227	556.12
335.455	520.12
335.684	514.12
335.912	506.12
336.14	448.12
336.369	473.12
336.597	469.12
336.825	454.12
337.053	443.12
337.281	444.12
337.51	446.12
337.738	422.12
337.966	412.12
338.194	412.12
338.422	421.12
338.65	424.12
338.878	432.12
339.106	429.12
339.334	436.12
339.562	428.12
339.79	420.12
340.018	427.12
340.246	416.12
340.474	394.12
340.702	401.12
340.93	390.12
341.158	405.12
341.386	410.12
341.614	396.12
341.842	419.12
342.07	401.12
342.298	418.12
342.526	374.12
342.754	398.12
342.981	392.12
343.209	367.12
343.437	410.12
343.665	413.12
343.893	430.12
344.12	457.12
344.348	448.12
344.576	419.12
344.804	425.12
345.031	391.12
345.259	414.12
345.487	402.12
345.714	388.12
345.942	403.12
346.17	392.12
346.397	374.12
346.625	388.12
346.853	387.12
347.08	390.12
347.308	407.12
347.535	406.12
347.763	386.12
347.99	390.12
348.218	391.12
348.445	382.12
348.673	404.12
348.9	384.12
349.128	378.12
349.355	378.12
349.583	373.12
349.81	369.12
350.037	369.12
350.265	365.12
350.492	366.12
350.72	373.12
350.947	374.12
351.174	384.12
351.402	366.12
351.629	383.12
351.856	385.12
352.083	384.12
352.311	397.12
352.538	374.12
352.765	382.12
352.992	382.12
353.22	379.12
353.447	384.12
353.674	358.12
353.901	363.12
354.128	350.12
354.355	370.12
354.583	361.12
354.81	380.12
355.037	376.12
355.264	350.12
355.491	374.12
355.718	352.12
355.945	384.12
356.172	362.12
356.399	361.12
356.626	358.12
356.853	359.12
357.08	364.12
357.307	365.12
357.534	353.12
357.761	360.12
357.988	361.12
358.215	354.12
358.441	357.12
358.668	356.12
358.895	378.12
359.122	368.12
359.349	375.12
359.576	359.12
359.802	400.12
360.029	410.12
360.256	390.12
360.483	413.12
360.709	380.12
360.936	369.12
361.163	374.12
361.39	381.12
361.616	380.12
361.843	377.12
362.07	373.12
362.296	368.12
362.523	358.12
362.749	390.12
362.976	361.12
363.203	354.12
363.429	360.12
363.656	363.12
363.882	352.12
364.109	353.12
364.335	370.12
364.562	344.12
364.788	369.12
365.015	353.12
365.241	367.12
365.468	368.12
365.694	355.12
365.92	380.12
366.147	376.12
366.373	362.12
366.599	371.12
366.826	349.12
367.052	345.12
367.278	358.12
367.505	375.12
367.731	360.12
367.957	340.12
368.184	378.12
368.41	374.12
368.636	357.12
368.862	397.12
369.089	376.12
369.315	366.12
369.541	372.12
369.767	382.12
369.993	361.12
370.219	378.12
370.445	376.12
370.672	380.12
370.898	358.12
371.124	367.12
371.35	374.12
371.576	370.12
371.802	394.12
372.028	352.12
372.254	384.12
372.48	380.12
372.706	396.12
372.932	383.12
373.158	383.12
373.384	394.12
373.61	379.12
373.835	366.12
374.061	365.12
374.287	366.12
374.513	393.12
374.739	384.12
374.965	380.12
375.191	396.12
375.416	390.12
375.642	400.12
375.868	398.12
376.094	374.12
376.319	380.12
376.545	360.12
376.771	362.12
376.997	367.12
377.222	372.12
377.448	368.12
377.674	369.12
377.899	377.12
378.125	364.12
378.35	357.12
378.576	377.12
378.802	348.12
379.027	381.12
379.253	360.12
379.478	356.12
379.704	361.12
379.929	358.12
380.155	368.12
380.38	359.12
380.606	376.12
380.831	361.12
381.057	365.12
381.282	363.12
381.507	373.12
381.733	374.12
381.958	360.12
382.184	369.12
382.409	383.12
382.634	378.12
382.86	375.12
383.085	393.12
383.31	398.12
383.535	402.12
383.761	379.12
383.986	393.12
384.211	405.12
384.436	395.12
384.662	405.12
384.887	428.12
385.112	431.12
385.337	408.12
385.562	413.12
385.787	422.12
386.013	437.12
386.238	423.12
386.463	435.12
386.688	421.12
386.913	406.12
387.138	400.12
387.363	392.12
387.588	404.12
387.813	427.12
388.038	419.12
388.263	414.12
388.488	402.12
388.713	409.12
388.938	415.12
389.163	405.12
389.387	410.12
389.612	388.12
389.837	388.12
390.062	411.12
390.287	396.12
390.512	408.12
390.736	419.12
390.961	410.12
391.186	418.12
391.411	423.12
391.636	414.12
391.86	453.12
392.085	417.12
392.31	434.12
392.534	434.12
392.759	427.12
392.984	426.12
393.208	407.12
393.433	434.12
393.658	423.12
393.882	422.12
394.107	444.12
394.331	417.12
394.556	438.12
394.78	433.12
395.005	429.12
395.229	421.12
395.454	445.12
395.678	448.12
395.903	455.12
396.127	461.12
396.352	457.12
396.576	424.12
396.801	446.12
397.025	458.12
397.249	442.12
397.474	446.12
397.698	445.12
397.922	454.12
398.147	458.12
398.371	463.12
398.595	488.12
398.82	479.12
399.044	533.12
399.268	572.12
399.492	587.12
399.717	645.12
399.941	638.12
400.165	615.12
400.389	604.12
400.613	550.12
400.837	529.12
401.062	521.12
401.286	511.12
401.51	491.12
401.734	503.12
401.958	484.12
402.182	500.12
402.406	486.12
402.63	503.12
402.854	522.12
403.078	526.12
403.302	542.12
403.526	521.12
403.75	530.12
403.974	513.12
404.198	555.12
404.422	547.12
404.645	540.12
404.869	557.12
405.093	580.12
405.317	639.12
405.541	664.12
405.765	606.12
405.988	554.12
406.212	558.12
406.436	554.12
406.66	563.12
406.883	546.12
407.107	574.12
407.331	617.12
407.555	656.12
407.778	650.12
408.002	617.12
408.226	577.12
408.449	571.12
408.673	558.12
408.896	568.12
409.12	604.12
409.344	568.12
409.567	523.12
409.791	514.12
410.014	522.12
410.238	523.12
410.461	514.12
410.685	548.12
410.908	514.12
411.132	526.12
411.355	542.12
411.578	544.12
411.802	529.12
412.025	513.12
412.249	539.12
412.472	580.12
412.695	649.12
412.919	634.12
413.142	573.12
413.365	550.12
413.589	543.12
413.812	506.12
414.035	516.12
414.258	522.12
414.482	519.12
414.705	518.12
414.928	489.12
415.151	490.12
415.374	466.12
415.597	488.12
415.821	460.12
416.044	481.12
416.267	480.12
416.49	484.12
416.713	496.12
416.936	480.12
417.159	492.12
417.382	481.12
417.605	474.12
417.828	497.12
418.051	504.12
418.274	503.12
418.497	492.12
418.72	488.12
418.943	486.12
419.166	522.12
419.389	553.12
419.611	547.12
419.834	524.12
420.057	542.12
420.28	551.12
420.503	570.12
420.726	550.12
420.948	516.12
421.171	535.12
421.394	549.12
421.617	501.12
421.839	503.12
422.062	479.12
422.285	502.12
422.507	552.12
422.73	567.12
422.953	557.12
423.175	503.12
423.398	491.12
423.621	506.12
423.843	528.12
424.066	505.12
424.288	534.12
424.511	527.12
424.733	556.12
424.956	608.12
425.178	586.12
425.401	545.12
425.623	595.12
425.846	530.12
426.068	488.12
426.291	480.12
426.513	498.12
426.735	501.12
426.958	503.12
427.18	550.12
427.402	635.12
427.625	708.12
427.847	640.12
428.069	605.12
428.292	565.12
428.514	498.12
428.736	476.12
428.958	462.12
429.181	453.12
429.403	475.12
429.625	454.12
429.847	479.12
430.069	508.12
430.292	525.12
430.514	451.12
430.736	451.12
430.958	463.12
431.18	447.12
431.402	438.12
431.624	443.12
431.846	433.12
432.068	442.12
432.29	450.12
432.512	449.12
432.734	446.12
432.956	428.12
433.178	452.12
433.4	460.12
433.622	450.12
433.844	455.12
434.066	448.12
434.287	447.12
434.509	458.12
434.731	473.12
434.953	469.12
435.175	480.12
435.397	492.12
435.618	489.12
435.84	510.12
436.062	557.12
436.284	606.12
436.505	523.12
436.727	492.12
436.949	462.12
437.17	452.12
437.392	437.12
437.614	446.12
437.835	472.12
438.057	502.12
438.278	573.12
438.5	577.12
438.721	646.12
438.943	619.12
439.165	498.12
439.386	492.12
439.608	459.12
439.829	471.12
440.05	500.12
440.272	532.12
440.493	510.12
440.715	467.12
440.936	491.12
441.158	450.12
441.379	468.12
441.6	487.12
441.822	511.12
442.043	540.12
442.264	569.12
442.486	582.12
442.707	516.12
442.928	502.12
443.149	494.12
443.371	523.12
443.592	544.12
443.813	583.12
444.034	646.12
444.255	561.12
444.476	546.12
444.698	564.12
444.919	552.12
445.14	683.12
445.361	582.12
445.582	552.12
445.803	546.12
446.024	625.12
446.245	616.12
446.466	572.12
446.687	512.12
446.908	504.12
447.129	463.12
447.35	422.12
447.571	445.12
447.792	422.12
448.013	417.12
448.234	433.12
448.455	494.12
448.675	551.12
448.896	621.12
449.117	541.12
449.338	505.12
449.559	566.12
449.779	657.12
450	514.12
450.221	451.12
450.442	452.12
450.662	421.12
450.883	421.12
451.104	437.12
451.324	431.12
451.545	421.12
451.766	420.12
451.986	415.12
452.207	399.12
452.428	395.12
452.648	412.12
452.869	390.12
453.089	417.12
453.31	419.12
453.53	395.12
453.751	396.12
453.971	399.12
454.192	444.12
454.412	402.12
454.633	405.12
454.853	402.12
455.073	403.12
455.294	412.12
455.514	440.12
455.734	434.12
455.955	406.12
456.175	400.12
456.395	389.12
456.616	377.12
456.836	394.12
457.056	379.12
457.276	388.12
457.497	369.12
457.717	390.12
457.937	392.12
458.157	390.12
458.377	414.12
458.598	418.12
458.818	461.12
459.038	505.12
459.258	496.12
459.478	464.12
459.698	456.12
459.918	460.12
460.138	472.12
460.358	468.12
460.578	479.12
460.798	480.12
461.018	491.12
461.238	505.12
461.458	480.12
461.678	488.12
461.898	508.12
462.118	493.12
462.338	494.12
462.558	506.12
462.777	536.12
462.997	539.12
463.217	581.12
463.437	570.12
463.657	542.12
463.876	529.12
464.096	552.12
464.316	538.12
464.536	511.12
464.755	520.12
464.975	504.12
465.195	530.12
465.414	544.12
465.634	487.12
465.854	470.12
466.073	454.12
466.293	450.12
466.512	434.12
466.732	429.12
466.951	415.12
467.171	432.12
467.391	420.12
467.61	440.12
467.829	440.12
468.049	458.12
468.268	479.12
468.488	483.12
468.707	422.12
468.927	421.12
469.146	411.12
469.365	414.12
469.585	421.12
469.804	408.12
470.023	448.12
470.243	432.12
470.462	448.12
470.681	460.12
470.901	460.12
471.12	436.12
471.339	432.12
471.558	450.12
471.777	453.12
471.997	451.12
472.216	488.12
472.435	623.12
472.654	566.12
472.873	477.12
473.092	458.12
473.311	444.12
473.53	442.12
473.749	441.12
473.968	462.12
474.187	497.12
474.406	535.12
474.625	463.12
474.844	421.12
475.063	419.12
475.282	421.12
475.501	415.12
475.72	430.12
475.939	422.12
476.158	441.12
476.377	416.12
476.596	431.12
476.814	445.12
477.033	425.12
477.252	460.12
477.471	444.12
477.69	437.12
477.908	454.12
478.127	463.12
478.346	483.12
478.564	488.12
478.783	485.12
479.002	492.12
479.22	519.12
479.439	522.12
479.658	509.12
479.876	507.12
480.095	528.12
480.313	556.12
480.532	556.12
480.751	562.12
480.969	608.12
481.188	742.12
481.406	862.12
481.624	689.12
481.843	590.12
482.061	566.12
482.28	526.12
482.498	503.12
482.717	492.12
482.935	488.12
483.153	498.12
483.372	478.12
483.59	494.12
483.808	478.12
484.027	481.12
484.245	492.12
484.463	506.12
484.681	489.12
484.9	509.12
485.118	523.12
485.336	496.12
485.554	492.12
485.772	504.12
485.99	495.12
486.209	509.12
486.427	506.12
486.645	500.12
486.863	501.12
487.081	523.12
487.299	506.12
487.517	494.12
487.735	526.12
487.953	497.12
488.171	495.12
488.389	493.12
488.607	491.12
488.825	509.12
489.043	520.12
489.261	511.12
489.479	523.12
489.696	524.12
489.914	529.12
490.132	524.12
490.35	538.12
490.568	540.12
490.786	560.12
491.003	584.12
491.221	592.12
491.439	573.12
491.657	621.12
491.874	612.12
492.092	619.12
492.31	615.12
492.527	621.12
492.745	620.12
492.963	644.12
493.18	640.12
493.398	620.12
493.615	638.12
493.833	607.12
494.05	614.12
494.268	617.12
494.485	630.12
494.703	613.12
494.92	607.12
495.138	597.12
495.355	592.12
495.573	590.12
495.79	617.12
496.008	612.12
496.225	605.12
496.442	632.12
496.66	608.12
496.877	616.12
497.094	638.12
497.312	638.12
497.529	631.12
497.746	640.12
497.963	642.12
498.181	644.12
498.398	694.12
498.615	694.12
498.832	718.12
499.049	762.12
499.267	790.12
499.484	842.12
499.701	883.12
499.918	948.12
500.135	1013.12
500.352	1118.12
500.569	1121.12
500.786	1180.12
501.003	1142.12
501.22	1031.12
501.437	960.12
501.654	902.12
501.871	840.12
