Data from 1984.PennyLincolnUp.Lamp.En5.5.200Scan.071819.P1_HRD10591_16-57-35-968.txt Node
Date: Thu Jul 18 16:57:35 EDT 2019
User: cochatt
Spectrometer: HR+D1059
Trigger mode: 1
Integration Time (sec): 1.000000E-1
Scans to average: 1
Electric dark correction enabled: true
Nonlinearity correction enabled: false
Boxcar width: 0
XAxis mode: Wavelengths
Number of Pixels in Spectrum: 2048
>>>>>Begin Spectral Data<<<<<
223.165	-32.56
223.4	-32.56
223.635	-32.56
223.869	-19.56
224.104	-10.56
224.338	-1.56
224.573	-16.56
224.808	-8.56
225.042	-7.56
225.277	-17.56
225.511	-2.56
225.746	8.44
225.98	4.44
226.215	27.44
226.449	20.44
226.683	13.44
226.918	22.44
227.152	20.44
227.387	31.44
227.621	42.44
227.856	47.44
228.09	41.44
228.324	41.44
228.559	54.44
228.793	86.44
229.027	95.44
229.262	99.44
229.496	82.44
229.73	109.44
229.964	127.44
230.199	120.44
230.433	106.44
230.667	103.44
230.901	115.44
231.136	98.44
231.37	103.44
231.604	118.44
231.838	94.44
232.072	93.44
232.306	112.44
232.541	127.44
232.775	115.44
233.009	115.44
233.243	96.44
233.477	109.44
233.711	101.44
233.945	117.44
234.179	118.44
234.413	119.44
234.647	116.44
234.881	108.44
235.115	101.44
235.349	111.44
235.583	111.44
235.817	108.44
236.051	118.44
236.285	124.44
236.519	124.44
236.753	111.44
236.987	114.44
237.221	131.44
237.455	162.44
237.689	142.44
237.922	127.44
238.156	124.44
238.39	103.44
238.624	120.44
238.858	126.44
239.091	110.44
239.325	108.44
239.559	127.44
239.793	128.44
240.027	124.44
240.26	120.44
240.494	137.44
240.728	116.44
240.961	132.44
241.195	143.44
241.429	134.44
241.662	109.44
241.896	134.44
242.13	128.44
242.363	133.44
242.597	124.44
242.83	127.44
243.064	127.44
243.298	130.44
243.531	126.44
243.765	134.44
243.998	140.44
244.232	127.44
244.465	130.44
244.699	148.44
244.932	147.44
245.166	127.44
245.399	141.44
245.633	138.44
245.866	138.44
246.099	135.44
246.333	139.44
246.566	126.44
246.8	130.44
247.033	145.44
247.266	151.44
247.5	146.44
247.733	164.44
247.966	148.44
248.2	158.44
248.433	148.44
248.666	154.44
248.899	156.44
249.133	168.44
249.366	175.44
249.599	171.44
249.832	176.44
250.066	158.44
250.299	162.44
250.532	162.44
250.765	155.44
250.998	184.44
251.231	189.44
251.465	166.44
251.698	182.44
251.931	167.44
252.164	166.44
252.397	182.44
252.63	172.44
252.863	171.44
253.096	172.44
253.329	194.44
253.562	196.44
253.795	189.44
254.028	180.44
254.261	194.44
254.494	173.44
254.727	204.44
254.96	212.44
255.193	218.44
255.426	215.44
255.659	196.44
255.892	186.44
256.124	198.44
256.357	173.44
256.59	195.44
256.823	176.44
257.056	191.44
257.289	170.44
257.521	196.44
257.754	204.44
257.987	185.44
258.22	197.44
258.452	177.44
258.685	192.44
258.918	187.44
259.151	176.44
259.383	193.44
259.616	186.44
259.849	184.44
260.081	188.44
260.314	212.44
260.547	217.44
260.779	196.44
261.012	200.44
261.244	189.44
261.477	197.44
261.71	182.44
261.942	181.44
262.175	204.44
262.407	188.44
262.64	178.44
262.872	190.44
263.105	189.44
263.337	202.44
263.57	180.44
263.802	195.44
264.035	197.44
264.267	196.44
264.499	189.44
264.732	191.44
264.964	207.44
265.197	178.44
265.429	194.44
265.661	213.44
265.894	184.44
266.126	206.44
266.358	208.44
266.591	210.44
266.823	210.44
267.055	213.44
267.287	198.44
267.52	195.44
267.752	205.44
267.984	214.44
268.216	199.44
268.448	214.44
268.681	204.44
268.913	223.44
269.145	236.44
269.377	241.44
269.609	228.44
269.841	231.44
270.073	228.44
270.306	244.44
270.538	245.44
270.77	264.44
271.002	269.44
271.234	245.44
271.466	239.44
271.698	246.44
271.93	265.44
272.162	269.44
272.394	239.44
272.626	249.44
272.858	244.44
273.09	238.44
273.322	238.44
273.553	230.44
273.785	226.44
274.017	235.44
274.249	236.44
274.481	245.44
274.713	226.44
274.945	247.44
275.176	222.44
275.408	235.44
275.64	253.44
275.872	242.44
276.104	244.44
276.335	230.44
276.567	230.44
276.799	258.44
277.031	261.44
277.262	277.44
277.494	280.44
277.726	258.44
277.957	266.44
278.189	256.44
278.421	250.44
278.652	235.44
278.884	262.44
279.115	246.44
279.347	257.44
279.579	240.44
279.81	248.44
280.042	256.44
280.273	235.44
280.505	235.44
280.736	249.44
280.968	262.44
281.199	266.44
281.431	255.44
281.662	251.44
281.894	247.44
282.125	258.44
282.356	279.44
282.588	265.44
282.819	281.44
283.051	272.44
283.282	258.44
283.513	277.44
283.745	258.44
283.976	265.44
284.207	260.44
284.439	257.44
284.67	270.44
284.901	285.44
285.132	270.44
285.364	272.44
285.595	251.44
285.826	265.44
286.057	276.44
286.288	260.44
286.52	265.44
286.751	250.44
286.982	274.44
287.213	277.44
287.444	259.44
287.675	268.44
287.906	260.44
288.138	284.44
288.369	262.44
288.6	288.44
288.831	289.44
289.062	287.44
289.293	263.44
289.524	276.44
289.755	283.44
289.986	268.44
290.217	275.44
290.448	286.44
290.679	278.44
290.91	266.44
291.141	265.44
291.371	265.44
291.602	275.44
291.833	268.44
292.064	273.44
292.295	277.44
292.526	270.44
292.757	282.44
292.987	292.44
293.218	284.44
293.449	292.44
293.68	272.44
293.91	284.44
294.141	278.44
294.372	278.44
294.603	275.44
294.833	297.44
295.064	269.44
295.295	286.44
295.525	286.44
295.756	310.44
295.987	288.44
296.217	297.44
296.448	294.44
296.679	299.44
296.909	294.44
297.14	289.44
297.37	278.44
297.601	316.44
297.831	309.44
298.062	301.44
298.292	293.44
298.523	278.44
298.753	301.44
298.984	291.44
299.214	299.44
299.445	303.44
299.675	307.44
299.905	287.44
300.136	306.44
300.366	302.44
300.597	290.44
300.827	313.44
301.057	316.44
301.288	310.44
301.518	310.44
301.748	315.44
301.979	306.44
302.209	315.44
302.439	304.44
302.669	313.44
302.9	333.44
303.13	318.44
303.36	322.44
303.59	318.44
303.82	314.44
304.051	319.44
304.281	329.44
304.511	303.44
304.741	325.44
304.971	306.44
305.201	318.44
305.431	323.44
305.661	309.44
305.891	328.44
306.121	309.44
306.352	320.44
306.582	306.44
306.812	307.44
307.042	305.44
307.272	298.44
307.502	310.44
307.731	312.44
307.961	302.44
308.191	312.44
308.421	326.44
308.651	321.44
308.881	340.44
309.111	306.44
309.341	327.44
309.571	320.44
309.8	342.44
310.03	326.44
310.26	321.44
310.49	341.44
310.72	341.44
310.949	343.44
311.179	338.44
311.409	318.44
311.639	323.44
311.868	330.44
312.098	350.44
312.328	343.44
312.557	347.44
312.787	335.44
313.017	355.44
313.246	334.44
313.476	335.44
313.706	338.44
313.935	330.44
314.165	354.44
314.394	325.44
314.624	338.44
314.853	334.44
315.083	351.44
315.312	354.44
315.542	336.44
315.771	338.44
316.001	351.44
316.23	342.44
316.46	366.44
316.689	331.44
316.919	330.44
317.148	366.44
317.377	350.44
317.607	357.44
317.836	332.44
318.065	342.44
318.295	335.44
318.524	335.44
318.753	331.44
318.983	347.44
319.212	332.44
319.441	328.44
319.67	333.44
319.9	351.44
320.129	342.44
320.358	344.44
320.587	324.44
320.816	362.44
321.046	342.44
321.275	341.44
321.504	356.44
321.733	370.44
321.962	347.44
322.191	350.44
322.42	363.44
322.649	357.44
322.878	366.44
323.108	369.44
323.337	383.44
323.566	374.44
323.795	392.44
324.024	425.44
324.253	452.44
324.482	604.44
324.71	864.44
324.939	1155.44
325.168	1018.44
325.397	600.44
325.626	444.44
325.855	415.44
326.084	408.44
326.313	387.44
326.542	390.44
326.77	435.44
326.999	466.44
327.228	588.44
327.457	807.44
327.686	919.44
327.914	656.44
328.143	485.44
328.372	452.44
328.6	434.44
328.829	410.44
329.058	416.44
329.287	431.44
329.515	418.44
329.744	386.44
329.972	399.44
330.201	414.44
330.43	411.44
330.658	431.44
330.887	443.44
331.115	448.44
331.344	411.44
331.572	400.44
331.801	409.44
332.03	395.44
332.258	409.44
332.486	407.44
332.715	407.44
332.943	430.44
333.172	420.44
333.4	427.44
333.629	451.44
333.857	450.44
334.085	471.44
334.314	456.44
334.542	425.44
334.771	416.44
334.999	424.44
335.227	419.44
335.455	426.44
335.684	429.44
335.912	427.44
336.14	424.44
336.369	419.44
336.597	415.44
336.825	403.44
337.053	406.44
337.281	396.44
337.51	407.44
337.738	399.44
337.966	396.44
338.194	388.44
338.422	419.44
338.65	396.44
338.878	402.44
339.106	408.44
339.334	410.44
339.562	385.44
339.79	379.44
340.018	380.44
340.246	386.44
340.474	372.44
340.702	378.44
340.93	377.44
341.158	375.44
341.386	365.44
341.614	364.44
341.842	367.44
342.07	374.44
342.298	378.44
342.526	376.44
342.754	380.44
342.981	383.44
343.209	388.44
343.437	385.44
343.665	401.44
343.893	410.44
344.12	404.44
344.348	415.44
344.576	411.44
344.804	391.44
345.031	406.44
345.259	395.44
345.487	398.44
345.714	365.44
345.942	368.44
346.17	354.44
346.397	365.44
346.625	364.44
346.853	365.44
347.08	368.44
347.308	364.44
347.535	347.44
347.763	358.44
347.99	365.44
348.218	389.44
348.445	359.44
348.673	361.44
348.9	363.44
349.128	363.44
349.355	359.44
349.583	366.44
349.81	353.44
350.037	352.44
350.265	338.44
350.492	346.44
350.72	358.44
350.947	351.44
351.174	350.44
351.402	373.44
351.629	356.44
351.856	351.44
352.083	358.44
352.311	361.44
352.538	357.44
352.765	364.44
352.992	354.44
353.22	364.44
353.447	370.44
353.674	346.44
353.901	359.44
354.128	331.44
354.355	348.44
354.583	332.44
354.81	333.44
355.037	337.44
355.264	347.44
355.491	343.44
355.718	342.44
355.945	327.44
356.172	347.44
356.399	331.44
356.626	333.44
356.853	347.44
357.08	326.44
357.307	343.44
357.534	354.44
357.761	341.44
357.988	359.44
358.215	333.44
358.441	358.44
358.668	340.44
358.895	339.44
359.122	353.44
359.349	346.44
359.576	344.44
359.802	346.44
360.029	360.44
360.256	379.44
360.483	365.44
360.709	351.44
360.936	347.44
361.163	349.44
361.39	356.44
361.616	340.44
361.843	362.44
362.07	350.44
362.296	366.44
362.523	343.44
362.749	343.44
362.976	348.44
363.203	348.44
363.429	332.44
363.656	350.44
363.882	334.44
364.109	335.44
364.335	311.44
364.562	346.44
364.788	346.44
365.015	341.44
365.241	340.44
365.468	328.44
365.694	338.44
365.92	351.44
366.147	349.44
366.373	344.44
366.599	339.44
366.826	338.44
367.052	330.44
367.278	335.44
367.505	344.44
367.731	361.44
367.957	335.44
368.184	351.44
368.41	336.44
368.636	348.44
368.862	342.44
369.089	355.44
369.315	329.44
369.541	333.44
369.767	354.44
369.993	350.44
370.219	357.44
370.445	356.44
370.672	342.44
370.898	343.44
371.124	339.44
371.35	358.44
371.576	352.44
371.802	343.44
372.028	342.44
372.254	360.44
372.48	372.44
372.706	348.44
372.932	352.44
373.158	357.44
373.384	367.44
373.61	368.44
373.835	342.44
374.061	350.44
374.287	345.44
374.513	350.44
374.739	363.44
374.965	381.44
375.191	383.44
375.416	395.44
375.642	384.44
375.868	357.44
376.094	379.44
376.319	364.44
376.545	376.44
376.771	351.44
376.997	342.44
377.222	345.44
377.448	352.44
377.674	336.44
377.899	357.44
378.125	370.44
378.35	365.44
378.576	362.44
378.802	348.44
379.027	350.44
379.253	348.44
379.478	359.44
379.704	333.44
379.929	372.44
380.155	362.44
380.38	359.44
380.606	358.44
380.831	341.44
381.057	353.44
381.282	375.44
381.507	352.44
381.733	350.44
381.958	363.44
382.184	373.44
382.409	350.44
382.634	353.44
382.86	382.44
383.085	365.44
383.31	384.44
383.535	380.44
383.761	382.44
383.986	379.44
384.211	378.44
384.436	386.44
384.662	397.44
384.887	386.44
385.112	398.44
385.337	399.44
385.562	392.44
385.787	376.44
386.013	401.44
386.238	392.44
386.463	407.44
386.688	395.44
386.913	380.44
387.138	398.44
387.363	414.44
387.588	411.44
387.813	393.44
388.038	386.44
388.263	388.44
388.488	385.44
388.713	397.44
388.938	409.44
389.163	405.44
389.387	394.44
389.612	397.44
389.837	392.44
390.062	382.44
390.287	410.44
390.512	382.44
390.736	390.44
390.961	390.44
391.186	415.44
391.411	427.44
391.636	410.44
391.86	417.44
392.085	421.44
392.31	440.44
392.534	421.44
392.759	397.44
392.984	410.44
393.208	416.44
393.433	420.44
393.658	410.44
393.882	408.44
394.107	422.44
394.331	412.44
394.556	410.44
394.78	417.44
395.005	410.44
395.229	401.44
395.454	422.44
395.678	415.44
395.903	439.44
396.127	426.44
396.352	441.44
396.576	406.44
396.801	423.44
397.025	429.44
397.249	427.44
397.474	438.44
397.698	428.44
397.922	447.44
398.147	443.44
398.371	444.44
398.595	458.44
398.82	476.44
399.044	486.44
399.268	520.44
399.492	550.44
399.717	614.44
399.941	635.44
400.165	614.44
400.389	564.44
400.613	556.44
400.837	476.44
401.062	479.44
401.286	480.44
401.51	479.44
401.734	474.44
401.958	468.44
402.182	485.44
402.406	493.44
402.63	487.44
402.854	489.44
403.078	486.44
403.302	496.44
403.526	486.44
403.75	493.44
403.974	513.44
404.198	506.44
404.422	494.44
404.645	521.44
404.869	520.44
405.093	511.44
405.317	521.44
405.541	535.44
405.765	526.44
405.988	517.44
406.212	479.44
406.436	516.44
406.66	528.44
406.883	524.44
407.107	555.44
407.331	570.44
407.555	620.44
407.778	632.44
408.002	591.44
408.226	543.44
408.449	534.44
408.673	547.44
408.896	523.44
409.12	575.44
409.344	543.44
409.567	508.44
409.791	515.44
410.014	494.44
410.238	504.44
410.461	482.44
410.685	498.44
410.908	516.44
411.132	510.44
411.355	517.44
411.578	506.44
411.802	471.44
412.025	483.44
412.249	477.44
412.472	482.44
412.695	463.44
412.919	463.44
413.142	448.44
413.365	468.44
413.589	446.44
413.812	470.44
414.035	473.44
414.258	469.44
414.482	446.44
414.705	446.44
414.928	444.44
415.151	465.44
415.374	452.44
415.597	449.44
415.821	463.44
416.044	447.44
416.267	456.44
416.49	449.44
416.713	431.44
416.936	450.44
417.159	463.44
417.382	461.44
417.605	446.44
417.828	466.44
418.051	474.44
418.274	471.44
418.497	457.44
418.72	446.44
418.943	446.44
419.166	496.44
419.389	513.44
419.611	502.44
419.834	487.44
420.057	488.44
420.28	463.44
420.503	457.44
420.726	447.44
420.948	450.44
421.171	467.44
421.394	519.44
421.617	466.44
421.839	472.44
422.062	463.44
422.285	465.44
422.507	530.44
422.73	561.44
422.953	532.44
423.175	488.44
423.398	490.44
423.621	488.44
423.843	495.44
424.066	506.44
424.288	512.44
424.511	505.44
424.733	524.44
424.956	548.44
425.178	570.44
425.401	554.44
425.623	558.44
425.846	531.44
426.068	459.44
426.291	474.44
426.513	479.44
426.735	464.44
426.958	518.44
427.18	543.44
427.402	596.44
427.625	629.44
427.847	569.44
428.069	491.44
428.292	476.44
428.514	454.44
428.736	436.44
428.958	455.44
429.181	436.44
429.403	430.44
429.625	421.44
429.847	465.44
430.069	494.44
430.292	478.44
430.514	431.44
430.736	438.44
430.958	428.44
431.18	425.44
431.402	425.44
431.624	406.44
431.846	415.44
432.068	433.44
432.29	425.44
432.512	418.44
432.734	418.44
432.956	436.44
433.178	420.44
433.4	437.44
433.622	432.44
433.844	430.44
434.066	426.44
434.287	436.44
434.509	436.44
434.731	440.44
434.953	452.44
435.175	453.44
435.397	457.44
435.618	467.44
435.84	485.44
436.062	542.44
436.284	547.44
436.505	478.44
436.727	452.44
436.949	449.44
437.17	438.44
437.392	435.44
437.614	437.44
437.835	440.44
438.057	476.44
438.278	550.44
438.5	557.44
438.721	601.44
438.943	595.44
439.165	474.44
439.386	469.44
439.608	478.44
439.829	477.44
440.05	472.44
440.272	493.44
440.493	465.44
440.715	467.44
440.936	451.44
441.158	440.44
441.379	441.44
441.6	468.44
441.822	463.44
442.043	492.44
442.264	537.44
442.486	545.44
442.707	521.44
442.928	481.44
443.149	486.44
443.371	480.44
443.592	503.44
443.813	563.44
444.034	614.44
444.255	529.44
444.476	521.44
444.698	534.44
444.919	530.44
445.14	622.44
445.361	552.44
445.582	517.44
445.803	535.44
446.024	548.44
446.245	545.44
446.466	512.44
446.687	472.44
446.908	452.44
447.129	438.44
447.35	423.44
447.571	446.44
447.792	422.44
448.013	424.44
448.234	437.44
448.455	458.44
448.675	518.44
448.896	574.44
449.117	515.44
449.338	514.44
449.559	520.44
449.779	584.44
450	483.44
450.221	454.44
450.442	418.44
450.662	401.44
450.883	404.44
451.104	417.44
451.324	418.44
451.545	402.44
451.766	390.44
451.986	379.44
452.207	406.44
452.428	396.44
452.648	384.44
452.869	386.44
453.089	385.44
453.31	389.44
453.53	385.44
453.751	381.44
453.971	365.44
454.192	378.44
454.412	370.44
454.633	377.44
454.853	375.44
455.073	396.44
455.294	389.44
455.514	411.44
455.734	408.44
455.955	389.44
456.175	375.44
456.395	349.44
456.616	358.44
456.836	386.44
457.056	380.44
457.276	345.44
457.497	363.44
457.717	377.44
457.937	372.44
458.157	367.44
458.377	390.44
458.598	372.44
458.818	424.44
459.038	420.44
459.258	469.44
459.478	443.44
459.698	443.44
459.918	449.44
460.138	431.44
460.358	441.44
460.578	462.44
460.798	440.44
461.018	471.44
461.238	470.44
461.458	454.44
461.678	458.44
461.898	467.44
462.118	461.44
462.338	467.44
462.558	481.44
462.777	487.44
462.997	532.44
463.217	553.44
463.437	554.44
463.657	535.44
463.876	506.44
464.096	526.44
464.316	530.44
464.536	517.44
464.755	511.44
464.975	491.44
465.195	489.44
465.414	480.44
465.634	464.44
465.854	437.44
466.073	429.44
466.293	415.44
466.512	395.44
466.732	411.44
466.951	394.44
467.171	397.44
467.391	395.44
467.61	404.44
467.829	399.44
468.049	396.44
468.268	389.44
468.488	388.44
468.707	392.44
468.927	394.44
469.146	383.44
469.365	391.44
469.585	389.44
469.804	390.44
470.023	415.44
470.243	424.44
470.462	412.44
470.681	399.44
470.901	411.44
471.12	407.44
471.339	399.44
471.558	404.44
471.777	413.44
471.997	393.44
472.216	399.44
472.435	396.44
472.654	382.44
472.873	386.44
473.092	408.44
473.311	394.44
473.53	399.44
473.749	404.44
473.968	420.44
474.187	459.44
474.406	454.44
474.625	412.44
474.844	394.44
475.063	383.44
475.282	392.44
475.501	392.44
475.72	391.44
475.939	424.44
476.158	410.44
476.377	388.44
476.596	404.44
476.814	403.44
477.033	406.44
477.252	408.44
477.471	427.44
477.69	426.44
477.908	437.44
478.127	428.44
478.346	446.44
478.564	448.44
478.783	448.44
479.002	464.44
479.22	468.44
479.439	474.44
479.658	463.44
479.876	485.44
480.095	482.44
480.313	503.44
480.532	528.44
480.751	493.44
480.969	489.44
481.188	493.44
481.406	492.44
481.624	446.44
481.843	466.44
482.061	455.44
482.28	453.44
482.498	458.44
482.717	440.44
482.935	425.44
483.153	445.44
483.372	445.44
483.59	449.44
483.808	459.44
484.027	442.44
484.245	454.44
484.463	461.44
484.681	463.44
484.9	457.44
485.118	446.44
485.336	466.44
485.554	477.44
485.772	458.44
485.99	473.44
486.209	496.44
486.427	460.44
486.645	463.44
486.863	496.44
487.081	496.44
487.299	486.44
487.517	474.44
487.735	474.44
487.953	475.44
488.171	472.44
488.389	473.44
488.607	482.44
488.825	483.44
489.043	472.44
489.261	479.44
489.479	463.44
489.696	461.44
489.914	479.44
490.132	462.44
490.35	482.44
490.568	483.44
490.786	485.44
491.003	506.44
491.221	489.44
491.439	512.44
491.657	492.44
491.874	517.44
492.092	512.44
492.31	519.44
492.527	499.44
492.745	491.44
492.963	512.44
493.18	522.44
493.398	514.44
493.615	525.44
493.833	524.44
494.05	534.44
494.268	525.44
494.485	524.44
494.703	529.44
494.92	512.44
495.138	527.44
495.355	555.44
495.573	543.44
495.79	535.44
496.008	561.44
496.225	535.44
496.442	541.44
496.66	568.44
496.877	540.44
497.094	573.44
497.312	546.44
497.529	577.44
497.746	584.44
497.963	581.44
498.181	605.44
498.398	646.44
498.615	639.44
498.832	648.44
499.049	688.44
499.267	753.44
499.484	806.44
499.701	862.44
499.918	902.44
500.135	970.44
500.352	1054.44
500.569	1071.44
500.786	1075.44
501.003	1042.44
501.22	927.44
501.437	879.44
501.654	811.44
501.871	795.44
502.088	739.44
