Data from 1984.PennyLincolnUp.Lamp.En5.5.200Scan.071819.P1_HRD10591_16-57-32-967.txt Node
Date: Thu Jul 18 16:57:32 EDT 2019
User: cochatt
Spectrometer: HR+D1059
Trigger mode: 1
Integration Time (sec): 1.000000E-1
Scans to average: 1
Electric dark correction enabled: true
Nonlinearity correction enabled: false
Boxcar width: 0
XAxis mode: Wavelengths
Number of Pixels in Spectrum: 2048
>>>>>Begin Spectral Data<<<<<
223.165	-17.62
223.4	-17.62
223.635	-17.62
223.869	-17.62
224.104	-20.62
224.338	-13.62
224.573	-23.62
224.808	-13.62
225.042	-3.62
225.277	-12.62
225.511	0.38
225.746	0.38
225.98	13.38
226.215	20.38
226.449	14.38
226.683	20.38
226.918	16.38
227.152	37.38
227.387	33.38
227.621	28.38
227.856	50.38
228.09	45.38
228.324	49.38
228.559	41.38
228.793	74.38
229.027	84.38
229.262	85.38
229.496	103.38
229.73	97.38
229.964	110.38
230.199	127.38
230.433	101.38
230.667	101.38
230.901	106.38
231.136	105.38
231.37	108.38
231.604	96.38
231.838	108.38
232.072	101.38
232.306	107.38
232.541	120.38
232.775	117.38
233.009	98.38
233.243	107.38
233.477	98.38
233.711	113.38
233.945	114.38
234.179	110.38
234.413	88.38
234.647	105.38
234.881	106.38
235.115	109.38
235.349	114.38
235.583	112.38
235.817	113.38
236.051	94.38
236.285	121.38
236.519	123.38
236.753	113.38
236.987	126.38
237.221	132.38
237.455	159.38
237.689	136.38
237.922	132.38
238.156	124.38
238.39	122.38
238.624	101.38
238.858	117.38
239.091	113.38
239.325	120.38
239.559	115.38
239.793	114.38
240.027	132.38
240.26	126.38
240.494	136.38
240.728	135.38
240.961	129.38
241.195	128.38
241.429	137.38
241.662	122.38
241.896	115.38
242.13	124.38
242.363	109.38
242.597	125.38
242.83	124.38
243.064	121.38
243.298	134.38
243.531	133.38
243.765	120.38
243.998	126.38
244.232	124.38
244.465	127.38
244.699	113.38
244.932	132.38
245.166	134.38
245.399	135.38
245.633	131.38
245.866	125.38
246.099	139.38
246.333	133.38
246.566	138.38
246.8	146.38
247.033	131.38
247.266	132.38
247.5	129.38
247.733	135.38
247.966	154.38
248.2	151.38
248.433	140.38
248.666	144.38
248.899	161.38
249.133	142.38
249.366	172.38
249.599	171.38
249.832	156.38
250.066	150.38
250.299	157.38
250.532	165.38
250.765	166.38
250.998	166.38
251.231	186.38
251.465	171.38
251.698	176.38
251.931	166.38
252.164	172.38
252.397	173.38
252.63	173.38
252.863	171.38
253.096	170.38
253.329	160.38
253.562	180.38
253.795	172.38
254.028	186.38
254.261	176.38
254.494	192.38
254.727	190.38
254.96	219.38
255.193	206.38
255.426	202.38
255.659	189.38
255.892	194.38
256.124	179.38
256.357	173.38
256.59	173.38
256.823	169.38
257.056	154.38
257.289	177.38
257.521	194.38
257.754	191.38
257.987	170.38
258.22	193.38
258.452	171.38
258.685	173.38
258.918	185.38
259.151	178.38
259.383	190.38
259.616	174.38
259.849	186.38
260.081	196.38
260.314	190.38
260.547	187.38
260.779	190.38
261.012	188.38
261.244	188.38
261.477	201.38
261.71	199.38
261.942	199.38
262.175	193.38
262.407	195.38
262.64	199.38
262.872	190.38
263.105	193.38
263.337	189.38
263.57	203.38
263.802	192.38
264.035	186.38
264.267	184.38
264.499	205.38
264.732	200.38
264.964	186.38
265.197	200.38
265.429	194.38
265.661	201.38
265.894	200.38
266.126	185.38
266.358	189.38
266.591	176.38
266.823	196.38
267.055	203.38
267.287	202.38
267.52	196.38
267.752	216.38
267.984	204.38
268.216	207.38
268.448	204.38
268.681	221.38
268.913	213.38
269.145	212.38
269.377	226.38
269.609	220.38
269.841	221.38
270.073	224.38
270.306	244.38
270.538	243.38
270.77	246.38
271.002	235.38
271.234	242.38
271.466	254.38
271.698	244.38
271.93	265.38
272.162	252.38
272.394	258.38
272.626	248.38
272.858	250.38
273.09	232.38
273.322	239.38
273.553	229.38
273.785	224.38
274.017	220.38
274.249	241.38
274.481	226.38
274.713	237.38
274.945	231.38
275.176	246.38
275.408	222.38
275.64	224.38
275.872	247.38
276.104	243.38
276.335	234.38
276.567	233.38
276.799	229.38
277.031	260.38
277.262	260.38
277.494	250.38
277.726	262.38
277.957	245.38
278.189	221.38
278.421	238.38
278.652	243.38
278.884	241.38
279.115	257.38
279.347	254.38
279.579	243.38
279.81	244.38
280.042	234.38
280.273	240.38
280.505	252.38
280.736	227.38
280.968	234.38
281.199	250.38
281.431	247.38
281.662	233.38
281.894	237.38
282.125	221.38
282.356	249.38
282.588	269.38
282.819	266.38
283.051	259.38
283.282	264.38
283.513	262.38
283.745	267.38
283.976	247.38
284.207	266.38
284.439	277.38
284.67	251.38
284.901	250.38
285.132	251.38
285.364	248.38
285.595	258.38
285.826	269.38
286.057	278.38
286.288	271.38
286.52	254.38
286.751	261.38
286.982	280.38
287.213	267.38
287.444	242.38
287.675	259.38
287.906	292.38
288.138	289.38
288.369	287.38
288.6	274.38
288.831	273.38
289.062	284.38
289.293	275.38
289.524	275.38
289.755	279.38
289.986	272.38
290.217	276.38
290.448	266.38
290.679	272.38
290.91	277.38
291.141	256.38
291.371	260.38
291.602	266.38
291.833	269.38
292.064	276.38
292.295	268.38
292.526	264.38
292.757	278.38
292.987	279.38
293.218	283.38
293.449	264.38
293.68	280.38
293.91	274.38
294.141	268.38
294.372	283.38
294.603	256.38
294.833	273.38
295.064	284.38
295.295	263.38
295.525	276.38
295.756	278.38
295.987	260.38
296.217	279.38
296.448	296.38
296.679	287.38
296.909	276.38
297.14	296.38
297.37	278.38
297.601	300.38
297.831	266.38
298.062	292.38
298.292	296.38
298.523	287.38
298.753	307.38
298.984	308.38
299.214	304.38
299.445	275.38
299.675	295.38
299.905	289.38
300.136	285.38
300.366	302.38
300.597	288.38
300.827	322.38
301.057	304.38
301.288	301.38
301.518	322.38
301.748	306.38
301.979	316.38
302.209	315.38
302.439	331.38
302.669	313.38
302.9	308.38
303.13	304.38
303.36	313.38
303.59	327.38
303.82	298.38
304.051	316.38
304.281	307.38
304.511	300.38
304.741	310.38
304.971	296.38
305.201	301.38
305.431	316.38
305.661	333.38
305.891	326.38
306.121	304.38
306.352	306.38
306.582	304.38
306.812	296.38
307.042	312.38
307.272	283.38
307.502	302.38
307.731	286.38
307.961	302.38
308.191	305.38
308.421	318.38
308.651	326.38
308.881	294.38
309.111	317.38
309.341	316.38
309.571	321.38
309.8	324.38
310.03	305.38
310.26	311.38
310.49	321.38
310.72	330.38
310.949	320.38
311.179	322.38
311.409	337.38
311.639	337.38
311.868	308.38
312.098	309.38
312.328	320.38
312.557	353.38
312.787	349.38
313.017	346.38
313.246	349.38
313.476	342.38
313.706	328.38
313.935	334.38
314.165	344.38
314.394	342.38
314.624	332.38
314.853	340.38
315.083	331.38
315.312	336.38
315.542	336.38
315.771	328.38
316.001	327.38
316.23	320.38
316.46	326.38
316.689	346.38
316.919	326.38
317.148	341.38
317.377	339.38
317.607	338.38
317.836	324.38
318.065	323.38
318.295	324.38
318.524	331.38
318.753	332.38
318.983	337.38
319.212	333.38
319.441	357.38
319.67	323.38
319.9	357.38
320.129	342.38
320.358	339.38
320.587	339.38
320.816	357.38
321.046	351.38
321.275	348.38
321.504	346.38
321.733	335.38
321.962	333.38
322.191	363.38
322.42	350.38
322.649	362.38
322.878	372.38
323.108	344.38
323.337	349.38
323.566	378.38
323.795	394.38
324.024	421.38
324.253	457.38
324.482	584.38
324.71	828.38
324.939	1085.38
325.168	974.38
325.397	586.38
325.626	438.38
325.855	412.38
326.084	410.38
326.313	389.38
326.542	386.38
326.77	422.38
326.999	466.38
327.228	570.38
327.457	765.38
327.686	840.38
327.914	642.38
328.143	483.38
328.372	413.38
328.6	411.38
328.829	409.38
329.058	403.38
329.287	408.38
329.515	388.38
329.744	408.38
329.972	389.38
330.201	390.38
330.43	405.38
330.658	406.38
330.887	436.38
331.115	413.38
331.344	395.38
331.572	384.38
331.801	413.38
332.03	396.38
332.258	394.38
332.486	402.38
332.715	401.38
332.943	421.38
333.172	443.38
333.4	442.38
333.629	430.38
333.857	436.38
334.085	424.38
334.314	428.38
334.542	433.38
334.771	425.38
334.999	438.38
335.227	420.38
335.455	426.38
335.684	417.38
335.912	422.38
336.14	390.38
336.369	406.38
336.597	388.38
336.825	405.38
337.053	421.38
337.281	378.38
337.51	394.38
337.738	379.38
337.966	382.38
338.194	372.38
338.422	393.38
338.65	394.38
338.878	381.38
339.106	376.38
339.334	381.38
339.562	392.38
339.79	384.38
340.018	392.38
340.246	373.38
340.474	373.38
340.702	360.38
340.93	374.38
341.158	376.38
341.386	370.38
341.614	379.38
341.842	396.38
342.07	373.38
342.298	377.38
342.526	367.38
342.754	352.38
342.981	357.38
343.209	363.38
343.437	383.38
343.665	389.38
343.893	417.38
344.12	416.38
344.348	410.38
344.576	419.38
344.804	397.38
345.031	395.38
345.259	376.38
345.487	370.38
345.714	354.38
345.942	372.38
346.17	386.38
346.397	359.38
346.625	348.38
346.853	334.38
347.08	349.38
347.308	374.38
347.535	362.38
347.763	358.38
347.99	353.38
348.218	350.38
348.445	358.38
348.673	345.38
348.9	343.38
349.128	333.38
349.355	345.38
349.583	340.38
349.81	338.38
350.037	354.38
350.265	348.38
350.492	349.38
350.72	325.38
350.947	352.38
351.174	353.38
351.402	356.38
351.629	338.38
351.856	343.38
352.083	336.38
352.311	356.38
352.538	350.38
352.765	337.38
352.992	347.38
353.22	322.38
353.447	357.38
353.674	340.38
353.901	331.38
354.128	361.38
354.355	333.38
354.583	309.38
354.81	346.38
355.037	350.38
355.264	325.38
355.491	339.38
355.718	340.38
355.945	355.38
356.172	344.38
356.399	336.38
356.626	335.38
356.853	341.38
357.08	330.38
357.307	329.38
357.534	326.38
357.761	326.38
357.988	347.38
358.215	338.38
358.441	350.38
358.668	354.38
358.895	335.38
359.122	330.38
359.349	336.38
359.576	338.38
359.802	345.38
360.029	360.38
360.256	371.38
360.483	363.38
360.709	363.38
360.936	362.38
361.163	341.38
361.39	348.38
361.616	340.38
361.843	351.38
362.07	339.38
362.296	331.38
362.523	341.38
362.749	322.38
362.976	338.38
363.203	341.38
363.429	333.38
363.656	350.38
363.882	313.38
364.109	320.38
364.335	342.38
364.562	334.38
364.788	316.38
365.015	326.38
365.241	348.38
365.468	343.38
365.694	331.38
365.92	331.38
366.147	320.38
366.373	329.38
366.599	318.38
366.826	303.38
367.052	339.38
367.278	330.38
367.505	342.38
367.731	333.38
367.957	333.38
368.184	345.38
368.41	352.38
368.636	335.38
368.862	344.38
369.089	342.38
369.315	336.38
369.541	344.38
369.767	341.38
369.993	356.38
370.219	320.38
370.445	332.38
370.672	324.38
370.898	354.38
371.124	342.38
371.35	347.38
371.576	355.38
371.802	352.38
372.028	328.38
372.254	343.38
372.48	337.38
372.706	353.38
372.932	337.38
373.158	354.38
373.384	340.38
373.61	346.38
373.835	354.38
374.061	353.38
374.287	349.38
374.513	371.38
374.739	349.38
374.965	328.38
375.191	374.38
375.416	355.38
375.642	361.38
375.868	359.38
376.094	377.38
376.319	344.38
376.545	334.38
376.771	346.38
376.997	340.38
377.222	355.38
377.448	344.38
377.674	368.38
377.899	350.38
378.125	339.38
378.35	341.38
378.576	353.38
378.802	354.38
379.027	343.38
379.253	338.38
379.478	348.38
379.704	342.38
379.929	329.38
380.155	324.38
380.38	347.38
380.606	320.38
380.831	337.38
381.057	349.38
381.282	337.38
381.507	352.38
381.733	341.38
381.958	341.38
382.184	337.38
382.409	355.38
382.634	337.38
382.86	359.38
383.085	375.38
383.31	374.38
383.535	352.38
383.761	380.38
383.986	382.38
384.211	378.38
384.436	368.38
384.662	389.38
384.887	381.38
385.112	393.38
385.337	380.38
385.562	388.38
385.787	394.38
386.013	402.38
386.238	406.38
386.463	398.38
386.688	392.38
386.913	385.38
387.138	379.38
387.363	399.38
387.588	397.38
387.813	381.38
388.038	398.38
388.263	392.38
388.488	391.38
388.713	404.38
388.938	383.38
389.163	370.38
389.387	388.38
389.612	359.38
389.837	394.38
390.062	382.38
390.287	377.38
390.512	364.38
390.736	392.38
390.961	392.38
391.186	388.38
391.411	393.38
391.636	422.38
391.86	424.38
392.085	392.38
392.31	408.38
392.534	412.38
392.759	406.38
392.984	381.38
393.208	398.38
393.433	397.38
393.658	432.38
393.882	398.38
394.107	397.38
394.331	394.38
394.556	404.38
394.78	414.38
395.005	388.38
395.229	411.38
395.454	407.38
395.678	420.38
395.903	427.38
396.127	437.38
396.352	425.38
396.576	417.38
396.801	396.38
397.025	415.38
397.249	422.38
397.474	427.38
397.698	427.38
397.922	419.38
398.147	423.38
398.371	435.38
398.595	443.38
398.82	450.38
399.044	459.38
399.268	522.38
399.492	556.38
399.717	621.38
399.941	614.38
400.165	600.38
400.389	570.38
400.613	502.38
400.837	503.38
401.062	472.38
401.286	462.38
401.51	451.38
401.734	475.38
401.958	452.38
402.182	475.38
402.406	472.38
402.63	473.38
402.854	502.38
403.078	480.38
403.302	480.38
403.526	504.38
403.75	498.38
403.974	489.38
404.198	489.38
404.422	505.38
404.645	506.38
404.869	509.38
405.093	497.38
405.317	503.38
405.541	513.38
405.765	476.38
405.988	473.38
406.212	502.38
406.436	500.38
406.66	521.38
406.883	502.38
407.107	553.38
407.331	581.38
407.555	602.38
407.778	622.38
408.002	583.38
408.226	567.38
408.449	534.38
408.673	516.38
408.896	544.38
409.12	557.38
409.344	528.38
409.567	505.38
409.791	480.38
410.014	477.38
410.238	476.38
410.461	473.38
410.685	461.38
410.908	490.38
411.132	489.38
411.355	510.38
411.578	527.38
411.802	475.38
412.025	466.38
412.249	469.38
412.472	450.38
412.695	448.38
412.919	463.38
413.142	439.38
413.365	448.38
413.589	458.38
413.812	449.38
414.035	460.38
414.258	448.38
414.482	434.38
414.705	452.38
414.928	437.38
415.151	457.38
415.374	435.38
415.597	437.38
415.821	426.38
416.044	440.38
416.267	462.38
416.49	452.38
416.713	442.38
416.936	443.38
417.159	443.38
417.382	449.38
417.605	464.38
417.828	451.38
418.051	465.38
418.274	462.38
418.497	453.38
418.72	453.38
418.943	461.38
419.166	451.38
419.389	482.38
419.611	466.38
419.834	488.38
420.057	459.38
420.28	465.38
420.503	468.38
420.726	465.38
420.948	437.38
421.171	464.38
421.394	512.38
421.617	454.38
421.839	466.38
422.062	473.38
422.285	454.38
422.507	509.38
422.73	548.38
422.953	521.38
423.175	484.38
423.398	466.38
423.621	461.38
423.843	490.38
424.066	481.38
424.288	477.38
424.511	490.38
424.733	532.38
424.956	528.38
425.178	532.38
425.401	541.38
425.623	558.38
425.846	479.38
426.068	466.38
426.291	466.38
426.513	457.38
426.735	456.38
426.958	475.38
427.18	507.38
427.402	588.38
427.625	622.38
427.847	553.38
428.069	483.38
428.292	464.38
428.514	447.38
428.736	429.38
428.958	439.38
429.181	421.38
429.403	455.38
429.625	420.38
429.847	461.38
430.069	458.38
430.292	484.38
430.514	427.38
430.736	426.38
430.958	439.38
431.18	416.38
431.402	416.38
431.624	427.38
431.846	416.38
432.068	430.38
432.29	410.38
432.512	412.38
432.734	426.38
432.956	417.38
433.178	420.38
433.4	410.38
433.622	429.38
433.844	412.38
434.066	442.38
434.287	421.38
434.509	412.38
434.731	436.38
434.953	470.38
435.175	471.38
435.397	459.38
435.618	457.38
435.84	475.38
436.062	513.38
436.284	532.38
436.505	479.38
436.727	437.38
436.949	425.38
437.17	418.38
437.392	418.38
437.614	409.38
437.835	442.38
438.057	462.38
438.278	516.38
438.5	528.38
438.721	583.38
438.943	539.38
439.165	477.38
439.386	470.38
439.608	468.38
439.829	424.38
440.05	466.38
440.272	475.38
440.493	460.38
440.715	439.38
440.936	428.38
441.158	435.38
441.379	429.38
441.6	464.38
441.822	445.38
442.043	467.38
442.264	533.38
442.486	532.38
442.707	482.38
442.928	471.38
443.149	471.38
443.371	491.38
443.592	505.38
443.813	553.38
444.034	566.38
444.255	521.38
444.476	498.38
444.698	540.38
444.919	504.38
445.14	635.38
445.361	552.38
445.582	491.38
445.803	517.38
446.024	560.38
446.245	556.38
446.466	522.38
446.687	461.38
446.908	436.38
447.129	409.38
447.35	430.38
447.571	425.38
447.792	410.38
448.013	410.38
448.234	418.38
448.455	451.38
448.675	497.38
448.896	552.38
449.117	483.38
449.338	472.38
449.559	530.38
449.779	585.38
450	474.38
450.221	436.38
450.442	407.38
450.662	416.38
450.883	398.38
451.104	413.38
451.324	401.38
451.545	381.38
451.766	401.38
451.986	372.38
452.207	359.38
452.428	374.38
452.648	376.38
452.869	389.38
453.089	380.38
453.31	393.38
453.53	368.38
453.751	373.38
453.971	364.38
454.192	386.38
454.412	372.38
454.633	372.38
454.853	369.38
455.073	365.38
455.294	377.38
455.514	427.38
455.734	406.38
455.955	362.38
456.175	355.38
456.395	357.38
456.616	374.38
456.836	352.38
457.056	362.38
457.276	331.38
457.497	340.38
457.717	370.38
457.937	376.38
458.157	352.38
458.377	369.38
458.598	378.38
458.818	396.38
459.038	427.38
459.258	438.38
459.478	422.38
459.698	422.38
459.918	436.38
460.138	439.38
460.358	450.38
460.578	456.38
460.798	470.38
461.018	453.38
461.238	466.38
461.458	460.38
461.678	450.38
461.898	451.38
462.118	449.38
462.338	456.38
462.558	487.38
462.777	473.38
462.997	499.38
463.217	536.38
463.437	553.38
463.657	520.38
463.876	502.38
464.096	508.38
464.316	484.38
464.536	516.38
464.755	498.38
464.975	468.38
465.195	488.38
465.414	487.38
465.634	455.38
465.854	440.38
466.073	444.38
466.293	396.38
466.512	405.38
466.732	395.38
466.951	396.38
467.171	402.38
467.391	390.38
467.61	406.38
467.829	380.38
468.049	395.38
468.268	389.38
468.488	368.38
468.707	376.38
468.927	387.38
469.146	381.38
469.365	404.38
469.585	388.38
469.804	399.38
470.023	403.38
470.243	399.38
470.462	412.38
470.681	427.38
470.901	412.38
471.12	388.38
471.339	380.38
471.558	385.38
471.777	390.38
471.997	380.38
472.216	387.38
472.435	390.38
472.654	384.38
472.873	372.38
473.092	400.38
473.311	379.38
473.53	386.38
473.749	370.38
473.968	396.38
474.187	445.38
474.406	453.38
474.625	418.38
474.844	365.38
475.063	397.38
475.282	392.38
475.501	376.38
475.72	395.38
475.939	379.38
476.158	394.38
476.377	408.38
476.596	389.38
476.814	406.38
477.033	387.38
477.252	421.38
477.471	411.38
477.69	418.38
477.908	423.38
478.127	436.38
478.346	446.38
478.564	451.38
478.783	428.38
479.002	430.38
479.22	444.38
479.439	461.38
479.658	458.38
479.876	459.38
480.095	449.38
480.313	464.38
480.532	505.38
480.751	479.38
480.969	481.38
481.188	475.38
481.406	478.38
481.624	483.38
481.843	440.38
482.061	447.38
482.28	446.38
482.498	432.38
482.717	444.38
482.935	424.38
483.153	422.38
483.372	444.38
483.59	457.38
483.808	454.38
484.027	440.38
484.245	444.38
484.463	439.38
484.681	462.38
484.9	443.38
485.118	461.38
485.336	458.38
485.554	461.38
485.772	468.38
485.99	466.38
486.209	460.38
486.427	452.38
486.645	458.38
486.863	469.38
487.081	458.38
487.299	450.38
487.517	469.38
487.735	480.38
487.953	473.38
488.171	469.38
488.389	457.38
488.607	457.38
488.825	464.38
489.043	464.38
489.261	456.38
489.479	468.38
489.696	453.38
489.914	448.38
490.132	468.38
490.35	482.38
490.568	461.38
490.786	497.38
491.003	470.38
491.221	497.38
491.439	504.38
491.657	484.38
491.874	504.38
492.092	517.38
492.31	512.38
492.527	490.38
492.745	520.38
492.963	514.38
493.18	518.38
493.398	518.38
493.615	523.38
493.833	491.38
494.05	516.38
494.268	519.38
494.485	518.38
494.703	522.38
494.92	520.38
495.138	506.38
495.355	537.38
495.573	545.38
495.79	509.38
496.008	538.38
496.225	549.38
496.442	529.38
496.66	551.38
496.877	528.38
497.094	547.38
497.312	556.38
497.529	552.38
497.746	571.38
497.963	573.38
498.181	607.38
498.398	591.38
498.615	644.38
498.832	661.38
499.049	693.38
499.267	718.38
499.484	765.38
499.701	846.38
499.918	871.38
500.135	945.38
500.352	1016.38
500.569	1064.38
500.786	1054.38
501.003	1026.38
501.22	975.38
501.437	869.38
501.654	836.38
501.871	796.38
502.088	730.38
