Data from 1984.PennyLincolnUp.Lamp.En5.5.200Scan.071819.P1_HRD10591_16-59-41-971.txt Node
Date: Thu Jul 18 16:59:41 EDT 2019
User: cochatt
Spectrometer: HR+D1059
Trigger mode: 1
Integration Time (sec): 1.000000E-1
Scans to average: 1
Electric dark correction enabled: true
Nonlinearity correction enabled: false
Boxcar width: 0
XAxis mode: Wavelengths
Number of Pixels in Spectrum: 2048
>>>>>Begin Spectral Data<<<<<
223.165	-10.88
223.4	-10.88
223.635	-10.88
223.869	-25.88
224.104	-9.88
224.338	-7.88
224.573	-7.88
224.808	-7.88
225.042	-5.88
225.277	-12.88
225.511	3.12
225.746	12.12
225.98	7.12
226.215	-1.88
226.449	9.12
226.683	22.12
226.918	11.12
227.152	26.12
227.387	30.12
227.621	44.12
227.856	43.12
228.09	42.12
228.324	57.12
228.559	54.12
228.793	63.12
229.027	81.12
229.262	87.12
229.496	96.12
229.73	98.12
229.964	130.12
230.199	111.12
230.433	108.12
230.667	102.12
230.901	92.12
231.136	95.12
231.37	109.12
231.604	92.12
231.838	115.12
232.072	120.12
232.306	107.12
232.541	108.12
232.775	90.12
233.009	116.12
233.243	114.12
233.477	106.12
233.711	117.12
233.945	116.12
234.179	118.12
234.413	111.12
234.647	110.12
234.881	118.12
235.115	123.12
235.349	111.12
235.583	117.12
235.817	105.12
236.051	129.12
236.285	114.12
236.519	107.12
236.753	114.12
236.987	119.12
237.221	130.12
237.455	155.12
237.689	155.12
237.922	120.12
238.156	107.12
238.39	110.12
238.624	110.12
238.858	130.12
239.091	111.12
239.325	106.12
239.559	117.12
239.793	124.12
240.027	116.12
240.26	120.12
240.494	147.12
240.728	123.12
240.961	128.12
241.195	118.12
241.429	115.12
241.662	123.12
241.896	115.12
242.13	131.12
242.363	129.12
242.597	131.12
242.83	116.12
243.064	131.12
243.298	120.12
243.531	134.12
243.765	146.12
243.998	133.12
244.232	132.12
244.465	132.12
244.699	127.12
244.932	142.12
245.166	134.12
245.399	133.12
245.633	127.12
245.866	134.12
246.099	129.12
246.333	137.12
246.566	133.12
246.8	145.12
247.033	152.12
247.266	135.12
247.5	116.12
247.733	135.12
247.966	141.12
248.2	147.12
248.433	143.12
248.666	153.12
248.899	151.12
249.133	167.12
249.366	168.12
249.599	172.12
249.832	162.12
250.066	159.12
250.299	178.12
250.532	203.12
250.765	221.12
250.998	200.12
251.231	201.12
251.465	167.12
251.698	176.12
251.931	182.12
252.164	155.12
252.397	161.12
252.63	188.12
252.863	183.12
253.096	196.12
253.329	188.12
253.562	192.12
253.795	190.12
254.028	186.12
254.261	166.12
254.494	172.12
254.727	217.12
254.96	216.12
255.193	203.12
255.426	209.12
255.659	210.12
255.892	226.12
256.124	245.12
256.357	257.12
256.59	227.12
256.823	234.12
257.056	196.12
257.289	210.12
257.521	208.12
257.754	172.12
257.987	186.12
258.22	191.12
258.452	191.12
258.685	194.12
258.918	199.12
259.151	190.12
259.383	182.12
259.616	184.12
259.849	188.12
260.081	207.12
260.314	220.12
260.547	219.12
260.779	217.12
261.012	198.12
261.244	190.12
261.477	180.12
261.71	200.12
261.942	221.12
262.175	191.12
262.407	191.12
262.64	181.12
262.872	185.12
263.105	199.12
263.337	185.12
263.57	166.12
263.802	205.12
264.035	193.12
264.267	197.12
264.499	201.12
264.732	196.12
264.964	204.12
265.197	197.12
265.429	204.12
265.661	204.12
265.894	202.12
266.126	197.12
266.358	212.12
266.591	195.12
266.823	225.12
267.055	223.12
267.287	198.12
267.52	214.12
267.752	212.12
267.984	213.12
268.216	196.12
268.448	224.12
268.681	210.12
268.913	206.12
269.145	217.12
269.377	235.12
269.609	251.12
269.841	251.12
270.073	247.12
270.306	251.12
270.538	267.12
270.77	265.12
271.002	249.12
271.234	262.12
271.466	244.12
271.698	252.12
271.93	273.12
272.162	256.12
272.394	255.12
272.626	230.12
272.858	230.12
273.09	245.12
273.322	253.12
273.553	231.12
273.785	238.12
274.017	237.12
274.249	246.12
274.481	229.12
274.713	239.12
274.945	238.12
275.176	236.12
275.408	233.12
275.64	242.12
275.872	240.12
276.104	254.12
276.335	238.12
276.567	260.12
276.799	254.12
277.031	265.12
277.262	281.12
277.494	299.12
277.726	272.12
277.957	251.12
278.189	273.12
278.421	262.12
278.652	254.12
278.884	266.12
279.115	256.12
279.347	251.12
279.579	239.12
279.81	272.12
280.042	260.12
280.273	254.12
280.505	259.12
280.736	250.12
280.968	260.12
281.199	267.12
281.431	262.12
281.662	248.12
281.894	264.12
282.125	268.12
282.356	269.12
282.588	280.12
282.819	286.12
283.051	254.12
283.282	265.12
283.513	284.12
283.745	258.12
283.976	271.12
284.207	262.12
284.439	282.12
284.67	271.12
284.901	270.12
285.132	252.12
285.364	243.12
285.595	265.12
285.826	265.12
286.057	283.12
286.288	287.12
286.52	286.12
286.751	281.12
286.982	282.12
287.213	275.12
287.444	268.12
287.675	265.12
287.906	288.12
288.138	304.12
288.369	288.12
288.6	289.12
288.831	256.12
289.062	275.12
289.293	272.12
289.524	278.12
289.755	263.12
289.986	277.12
290.217	266.12
290.448	269.12
290.679	288.12
290.91	271.12
291.141	256.12
291.371	267.12
291.602	268.12
291.833	290.12
292.064	288.12
292.295	297.12
292.526	285.12
292.757	284.12
292.987	282.12
293.218	270.12
293.449	269.12
293.68	270.12
293.91	274.12
294.141	268.12
294.372	261.12
294.603	294.12
294.833	302.12
295.064	297.12
295.295	290.12
295.525	286.12
295.756	299.12
295.987	294.12
296.217	310.12
296.448	295.12
296.679	291.12
296.909	276.12
297.14	298.12
297.37	294.12
297.601	290.12
297.831	279.12
298.062	297.12
298.292	296.12
298.523	298.12
298.753	292.12
298.984	310.12
299.214	315.12
299.445	291.12
299.675	314.12
299.905	304.12
300.136	312.12
300.366	310.12
300.597	304.12
300.827	308.12
301.057	334.12
301.288	326.12
301.518	314.12
301.748	325.12
301.979	315.12
302.209	330.12
302.439	321.12
302.669	330.12
302.9	325.12
303.13	326.12
303.36	321.12
303.59	315.12
303.82	326.12
304.051	322.12
304.281	299.12
304.511	314.12
304.741	297.12
304.971	336.12
305.201	329.12
305.431	306.12
305.661	324.12
305.891	315.12
306.121	316.12
306.352	320.12
306.582	324.12
306.812	326.12
307.042	329.12
307.272	325.12
307.502	336.12
307.731	315.12
307.961	325.12
308.191	323.12
308.421	313.12
308.651	317.12
308.881	323.12
309.111	315.12
309.341	322.12
309.571	323.12
309.8	329.12
310.03	323.12
310.26	348.12
310.49	351.12
310.72	339.12
310.949	359.12
311.179	352.12
311.409	343.12
311.639	342.12
311.868	335.12
312.098	349.12
312.328	352.12
312.557	366.12
312.787	355.12
313.017	342.12
313.246	344.12
313.476	334.12
313.706	352.12
313.935	338.12
314.165	364.12
314.394	344.12
314.624	343.12
314.853	325.12
315.083	361.12
315.312	353.12
315.542	343.12
315.771	340.12
316.001	338.12
316.23	368.12
316.46	359.12
316.689	364.12
316.919	346.12
317.148	352.12
317.377	374.12
317.607	353.12
317.836	342.12
318.065	323.12
318.295	359.12
318.524	340.12
318.753	348.12
318.983	351.12
319.212	352.12
319.441	349.12
319.67	367.12
319.9	359.12
320.129	326.12
320.358	336.12
320.587	346.12
320.816	376.12
321.046	371.12
321.275	368.12
321.504	346.12
321.733	332.12
321.962	363.12
322.191	383.12
322.42	394.12
322.649	379.12
322.878	396.12
323.108	418.12
323.337	386.12
323.566	396.12
323.795	448.12
324.024	443.12
324.253	534.12
324.482	682.12
324.71	1029.12
324.939	1412.12
325.168	1241.12
325.397	689.12
325.626	496.12
325.855	470.12
326.084	430.12
326.313	436.12
326.542	443.12
326.77	463.12
326.999	524.12
327.228	677.12
327.457	946.12
327.686	1136.12
327.914	790.12
328.143	570.12
328.372	536.12
328.6	529.12
328.829	484.12
329.058	477.12
329.287	502.12
329.515	489.12
329.744	483.12
329.972	506.12
330.201	569.12
330.43	621.12
330.658	588.12
330.887	560.12
331.115	495.12
331.344	482.12
331.572	452.12
331.801	467.12
332.03	450.12
332.258	439.12
332.486	473.12
332.715	453.12
332.943	459.12
333.172	457.12
333.4	484.12
333.629	510.12
333.857	536.12
334.085	569.12
334.314	635.12
334.542	707.12
334.771	728.12
334.999	615.12
335.227	523.12
335.455	475.12
335.684	457.12
335.912	457.12
336.14	435.12
336.369	440.12
336.597	422.12
336.825	440.12
337.053	400.12
337.281	435.12
337.51	414.12
337.738	421.12
337.966	414.12
338.194	429.12
338.422	380.12
338.65	397.12
338.878	402.12
339.106	395.12
339.334	406.12
339.562	392.12
339.79	394.12
340.018	402.12
340.246	391.12
340.474	404.12
340.702	383.12
340.93	386.12
341.158	390.12
341.386	397.12
341.614	402.12
341.842	409.12
342.07	382.12
342.298	394.12
342.526	404.12
342.754	403.12
342.981	378.12
343.209	388.12
343.437	422.12
343.665	423.12
343.893	422.12
344.12	427.12
344.348	441.12
344.576	425.12
344.804	420.12
345.031	411.12
345.259	388.12
345.487	394.12
345.714	382.12
345.942	376.12
346.17	377.12
346.397	385.12
346.625	354.12
346.853	373.12
347.08	345.12
347.308	382.12
347.535	370.12
347.763	395.12
347.99	380.12
348.218	387.12
348.445	385.12
348.673	375.12
348.9	377.12
349.128	369.12
349.355	333.12
349.583	364.12
349.81	372.12
350.037	367.12
350.265	367.12
350.492	337.12
350.72	360.12
350.947	366.12
351.174	354.12
351.402	378.12
351.629	366.12
351.856	360.12
352.083	382.12
352.311	357.12
352.538	353.12
352.765	365.12
352.992	349.12
353.22	361.12
353.447	353.12
353.674	359.12
353.901	348.12
354.128	337.12
354.355	350.12
354.583	340.12
354.81	357.12
355.037	343.12
355.264	354.12
355.491	317.12
355.718	335.12
355.945	341.12
356.172	359.12
356.399	344.12
356.626	330.12
356.853	359.12
357.08	340.12
357.307	343.12
357.534	372.12
357.761	364.12
357.988	344.12
358.215	356.12
358.441	343.12
358.668	344.12
358.895	352.12
359.122	363.12
359.349	372.12
359.576	359.12
359.802	374.12
360.029	384.12
360.256	380.12
360.483	376.12
360.709	370.12
360.936	360.12
361.163	348.12
361.39	377.12
361.616	363.12
361.843	354.12
362.07	377.12
362.296	376.12
362.523	353.12
362.749	380.12
362.976	362.12
363.203	363.12
363.429	354.12
363.656	354.12
363.882	362.12
364.109	346.12
364.335	353.12
364.562	353.12
364.788	361.12
365.015	343.12
365.241	362.12
365.468	345.12
365.694	352.12
365.92	371.12
366.147	345.12
366.373	368.12
366.599	328.12
366.826	361.12
367.052	355.12
367.278	342.12
367.505	352.12
367.731	333.12
367.957	342.12
368.184	351.12
368.41	336.12
368.636	364.12
368.862	362.12
369.089	343.12
369.315	347.12
369.541	336.12
369.767	370.12
369.993	366.12
370.219	351.12
370.445	341.12
370.672	334.12
370.898	363.12
371.124	354.12
371.35	357.12
371.576	368.12
371.802	367.12
372.028	342.12
372.254	356.12
372.48	361.12
372.706	376.12
372.932	366.12
373.158	383.12
373.384	377.12
373.61	360.12
373.835	370.12
374.061	363.12
374.287	370.12
374.513	373.12
374.739	370.12
374.965	377.12
375.191	378.12
375.416	370.12
375.642	357.12
375.868	370.12
376.094	348.12
376.319	380.12
376.545	344.12
376.771	358.12
376.997	348.12
377.222	342.12
377.448	345.12
377.674	351.12
377.899	348.12
378.125	354.12
378.35	360.12
378.576	340.12
378.802	351.12
379.027	358.12
379.253	368.12
379.478	369.12
379.704	361.12
379.929	343.12
380.155	344.12
380.38	354.12
380.606	346.12
380.831	358.12
381.057	347.12
381.282	356.12
381.507	351.12
381.733	367.12
381.958	353.12
382.184	358.12
382.409	366.12
382.634	367.12
382.86	376.12
383.085	347.12
383.31	349.12
383.535	378.12
383.761	399.12
383.986	382.12
384.211	375.12
384.436	403.12
384.662	396.12
384.887	402.12
385.112	398.12
385.337	392.12
385.562	389.12
385.787	395.12
386.013	391.12
386.238	405.12
386.463	414.12
386.688	408.12
386.913	413.12
387.138	376.12
387.363	404.12
387.588	406.12
387.813	371.12
388.038	387.12
388.263	401.12
388.488	383.12
388.713	402.12
388.938	410.12
389.163	395.12
389.387	388.12
389.612	388.12
389.837	387.12
390.062	396.12
390.287	406.12
390.512	397.12
390.736	395.12
390.961	387.12
391.186	401.12
391.411	419.12
391.636	416.12
391.86	413.12
392.085	419.12
392.31	415.12
392.534	410.12
392.759	413.12
392.984	388.12
393.208	397.12
393.433	384.12
393.658	406.12
393.882	415.12
394.107	395.12
394.331	404.12
394.556	396.12
394.78	413.12
395.005	416.12
395.229	403.12
395.454	411.12
395.678	427.12
395.903	434.12
396.127	436.12
396.352	436.12
396.576	421.12
396.801	407.12
397.025	423.12
397.249	415.12
397.474	454.12
397.698	434.12
397.922	436.12
398.147	466.12
398.371	470.12
398.595	473.12
398.82	459.12
399.044	491.12
399.268	525.12
399.492	584.12
399.717	634.12
399.941	639.12
400.165	598.12
400.389	594.12
400.613	545.12
400.837	511.12
401.062	500.12
401.286	463.12
401.51	483.12
401.734	483.12
401.958	485.12
402.182	482.12
402.406	492.12
402.63	481.12
402.854	510.12
403.078	500.12
403.302	521.12
403.526	512.12
403.75	519.12
403.974	503.12
404.198	502.12
404.422	518.12
404.645	530.12
404.869	550.12
405.093	549.12
405.317	628.12
405.541	642.12
405.765	571.12
405.988	533.12
406.212	532.12
406.436	568.12
406.66	555.12
406.883	531.12
407.107	553.12
407.331	595.12
407.555	640.12
407.778	629.12
408.002	592.12
408.226	562.12
408.449	546.12
408.673	543.12
408.896	560.12
409.12	564.12
409.344	560.12
409.567	527.12
409.791	514.12
410.014	520.12
410.238	502.12
410.461	499.12
410.685	514.12
410.908	503.12
411.132	512.12
411.355	533.12
411.578	525.12
411.802	485.12
412.025	513.12
412.249	522.12
412.472	552.12
412.695	582.12
412.919	583.12
413.142	517.12
413.365	521.12
413.589	495.12
413.812	491.12
414.035	501.12
414.258	463.12
414.482	506.12
414.705	478.12
414.928	450.12
415.151	473.12
415.374	466.12
415.597	458.12
415.821	458.12
416.044	458.12
416.267	460.12
416.49	457.12
416.713	456.12
416.936	458.12
417.159	473.12
417.382	456.12
417.605	478.12
417.828	505.12
418.051	505.12
418.274	490.12
418.497	467.12
418.72	441.12
418.943	470.12
419.166	499.12
419.389	510.12
419.611	506.12
419.834	522.12
420.057	501.12
420.28	540.12
420.503	521.12
420.726	496.12
420.948	506.12
421.171	528.12
421.394	535.12
421.617	485.12
421.839	473.12
422.062	482.12
422.285	476.12
422.507	507.12
422.73	548.12
422.953	518.12
423.175	510.12
423.398	486.12
423.621	506.12
423.843	510.12
424.066	508.12
424.288	498.12
424.511	514.12
424.733	536.12
424.956	562.12
425.178	544.12
425.401	545.12
425.623	556.12
425.846	513.12
426.068	482.12
426.291	494.12
426.513	481.12
426.735	516.12
426.958	499.12
427.18	566.12
427.402	640.12
427.625	686.12
427.847	600.12
428.069	580.12
428.292	514.12
428.514	470.12
428.736	452.12
428.958	456.12
429.181	444.12
429.403	430.12
429.625	450.12
429.847	475.12
430.069	501.12
430.292	496.12
430.514	452.12
430.736	455.12
430.958	420.12
431.18	434.12
431.402	435.12
431.624	415.12
431.846	430.12
432.068	420.12
432.29	440.12
432.512	433.12
432.734	403.12
432.956	417.12
433.178	433.12
433.4	438.12
433.622	443.12
433.844	437.12
434.066	422.12
434.287	437.12
434.509	438.12
434.731	447.12
434.953	464.12
435.175	480.12
435.397	475.12
435.618	502.12
435.84	480.12
436.062	571.12
436.284	599.12
436.505	490.12
436.727	473.12
436.949	483.12
437.17	431.12
437.392	449.12
437.614	451.12
437.835	446.12
438.057	512.12
438.278	577.12
438.5	560.12
438.721	633.12
438.943	568.12
439.165	495.12
439.386	479.12
439.608	470.12
439.829	459.12
440.05	475.12
440.272	489.12
440.493	471.12
440.715	470.12
440.936	452.12
441.158	439.12
441.379	443.12
441.6	468.12
441.822	470.12
442.043	490.12
442.264	549.12
442.486	563.12
442.707	484.12
442.928	490.12
443.149	506.12
443.371	519.12
443.592	518.12
443.813	576.12
444.034	610.12
444.255	555.12
444.476	507.12
444.698	504.12
444.919	535.12
445.14	587.12
445.361	553.12
445.582	546.12
445.803	532.12
446.024	558.12
446.245	590.12
446.466	541.12
446.687	486.12
446.908	489.12
447.129	447.12
447.35	445.12
447.571	434.12
447.792	431.12
448.013	431.12
448.234	430.12
448.455	457.12
448.675	517.12
448.896	586.12
449.117	516.12
449.338	521.12
449.559	537.12
449.779	627.12
450	527.12
450.221	442.12
450.442	428.12
450.662	431.12
450.883	426.12
451.104	422.12
451.324	416.12
451.545	421.12
451.766	405.12
451.986	421.12
452.207	394.12
452.428	371.12
452.648	384.12
452.869	389.12
453.089	390.12
453.31	408.12
453.53	405.12
453.751	395.12
453.971	409.12
454.192	367.12
454.412	380.12
454.633	384.12
454.853	370.12
455.073	402.12
455.294	400.12
455.514	433.12
455.734	427.12
455.955	374.12
456.175	366.12
456.395	381.12
456.616	372.12
456.836	366.12
457.056	379.12
457.276	369.12
457.497	385.12
457.717	362.12
457.937	386.12
458.157	406.12
458.377	391.12
458.598	422.12
458.818	435.12
459.038	446.12
459.258	487.12
459.478	455.12
459.698	423.12
459.918	434.12
460.138	430.12
460.358	470.12
460.578	459.12
460.798	476.12
461.018	451.12
461.238	448.12
461.458	465.12
461.678	440.12
461.898	465.12
462.118	474.12
462.338	493.12
462.558	490.12
462.777	500.12
462.997	510.12
463.217	571.12
463.437	542.12
463.657	522.12
463.876	516.12
464.096	539.12
464.316	510.12
464.536	503.12
464.755	513.12
464.975	488.12
465.195	510.12
465.414	503.12
465.634	457.12
465.854	432.12
466.073	445.12
466.293	427.12
466.512	415.12
466.732	415.12
466.951	432.12
467.171	407.12
467.391	422.12
467.61	419.12
467.829	445.12
468.049	418.12
468.268	450.12
468.488	411.12
468.707	393.12
468.927	396.12
469.146	392.12
469.365	408.12
469.585	393.12
469.804	417.12
470.023	435.12
470.243	418.12
470.462	426.12
470.681	426.12
470.901	432.12
471.12	413.12
471.339	407.12
471.558	407.12
471.777	436.12
471.997	420.12
472.216	443.12
472.435	508.12
472.654	497.12
472.873	465.12
473.092	420.12
473.311	427.12
473.53	431.12
473.749	402.12
473.968	447.12
474.187	480.12
474.406	472.12
474.625	432.12
474.844	404.12
475.063	390.12
475.282	398.12
475.501	394.12
475.72	414.12
475.939	426.12
476.158	412.12
476.377	403.12
476.596	422.12
476.814	418.12
477.033	421.12
477.252	447.12
477.471	430.12
477.69	440.12
477.908	435.12
478.127	457.12
478.346	453.12
478.564	439.12
478.783	456.12
479.002	486.12
479.22	479.12
479.439	479.12
479.658	494.12
479.876	490.12
480.095	474.12
480.313	531.12
480.532	520.12
480.751	503.12
480.969	546.12
481.188	683.12
481.406	763.12
481.624	622.12
481.843	574.12
482.061	507.12
482.28	508.12
482.498	484.12
482.717	482.12
482.935	486.12
483.153	494.12
483.372	483.12
483.59	473.12
483.808	464.12
484.027	462.12
484.245	455.12
484.463	430.12
484.681	482.12
484.9	477.12
485.118	482.12
485.336	476.12
485.554	486.12
485.772	476.12
485.99	490.12
486.209	494.12
486.427	485.12
486.645	475.12
486.863	485.12
487.081	472.12
487.299	469.12
487.517	475.12
487.735	492.12
487.953	502.12
488.171	504.12
488.389	487.12
488.607	490.12
488.825	487.12
489.043	479.12
489.261	499.12
489.479	520.12
489.696	494.12
489.914	492.12
490.132	489.12
490.35	526.12
490.568	517.12
490.786	530.12
491.003	561.12
491.221	552.12
491.439	551.12
491.657	542.12
491.874	545.12
492.092	575.12
492.31	556.12
492.527	593.12
492.745	582.12
492.963	582.12
493.18	623.12
493.398	594.12
493.615	578.12
493.833	583.12
494.05	589.12
494.268	573.12
494.485	581.12
494.703	573.12
494.92	576.12
495.138	552.12
495.355	532.12
495.573	567.12
495.79	596.12
496.008	549.12
496.225	554.12
496.442	584.12
496.66	538.12
496.877	560.12
497.094	592.12
497.312	577.12
497.529	589.12
497.746	591.12
497.963	611.12
498.181	616.12
498.398	662.12
498.615	703.12
498.832	705.12
499.049	719.12
499.267	762.12
499.484	776.12
499.701	846.12
499.918	878.12
500.135	969.12
500.352	1061.12
500.569	1098.12
500.786	1111.12
501.003	1074.12
501.22	1024.12
501.437	913.12
501.654	859.12
501.871	806.12
502.088	790.12
