Data from 1984.PennyLincolnUp.Lamp.En5.5.200Scan.071819.P1_HRD10591_17-00-14-970.txt Node
Date: Thu Jul 18 17:00:14 EDT 2019
User: cochatt
Spectrometer: HR+D1059
Trigger mode: 1
Integration Time (sec): 1.000000E-1
Scans to average: 1
Electric dark correction enabled: true
Nonlinearity correction enabled: false
Boxcar width: 0
XAxis mode: Wavelengths
Number of Pixels in Spectrum: 2048
>>>>>Begin Spectral Data<<<<<
223.165	-8.19
223.4	-8.19
223.635	-8.19
223.869	-11.19
224.104	-11.19
224.338	-5.19
224.573	-12.19
224.808	-8.19
225.042	-8.19
225.277	-15.19
225.511	-1.19
225.746	-17.19
225.98	0.81
226.215	27.81
226.449	9.81
226.683	21.81
226.918	12.81
227.152	24.81
227.387	23.81
227.621	32.81
227.856	33.81
228.09	48.81
228.324	45.81
228.559	51.81
228.793	58.81
229.027	72.81
229.262	90.81
229.496	93.81
229.73	103.81
229.964	120.81
230.199	107.81
230.433	95.81
230.667	99.81
230.901	92.81
231.136	100.81
231.37	102.81
231.604	111.81
231.838	98.81
232.072	92.81
232.306	105.81
232.541	103.81
232.775	114.81
233.009	114.81
233.243	111.81
233.477	119.81
233.711	108.81
233.945	109.81
234.179	105.81
234.413	118.81
234.647	95.81
234.881	96.81
235.115	105.81
235.349	113.81
235.583	112.81
235.817	122.81
236.051	114.81
236.285	116.81
236.519	97.81
236.753	123.81
236.987	119.81
237.221	162.81
237.455	162.81
237.689	159.81
237.922	123.81
238.156	115.81
238.39	131.81
238.624	110.81
238.858	95.81
239.091	98.81
239.325	123.81
239.559	99.81
239.793	106.81
240.027	122.81
240.26	109.81
240.494	130.81
240.728	135.81
240.961	120.81
241.195	131.81
241.429	119.81
241.662	120.81
241.896	125.81
242.13	126.81
242.363	127.81
242.597	145.81
242.83	135.81
243.064	124.81
243.298	132.81
243.531	123.81
243.765	129.81
243.998	124.81
244.232	128.81
244.465	137.81
244.699	136.81
244.932	135.81
245.166	126.81
245.399	147.81
245.633	145.81
245.866	142.81
246.099	133.81
246.333	144.81
246.566	122.81
246.8	139.81
247.033	130.81
247.266	146.81
247.5	160.81
247.733	138.81
247.966	158.81
248.2	136.81
248.433	147.81
248.666	147.81
248.899	158.81
249.133	175.81
249.366	181.81
249.599	176.81
249.832	176.81
250.066	178.81
250.299	177.81
250.532	200.81
250.765	219.81
250.998	198.81
251.231	188.81
251.465	202.81
251.698	173.81
251.931	186.81
252.164	184.81
252.397	185.81
252.63	165.81
252.863	181.81
253.096	172.81
253.329	201.81
253.562	197.81
253.795	197.81
254.028	181.81
254.261	210.81
254.494	196.81
254.727	213.81
254.96	219.81
255.193	220.81
255.426	204.81
255.659	207.81
255.892	236.81
256.124	281.81
256.357	312.81
256.59	247.81
256.823	240.81
257.056	206.81
257.289	198.81
257.521	204.81
257.754	185.81
257.987	175.81
258.22	192.81
258.452	197.81
258.685	184.81
258.918	197.81
259.151	187.81
259.383	194.81
259.616	186.81
259.849	209.81
260.081	195.81
260.314	216.81
260.547	227.81
260.779	216.81
261.012	218.81
261.244	211.81
261.477	207.81
261.71	199.81
261.942	219.81
262.175	216.81
262.407	201.81
262.64	175.81
262.872	192.81
263.105	208.81
263.337	208.81
263.57	181.81
263.802	207.81
264.035	210.81
264.267	179.81
264.499	189.81
264.732	207.81
264.964	212.81
265.197	206.81
265.429	218.81
265.661	187.81
265.894	189.81
266.126	197.81
266.358	213.81
266.591	216.81
266.823	207.81
267.055	200.81
267.287	205.81
267.52	205.81
267.752	218.81
267.984	216.81
268.216	190.81
268.448	211.81
268.681	213.81
268.913	218.81
269.145	223.81
269.377	241.81
269.609	249.81
269.841	246.81
270.073	243.81
270.306	249.81
270.538	241.81
270.77	254.81
271.002	249.81
271.234	239.81
271.466	253.81
271.698	248.81
271.93	281.81
272.162	268.81
272.394	257.81
272.626	280.81
272.858	258.81
273.09	249.81
273.322	241.81
273.553	237.81
273.785	217.81
274.017	233.81
274.249	238.81
274.481	243.81
274.713	257.81
274.945	246.81
275.176	267.81
275.408	241.81
275.64	230.81
275.872	264.81
276.104	251.81
276.335	254.81
276.567	269.81
276.799	258.81
277.031	259.81
277.262	280.81
277.494	291.81
277.726	282.81
277.957	267.81
278.189	238.81
278.421	253.81
278.652	254.81
278.884	248.81
279.115	262.81
279.347	259.81
279.579	257.81
279.81	258.81
280.042	268.81
280.273	257.81
280.505	263.81
280.736	255.81
280.968	257.81
281.199	264.81
281.431	262.81
281.662	256.81
281.894	260.81
282.125	290.81
282.356	289.81
282.588	277.81
282.819	280.81
283.051	264.81
283.282	261.81
283.513	275.81
283.745	252.81
283.976	281.81
284.207	284.81
284.439	286.81
284.67	275.81
284.901	270.81
285.132	277.81
285.364	286.81
285.595	274.81
285.826	285.81
286.057	277.81
286.288	286.81
286.52	266.81
286.751	266.81
286.982	276.81
287.213	267.81
287.444	261.81
287.675	266.81
287.906	286.81
288.138	295.81
288.369	290.81
288.6	287.81
288.831	281.81
289.062	286.81
289.293	280.81
289.524	286.81
289.755	287.81
289.986	274.81
290.217	289.81
290.448	314.81
290.679	293.81
290.91	283.81
291.141	294.81
291.371	266.81
291.602	281.81
291.833	283.81
292.064	292.81
292.295	286.81
292.526	303.81
292.757	281.81
292.987	287.81
293.218	274.81
293.449	290.81
293.68	287.81
293.91	296.81
294.141	267.81
294.372	283.81
294.603	298.81
294.833	274.81
295.064	282.81
295.295	301.81
295.525	301.81
295.756	283.81
295.987	312.81
296.217	303.81
296.448	325.81
296.679	306.81
296.909	312.81
297.14	289.81
297.37	317.81
297.601	289.81
297.831	302.81
298.062	292.81
298.292	287.81
298.523	289.81
298.753	290.81
298.984	291.81
299.214	293.81
299.445	314.81
299.675	299.81
299.905	319.81
300.136	303.81
300.366	309.81
300.597	296.81
300.827	305.81
301.057	318.81
301.288	331.81
301.518	324.81
301.748	317.81
301.979	333.81
302.209	324.81
302.439	326.81
302.669	309.81
302.9	312.81
303.13	313.81
303.36	313.81
303.59	321.81
303.82	325.81
304.051	335.81
304.281	313.81
304.511	311.81
304.741	307.81
304.971	320.81
305.201	315.81
305.431	322.81
305.661	335.81
305.891	307.81
306.121	317.81
306.352	324.81
306.582	324.81
306.812	326.81
307.042	305.81
307.272	313.81
307.502	317.81
307.731	337.81
307.961	302.81
308.191	330.81
308.421	325.81
308.651	337.81
308.881	312.81
309.111	303.81
309.341	315.81
309.571	332.81
309.8	346.81
310.03	351.81
310.26	372.81
310.49	337.81
310.72	345.81
310.949	340.81
311.179	361.81
311.409	360.81
311.639	354.81
311.868	367.81
312.098	362.81
312.328	358.81
312.557	337.81
312.787	366.81
313.017	356.81
313.246	358.81
313.476	359.81
313.706	347.81
313.935	366.81
314.165	347.81
314.394	369.81
314.624	358.81
314.853	354.81
315.083	357.81
315.312	349.81
315.542	331.81
315.771	359.81
316.001	360.81
316.23	365.81
316.46	343.81
316.689	353.81
316.919	363.81
317.148	380.81
317.377	362.81
317.607	346.81
317.836	338.81
318.065	347.81
318.295	339.81
318.524	354.81
318.753	350.81
318.983	352.81
319.212	347.81
319.441	349.81
319.67	358.81
319.9	357.81
320.129	355.81
320.358	351.81
320.587	359.81
320.816	370.81
321.046	356.81
321.275	361.81
321.504	368.81
321.733	367.81
321.962	377.81
322.191	384.81
322.42	383.81
322.649	392.81
322.878	402.81
323.108	399.81
323.337	427.81
323.566	437.81
323.795	438.81
324.024	467.81
324.253	555.81
324.482	743.81
324.71	1070.81
324.939	1477.81
325.168	1285.81
325.397	719.81
325.626	549.81
325.855	467.81
326.084	438.81
326.313	442.81
326.542	449.81
326.77	503.81
326.999	537.81
327.228	696.81
327.457	1005.81
327.686	1161.81
327.914	817.81
328.143	615.81
328.372	567.81
328.6	529.81
328.829	497.81
329.058	510.81
329.287	514.81
329.515	510.81
329.744	513.81
329.972	533.81
330.201	637.81
330.43	700.81
330.658	622.81
330.887	589.81
331.115	547.81
331.344	491.81
331.572	467.81
331.801	469.81
332.03	472.81
332.258	475.81
332.486	444.81
332.715	462.81
332.943	455.81
333.172	503.81
333.4	503.81
333.629	521.81
333.857	569.81
334.085	595.81
334.314	695.81
334.542	778.81
334.771	801.81
334.999	654.81
335.227	556.81
335.455	519.81
335.684	477.81
335.912	463.81
336.14	459.81
336.369	455.81
336.597	455.81
336.825	426.81
337.053	435.81
337.281	442.81
337.51	446.81
337.738	425.81
337.966	426.81
338.194	418.81
338.422	422.81
338.65	416.81
338.878	429.81
339.106	407.81
339.334	405.81
339.562	384.81
339.79	410.81
340.018	389.81
340.246	388.81
340.474	399.81
340.702	413.81
340.93	391.81
341.158	384.81
341.386	401.81
341.614	385.81
341.842	399.81
342.07	395.81
342.298	388.81
342.526	395.81
342.754	393.81
342.981	395.81
343.209	400.81
343.437	423.81
343.665	413.81
343.893	420.81
344.12	438.81
344.348	440.81
344.576	418.81
344.804	407.81
345.031	400.81
345.259	420.81
345.487	393.81
345.714	383.81
345.942	394.81
346.17	371.81
346.397	385.81
346.625	387.81
346.853	377.81
347.08	371.81
347.308	361.81
347.535	369.81
347.763	375.81
347.99	375.81
348.218	393.81
348.445	388.81
348.673	360.81
348.9	365.81
349.128	369.81
349.355	366.81
349.583	371.81
349.81	374.81
350.037	378.81
350.265	356.81
350.492	353.81
350.72	357.81
350.947	373.81
351.174	374.81
351.402	379.81
351.629	349.81
351.856	380.81
352.083	377.81
352.311	368.81
352.538	381.81
352.765	359.81
352.992	395.81
353.22	375.81
353.447	353.81
353.674	335.81
353.901	368.81
354.128	347.81
354.355	360.81
354.583	366.81
354.81	371.81
355.037	374.81
355.264	348.81
355.491	323.81
355.718	355.81
355.945	357.81
356.172	347.81
356.399	353.81
356.626	360.81
356.853	343.81
357.08	353.81
357.307	352.81
357.534	346.81
357.761	345.81
357.988	343.81
358.215	340.81
358.441	358.81
358.668	367.81
358.895	346.81
359.122	341.81
359.349	377.81
359.576	360.81
359.802	385.81
360.029	411.81
360.256	384.81
360.483	376.81
360.709	379.81
360.936	385.81
361.163	360.81
361.39	384.81
361.616	361.81
361.843	345.81
362.07	363.81
362.296	359.81
362.523	366.81
362.749	371.81
362.976	372.81
363.203	372.81
363.429	367.81
363.656	358.81
363.882	358.81
364.109	351.81
364.335	352.81
364.562	340.81
364.788	329.81
365.015	353.81
365.241	354.81
365.468	356.81
365.694	360.81
365.92	371.81
366.147	352.81
366.373	354.81
366.599	370.81
366.826	350.81
367.052	365.81
367.278	365.81
367.505	369.81
367.731	372.81
367.957	353.81
368.184	343.81
368.41	340.81
368.636	349.81
368.862	375.81
369.089	358.81
369.315	353.81
369.541	369.81
369.767	368.81
369.993	353.81
370.219	353.81
370.445	352.81
370.672	353.81
370.898	332.81
371.124	357.81
371.35	348.81
371.576	341.81
371.802	358.81
372.028	367.81
372.254	360.81
372.48	349.81
372.706	368.81
372.932	379.81
373.158	388.81
373.384	354.81
373.61	367.81
373.835	380.81
374.061	378.81
374.287	367.81
374.513	367.81
374.739	362.81
374.965	374.81
375.191	376.81
375.416	378.81
375.642	400.81
375.868	366.81
376.094	366.81
376.319	359.81
376.545	354.81
376.771	375.81
376.997	365.81
377.222	366.81
377.448	373.81
377.674	346.81
377.899	349.81
378.125	359.81
378.35	368.81
378.576	327.81
378.802	365.81
379.027	332.81
379.253	361.81
379.478	366.81
379.704	358.81
379.929	327.81
380.155	350.81
380.38	352.81
380.606	359.81
380.831	338.81
381.057	372.81
381.282	358.81
381.507	354.81
381.733	372.81
381.958	379.81
382.184	368.81
382.409	369.81
382.634	365.81
382.86	372.81
383.085	359.81
383.31	389.81
383.535	380.81
383.761	385.81
383.986	380.81
384.211	393.81
384.436	401.81
384.662	390.81
384.887	399.81
385.112	401.81
385.337	389.81
385.562	418.81
385.787	415.81
386.013	419.81
386.238	404.81
386.463	415.81
386.688	422.81
386.913	419.81
387.138	420.81
387.363	387.81
387.588	397.81
387.813	383.81
388.038	392.81
388.263	396.81
388.488	408.81
388.713	397.81
388.938	377.81
389.163	409.81
389.387	400.81
389.612	382.81
389.837	402.81
390.062	399.81
390.287	404.81
390.512	395.81
390.736	405.81
390.961	387.81
391.186	403.81
391.411	424.81
391.636	412.81
391.86	441.81
392.085	412.81
392.31	425.81
392.534	417.81
392.759	414.81
392.984	409.81
393.208	417.81
393.433	396.81
393.658	415.81
393.882	446.81
394.107	413.81
394.331	397.81
394.556	416.81
394.78	417.81
395.005	425.81
395.229	417.81
395.454	424.81
395.678	460.81
395.903	450.81
396.127	446.81
396.352	450.81
396.576	408.81
396.801	419.81
397.025	426.81
397.249	455.81
397.474	455.81
397.698	434.81
397.922	458.81
398.147	462.81
398.371	477.81
398.595	453.81
398.82	481.81
399.044	511.81
399.268	513.81
399.492	557.81
399.717	615.81
399.941	623.81
400.165	633.81
400.389	562.81
400.613	544.81
400.837	510.81
401.062	513.81
401.286	477.81
401.51	482.81
401.734	475.81
401.958	485.81
402.182	486.81
402.406	488.81
402.63	496.81
402.854	513.81
403.078	505.81
403.302	513.81
403.526	521.81
403.75	533.81
403.974	531.81
404.198	531.81
404.422	522.81
404.645	531.81
404.869	557.81
405.093	565.81
405.317	608.81
405.541	651.81
405.765	597.81
405.988	541.81
406.212	562.81
406.436	565.81
406.66	558.81
406.883	536.81
407.107	554.81
407.331	602.81
407.555	644.81
407.778	652.81
408.002	614.81
408.226	567.81
408.449	560.81
408.673	563.81
408.896	546.81
409.12	568.81
409.344	553.81
409.567	523.81
409.791	517.81
410.014	512.81
410.238	498.81
410.461	516.81
410.685	513.81
410.908	496.81
411.132	528.81
411.355	539.81
411.578	545.81
411.802	483.81
412.025	504.81
412.249	515.81
412.472	559.81
412.695	618.81
412.919	586.81
413.142	568.81
413.365	536.81
413.589	513.81
413.812	496.81
414.035	501.81
414.258	481.81
414.482	496.81
414.705	483.81
414.928	495.81
415.151	473.81
415.374	460.81
415.597	474.81
415.821	448.81
416.044	458.81
416.267	470.81
416.49	463.81
416.713	463.81
416.936	477.81
417.159	466.81
417.382	473.81
417.605	489.81
417.828	477.81
418.051	495.81
418.274	504.81
418.497	478.81
418.72	470.81
418.943	481.81
419.166	492.81
419.389	531.81
419.611	530.81
419.834	514.81
420.057	543.81
420.28	542.81
420.503	563.81
420.726	537.81
420.948	515.81
421.171	525.81
421.394	557.81
421.617	502.81
421.839	501.81
422.062	481.81
422.285	488.81
422.507	533.81
422.73	570.81
422.953	563.81
423.175	512.81
423.398	504.81
423.621	493.81
423.843	531.81
424.066	513.81
424.288	495.81
424.511	524.81
424.733	567.81
424.956	565.81
425.178	572.81
425.401	570.81
425.623	583.81
425.846	497.81
426.068	497.81
426.291	485.81
426.513	495.81
426.735	485.81
426.958	511.81
427.18	560.81
427.402	615.81
427.625	688.81
427.847	629.81
428.069	589.81
428.292	548.81
428.514	492.81
428.736	473.81
428.958	455.81
429.181	456.81
429.403	445.81
429.625	459.81
429.847	490.81
430.069	515.81
430.292	500.81
430.514	449.81
430.736	446.81
430.958	435.81
431.18	429.81
431.402	443.81
431.624	427.81
431.846	435.81
432.068	429.81
432.29	443.81
432.512	433.81
432.734	445.81
432.956	436.81
433.178	433.81
433.4	462.81
433.622	427.81
433.844	432.81
434.066	434.81
434.287	431.81
434.509	463.81
434.731	451.81
434.953	472.81
435.175	473.81
435.397	489.81
435.618	466.81
435.84	502.81
436.062	563.81
436.284	579.81
436.505	508.81
436.727	487.81
436.949	443.81
437.17	462.81
437.392	419.81
437.614	444.81
437.835	451.81
438.057	513.81
438.278	578.81
438.5	569.81
438.721	595.81
438.943	599.81
439.165	483.81
439.386	473.81
439.608	453.81
439.829	470.81
440.05	495.81
440.272	527.81
440.493	483.81
440.715	474.81
440.936	446.81
441.158	469.81
441.379	479.81
441.6	488.81
441.822	474.81
442.043	511.81
442.264	557.81
442.486	592.81
442.707	525.81
442.928	496.81
443.149	498.81
443.371	511.81
443.592	547.81
443.813	570.81
444.034	597.81
444.255	552.81
444.476	538.81
444.698	530.81
444.919	534.81
445.14	652.81
445.361	560.81
445.582	536.81
445.803	551.81
446.024	593.81
446.245	583.81
446.466	551.81
446.687	463.81
446.908	471.81
447.129	452.81
447.35	440.81
447.571	452.81
447.792	423.81
448.013	430.81
448.234	450.81
448.455	463.81
448.675	522.81
448.896	602.81
449.117	520.81
449.338	472.81
449.559	568.81
449.779	629.81
450	514.81
450.221	456.81
450.442	443.81
450.662	409.81
450.883	412.81
451.104	416.81
451.324	434.81
451.545	422.81
451.766	388.81
451.986	417.81
452.207	391.81
452.428	401.81
452.648	405.81
452.869	379.81
453.089	379.81
453.31	400.81
453.53	406.81
453.751	397.81
453.971	393.81
454.192	400.81
454.412	409.81
454.633	404.81
454.853	391.81
455.073	381.81
455.294	403.81
455.514	437.81
455.734	426.81
455.955	407.81
456.175	381.81
456.395	382.81
456.616	362.81
456.836	375.81
457.056	369.81
457.276	372.81
457.497	377.81
457.717	371.81
457.937	384.81
458.157	389.81
458.377	401.81
458.598	396.81
458.818	444.81
459.038	487.81
459.258	514.81
459.478	442.81
459.698	431.81
459.918	425.81
460.138	442.81
460.358	455.81
460.578	440.81
460.798	456.81
461.018	477.81
461.238	481.81
461.458	465.81
461.678	473.81
461.898	454.81
462.118	455.81
462.338	486.81
462.558	495.81
462.777	506.81
462.997	510.81
463.217	559.81
463.437	555.81
463.657	536.81
463.876	541.81
464.096	520.81
464.316	521.81
464.536	499.81
464.755	512.81
464.975	486.81
465.195	511.81
465.414	516.81
465.634	474.81
465.854	440.81
466.073	443.81
466.293	451.81
466.512	409.81
466.732	395.81
466.951	432.81
467.171	424.81
467.391	409.81
467.61	418.81
467.829	422.81
468.049	425.81
468.268	459.81
468.488	436.81
468.707	415.81
468.927	426.81
469.146	407.81
469.365	422.81
469.585	412.81
469.804	415.81
470.023	439.81
470.243	429.81
470.462	425.81
470.681	457.81
470.901	436.81
471.12	432.81
471.339	418.81
471.558	426.81
471.777	435.81
471.997	414.81
472.216	463.81
472.435	562.81
472.654	541.81
472.873	487.81
473.092	434.81
473.311	417.81
473.53	423.81
473.749	411.81
473.968	445.81
474.187	469.81
474.406	504.81
474.625	426.81
474.844	427.81
475.063	421.81
475.282	395.81
475.501	408.81
475.72	410.81
475.939	425.81
476.158	412.81
476.377	412.81
476.596	415.81
476.814	403.81
477.033	421.81
477.252	438.81
477.471	449.81
477.69	463.81
477.908	471.81
478.127	419.81
478.346	455.81
478.564	468.81
478.783	465.81
479.002	509.81
479.22	493.81
479.439	471.81
479.658	491.81
479.876	486.81
480.095	505.81
480.313	530.81
480.532	547.81
480.751	552.81
480.969	569.81
481.188	742.81
481.406	817.81
481.624	656.81
481.843	573.81
482.061	554.81
482.28	515.81
482.498	510.81
482.717	505.81
482.935	484.81
483.153	475.81
483.372	463.81
483.59	467.81
483.808	474.81
484.027	482.81
484.245	484.81
484.463	493.81
484.681	479.81
484.9	497.81
485.118	504.81
485.336	488.81
485.554	487.81
485.772	497.81
485.99	484.81
486.209	500.81
486.427	488.81
486.645	500.81
486.863	515.81
487.081	526.81
487.299	496.81
487.517	536.81
487.735	481.81
487.953	499.81
488.171	512.81
488.389	506.81
488.607	530.81
488.825	510.81
489.043	515.81
489.261	499.81
489.479	513.81
489.696	534.81
489.914	513.81
490.132	515.81
490.35	537.81
490.568	535.81
490.786	546.81
491.003	571.81
491.221	577.81
491.439	584.81
491.657	585.81
491.874	597.81
492.092	576.81
492.31	600.81
492.527	579.81
492.745	607.81
492.963	647.81
493.18	618.81
493.398	616.81
493.615	634.81
493.833	603.81
494.05	602.81
494.268	616.81
494.485	599.81
494.703	611.81
494.92	593.81
495.138	593.81
495.355	580.81
495.573	577.81
495.79	579.81
496.008	546.81
496.225	585.81
496.442	586.81
496.66	592.81
496.877	583.81
497.094	581.81
497.312	608.81
497.529	598.81
497.746	623.81
497.963	619.81
498.181	639.81
498.398	667.81
498.615	705.81
498.832	739.81
499.049	746.81
499.267	745.81
499.484	798.81
499.701	866.81
499.918	923.81
500.135	985.81
500.352	1084.81
500.569	1133.81
500.786	1157.81
501.003	1102.81
501.22	1036.81
501.437	928.81
501.654	883.81
501.871	842.81
502.088	801.81
