Data from 1984.PennyLincolnUp.Lamp.En5.5.200Scan.071819.P1_HRD10591_16-58-52-969.txt Node
Date: Thu Jul 18 16:58:52 EDT 2019
User: cochatt
Spectrometer: HR+D1059
Trigger mode: 1
Integration Time (sec): 1.000000E-1
Scans to average: 1
Electric dark correction enabled: true
Nonlinearity correction enabled: false
Boxcar width: 0
XAxis mode: Wavelengths
Number of Pixels in Spectrum: 2048
>>>>>Begin Spectral Data<<<<<
223.165	-15.81
223.4	-15.81
223.635	-15.81
223.869	-7.81
224.104	-6.81
224.338	-14.81
224.573	-21.81
224.808	-7.81
225.042	-9.81
225.277	-9.81
225.511	-0.81
225.746	-0.81
225.98	-14.81
226.215	14.19
226.449	26.19
226.683	18.19
226.918	22.19
227.152	30.19
227.387	32.19
227.621	46.19
227.856	36.19
228.09	36.19
228.324	49.19
228.559	62.19
228.793	56.19
229.027	85.19
229.262	94.19
229.496	77.19
229.73	97.19
229.964	117.19
230.199	100.19
230.433	97.19
230.667	98.19
230.901	113.19
231.136	96.19
231.37	83.19
231.604	109.19
231.838	98.19
232.072	110.19
232.306	107.19
232.541	115.19
232.775	102.19
233.009	107.19
233.243	99.19
233.477	97.19
233.711	105.19
233.945	105.19
234.179	116.19
234.413	114.19
234.647	107.19
234.881	111.19
235.115	122.19
235.349	105.19
235.583	121.19
235.817	110.19
236.051	110.19
236.285	114.19
236.519	131.19
236.753	112.19
236.987	139.19
237.221	144.19
237.455	153.19
237.689	154.19
237.922	124.19
238.156	130.19
238.39	121.19
238.624	121.19
238.858	116.19
239.091	126.19
239.325	113.19
239.559	109.19
239.793	119.19
240.027	124.19
240.26	123.19
240.494	132.19
240.728	119.19
240.961	118.19
241.195	122.19
241.429	133.19
241.662	123.19
241.896	138.19
242.13	122.19
242.363	121.19
242.597	124.19
242.83	131.19
243.064	115.19
243.298	137.19
243.531	126.19
243.765	135.19
243.998	133.19
244.232	130.19
244.465	139.19
244.699	145.19
244.932	135.19
245.166	139.19
245.399	122.19
245.633	131.19
245.866	126.19
246.099	149.19
246.333	146.19
246.566	141.19
246.8	133.19
247.033	131.19
247.266	140.19
247.5	129.19
247.733	145.19
247.966	141.19
248.2	145.19
248.433	153.19
248.666	155.19
248.899	155.19
249.133	167.19
249.366	177.19
249.599	175.19
249.832	164.19
250.066	161.19
250.299	151.19
250.532	181.19
250.765	180.19
250.998	201.19
251.231	187.19
251.465	171.19
251.698	187.19
251.931	167.19
252.164	168.19
252.397	191.19
252.63	165.19
252.863	179.19
253.096	179.19
253.329	180.19
253.562	173.19
253.795	172.19
254.028	181.19
254.261	185.19
254.494	195.19
254.727	210.19
254.96	207.19
255.193	215.19
255.426	197.19
255.659	202.19
255.892	198.19
256.124	212.19
256.357	245.19
256.59	222.19
256.823	193.19
257.056	203.19
257.289	189.19
257.521	190.19
257.754	184.19
257.987	179.19
258.22	179.19
258.452	194.19
258.685	182.19
258.918	179.19
259.151	196.19
259.383	195.19
259.616	194.19
259.849	216.19
260.081	191.19
260.314	204.19
260.547	204.19
260.779	189.19
261.012	204.19
261.244	187.19
261.477	192.19
261.71	185.19
261.942	197.19
262.175	196.19
262.407	192.19
262.64	194.19
262.872	193.19
263.105	194.19
263.337	187.19
263.57	194.19
263.802	197.19
264.035	187.19
264.267	193.19
264.499	203.19
264.732	212.19
264.964	196.19
265.197	179.19
265.429	198.19
265.661	204.19
265.894	203.19
266.126	194.19
266.358	189.19
266.591	191.19
266.823	197.19
267.055	188.19
267.287	188.19
267.52	207.19
267.752	214.19
267.984	208.19
268.216	207.19
268.448	217.19
268.681	213.19
268.913	226.19
269.145	246.19
269.377	226.19
269.609	229.19
269.841	234.19
270.073	226.19
270.306	233.19
270.538	245.19
270.77	243.19
271.002	224.19
271.234	243.19
271.466	243.19
271.698	270.19
271.93	255.19
272.162	262.19
272.394	268.19
272.626	246.19
272.858	265.19
273.09	229.19
273.322	216.19
273.553	240.19
273.785	251.19
274.017	237.19
274.249	235.19
274.481	224.19
274.713	238.19
274.945	226.19
275.176	231.19
275.408	246.19
275.64	245.19
275.872	250.19
276.104	233.19
276.335	237.19
276.567	255.19
276.799	253.19
277.031	267.19
277.262	245.19
277.494	260.19
277.726	275.19
277.957	253.19
278.189	244.19
278.421	243.19
278.652	245.19
278.884	243.19
279.115	242.19
279.347	237.19
279.579	254.19
279.81	246.19
280.042	244.19
280.273	234.19
280.505	249.19
280.736	238.19
280.968	241.19
281.199	244.19
281.431	229.19
281.662	250.19
281.894	248.19
282.125	241.19
282.356	276.19
282.588	280.19
282.819	248.19
283.051	230.19
283.282	239.19
283.513	243.19
283.745	270.19
283.976	246.19
284.207	259.19
284.439	253.19
284.67	269.19
284.901	274.19
285.132	273.19
285.364	253.19
285.595	262.19
285.826	250.19
286.057	261.19
286.288	257.19
286.52	273.19
286.751	262.19
286.982	269.19
287.213	258.19
287.444	265.19
287.675	282.19
287.906	279.19
288.138	271.19
288.369	257.19
288.6	284.19
288.831	293.19
289.062	277.19
289.293	272.19
289.524	252.19
289.755	279.19
289.986	273.19
290.217	274.19
290.448	284.19
290.679	267.19
290.91	275.19
291.141	300.19
291.371	267.19
291.602	279.19
291.833	253.19
292.064	271.19
292.295	288.19
292.526	267.19
292.757	261.19
292.987	286.19
293.218	275.19
293.449	287.19
293.68	287.19
293.91	280.19
294.141	288.19
294.372	274.19
294.603	270.19
294.833	283.19
295.064	283.19
295.295	292.19
295.525	295.19
295.756	282.19
295.987	281.19
296.217	305.19
296.448	304.19
296.679	275.19
296.909	291.19
297.14	286.19
297.37	265.19
297.601	292.19
297.831	285.19
298.062	278.19
298.292	309.19
298.523	287.19
298.753	293.19
298.984	283.19
299.214	307.19
299.445	288.19
299.675	290.19
299.905	307.19
300.136	287.19
300.366	295.19
300.597	299.19
300.827	316.19
301.057	312.19
301.288	293.19
301.518	307.19
301.748	309.19
301.979	315.19
302.209	307.19
302.439	306.19
302.669	307.19
302.9	314.19
303.13	309.19
303.36	327.19
303.59	313.19
303.82	323.19
304.051	306.19
304.281	313.19
304.511	298.19
304.741	313.19
304.971	314.19
305.201	300.19
305.431	295.19
305.661	292.19
305.891	321.19
306.121	299.19
306.352	290.19
306.582	294.19
306.812	313.19
307.042	314.19
307.272	308.19
307.502	301.19
307.731	309.19
307.961	308.19
308.191	316.19
308.421	311.19
308.651	309.19
308.881	308.19
309.111	311.19
309.341	313.19
309.571	330.19
309.8	345.19
310.03	320.19
310.26	344.19
310.49	325.19
310.72	343.19
310.949	326.19
311.179	355.19
311.409	348.19
311.639	344.19
311.868	334.19
312.098	324.19
312.328	346.19
312.557	334.19
312.787	340.19
313.017	347.19
313.246	335.19
313.476	328.19
313.706	331.19
313.935	345.19
314.165	347.19
314.394	340.19
314.624	336.19
314.853	339.19
315.083	333.19
315.312	347.19
315.542	331.19
315.771	337.19
316.001	324.19
316.23	338.19
316.46	338.19
316.689	335.19
316.919	327.19
317.148	331.19
317.377	332.19
317.607	361.19
317.836	338.19
318.065	341.19
318.295	323.19
318.524	327.19
318.753	321.19
318.983	358.19
319.212	341.19
319.441	345.19
319.67	336.19
319.9	330.19
320.129	332.19
320.358	325.19
320.587	350.19
320.816	359.19
321.046	350.19
321.275	342.19
321.504	344.19
321.733	349.19
321.962	343.19
322.191	380.19
322.42	349.19
322.649	360.19
322.878	369.19
323.108	393.19
323.337	404.19
323.566	390.19
323.795	423.19
324.024	435.19
324.253	501.19
324.482	700.19
324.71	975.19
324.939	1299.19
325.168	1117.19
325.397	666.19
325.626	474.19
325.855	440.19
326.084	449.19
326.313	419.19
326.542	397.19
326.77	443.19
326.999	493.19
327.228	644.19
327.457	899.19
327.686	1051.19
327.914	732.19
328.143	545.19
328.372	503.19
328.6	478.19
328.829	449.19
329.058	466.19
329.287	456.19
329.515	444.19
329.744	445.19
329.972	473.19
330.201	498.19
330.43	524.19
330.658	511.19
330.887	500.19
331.115	472.19
331.344	445.19
331.572	441.19
331.801	429.19
332.03	429.19
332.258	405.19
332.486	418.19
332.715	403.19
332.943	428.19
333.172	428.19
333.4	462.19
333.629	471.19
333.857	474.19
334.085	501.19
334.314	547.19
334.542	600.19
334.771	598.19
334.999	513.19
335.227	458.19
335.455	450.19
335.684	437.19
335.912	422.19
336.14	413.19
336.369	421.19
336.597	426.19
336.825	414.19
337.053	419.19
337.281	411.19
337.51	400.19
337.738	396.19
337.966	381.19
338.194	387.19
338.422	399.19
338.65	377.19
338.878	392.19
339.106	373.19
339.334	380.19
339.562	391.19
339.79	388.19
340.018	384.19
340.246	369.19
340.474	375.19
340.702	373.19
340.93	374.19
341.158	367.19
341.386	375.19
341.614	371.19
341.842	369.19
342.07	373.19
342.298	373.19
342.526	356.19
342.754	372.19
342.981	361.19
343.209	369.19
343.437	379.19
343.665	354.19
343.893	417.19
344.12	405.19
344.348	403.19
344.576	409.19
344.804	389.19
345.031	371.19
345.259	378.19
345.487	367.19
345.714	385.19
345.942	360.19
346.17	351.19
346.397	356.19
346.625	378.19
346.853	369.19
347.08	342.19
347.308	337.19
347.535	350.19
347.763	345.19
347.99	369.19
348.218	359.19
348.445	374.19
348.673	369.19
348.9	370.19
349.128	337.19
349.355	349.19
349.583	338.19
349.81	357.19
350.037	358.19
350.265	374.19
350.492	365.19
350.72	347.19
350.947	354.19
351.174	366.19
351.402	358.19
351.629	357.19
351.856	370.19
352.083	359.19
352.311	357.19
352.538	357.19
352.765	377.19
352.992	351.19
353.22	358.19
353.447	347.19
353.674	358.19
353.901	328.19
354.128	329.19
354.355	341.19
354.583	340.19
354.81	350.19
355.037	322.19
355.264	326.19
355.491	342.19
355.718	326.19
355.945	338.19
356.172	361.19
356.399	339.19
356.626	347.19
356.853	347.19
357.08	341.19
357.307	332.19
357.534	326.19
357.761	348.19
357.988	346.19
358.215	339.19
358.441	323.19
358.668	333.19
358.895	338.19
359.122	340.19
359.349	334.19
359.576	341.19
359.802	353.19
360.029	365.19
360.256	372.19
360.483	371.19
360.709	346.19
360.936	357.19
361.163	338.19
361.39	359.19
361.616	341.19
361.843	337.19
362.07	341.19
362.296	354.19
362.523	340.19
362.749	352.19
362.976	335.19
363.203	353.19
363.429	334.19
363.656	334.19
363.882	350.19
364.109	335.19
364.335	346.19
364.562	338.19
364.788	338.19
365.015	349.19
365.241	327.19
365.468	354.19
365.694	331.19
365.92	335.19
366.147	333.19
366.373	342.19
366.599	341.19
366.826	324.19
367.052	346.19
367.278	321.19
367.505	337.19
367.731	341.19
367.957	349.19
368.184	334.19
368.41	334.19
368.636	342.19
368.862	349.19
369.089	339.19
369.315	335.19
369.541	323.19
369.767	340.19
369.993	337.19
370.219	331.19
370.445	370.19
370.672	349.19
370.898	361.19
371.124	355.19
371.35	355.19
371.576	343.19
371.802	345.19
372.028	329.19
372.254	330.19
372.48	343.19
372.706	330.19
372.932	382.19
373.158	349.19
373.384	353.19
373.61	338.19
373.835	341.19
374.061	341.19
374.287	329.19
374.513	345.19
374.739	355.19
374.965	360.19
375.191	376.19
375.416	354.19
375.642	367.19
375.868	351.19
376.094	357.19
376.319	330.19
376.545	346.19
376.771	351.19
376.997	359.19
377.222	353.19
377.448	335.19
377.674	346.19
377.899	324.19
378.125	346.19
378.35	336.19
378.576	319.19
378.802	321.19
379.027	346.19
379.253	349.19
379.478	354.19
379.704	355.19
379.929	356.19
380.155	354.19
380.38	361.19
380.606	340.19
380.831	358.19
381.057	343.19
381.282	337.19
381.507	350.19
381.733	354.19
381.958	343.19
382.184	349.19
382.409	342.19
382.634	356.19
382.86	363.19
383.085	350.19
383.31	360.19
383.535	350.19
383.761	369.19
383.986	358.19
384.211	391.19
384.436	380.19
384.662	385.19
384.887	397.19
385.112	380.19
385.337	387.19
385.562	402.19
385.787	387.19
386.013	409.19
386.238	395.19
386.463	397.19
386.688	383.19
386.913	409.19
387.138	384.19
387.363	379.19
387.588	391.19
387.813	406.19
388.038	396.19
388.263	376.19
388.488	389.19
388.713	386.19
388.938	395.19
389.163	403.19
389.387	382.19
389.612	394.19
389.837	381.19
390.062	381.19
390.287	385.19
390.512	389.19
390.736	383.19
390.961	386.19
391.186	381.19
391.411	412.19
391.636	394.19
391.86	422.19
392.085	393.19
392.31	428.19
392.534	425.19
392.759	400.19
392.984	410.19
393.208	415.19
393.433	395.19
393.658	397.19
393.882	380.19
394.107	398.19
394.331	408.19
394.556	392.19
394.78	397.19
395.005	398.19
395.229	397.19
395.454	389.19
395.678	411.19
395.903	413.19
396.127	413.19
396.352	422.19
396.576	399.19
396.801	402.19
397.025	402.19
397.249	390.19
397.474	403.19
397.698	433.19
397.922	442.19
398.147	428.19
398.371	458.19
398.595	452.19
398.82	451.19
399.044	483.19
399.268	493.19
399.492	569.19
399.717	613.19
399.941	627.19
400.165	585.19
400.389	543.19
400.613	488.19
400.837	499.19
401.062	471.19
401.286	460.19
401.51	435.19
401.734	434.19
401.958	463.19
402.182	475.19
402.406	444.19
402.63	488.19
402.854	454.19
403.078	482.19
403.302	481.19
403.526	497.19
403.75	505.19
403.974	514.19
404.198	515.19
404.422	500.19
404.645	513.19
404.869	489.19
405.093	531.19
405.317	538.19
405.541	565.19
405.765	525.19
405.988	506.19
406.212	513.19
406.436	539.19
406.66	543.19
406.883	519.19
407.107	542.19
407.331	576.19
407.555	603.19
407.778	608.19
408.002	558.19
408.226	541.19
408.449	543.19
408.673	536.19
408.896	533.19
409.12	548.19
409.344	548.19
409.567	488.19
409.791	503.19
410.014	497.19
410.238	498.19
410.461	475.19
410.685	488.19
410.908	476.19
411.132	503.19
411.355	505.19
411.578	479.19
411.802	485.19
412.025	471.19
412.249	491.19
412.472	517.19
412.695	568.19
412.919	547.19
413.142	484.19
413.365	490.19
413.589	474.19
413.812	462.19
414.035	449.19
414.258	453.19
414.482	465.19
414.705	439.19
414.928	452.19
415.151	462.19
415.374	445.19
415.597	458.19
415.821	458.19
416.044	433.19
416.267	458.19
416.49	444.19
416.713	440.19
416.936	437.19
417.159	451.19
417.382	457.19
417.605	423.19
417.828	462.19
418.051	459.19
418.274	449.19
418.497	435.19
418.72	463.19
418.943	445.19
419.166	466.19
419.389	506.19
419.611	512.19
419.834	472.19
420.057	489.19
420.28	466.19
420.503	500.19
420.726	475.19
420.948	477.19
421.171	483.19
421.394	521.19
421.617	465.19
421.839	444.19
422.062	464.19
422.285	476.19
422.507	516.19
422.73	525.19
422.953	524.19
423.175	487.19
423.398	464.19
423.621	458.19
423.843	500.19
424.066	494.19
424.288	491.19
424.511	490.19
424.733	516.19
424.956	559.19
425.178	538.19
425.401	519.19
425.623	547.19
425.846	490.19
426.068	474.19
426.291	462.19
426.513	440.19
426.735	477.19
426.958	476.19
427.18	535.19
427.402	596.19
427.625	651.19
427.847	591.19
428.069	544.19
428.292	488.19
428.514	453.19
428.736	431.19
428.958	438.19
429.181	426.19
429.403	419.19
429.625	441.19
429.847	446.19
430.069	465.19
430.292	468.19
430.514	422.19
430.736	422.19
430.958	427.19
431.18	403.19
431.402	397.19
431.624	414.19
431.846	417.19
432.068	439.19
432.29	426.19
432.512	407.19
432.734	422.19
432.956	411.19
433.178	420.19
433.4	438.19
433.622	421.19
433.844	417.19
434.066	411.19
434.287	428.19
434.509	421.19
434.731	459.19
434.953	439.19
435.175	455.19
435.397	467.19
435.618	482.19
435.84	478.19
436.062	524.19
436.284	549.19
436.505	498.19
436.727	449.19
436.949	437.19
437.17	433.19
437.392	427.19
437.614	441.19
437.835	446.19
438.057	491.19
438.278	537.19
438.5	521.19
438.721	581.19
438.943	583.19
439.165	495.19
439.386	443.19
439.608	445.19
439.829	454.19
440.05	454.19
440.272	470.19
440.493	457.19
440.715	455.19
440.936	427.19
441.158	443.19
441.379	435.19
441.6	440.19
441.822	459.19
442.043	503.19
442.264	524.19
442.486	547.19
442.707	494.19
442.928	480.19
443.149	453.19
443.371	485.19
443.592	488.19
443.813	548.19
444.034	601.19
444.255	527.19
444.476	517.19
444.698	491.19
444.919	504.19
445.14	581.19
445.361	541.19
445.582	494.19
445.803	499.19
446.024	565.19
446.245	584.19
446.466	527.19
446.687	469.19
446.908	447.19
447.129	428.19
447.35	414.19
447.571	415.19
447.792	404.19
448.013	409.19
448.234	422.19
448.455	438.19
448.675	504.19
448.896	553.19
449.117	493.19
449.338	468.19
449.559	545.19
449.779	600.19
450	501.19
450.221	425.19
450.442	417.19
450.662	425.19
450.883	425.19
451.104	428.19
451.324	407.19
451.545	387.19
451.766	383.19
451.986	373.19
452.207	388.19
452.428	367.19
452.648	389.19
452.869	376.19
453.089	379.19
453.31	390.19
453.53	381.19
453.751	370.19
453.971	367.19
454.192	380.19
454.412	362.19
454.633	385.19
454.853	376.19
455.073	389.19
455.294	376.19
455.514	411.19
455.734	400.19
455.955	375.19
456.175	364.19
456.395	362.19
456.616	341.19
456.836	369.19
457.056	359.19
457.276	344.19
457.497	357.19
457.717	361.19
457.937	360.19
458.157	362.19
458.377	360.19
458.598	398.19
458.818	395.19
459.038	443.19
459.258	480.19
459.478	443.19
459.698	425.19
459.918	417.19
460.138	435.19
460.358	436.19
460.578	433.19
460.798	450.19
461.018	460.19
461.238	442.19
461.458	448.19
461.678	440.19
461.898	429.19
462.118	430.19
462.338	456.19
462.558	461.19
462.777	478.19
462.997	539.19
463.217	527.19
463.437	551.19
463.657	509.19
463.876	499.19
464.096	489.19
464.316	486.19
464.536	505.19
464.755	486.19
464.975	486.19
465.195	478.19
465.414	475.19
465.634	450.19
465.854	439.19
466.073	426.19
466.293	396.19
466.512	412.19
466.732	388.19
466.951	376.19
467.171	383.19
467.391	402.19
467.61	385.19
467.829	393.19
468.049	398.19
468.268	394.19
468.488	397.19
468.707	389.19
468.927	383.19
469.146	386.19
469.365	381.19
469.585	393.19
469.804	409.19
470.023	388.19
470.243	408.19
470.462	411.19
470.681	407.19
470.901	396.19
471.12	397.19
471.339	396.19
471.558	403.19
471.777	407.19
471.997	395.19
472.216	430.19
472.435	449.19
472.654	427.19
472.873	410.19
473.092	403.19
473.311	390.19
473.53	384.19
473.749	385.19
473.968	415.19
474.187	450.19
474.406	469.19
474.625	415.19
474.844	395.19
475.063	386.19
475.282	383.19
475.501	393.19
475.72	395.19
475.939	400.19
476.158	395.19
476.377	399.19
476.596	391.19
476.814	414.19
477.033	413.19
477.252	425.19
477.471	404.19
477.69	418.19
477.908	438.19
478.127	443.19
478.346	429.19
478.564	465.19
478.783	433.19
479.002	464.19
479.22	456.19
479.439	445.19
479.658	474.19
479.876	456.19
480.095	488.19
480.313	511.19
480.532	478.19
480.751	514.19
480.969	517.19
481.188	559.19
481.406	599.19
481.624	520.19
481.843	497.19
482.061	484.19
482.28	442.19
482.498	453.19
482.717	459.19
482.935	443.19
483.153	443.19
483.372	459.19
483.59	444.19
483.808	451.19
484.027	443.19
484.245	447.19
484.463	454.19
484.681	464.19
484.9	438.19
485.118	457.19
485.336	452.19
485.554	450.19
485.772	452.19
485.99	474.19
486.209	458.19
486.427	474.19
486.645	471.19
486.863	478.19
487.081	459.19
487.299	459.19
487.517	482.19
487.735	470.19
487.953	470.19
488.171	462.19
488.389	490.19
488.607	478.19
488.825	466.19
489.043	503.19
489.261	476.19
489.479	491.19
489.696	485.19
489.914	467.19
490.132	486.19
490.35	482.19
490.568	460.19
490.786	486.19
491.003	492.19
491.221	507.19
491.439	525.19
491.657	520.19
491.874	534.19
492.092	534.19
492.31	527.19
492.527	563.19
492.745	575.19
492.963	565.19
493.18	563.19
493.398	565.19
493.615	563.19
493.833	541.19
494.05	572.19
494.268	551.19
494.485	546.19
494.703	545.19
494.92	545.19
495.138	547.19
495.355	547.19
495.573	554.19
495.79	538.19
496.008	533.19
496.225	531.19
496.442	551.19
496.66	579.19
496.877	553.19
497.094	563.19
497.312	563.19
497.529	581.19
497.746	561.19
497.963	596.19
498.181	615.19
498.398	626.19
498.615	644.19
498.832	683.19
499.049	724.19
499.267	735.19
499.484	761.19
499.701	851.19
499.918	868.19
500.135	961.19
500.352	1011.19
500.569	1058.19
500.786	1068.19
501.003	1003.19
501.22	934.19
501.437	907.19
501.654	820.19
501.871	793.19
502.088	731.19
