Data from 1984.PennyLincolnUp.Lamp.En5.5.200Scan.071819.P1_HRD10591_16-59-43-969.txt Node
Date: Thu Jul 18 16:59:43 EDT 2019
User: cochatt
Spectrometer: HR+D1059
Trigger mode: 1
Integration Time (sec): 1.000000E-1
Scans to average: 1
Electric dark correction enabled: true
Nonlinearity correction enabled: false
Boxcar width: 0
XAxis mode: Wavelengths
Number of Pixels in Spectrum: 2048
>>>>>Begin Spectral Data<<<<<
223.165	-10.69
223.4	-10.69
223.635	-10.69
223.869	-15.69
224.104	-24.69
224.338	-17.69
224.573	-3.69
224.808	-17.69
225.042	-11.69
225.277	-5.69
225.511	-11.69
225.746	7.31
225.98	1.31
226.215	11.31
226.449	13.31
226.683	29.31
226.918	24.31
227.152	32.31
227.387	36.31
227.621	15.31
227.856	39.31
228.09	56.31
228.324	38.31
228.559	66.31
228.793	57.31
229.027	90.31
229.262	103.31
229.496	110.31
229.73	97.31
229.964	126.31
230.199	120.31
230.433	117.31
230.667	107.31
230.901	107.31
231.136	106.31
231.37	113.31
231.604	120.31
231.838	110.31
232.072	121.31
232.306	100.31
232.541	98.31
232.775	109.31
233.009	113.31
233.243	113.31
233.477	111.31
233.711	111.31
233.945	110.31
234.179	119.31
234.413	118.31
234.647	97.31
234.881	109.31
235.115	114.31
235.349	124.31
235.583	126.31
235.817	111.31
236.051	132.31
236.285	125.31
236.519	111.31
236.753	124.31
236.987	124.31
237.221	141.31
237.455	177.31
237.689	142.31
237.922	138.31
238.156	115.31
238.39	110.31
238.624	128.31
238.858	123.31
239.091	94.31
239.325	109.31
239.559	131.31
239.793	126.31
240.027	127.31
240.26	144.31
240.494	143.31
240.728	142.31
240.961	132.31
241.195	132.31
241.429	134.31
241.662	121.31
241.896	140.31
242.13	123.31
242.363	121.31
242.597	130.31
242.83	136.31
243.064	131.31
243.298	138.31
243.531	148.31
243.765	135.31
243.998	131.31
244.232	131.31
244.465	128.31
244.699	149.31
244.932	126.31
245.166	132.31
245.399	122.31
245.633	142.31
245.866	144.31
246.099	151.31
246.333	122.31
246.566	142.31
246.8	149.31
247.033	148.31
247.266	156.31
247.5	157.31
247.733	160.31
247.966	156.31
248.2	144.31
248.433	138.31
248.666	145.31
248.899	165.31
249.133	158.31
249.366	180.31
249.599	186.31
249.832	182.31
250.066	179.31
250.299	182.31
250.532	199.31
250.765	208.31
250.998	219.31
251.231	202.31
251.465	189.31
251.698	172.31
251.931	192.31
252.164	173.31
252.397	160.31
252.63	168.31
252.863	178.31
253.096	197.31
253.329	191.31
253.562	200.31
253.795	175.31
254.028	180.31
254.261	192.31
254.494	188.31
254.727	221.31
254.96	214.31
255.193	214.31
255.426	203.31
255.659	214.31
255.892	244.31
256.124	268.31
256.357	284.31
256.59	245.31
256.823	221.31
257.056	217.31
257.289	202.31
257.521	211.31
257.754	191.31
257.987	182.31
258.22	190.31
258.452	204.31
258.685	185.31
258.918	214.31
259.151	200.31
259.383	203.31
259.616	213.31
259.849	182.31
260.081	199.31
260.314	208.31
260.547	215.31
260.779	220.31
261.012	208.31
261.244	198.31
261.477	206.31
261.71	199.31
261.942	206.31
262.175	208.31
262.407	190.31
262.64	202.31
262.872	213.31
263.105	196.31
263.337	195.31
263.57	210.31
263.802	196.31
264.035	192.31
264.267	198.31
264.499	186.31
264.732	215.31
264.964	200.31
265.197	188.31
265.429	203.31
265.661	214.31
265.894	196.31
266.126	203.31
266.358	210.31
266.591	213.31
266.823	190.31
267.055	213.31
267.287	217.31
267.52	219.31
267.752	204.31
267.984	226.31
268.216	200.31
268.448	238.31
268.681	230.31
268.913	227.31
269.145	234.31
269.377	256.31
269.609	249.31
269.841	234.31
270.073	238.31
270.306	238.31
270.538	262.31
270.77	262.31
271.002	259.31
271.234	256.31
271.466	274.31
271.698	276.31
271.93	250.31
272.162	284.31
272.394	252.31
272.626	265.31
272.858	242.31
273.09	251.31
273.322	248.31
273.553	244.31
273.785	233.31
274.017	238.31
274.249	236.31
274.481	260.31
274.713	255.31
274.945	244.31
275.176	240.31
275.408	243.31
275.64	247.31
275.872	259.31
276.104	250.31
276.335	251.31
276.567	252.31
276.799	247.31
277.031	277.31
277.262	288.31
277.494	295.31
277.726	286.31
277.957	263.31
278.189	250.31
278.421	242.31
278.652	259.31
278.884	245.31
279.115	265.31
279.347	267.31
279.579	260.31
279.81	260.31
280.042	271.31
280.273	270.31
280.505	261.31
280.736	254.31
280.968	254.31
281.199	258.31
281.431	254.31
281.662	250.31
281.894	250.31
282.125	235.31
282.356	287.31
282.588	292.31
282.819	273.31
283.051	269.31
283.282	261.31
283.513	271.31
283.745	270.31
283.976	260.31
284.207	284.31
284.439	281.31
284.67	276.31
284.901	276.31
285.132	275.31
285.364	284.31
285.595	294.31
285.826	289.31
286.057	285.31
286.288	276.31
286.52	290.31
286.751	268.31
286.982	278.31
287.213	262.31
287.444	272.31
287.675	290.31
287.906	297.31
288.138	299.31
288.369	287.31
288.6	298.31
288.831	278.31
289.062	282.31
289.293	293.31
289.524	284.31
289.755	256.31
289.986	280.31
290.217	281.31
290.448	308.31
290.679	285.31
290.91	292.31
291.141	296.31
291.371	297.31
291.602	291.31
291.833	293.31
292.064	302.31
292.295	280.31
292.526	307.31
292.757	288.31
292.987	274.31
293.218	296.31
293.449	285.31
293.68	288.31
293.91	298.31
294.141	273.31
294.372	285.31
294.603	309.31
294.833	304.31
295.064	294.31
295.295	306.31
295.525	287.31
295.756	300.31
295.987	301.31
296.217	327.31
296.448	314.31
296.679	307.31
296.909	313.31
297.14	292.31
297.37	297.31
297.601	291.31
297.831	302.31
298.062	287.31
298.292	279.31
298.523	319.31
298.753	317.31
298.984	300.31
299.214	302.31
299.445	287.31
299.675	318.31
299.905	303.31
300.136	332.31
300.366	308.31
300.597	316.31
300.827	320.31
301.057	331.31
301.288	316.31
301.518	316.31
301.748	315.31
301.979	328.31
302.209	327.31
302.439	316.31
302.669	341.31
302.9	310.31
303.13	327.31
303.36	323.31
303.59	324.31
303.82	336.31
304.051	328.31
304.281	340.31
304.511	333.31
304.741	326.31
304.971	318.31
305.201	346.31
305.431	308.31
305.661	306.31
305.891	331.31
306.121	324.31
306.352	335.31
306.582	336.31
306.812	316.31
307.042	313.31
307.272	333.31
307.502	336.31
307.731	346.31
307.961	336.31
308.191	333.31
308.421	339.31
308.651	340.31
308.881	334.31
309.111	341.31
309.341	328.31
309.571	334.31
309.8	321.31
310.03	346.31
310.26	359.31
310.49	373.31
310.72	371.31
310.949	375.31
311.179	346.31
311.409	344.31
311.639	338.31
311.868	351.31
312.098	336.31
312.328	355.31
312.557	364.31
312.787	357.31
313.017	346.31
313.246	339.31
313.476	343.31
313.706	340.31
313.935	358.31
314.165	358.31
314.394	372.31
314.624	372.31
314.853	359.31
315.083	357.31
315.312	362.31
315.542	354.31
315.771	359.31
316.001	362.31
316.23	356.31
316.46	371.31
316.689	363.31
316.919	356.31
317.148	345.31
317.377	354.31
317.607	378.31
317.836	357.31
318.065	358.31
318.295	355.31
318.524	361.31
318.753	363.31
318.983	355.31
319.212	357.31
319.441	356.31
319.67	384.31
319.9	359.31
320.129	365.31
320.358	362.31
320.587	356.31
320.816	377.31
321.046	355.31
321.275	365.31
321.504	357.31
321.733	349.31
321.962	373.31
322.191	372.31
322.42	391.31
322.649	399.31
322.878	382.31
323.108	409.31
323.337	401.31
323.566	437.31
323.795	441.31
324.024	448.31
324.253	528.31
324.482	726.31
324.71	1045.31
324.939	1474.31
325.168	1258.31
325.397	698.31
325.626	541.31
325.855	455.31
326.084	437.31
326.313	462.31
326.542	461.31
326.77	472.31
326.999	530.31
327.228	692.31
327.457	1005.31
327.686	1178.31
327.914	817.31
328.143	627.31
328.372	559.31
328.6	552.31
328.829	519.31
329.058	503.31
329.287	503.31
329.515	493.31
329.744	489.31
329.972	508.31
330.201	578.31
330.43	630.31
330.658	596.31
330.887	557.31
331.115	505.31
331.344	465.31
331.572	469.31
331.801	452.31
332.03	481.31
332.258	460.31
332.486	457.31
332.715	461.31
332.943	472.31
333.172	484.31
333.4	488.31
333.629	531.31
333.857	538.31
334.085	569.31
334.314	634.31
334.542	717.31
334.771	751.31
334.999	636.31
335.227	539.31
335.455	508.31
335.684	460.31
335.912	468.31
336.14	456.31
336.369	441.31
336.597	458.31
336.825	442.31
337.053	448.31
337.281	436.31
337.51	432.31
337.738	412.31
337.966	430.31
338.194	419.31
338.422	420.31
338.65	417.31
338.878	423.31
339.106	416.31
339.334	398.31
339.562	395.31
339.79	386.31
340.018	409.31
340.246	426.31
340.474	408.31
340.702	405.31
340.93	403.31
341.158	386.31
341.386	391.31
341.614	407.31
341.842	415.31
342.07	390.31
342.298	399.31
342.526	386.31
342.754	390.31
342.981	368.31
343.209	388.31
343.437	418.31
343.665	430.31
343.893	408.31
344.12	412.31
344.348	427.31
344.576	408.31
344.804	388.31
345.031	402.31
345.259	422.31
345.487	404.31
345.714	397.31
345.942	392.31
346.17	388.31
346.397	369.31
346.625	392.31
346.853	386.31
347.08	388.31
347.308	381.31
347.535	382.31
347.763	383.31
347.99	379.31
348.218	378.31
348.445	380.31
348.673	373.31
348.9	370.31
349.128	368.31
349.355	359.31
349.583	370.31
349.81	375.31
350.037	370.31
350.265	374.31
350.492	375.31
350.72	368.31
350.947	357.31
351.174	384.31
351.402	369.31
351.629	382.31
351.856	373.31
352.083	377.31
352.311	375.31
352.538	386.31
352.765	382.31
352.992	372.31
353.22	384.31
353.447	382.31
353.674	372.31
353.901	349.31
354.128	362.31
354.355	355.31
354.583	347.31
354.81	360.31
355.037	367.31
355.264	346.31
355.491	351.31
355.718	362.31
355.945	344.31
356.172	361.31
356.399	344.31
356.626	347.31
356.853	357.31
357.08	354.31
357.307	354.31
357.534	347.31
357.761	359.31
357.988	353.31
358.215	357.31
358.441	357.31
358.668	367.31
358.895	366.31
359.122	365.31
359.349	363.31
359.576	363.31
359.802	397.31
360.029	408.31
360.256	403.31
360.483	390.31
360.709	377.31
360.936	390.31
361.163	370.31
361.39	394.31
361.616	392.31
361.843	382.31
362.07	382.31
362.296	366.31
362.523	370.31
362.749	374.31
362.976	352.31
363.203	346.31
363.429	349.31
363.656	378.31
363.882	370.31
364.109	360.31
364.335	347.31
364.562	332.31
364.788	350.31
365.015	365.31
365.241	379.31
365.468	388.31
365.694	350.31
365.92	362.31
366.147	362.31
366.373	340.31
366.599	340.31
366.826	363.31
367.052	356.31
367.278	338.31
367.505	346.31
367.731	338.31
367.957	370.31
368.184	353.31
368.41	346.31
368.636	374.31
368.862	350.31
369.089	363.31
369.315	356.31
369.541	372.31
369.767	366.31
369.993	368.31
370.219	366.31
370.445	362.31
370.672	352.31
370.898	370.31
371.124	351.31
371.35	351.31
371.576	352.31
371.802	387.31
372.028	361.31
372.254	360.31
372.48	371.31
372.706	380.31
372.932	378.31
373.158	381.31
373.384	363.31
373.61	375.31
373.835	383.31
374.061	364.31
374.287	364.31
374.513	352.31
374.739	393.31
374.965	380.31
375.191	377.31
375.416	406.31
375.642	367.31
375.868	383.31
376.094	379.31
376.319	362.31
376.545	362.31
376.771	353.31
376.997	370.31
377.222	365.31
377.448	368.31
377.674	357.31
377.899	350.31
378.125	353.31
378.35	350.31
378.576	363.31
378.802	358.31
379.027	383.31
379.253	350.31
379.478	352.31
379.704	369.31
379.929	364.31
380.155	346.31
380.38	374.31
380.606	364.31
380.831	380.31
381.057	371.31
381.282	363.31
381.507	363.31
381.733	380.31
381.958	375.31
382.184	365.31
382.409	380.31
382.634	371.31
382.86	378.31
383.085	375.31
383.31	390.31
383.535	382.31
383.761	412.31
383.986	390.31
384.211	388.31
384.436	403.31
384.662	400.31
384.887	407.31
385.112	392.31
385.337	400.31
385.562	410.31
385.787	404.31
386.013	422.31
386.238	407.31
386.463	399.31
386.688	419.31
386.913	404.31
387.138	419.31
387.363	406.31
387.588	406.31
387.813	404.31
388.038	416.31
388.263	416.31
388.488	425.31
388.713	415.31
388.938	387.31
389.163	399.31
389.387	413.31
389.612	396.31
389.837	410.31
390.062	421.31
390.287	420.31
390.512	431.31
390.736	393.31
390.961	400.31
391.186	423.31
391.411	418.31
391.636	422.31
391.86	441.31
392.085	456.31
392.31	442.31
392.534	448.31
392.759	428.31
392.984	393.31
393.208	408.31
393.433	404.31
393.658	408.31
393.882	443.31
394.107	418.31
394.331	432.31
394.556	424.31
394.78	421.31
395.005	422.31
395.229	414.31
395.454	438.31
395.678	416.31
395.903	447.31
396.127	464.31
396.352	439.31
396.576	428.31
396.801	418.31
397.025	429.31
397.249	429.31
397.474	429.31
397.698	449.31
397.922	459.31
398.147	446.31
398.371	462.31
398.595	469.31
398.82	466.31
399.044	517.31
399.268	538.31
399.492	587.31
399.717	640.31
399.941	639.31
400.165	616.31
400.389	596.31
400.613	542.31
400.837	490.31
401.062	500.31
401.286	496.31
401.51	500.31
401.734	479.31
401.958	480.31
402.182	509.31
402.406	489.31
402.63	504.31
402.854	510.31
403.078	506.31
403.302	544.31
403.526	509.31
403.75	518.31
403.974	541.31
404.198	523.31
404.422	519.31
404.645	547.31
404.869	567.31
405.093	582.31
405.317	620.31
405.541	644.31
405.765	596.31
405.988	568.31
406.212	563.31
406.436	530.31
406.66	569.31
406.883	549.31
407.107	582.31
407.331	610.31
407.555	632.31
407.778	638.31
408.002	618.31
408.226	578.31
408.449	558.31
408.673	552.31
408.896	558.31
409.12	562.31
409.344	566.31
409.567	537.31
409.791	532.31
410.014	527.31
410.238	524.31
410.461	510.31
410.685	513.31
410.908	511.31
411.132	542.31
411.355	543.31
411.578	532.31
411.802	491.31
412.025	540.31
412.249	522.31
412.472	528.31
412.695	617.31
412.919	598.31
413.142	555.31
413.365	512.31
413.589	522.31
413.812	490.31
414.035	460.31
414.258	499.31
414.482	500.31
414.705	492.31
414.928	483.31
415.151	475.31
415.374	465.31
415.597	480.31
415.821	489.31
416.044	440.31
416.267	444.31
416.49	482.31
416.713	468.31
416.936	477.31
417.159	478.31
417.382	475.31
417.605	473.31
417.828	490.31
418.051	504.31
418.274	485.31
418.497	483.31
418.72	474.31
418.943	482.31
419.166	504.31
419.389	534.31
419.611	529.31
419.834	517.31
420.057	498.31
420.28	523.31
420.503	536.31
420.726	522.31
420.948	538.31
421.171	554.31
421.394	535.31
421.617	518.31
421.839	490.31
422.062	487.31
422.285	480.31
422.507	522.31
422.73	554.31
422.953	563.31
423.175	518.31
423.398	519.31
423.621	507.31
423.843	520.31
424.066	541.31
424.288	504.31
424.511	522.31
424.733	532.31
424.956	595.31
425.178	560.31
425.401	538.31
425.623	564.31
425.846	520.31
426.068	490.31
426.291	470.31
426.513	474.31
426.735	483.31
426.958	521.31
427.18	573.31
427.402	639.31
427.625	701.31
427.847	597.31
428.069	586.31
428.292	524.31
428.514	491.31
428.736	458.31
428.958	464.31
429.181	454.31
429.403	436.31
429.625	454.31
429.847	477.31
430.069	489.31
430.292	482.31
430.514	452.31
430.736	463.31
430.958	434.31
431.18	424.31
431.402	423.31
431.624	425.31
431.846	452.31
432.068	458.31
432.29	445.31
432.512	452.31
432.734	437.31
432.956	426.31
433.178	454.31
433.4	452.31
433.622	439.31
433.844	453.31
434.066	455.31
434.287	462.31
434.509	461.31
434.731	474.31
434.953	480.31
435.175	471.31
435.397	492.31
435.618	474.31
435.84	498.31
436.062	549.31
436.284	590.31
436.505	512.31
436.727	477.31
436.949	466.31
437.17	456.31
437.392	452.31
437.614	464.31
437.835	453.31
438.057	514.31
438.278	571.31
438.5	570.31
438.721	618.31
438.943	586.31
439.165	487.31
439.386	457.31
439.608	480.31
439.829	477.31
440.05	473.31
440.272	524.31
440.493	483.31
440.715	465.31
440.936	438.31
441.158	457.31
441.379	460.31
441.6	469.31
441.822	470.31
442.043	509.31
442.264	540.31
442.486	590.31
442.707	530.31
442.928	482.31
443.149	508.31
443.371	507.31
443.592	526.31
443.813	622.31
444.034	608.31
444.255	557.31
444.476	500.31
444.698	522.31
444.919	542.31
445.14	642.31
445.361	541.31
445.582	502.31
445.803	555.31
446.024	598.31
446.245	580.31
446.466	571.31
446.687	493.31
446.908	468.31
447.129	453.31
447.35	435.31
447.571	441.31
447.792	418.31
448.013	417.31
448.234	442.31
448.455	469.31
448.675	533.31
448.896	590.31
449.117	512.31
449.338	487.31
449.559	538.31
449.779	616.31
450	496.31
450.221	451.31
450.442	422.31
450.662	431.31
450.883	415.31
451.104	415.31
451.324	446.31
451.545	407.31
451.766	415.31
451.986	414.31
452.207	388.31
452.428	408.31
452.648	400.31
452.869	405.31
453.089	420.31
453.31	416.31
453.53	382.31
453.751	392.31
453.971	390.31
454.192	412.31
454.412	387.31
454.633	397.31
454.853	402.31
455.073	399.31
455.294	391.31
455.514	416.31
455.734	435.31
455.955	397.31
456.175	370.31
456.395	373.31
456.616	389.31
456.836	386.31
457.056	370.31
457.276	366.31
457.497	382.31
457.717	374.31
457.937	395.31
458.157	394.31
458.377	397.31
458.598	412.31
458.818	424.31
459.038	511.31
459.258	504.31
459.478	439.31
459.698	434.31
459.918	446.31
460.138	457.31
460.358	459.31
460.578	477.31
460.798	480.31
461.018	475.31
461.238	466.31
461.458	461.31
461.678	464.31
461.898	495.31
462.118	459.31
462.338	492.31
462.558	498.31
462.777	504.31
462.997	531.31
463.217	568.31
463.437	558.31
463.657	525.31
463.876	535.31
464.096	512.31
464.316	516.31
464.536	516.31
464.755	490.31
464.975	510.31
465.195	507.31
465.414	547.31
465.634	471.31
465.854	450.31
466.073	450.31
466.293	429.31
466.512	430.31
466.732	413.31
466.951	401.31
467.171	410.31
467.391	406.31
467.61	439.31
467.829	439.31
468.049	457.31
468.268	430.31
468.488	444.31
468.707	406.31
468.927	418.31
469.146	389.31
469.365	418.31
469.585	412.31
469.804	415.31
470.023	457.31
470.243	432.31
470.462	428.31
470.681	445.31
470.901	431.31
471.12	427.31
471.339	408.31
471.558	444.31
471.777	436.31
471.997	420.31
472.216	440.31
472.435	501.31
472.654	508.31
472.873	454.31
473.092	432.31
473.311	424.31
473.53	426.31
473.749	414.31
473.968	454.31
474.187	487.31
474.406	507.31
474.625	444.31
474.844	419.31
475.063	405.31
475.282	422.31
475.501	426.31
475.72	429.31
475.939	415.31
476.158	414.31
476.377	425.31
476.596	418.31
476.814	436.31
477.033	436.31
477.252	447.31
477.471	436.31
477.69	450.31
477.908	459.31
478.127	465.31
478.346	461.31
478.564	460.31
478.783	484.31
479.002	499.31
479.22	510.31
479.439	481.31
479.658	500.31
479.876	494.31
480.095	492.31
480.313	543.31
480.532	534.31
480.751	531.31
480.969	552.31
481.188	677.31
481.406	766.31
481.624	612.31
481.843	554.31
482.061	526.31
482.28	508.31
482.498	503.31
482.717	498.31
482.935	490.31
483.153	484.31
483.372	462.31
483.59	471.31
483.808	478.31
484.027	486.31
484.245	482.31
484.463	502.31
484.681	496.31
484.9	499.31
485.118	500.31
485.336	508.31
485.554	499.31
485.772	488.31
485.99	504.31
486.209	485.31
486.427	502.31
486.645	518.31
486.863	524.31
487.081	503.31
487.299	522.31
487.517	518.31
487.735	486.31
487.953	484.31
488.171	486.31
488.389	509.31
488.607	503.31
488.825	517.31
489.043	511.31
489.261	507.31
489.479	509.31
489.696	515.31
489.914	508.31
490.132	507.31
490.35	545.31
490.568	526.31
490.786	550.31
491.003	562.31
491.221	568.31
491.439	553.31
491.657	593.31
491.874	581.31
492.092	575.31
492.31	605.31
492.527	595.31
492.745	593.31
492.963	625.31
493.18	602.31
493.398	590.31
493.615	583.31
493.833	590.31
494.05	601.31
494.268	612.31
494.485	618.31
494.703	588.31
494.92	597.31
495.138	596.31
495.355	569.31
495.573	587.31
495.79	575.31
496.008	586.31
496.225	582.31
496.442	588.31
496.66	575.31
496.877	591.31
497.094	600.31
497.312	598.31
497.529	615.31
497.746	610.31
497.963	619.31
498.181	658.31
498.398	658.31
498.615	677.31
498.832	733.31
499.049	712.31
499.267	780.31
499.484	795.31
499.701	876.31
499.918	894.31
500.135	1005.31
500.352	1068.31
500.569	1109.31
500.786	1114.31
501.003	1096.31
501.22	1007.31
501.437	960.31
501.654	882.31
501.871	841.31
