Data from 1984.PennyLincolnUp.Lamp.En5.5.200Scan.071819.P1_HRD10591_17-00-01-969.txt Node
Date: Thu Jul 18 17:00:01 EDT 2019
User: cochatt
Spectrometer: HR+D1059
Trigger mode: 1
Integration Time (sec): 1.000000E-1
Scans to average: 1
Electric dark correction enabled: true
Nonlinearity correction enabled: false
Boxcar width: 0
XAxis mode: Wavelengths
Number of Pixels in Spectrum: 2048
>>>>>Begin Spectral Data<<<<<
223.165	-19.12
223.4	-19.12
223.635	-19.12
223.869	-27.12
224.104	-29.12
224.338	-19.12
224.573	-18.12
224.808	-13.12
225.042	-14.12
225.277	17.88
225.511	-1.12
225.746	7.88
225.98	21.88
226.215	6.88
226.449	13.88
226.683	14.88
226.918	27.88
227.152	29.88
227.387	33.88
227.621	39.88
227.856	60.88
228.09	44.88
228.324	44.88
228.559	48.88
228.793	69.88
229.027	78.88
229.262	78.88
229.496	89.88
229.73	111.88
229.964	121.88
230.199	99.88
230.433	104.88
230.667	101.88
230.901	102.88
231.136	107.88
231.37	100.88
231.604	105.88
231.838	98.88
232.072	102.88
232.306	95.88
232.541	103.88
232.775	108.88
233.009	100.88
233.243	102.88
233.477	91.88
233.711	85.88
233.945	108.88
234.179	126.88
234.413	106.88
234.647	117.88
234.881	117.88
235.115	109.88
235.349	127.88
235.583	125.88
235.817	107.88
236.051	123.88
236.285	113.88
236.519	106.88
236.753	123.88
236.987	122.88
237.221	149.88
237.455	178.88
237.689	138.88
237.922	135.88
238.156	124.88
238.39	124.88
238.624	120.88
238.858	123.88
239.091	103.88
239.325	112.88
239.559	121.88
239.793	120.88
240.027	115.88
240.26	113.88
240.494	129.88
240.728	125.88
240.961	128.88
241.195	130.88
241.429	124.88
241.662	124.88
241.896	103.88
242.13	111.88
242.363	124.88
242.597	137.88
242.83	125.88
243.064	119.88
243.298	128.88
243.531	125.88
243.765	131.88
243.998	133.88
244.232	144.88
244.465	131.88
244.699	134.88
244.932	145.88
245.166	139.88
245.399	135.88
245.633	146.88
245.866	133.88
246.099	140.88
246.333	138.88
246.566	133.88
246.8	138.88
247.033	141.88
247.266	138.88
247.5	148.88
247.733	160.88
247.966	149.88
248.2	143.88
248.433	153.88
248.666	155.88
248.899	166.88
249.133	173.88
249.366	162.88
249.599	169.88
249.832	162.88
250.066	159.88
250.299	182.88
250.532	199.88
250.765	194.88
250.998	207.88
251.231	195.88
251.465	186.88
251.698	187.88
251.931	187.88
252.164	173.88
252.397	147.88
252.63	165.88
252.863	165.88
253.096	184.88
253.329	183.88
253.562	191.88
253.795	185.88
254.028	187.88
254.261	180.88
254.494	200.88
254.727	193.88
254.96	223.88
255.193	229.88
255.426	211.88
255.659	212.88
255.892	234.88
256.124	268.88
256.357	274.88
256.59	252.88
256.823	236.88
257.056	217.88
257.289	193.88
257.521	204.88
257.754	201.88
257.987	193.88
258.22	178.88
258.452	194.88
258.685	191.88
258.918	187.88
259.151	183.88
259.383	202.88
259.616	208.88
259.849	195.88
260.081	206.88
260.314	203.88
260.547	217.88
260.779	206.88
261.012	211.88
261.244	201.88
261.477	207.88
261.71	194.88
261.942	201.88
262.175	185.88
262.407	213.88
262.64	199.88
262.872	192.88
263.105	195.88
263.337	193.88
263.57	217.88
263.802	194.88
264.035	186.88
264.267	202.88
264.499	197.88
264.732	195.88
264.964	205.88
265.197	203.88
265.429	202.88
265.661	207.88
265.894	218.88
266.126	208.88
266.358	211.88
266.591	208.88
266.823	215.88
267.055	203.88
267.287	216.88
267.52	211.88
267.752	206.88
267.984	215.88
268.216	208.88
268.448	207.88
268.681	220.88
268.913	203.88
269.145	228.88
269.377	239.88
269.609	252.88
269.841	227.88
270.073	245.88
270.306	249.88
270.538	276.88
270.77	244.88
271.002	239.88
271.234	252.88
271.466	259.88
271.698	271.88
271.93	266.88
272.162	284.88
272.394	261.88
272.626	255.88
272.858	257.88
273.09	241.88
273.322	259.88
273.553	243.88
273.785	249.88
274.017	249.88
274.249	259.88
274.481	260.88
274.713	261.88
274.945	258.88
275.176	256.88
275.408	236.88
275.64	257.88
275.872	247.88
276.104	255.88
276.335	248.88
276.567	266.88
276.799	275.88
277.031	275.88
277.262	270.88
277.494	312.88
277.726	290.88
277.957	263.88
278.189	259.88
278.421	258.88
278.652	273.88
278.884	265.88
279.115	256.88
279.347	258.88
279.579	252.88
279.81	264.88
280.042	264.88
280.273	246.88
280.505	280.88
280.736	274.88
280.968	264.88
281.199	272.88
281.431	283.88
281.662	255.88
281.894	244.88
282.125	263.88
282.356	269.88
282.588	278.88
282.819	277.88
283.051	247.88
283.282	269.88
283.513	254.88
283.745	270.88
283.976	267.88
284.207	259.88
284.439	270.88
284.67	267.88
284.901	264.88
285.132	264.88
285.364	261.88
285.595	278.88
285.826	263.88
286.057	279.88
286.288	289.88
286.52	256.88
286.751	263.88
286.982	279.88
287.213	292.88
287.444	283.88
287.675	286.88
287.906	288.88
288.138	291.88
288.369	288.88
288.6	285.88
288.831	283.88
289.062	283.88
289.293	283.88
289.524	280.88
289.755	276.88
289.986	289.88
290.217	287.88
290.448	299.88
290.679	293.88
290.91	288.88
291.141	292.88
291.371	288.88
291.602	276.88
291.833	269.88
292.064	290.88
292.295	287.88
292.526	292.88
292.757	294.88
292.987	282.88
293.218	290.88
293.449	292.88
293.68	283.88
293.91	288.88
294.141	273.88
294.372	278.88
294.603	296.88
294.833	287.88
295.064	275.88
295.295	266.88
295.525	287.88
295.756	290.88
295.987	299.88
296.217	314.88
296.448	314.88
296.679	300.88
296.909	296.88
297.14	294.88
297.37	310.88
297.601	292.88
297.831	298.88
298.062	289.88
298.292	288.88
298.523	295.88
298.753	309.88
298.984	305.88
299.214	307.88
299.445	296.88
299.675	319.88
299.905	300.88
300.136	314.88
300.366	314.88
300.597	322.88
300.827	326.88
301.057	316.88
301.288	327.88
301.518	293.88
301.748	307.88
301.979	330.88
302.209	308.88
302.439	322.88
302.669	329.88
302.9	331.88
303.13	312.88
303.36	310.88
303.59	323.88
303.82	323.88
304.051	342.88
304.281	313.88
304.511	305.88
304.741	325.88
304.971	325.88
305.201	315.88
305.431	325.88
305.661	320.88
305.891	318.88
306.121	336.88
306.352	323.88
306.582	323.88
306.812	298.88
307.042	310.88
307.272	318.88
307.502	331.88
307.731	333.88
307.961	332.88
308.191	344.88
308.421	314.88
308.651	328.88
308.881	299.88
309.111	317.88
309.341	337.88
309.571	314.88
309.8	335.88
310.03	338.88
310.26	324.88
310.49	335.88
310.72	355.88
310.949	342.88
311.179	364.88
311.409	355.88
311.639	323.88
311.868	350.88
312.098	359.88
312.328	350.88
312.557	358.88
312.787	372.88
313.017	355.88
313.246	367.88
313.476	351.88
313.706	358.88
313.935	356.88
314.165	356.88
314.394	374.88
314.624	358.88
314.853	347.88
315.083	354.88
315.312	350.88
315.542	360.88
315.771	356.88
316.001	352.88
316.23	361.88
316.46	356.88
316.689	365.88
316.919	362.88
317.148	348.88
317.377	349.88
317.607	349.88
317.836	367.88
318.065	363.88
318.295	338.88
318.524	351.88
318.753	348.88
318.983	348.88
319.212	329.88
319.441	351.88
319.67	350.88
319.9	374.88
320.129	353.88
320.358	367.88
320.587	356.88
320.816	372.88
321.046	359.88
321.275	383.88
321.504	365.88
321.733	379.88
321.962	389.88
322.191	381.88
322.42	385.88
322.649	400.88
322.878	403.88
323.108	414.88
323.337	407.88
323.566	420.88
323.795	431.88
324.024	480.88
324.253	553.88
324.482	749.88
324.71	1093.88
324.939	1503.88
325.168	1287.88
325.397	697.88
325.626	499.88
325.855	465.88
326.084	456.88
326.313	412.88
326.542	444.88
326.77	484.88
326.999	567.88
327.228	679.88
327.457	1001.88
327.686	1179.88
327.914	821.88
328.143	624.88
328.372	587.88
328.6	571.88
328.829	520.88
329.058	513.88
329.287	522.88
329.515	492.88
329.744	498.88
329.972	559.88
330.201	620.88
330.43	677.88
330.658	672.88
330.887	589.88
331.115	547.88
331.344	487.88
331.572	472.88
331.801	449.88
332.03	447.88
332.258	497.88
332.486	471.88
332.715	463.88
332.943	460.88
333.172	487.88
333.4	499.88
333.629	519.88
333.857	546.88
334.085	593.88
334.314	685.88
334.542	798.88
334.771	818.88
334.999	639.88
335.227	552.88
335.455	507.88
335.684	490.88
335.912	472.88
336.14	479.88
336.369	433.88
336.597	428.88
336.825	442.88
337.053	451.88
337.281	417.88
337.51	427.88
337.738	422.88
337.966	420.88
338.194	441.88
338.422	408.88
338.65	386.88
338.878	424.88
339.106	385.88
339.334	415.88
339.562	393.88
339.79	405.88
340.018	400.88
340.246	411.88
340.474	432.88
340.702	407.88
340.93	382.88
341.158	384.88
341.386	403.88
341.614	398.88
341.842	397.88
342.07	383.88
342.298	385.88
342.526	392.88
342.754	386.88
342.981	389.88
343.209	380.88
343.437	413.88
343.665	411.88
343.893	412.88
344.12	446.88
344.348	419.88
344.576	432.88
344.804	432.88
345.031	417.88
345.259	410.88
345.487	399.88
345.714	396.88
345.942	371.88
346.17	380.88
346.397	383.88
346.625	371.88
346.853	376.88
347.08	375.88
347.308	355.88
347.535	387.88
347.763	371.88
347.99	379.88
348.218	367.88
348.445	366.88
348.673	380.88
348.9	386.88
349.128	367.88
349.355	363.88
349.583	373.88
349.81	362.88
350.037	377.88
350.265	368.88
350.492	371.88
350.72	365.88
350.947	371.88
351.174	372.88
351.402	383.88
351.629	371.88
351.856	375.88
352.083	384.88
352.311	378.88
352.538	369.88
352.765	385.88
352.992	365.88
353.22	377.88
353.447	381.88
353.674	361.88
353.901	369.88
354.128	375.88
354.355	354.88
354.583	363.88
354.81	349.88
355.037	376.88
355.264	348.88
355.491	331.88
355.718	328.88
355.945	344.88
356.172	373.88
356.399	357.88
356.626	354.88
356.853	368.88
357.08	372.88
357.307	362.88
357.534	345.88
357.761	361.88
357.988	351.88
358.215	361.88
358.441	355.88
358.668	351.88
358.895	371.88
359.122	350.88
359.349	337.88
359.576	359.88
359.802	373.88
360.029	407.88
360.256	397.88
360.483	387.88
360.709	366.88
360.936	374.88
361.163	358.88
361.39	354.88
361.616	375.88
361.843	363.88
362.07	369.88
362.296	377.88
362.523	352.88
362.749	349.88
362.976	365.88
363.203	359.88
363.429	339.88
363.656	348.88
363.882	349.88
364.109	363.88
364.335	348.88
364.562	368.88
364.788	353.88
365.015	343.88
365.241	357.88
365.468	343.88
365.694	364.88
365.92	365.88
366.147	367.88
366.373	366.88
366.599	334.88
366.826	352.88
367.052	344.88
367.278	349.88
367.505	337.88
367.731	369.88
367.957	357.88
368.184	340.88
368.41	364.88
368.636	357.88
368.862	372.88
369.089	361.88
369.315	367.88
369.541	369.88
369.767	344.88
369.993	356.88
370.219	347.88
370.445	359.88
370.672	354.88
370.898	352.88
371.124	356.88
371.35	344.88
371.576	351.88
371.802	354.88
372.028	358.88
372.254	340.88
372.48	364.88
372.706	369.88
372.932	351.88
373.158	390.88
373.384	375.88
373.61	356.88
373.835	379.88
374.061	362.88
374.287	373.88
374.513	371.88
374.739	343.88
374.965	375.88
375.191	391.88
375.416	363.88
375.642	379.88
375.868	373.88
376.094	347.88
376.319	347.88
376.545	372.88
376.771	362.88
376.997	337.88
377.222	357.88
377.448	360.88
377.674	389.88
377.899	362.88
378.125	357.88
378.35	372.88
378.576	359.88
378.802	339.88
379.027	344.88
379.253	354.88
379.478	368.88
379.704	352.88
379.929	363.88
380.155	363.88
380.38	354.88
380.606	376.88
380.831	370.88
381.057	368.88
381.282	361.88
381.507	358.88
381.733	374.88
381.958	370.88
382.184	367.88
382.409	362.88
382.634	371.88
382.86	364.88
383.085	362.88
383.31	352.88
383.535	389.88
383.761	383.88
383.986	380.88
384.211	383.88
384.436	383.88
384.662	400.88
384.887	394.88
385.112	409.88
385.337	387.88
385.562	397.88
385.787	405.88
386.013	411.88
386.238	422.88
386.463	405.88
386.688	400.88
386.913	392.88
387.138	398.88
387.363	392.88
387.588	401.88
387.813	389.88
388.038	393.88
388.263	412.88
388.488	412.88
388.713	418.88
388.938	414.88
389.163	423.88
389.387	408.88
389.612	408.88
389.837	403.88
390.062	403.88
390.287	400.88
390.512	398.88
390.736	400.88
390.961	405.88
391.186	418.88
391.411	411.88
391.636	435.88
391.86	436.88
392.085	410.88
392.31	413.88
392.534	411.88
392.759	415.88
392.984	417.88
393.208	411.88
393.433	421.88
393.658	413.88
393.882	415.88
394.107	405.88
394.331	426.88
394.556	413.88
394.78	414.88
395.005	415.88
395.229	425.88
395.454	410.88
395.678	428.88
395.903	420.88
396.127	442.88
396.352	458.88
396.576	433.88
396.801	413.88
397.025	408.88
397.249	433.88
397.474	437.88
397.698	434.88
397.922	418.88
398.147	447.88
398.371	467.88
398.595	473.88
398.82	479.88
399.044	473.88
399.268	517.88
399.492	563.88
399.717	641.88
399.941	643.88
400.165	594.88
400.389	565.88
400.613	541.88
400.837	509.88
401.062	497.88
401.286	507.88
401.51	491.88
401.734	472.88
401.958	497.88
402.182	476.88
402.406	486.88
402.63	505.88
402.854	517.88
403.078	501.88
403.302	509.88
403.526	498.88
403.75	550.88
403.974	533.88
404.198	523.88
404.422	517.88
404.645	535.88
404.869	551.88
405.093	556.88
405.317	625.88
405.541	628.88
405.765	580.88
405.988	527.88
406.212	550.88
406.436	528.88
406.66	560.88
406.883	547.88
407.107	565.88
407.331	587.88
407.555	637.88
407.778	645.88
408.002	605.88
408.226	565.88
408.449	566.88
408.673	537.88
408.896	576.88
409.12	595.88
409.344	556.88
409.567	505.88
409.791	506.88
410.014	503.88
410.238	516.88
410.461	501.88
410.685	497.88
410.908	503.88
411.132	537.88
411.355	540.88
411.578	529.88
411.802	521.88
412.025	513.88
412.249	516.88
412.472	549.88
412.695	609.88
412.919	597.88
413.142	538.88
413.365	534.88
413.589	504.88
413.812	487.88
414.035	500.88
414.258	481.88
414.482	487.88
414.705	491.88
414.928	479.88
415.151	479.88
415.374	487.88
415.597	465.88
415.821	460.88
416.044	476.88
416.267	470.88
416.49	482.88
416.713	479.88
416.936	458.88
417.159	474.88
417.382	489.88
417.605	486.88
417.828	477.88
418.051	476.88
418.274	483.88
418.497	468.88
418.72	468.88
418.943	488.88
419.166	509.88
419.389	533.88
419.611	526.88
419.834	506.88
420.057	525.88
420.28	515.88
420.503	549.88
420.726	520.88
420.948	504.88
421.171	518.88
421.394	533.88
421.617	501.88
421.839	484.88
422.062	479.88
422.285	477.88
422.507	520.88
422.73	550.88
422.953	553.88
423.175	513.88
423.398	487.88
423.621	498.88
423.843	532.88
424.066	520.88
424.288	504.88
424.511	513.88
424.733	566.88
424.956	611.88
425.178	573.88
425.401	569.88
425.623	567.88
425.846	515.88
426.068	474.88
426.291	483.88
426.513	487.88
426.735	482.88
426.958	512.88
427.18	573.88
427.402	631.88
427.625	692.88
427.847	644.88
428.069	606.88
428.292	530.88
428.514	471.88
428.736	467.88
428.958	469.88
429.181	458.88
429.403	442.88
429.625	453.88
429.847	492.88
430.069	509.88
430.292	500.88
430.514	453.88
430.736	433.88
430.958	433.88
431.18	420.88
431.402	415.88
431.624	433.88
431.846	425.88
432.068	435.88
432.29	439.88
432.512	443.88
432.734	453.88
432.956	452.88
433.178	443.88
433.4	456.88
433.622	422.88
433.844	435.88
434.066	457.88
434.287	417.88
434.509	437.88
434.731	456.88
434.953	474.88
435.175	491.88
435.397	489.88
435.618	503.88
435.84	515.88
436.062	545.88
436.284	615.88
436.505	509.88
436.727	480.88
436.949	452.88
437.17	452.88
437.392	455.88
437.614	458.88
437.835	447.88
438.057	525.88
438.278	588.88
438.5	572.88
438.721	620.88
438.943	589.88
439.165	511.88
439.386	481.88
439.608	483.88
439.829	469.88
440.05	496.88
440.272	498.88
440.493	468.88
440.715	475.88
440.936	447.88
441.158	453.88
441.379	438.88
441.6	482.88
441.822	479.88
442.043	516.88
442.264	556.88
442.486	571.88
442.707	531.88
442.928	488.88
443.149	478.88
443.371	492.88
443.592	533.88
443.813	590.88
444.034	637.88
444.255	537.88
444.476	509.88
444.698	519.88
444.919	526.88
445.14	661.88
445.361	599.88
445.582	535.88
445.803	561.88
446.024	599.88
446.245	603.88
446.466	561.88
446.687	487.88
446.908	464.88
447.129	465.88
447.35	443.88
447.571	425.88
447.792	426.88
448.013	429.88
448.234	441.88
448.455	470.88
448.675	540.88
448.896	609.88
449.117	531.88
449.338	517.88
449.559	579.88
449.779	646.88
450	504.88
450.221	458.88
450.442	422.88
450.662	428.88
450.883	420.88
451.104	423.88
451.324	444.88
451.545	420.88
451.766	416.88
451.986	404.88
452.207	404.88
452.428	388.88
452.648	399.88
452.869	405.88
453.089	416.88
453.31	406.88
453.53	401.88
453.751	397.88
453.971	389.88
454.192	401.88
454.412	400.88
454.633	394.88
454.853	390.88
455.073	393.88
455.294	392.88
455.514	437.88
455.734	429.88
455.955	387.88
456.175	392.88
456.395	379.88
456.616	378.88
456.836	388.88
457.056	361.88
457.276	381.88
457.497	360.88
457.717	385.88
457.937	389.88
458.157	389.88
458.377	393.88
458.598	408.88
458.818	433.88
459.038	474.88
459.258	479.88
459.478	462.88
459.698	435.88
459.918	452.88
460.138	443.88
460.358	457.88
460.578	458.88
460.798	467.88
461.018	465.88
461.238	461.88
461.458	480.88
461.678	471.88
461.898	460.88
462.118	482.88
462.338	486.88
462.558	490.88
462.777	519.88
462.997	533.88
463.217	552.88
463.437	563.88
463.657	563.88
463.876	523.88
464.096	524.88
464.316	527.88
464.536	497.88
464.755	530.88
464.975	493.88
465.195	505.88
465.414	519.88
465.634	495.88
465.854	456.88
466.073	439.88
466.293	423.88
466.512	428.88
466.732	415.88
466.951	425.88
467.171	380.88
467.391	417.88
467.61	424.88
467.829	423.88
468.049	460.88
468.268	453.88
468.488	432.88
468.707	416.88
468.927	401.88
469.146	413.88
469.365	425.88
469.585	405.88
469.804	415.88
470.023	425.88
470.243	423.88
470.462	433.88
470.681	445.88
470.901	437.88
471.12	446.88
471.339	433.88
471.558	443.88
471.777	422.88
471.997	435.88
472.216	435.88
472.435	554.88
472.654	529.88
472.873	468.88
473.092	454.88
473.311	421.88
473.53	422.88
473.749	424.88
473.968	419.88
474.187	492.88
474.406	499.88
474.625	449.88
474.844	443.88
475.063	412.88
475.282	393.88
475.501	427.88
475.72	434.88
475.939	404.88
476.158	406.88
476.377	432.88
476.596	431.88
476.814	440.88
477.033	442.88
477.252	426.88
477.471	426.88
477.69	443.88
477.908	444.88
478.127	467.88
478.346	470.88
478.564	466.88
478.783	484.88
479.002	486.88
479.22	488.88
479.439	489.88
479.658	480.88
479.876	511.88
480.095	517.88
480.313	555.88
480.532	557.88
480.751	568.88
480.969	571.88
481.188	709.88
481.406	813.88
481.624	639.88
481.843	572.88
482.061	539.88
482.28	515.88
482.498	513.88
482.717	506.88
482.935	501.88
483.153	481.88
483.372	483.88
483.59	477.88
483.808	473.88
484.027	473.88
484.245	471.88
484.463	486.88
484.681	488.88
484.9	483.88
485.118	477.88
485.336	501.88
485.554	503.88
485.772	497.88
485.99	493.88
486.209	516.88
486.427	490.88
486.645	509.88
486.863	497.88
487.081	492.88
487.299	498.88
487.517	504.88
487.735	496.88
487.953	491.88
488.171	496.88
488.389	488.88
488.607	499.88
488.825	508.88
489.043	521.88
489.261	532.88
489.479	513.88
489.696	537.88
489.914	527.88
490.132	520.88
490.35	543.88
490.568	537.88
490.786	539.88
491.003	552.88
491.221	543.88
491.439	579.88
491.657	574.88
491.874	589.88
492.092	586.88
492.31	578.88
492.527	591.88
492.745	606.88
492.963	600.88
493.18	587.88
493.398	623.88
493.615	591.88
493.833	607.88
494.05	593.88
494.268	600.88
494.485	588.88
494.703	602.88
494.92	587.88
495.138	566.88
495.355	588.88
495.573	588.88
495.79	581.88
496.008	585.88
496.225	592.88
496.442	580.88
496.66	587.88
496.877	580.88
497.094	608.88
497.312	613.88
497.529	603.88
497.746	629.88
497.963	637.88
498.181	654.88
498.398	664.88
498.615	674.88
498.832	738.88
499.049	726.88
499.267	767.88
499.484	802.88
499.701	869.88
499.918	907.88
500.135	999.88
500.352	1096.88
500.569	1130.88
500.786	1108.88
501.003	1080.88
501.22	1019.88
501.437	934.88
501.654	851.88
501.871	817.88
