Data from 1984.PennyLincolnUp.Lamp.En5.5.200Scan.071819.P1_HRD10591_17-00-20-969.txt Node
Date: Thu Jul 18 17:00:20 EDT 2019
User: cochatt
Spectrometer: HR+D1059
Trigger mode: 1
Integration Time (sec): 1.000000E-1
Scans to average: 1
Electric dark correction enabled: true
Nonlinearity correction enabled: false
Boxcar width: 0
XAxis mode: Wavelengths
Number of Pixels in Spectrum: 2048
>>>>>Begin Spectral Data<<<<<
223.165	-4.5
223.4	-4.5
223.635	-4.5
223.869	-14.5
224.104	-5.5
224.338	-11.5
224.573	-12.5
224.808	-13.5
225.042	-13.5
225.277	-8.5
225.511	-7.5
225.746	2.5
225.98	5.5
226.215	6.5
226.449	18.5
226.683	21.5
226.918	17.5
227.152	19.5
227.387	29.5
227.621	31.5
227.856	43.5
228.09	44.5
228.324	52.5
228.559	51.5
228.793	53.5
229.027	82.5
229.262	87.5
229.496	86.5
229.73	103.5
229.964	121.5
230.199	105.5
230.433	107.5
230.667	108.5
230.901	89.5
231.136	112.5
231.37	104.5
231.604	100.5
231.838	93.5
232.072	117.5
232.306	123.5
232.541	114.5
232.775	105.5
233.009	111.5
233.243	111.5
233.477	116.5
233.711	105.5
233.945	105.5
234.179	107.5
234.413	108.5
234.647	106.5
234.881	100.5
235.115	123.5
235.349	123.5
235.583	109.5
235.817	114.5
236.051	112.5
236.285	128.5
236.519	127.5
236.753	111.5
236.987	123.5
237.221	123.5
237.455	170.5
237.689	142.5
237.922	121.5
238.156	116.5
238.39	133.5
238.624	103.5
238.858	123.5
239.091	113.5
239.325	105.5
239.559	123.5
239.793	124.5
240.027	114.5
240.26	129.5
240.494	143.5
240.728	126.5
240.961	128.5
241.195	144.5
241.429	136.5
241.662	122.5
241.896	120.5
242.13	123.5
242.363	124.5
242.597	132.5
242.83	147.5
243.064	137.5
243.298	139.5
243.531	136.5
243.765	130.5
243.998	129.5
244.232	136.5
244.465	159.5
244.699	143.5
244.932	130.5
245.166	128.5
245.399	132.5
245.633	138.5
245.866	132.5
246.099	130.5
246.333	140.5
246.566	150.5
246.8	135.5
247.033	141.5
247.266	162.5
247.5	147.5
247.733	152.5
247.966	160.5
248.2	168.5
248.433	148.5
248.666	159.5
248.899	164.5
249.133	167.5
249.366	188.5
249.599	172.5
249.832	171.5
250.066	172.5
250.299	179.5
250.532	215.5
250.765	226.5
250.998	211.5
251.231	211.5
251.465	198.5
251.698	171.5
251.931	175.5
252.164	177.5
252.397	169.5
252.63	189.5
252.863	202.5
253.096	184.5
253.329	194.5
253.562	195.5
253.795	176.5
254.028	198.5
254.261	179.5
254.494	197.5
254.727	220.5
254.96	215.5
255.193	230.5
255.426	213.5
255.659	225.5
255.892	230.5
256.124	296.5
256.357	306.5
256.59	287.5
256.823	228.5
257.056	220.5
257.289	212.5
257.521	195.5
257.754	194.5
257.987	207.5
258.22	210.5
258.452	191.5
258.685	185.5
258.918	188.5
259.151	208.5
259.383	203.5
259.616	211.5
259.849	203.5
260.081	212.5
260.314	222.5
260.547	221.5
260.779	218.5
261.012	204.5
261.244	202.5
261.477	204.5
261.71	181.5
261.942	199.5
262.175	214.5
262.407	216.5
262.64	200.5
262.872	200.5
263.105	187.5
263.337	209.5
263.57	220.5
263.802	193.5
264.035	177.5
264.267	188.5
264.499	205.5
264.732	201.5
264.964	202.5
265.197	200.5
265.429	203.5
265.661	222.5
265.894	210.5
266.126	199.5
266.358	205.5
266.591	207.5
266.823	222.5
267.055	226.5
267.287	220.5
267.52	201.5
267.752	212.5
267.984	217.5
268.216	224.5
268.448	220.5
268.681	227.5
268.913	220.5
269.145	230.5
269.377	236.5
269.609	226.5
269.841	234.5
270.073	241.5
270.306	255.5
270.538	267.5
270.77	245.5
271.002	260.5
271.234	249.5
271.466	239.5
271.698	261.5
271.93	268.5
272.162	266.5
272.394	283.5
272.626	266.5
272.858	250.5
273.09	254.5
273.322	249.5
273.553	235.5
273.785	244.5
274.017	249.5
274.249	235.5
274.481	241.5
274.713	255.5
274.945	247.5
275.176	265.5
275.408	249.5
275.64	259.5
275.872	234.5
276.104	255.5
276.335	240.5
276.567	257.5
276.799	250.5
277.031	247.5
277.262	288.5
277.494	292.5
277.726	285.5
277.957	275.5
278.189	268.5
278.421	267.5
278.652	259.5
278.884	256.5
279.115	258.5
279.347	262.5
279.579	247.5
279.81	268.5
280.042	255.5
280.273	266.5
280.505	264.5
280.736	261.5
280.968	273.5
281.199	265.5
281.431	246.5
281.662	281.5
281.894	265.5
282.125	269.5
282.356	265.5
282.588	286.5
282.819	293.5
283.051	281.5
283.282	259.5
283.513	279.5
283.745	268.5
283.976	280.5
284.207	264.5
284.439	269.5
284.67	262.5
284.901	293.5
285.132	265.5
285.364	275.5
285.595	287.5
285.826	293.5
286.057	279.5
286.288	272.5
286.52	276.5
286.751	284.5
286.982	281.5
287.213	282.5
287.444	261.5
287.675	298.5
287.906	299.5
288.138	297.5
288.369	294.5
288.6	290.5
288.831	299.5
289.062	288.5
289.293	311.5
289.524	289.5
289.755	290.5
289.986	298.5
290.217	292.5
290.448	297.5
290.679	307.5
290.91	274.5
291.141	298.5
291.371	280.5
291.602	277.5
291.833	283.5
292.064	279.5
292.295	287.5
292.526	272.5
292.757	283.5
292.987	293.5
293.218	287.5
293.449	292.5
293.68	299.5
293.91	296.5
294.141	281.5
294.372	287.5
294.603	296.5
294.833	284.5
295.064	297.5
295.295	298.5
295.525	300.5
295.756	293.5
295.987	322.5
296.217	312.5
296.448	313.5
296.679	310.5
296.909	292.5
297.14	298.5
297.37	302.5
297.601	300.5
297.831	305.5
298.062	313.5
298.292	308.5
298.523	341.5
298.753	309.5
298.984	303.5
299.214	294.5
299.445	299.5
299.675	314.5
299.905	319.5
300.136	317.5
300.366	310.5
300.597	322.5
300.827	338.5
301.057	330.5
301.288	328.5
301.518	316.5
301.748	316.5
301.979	332.5
302.209	309.5
302.439	341.5
302.669	301.5
302.9	312.5
303.13	311.5
303.36	337.5
303.59	323.5
303.82	328.5
304.051	334.5
304.281	327.5
304.511	317.5
304.741	311.5
304.971	315.5
305.201	313.5
305.431	307.5
305.661	345.5
305.891	307.5
306.121	325.5
306.352	305.5
306.582	324.5
306.812	316.5
307.042	320.5
307.272	326.5
307.502	348.5
307.731	335.5
307.961	322.5
308.191	333.5
308.421	342.5
308.651	327.5
308.881	299.5
309.111	334.5
309.341	335.5
309.571	337.5
309.8	353.5
310.03	332.5
310.26	363.5
310.49	345.5
310.72	358.5
310.949	367.5
311.179	358.5
311.409	362.5
311.639	344.5
311.868	356.5
312.098	347.5
312.328	360.5
312.557	372.5
312.787	371.5
313.017	380.5
313.246	366.5
313.476	339.5
313.706	360.5
313.935	353.5
314.165	370.5
314.394	359.5
314.624	390.5
314.853	374.5
315.083	348.5
315.312	355.5
315.542	362.5
315.771	340.5
316.001	349.5
316.23	355.5
316.46	356.5
316.689	349.5
316.919	367.5
317.148	365.5
317.377	361.5
317.607	345.5
317.836	380.5
318.065	342.5
318.295	339.5
318.524	342.5
318.753	345.5
318.983	347.5
319.212	358.5
319.441	364.5
319.67	369.5
319.9	367.5
320.129	355.5
320.358	360.5
320.587	380.5
320.816	372.5
321.046	371.5
321.275	369.5
321.504	373.5
321.733	362.5
321.962	377.5
322.191	383.5
322.42	390.5
322.649	390.5
322.878	399.5
323.108	408.5
323.337	421.5
323.566	436.5
323.795	448.5
324.024	486.5
324.253	560.5
324.482	747.5
324.71	1101.5
324.939	1565.5
325.168	1300.5
325.397	710.5
325.626	532.5
325.855	485.5
326.084	467.5
326.313	461.5
326.542	455.5
326.77	495.5
326.999	569.5
327.228	716.5
327.457	1020.5
327.686	1199.5
327.914	845.5
328.143	632.5
328.372	618.5
328.6	574.5
328.829	528.5
329.058	522.5
329.287	526.5
329.515	542.5
329.744	512.5
329.972	574.5
330.201	628.5
330.43	700.5
330.658	674.5
330.887	602.5
331.115	546.5
331.344	497.5
331.572	467.5
331.801	481.5
332.03	485.5
332.258	471.5
332.486	472.5
332.715	471.5
332.943	486.5
333.172	484.5
333.4	520.5
333.629	552.5
333.857	582.5
334.085	650.5
334.314	715.5
334.542	855.5
334.771	845.5
334.999	678.5
335.227	563.5
335.455	525.5
335.684	517.5
335.912	476.5
336.14	465.5
336.369	443.5
336.597	457.5
336.825	442.5
337.053	442.5
337.281	454.5
337.51	461.5
337.738	423.5
337.966	414.5
338.194	426.5
338.422	432.5
338.65	415.5
338.878	420.5
339.106	417.5
339.334	423.5
339.562	414.5
339.79	408.5
340.018	416.5
340.246	420.5
340.474	404.5
340.702	394.5
340.93	405.5
341.158	409.5
341.386	391.5
341.614	409.5
341.842	413.5
342.07	398.5
342.298	371.5
342.526	386.5
342.754	398.5
342.981	380.5
343.209	388.5
343.437	397.5
343.665	402.5
343.893	430.5
344.12	431.5
344.348	415.5
344.576	419.5
344.804	407.5
345.031	415.5
345.259	427.5
345.487	406.5
345.714	387.5
345.942	389.5
346.17	398.5
346.397	376.5
346.625	389.5
346.853	391.5
347.08	366.5
347.308	387.5
347.535	389.5
347.763	384.5
347.99	377.5
348.218	388.5
348.445	395.5
348.673	380.5
348.9	371.5
349.128	389.5
349.355	370.5
349.583	383.5
349.81	376.5
350.037	373.5
350.265	380.5
350.492	365.5
350.72	374.5
350.947	389.5
351.174	380.5
351.402	396.5
351.629	379.5
351.856	369.5
352.083	374.5
352.311	371.5
352.538	389.5
352.765	367.5
352.992	372.5
353.22	359.5
353.447	383.5
353.674	359.5
353.901	370.5
354.128	347.5
354.355	352.5
354.583	351.5
354.81	349.5
355.037	369.5
355.264	341.5
355.491	376.5
355.718	338.5
355.945	371.5
356.172	369.5
356.399	357.5
356.626	343.5
356.853	352.5
357.08	375.5
357.307	381.5
357.534	358.5
357.761	358.5
357.988	353.5
358.215	352.5
358.441	365.5
358.668	353.5
358.895	363.5
359.122	364.5
359.349	354.5
359.576	375.5
359.802	383.5
360.029	392.5
360.256	412.5
360.483	383.5
360.709	375.5
360.936	377.5
361.163	371.5
361.39	354.5
361.616	354.5
361.843	344.5
362.07	381.5
362.296	387.5
362.523	360.5
362.749	373.5
362.976	366.5
363.203	363.5
363.429	365.5
363.656	354.5
363.882	366.5
364.109	373.5
364.335	374.5
364.562	361.5
364.788	359.5
365.015	367.5
365.241	363.5
365.468	356.5
365.694	354.5
365.92	363.5
366.147	370.5
366.373	351.5
366.599	366.5
366.826	361.5
367.052	341.5
367.278	363.5
367.505	351.5
367.731	366.5
367.957	373.5
368.184	375.5
368.41	372.5
368.636	357.5
368.862	365.5
369.089	375.5
369.315	359.5
369.541	365.5
369.767	358.5
369.993	378.5
370.219	344.5
370.445	367.5
370.672	363.5
370.898	353.5
371.124	342.5
371.35	384.5
371.576	343.5
371.802	364.5
372.028	368.5
372.254	367.5
372.48	366.5
372.706	386.5
372.932	373.5
373.158	355.5
373.384	387.5
373.61	365.5
373.835	379.5
374.061	383.5
374.287	357.5
374.513	366.5
374.739	403.5
374.965	395.5
375.191	391.5
375.416	370.5
375.642	372.5
375.868	380.5
376.094	360.5
376.319	354.5
376.545	355.5
376.771	365.5
376.997	353.5
377.222	377.5
377.448	380.5
377.674	370.5
377.899	369.5
378.125	369.5
378.35	351.5
378.576	351.5
378.802	359.5
379.027	365.5
379.253	361.5
379.478	342.5
379.704	371.5
379.929	356.5
380.155	351.5
380.38	367.5
380.606	369.5
380.831	362.5
381.057	361.5
381.282	352.5
381.507	369.5
381.733	375.5
381.958	363.5
382.184	363.5
382.409	364.5
382.634	384.5
382.86	370.5
383.085	398.5
383.31	381.5
383.535	379.5
383.761	378.5
383.986	390.5
384.211	402.5
384.436	414.5
384.662	407.5
384.887	392.5
385.112	428.5
385.337	393.5
385.562	396.5
385.787	414.5
386.013	429.5
386.238	416.5
386.463	424.5
386.688	426.5
386.913	415.5
387.138	402.5
387.363	411.5
387.588	424.5
387.813	421.5
388.038	417.5
388.263	404.5
388.488	400.5
388.713	407.5
388.938	420.5
389.163	400.5
389.387	391.5
389.612	418.5
389.837	422.5
390.062	411.5
390.287	390.5
390.512	383.5
390.736	400.5
390.961	424.5
391.186	417.5
391.411	408.5
391.636	433.5
391.86	418.5
392.085	460.5
392.31	436.5
392.534	433.5
392.759	441.5
392.984	424.5
393.208	397.5
393.433	416.5
393.658	409.5
393.882	414.5
394.107	412.5
394.331	411.5
394.556	409.5
394.78	420.5
395.005	428.5
395.229	422.5
395.454	428.5
395.678	449.5
395.903	458.5
396.127	455.5
396.352	462.5
396.576	431.5
396.801	418.5
397.025	411.5
397.249	448.5
397.474	451.5
397.698	451.5
397.922	443.5
398.147	447.5
398.371	484.5
398.595	475.5
398.82	479.5
399.044	485.5
399.268	538.5
399.492	580.5
399.717	656.5
399.941	641.5
400.165	627.5
400.389	592.5
400.613	540.5
400.837	513.5
401.062	514.5
401.286	493.5
401.51	482.5
401.734	468.5
401.958	482.5
402.182	476.5
402.406	498.5
402.63	499.5
402.854	506.5
403.078	514.5
403.302	530.5
403.526	526.5
403.75	551.5
403.974	531.5
404.198	545.5
404.422	537.5
404.645	553.5
404.869	552.5
405.093	582.5
405.317	636.5
405.541	653.5
405.765	605.5
405.988	554.5
406.212	543.5
406.436	563.5
406.66	547.5
406.883	553.5
407.107	563.5
407.331	608.5
407.555	637.5
407.778	660.5
408.002	623.5
408.226	554.5
408.449	554.5
408.673	552.5
408.896	551.5
409.12	573.5
409.344	563.5
409.567	519.5
409.791	524.5
410.014	522.5
410.238	493.5
410.461	500.5
410.685	507.5
410.908	513.5
411.132	540.5
411.355	577.5
411.578	550.5
411.802	537.5
412.025	511.5
412.249	524.5
412.472	562.5
412.695	636.5
412.919	624.5
413.142	564.5
413.365	548.5
413.589	497.5
413.812	482.5
414.035	486.5
414.258	504.5
414.482	521.5
414.705	487.5
414.928	481.5
415.151	495.5
415.374	471.5
415.597	470.5
415.821	468.5
416.044	484.5
416.267	460.5
416.49	461.5
416.713	454.5
416.936	462.5
417.159	460.5
417.382	465.5
417.605	472.5
417.828	491.5
418.051	483.5
418.274	473.5
418.497	492.5
418.72	497.5
418.943	477.5
419.166	495.5
419.389	557.5
419.611	547.5
419.834	520.5
420.057	539.5
420.28	531.5
420.503	538.5
420.726	524.5
420.948	507.5
421.171	532.5
421.394	539.5
421.617	506.5
421.839	511.5
422.062	492.5
422.285	481.5
422.507	520.5
422.73	584.5
422.953	544.5
423.175	518.5
423.398	513.5
423.621	491.5
423.843	514.5
424.066	503.5
424.288	491.5
424.511	525.5
424.733	552.5
424.956	593.5
425.178	570.5
425.401	583.5
425.623	598.5
425.846	523.5
426.068	503.5
426.291	464.5
426.513	498.5
426.735	495.5
426.958	545.5
427.18	552.5
427.402	653.5
427.625	722.5
427.847	654.5
428.069	604.5
428.292	543.5
428.514	470.5
428.736	475.5
428.958	447.5
429.181	474.5
429.403	458.5
429.625	453.5
429.847	483.5
430.069	513.5
430.292	524.5
430.514	470.5
430.736	432.5
430.958	441.5
431.18	440.5
431.402	446.5
431.624	455.5
431.846	428.5
432.068	418.5
432.29	446.5
432.512	443.5
432.734	450.5
432.956	455.5
433.178	451.5
433.4	438.5
433.622	448.5
433.844	467.5
434.066	455.5
434.287	441.5
434.509	461.5
434.731	454.5
434.953	450.5
435.175	508.5
435.397	487.5
435.618	497.5
435.84	506.5
436.062	547.5
436.284	596.5
436.505	513.5
436.727	488.5
436.949	451.5
437.17	441.5
437.392	472.5
437.614	456.5
437.835	465.5
438.057	515.5
438.278	563.5
438.5	580.5
438.721	637.5
438.943	610.5
439.165	504.5
439.386	466.5
439.608	481.5
439.829	479.5
440.05	490.5
440.272	529.5
440.493	502.5
440.715	507.5
440.936	460.5
441.158	480.5
441.379	479.5
441.6	475.5
441.822	511.5
442.043	523.5
442.264	551.5
442.486	593.5
442.707	519.5
442.928	525.5
443.149	506.5
443.371	498.5
443.592	546.5
443.813	586.5
444.034	632.5
444.255	577.5
444.476	511.5
444.698	551.5
444.919	528.5
445.14	660.5
445.361	572.5
445.582	523.5
445.803	550.5
446.024	612.5
446.245	610.5
446.466	548.5
446.687	516.5
446.908	460.5
447.129	438.5
447.35	431.5
447.571	435.5
447.792	431.5
448.013	427.5
448.234	448.5
448.455	471.5
448.675	528.5
448.896	634.5
449.117	511.5
449.338	483.5
449.559	586.5
449.779	640.5
450	521.5
450.221	473.5
450.442	437.5
450.662	429.5
450.883	420.5
451.104	443.5
451.324	415.5
451.545	405.5
451.766	412.5
451.986	397.5
452.207	406.5
452.428	411.5
452.648	403.5
452.869	416.5
453.089	403.5
453.31	413.5
453.53	390.5
453.751	394.5
453.971	397.5
454.192	418.5
454.412	403.5
454.633	392.5
454.853	393.5
455.073	403.5
455.294	414.5
455.514	441.5
455.734	425.5
455.955	397.5
456.175	356.5
456.395	383.5
456.616	378.5
456.836	370.5
457.056	399.5
457.276	371.5
457.497	385.5
457.717	384.5
457.937	388.5
458.157	388.5
458.377	408.5
458.598	414.5
458.818	449.5
459.038	488.5
459.258	494.5
459.478	440.5
459.698	448.5
459.918	459.5
460.138	456.5
460.358	449.5
460.578	446.5
460.798	487.5
461.018	473.5
461.238	471.5
461.458	468.5
461.678	467.5
461.898	473.5
462.118	464.5
462.338	476.5
462.558	485.5
462.777	508.5
462.997	543.5
463.217	566.5
463.437	575.5
463.657	523.5
463.876	536.5
464.096	525.5
464.316	522.5
464.536	521.5
464.755	531.5
464.975	522.5
465.195	512.5
465.414	527.5
465.634	463.5
465.854	449.5
466.073	455.5
466.293	449.5
466.512	405.5
466.732	437.5
466.951	431.5
467.171	424.5
467.391	405.5
467.61	424.5
467.829	444.5
468.049	448.5
468.268	475.5
468.488	430.5
468.707	418.5
468.927	419.5
469.146	437.5
469.365	421.5
469.585	407.5
469.804	431.5
470.023	432.5
470.243	418.5
470.462	448.5
470.681	442.5
470.901	427.5
471.12	418.5
471.339	431.5
471.558	435.5
471.777	431.5
471.997	454.5
472.216	459.5
472.435	589.5
472.654	557.5
472.873	468.5
473.092	437.5
473.311	447.5
473.53	439.5
473.749	412.5
473.968	465.5
474.187	503.5
474.406	490.5
474.625	433.5
474.844	415.5
475.063	415.5
475.282	421.5
475.501	412.5
475.72	421.5
475.939	426.5
476.158	410.5
476.377	415.5
476.596	428.5
476.814	415.5
477.033	436.5
477.252	441.5
477.471	445.5
477.69	440.5
477.908	444.5
478.127	464.5
478.346	487.5
478.564	456.5
478.783	443.5
479.002	466.5
479.22	483.5
479.439	510.5
479.658	492.5
479.876	513.5
480.095	504.5
480.313	535.5
480.532	549.5
480.751	534.5
480.969	577.5
481.188	755.5
481.406	859.5
481.624	674.5
481.843	571.5
482.061	552.5
482.28	529.5
482.498	517.5
482.717	498.5
482.935	508.5
483.153	486.5
483.372	465.5
483.59	481.5
483.808	476.5
484.027	475.5
484.245	497.5
484.463	480.5
484.681	498.5
484.9	487.5
485.118	480.5
485.336	485.5
485.554	526.5
485.772	512.5
485.99	479.5
486.209	491.5
486.427	490.5
486.645	487.5
486.863	495.5
487.081	503.5
487.299	520.5
487.517	504.5
487.735	517.5
487.953	531.5
488.171	523.5
488.389	495.5
488.607	527.5
488.825	514.5
489.043	520.5
489.261	529.5
489.479	508.5
489.696	506.5
489.914	530.5
490.132	553.5
490.35	518.5
490.568	541.5
490.786	551.5
491.003	548.5
491.221	584.5
491.439	579.5
491.657	601.5
491.874	603.5
492.092	591.5
492.31	626.5
492.527	617.5
492.745	631.5
492.963	640.5
493.18	620.5
493.398	631.5
493.615	635.5
493.833	646.5
494.05	624.5
494.268	604.5
494.485	606.5
494.703	601.5
494.92	595.5
495.138	589.5
495.355	611.5
495.573	592.5
495.79	595.5
496.008	605.5
496.225	597.5
496.442	601.5
496.66	564.5
496.877	570.5
497.094	616.5
497.312	593.5
497.529	634.5
497.746	623.5
497.963	625.5
498.181	663.5
498.398	663.5
498.615	683.5
498.832	698.5
499.049	731.5
499.267	764.5
499.484	826.5
499.701	853.5
499.918	915.5
500.135	999.5
500.352	1090.5
500.569	1134.5
500.786	1126.5
501.003	1090.5
501.22	993.5
501.437	943.5
501.654	888.5
501.871	843.5
502.088	800.5
502.305	771.5
502.522	719.5
502.739	719.5
502.956	635.5
503.172	673.5
503.389	635.5
503.606	620.5
503.823	623.5
504.04	613.5
504.256	619.5
504.473	614.5
504.69	611.5
504.907	625.5
505.123	581.5
505.34	560.5
505.557	562.5
505.773	570.5
505.99	537.5
506.207	520.5
506.423	523.5
506.64	535.5
506.856	536.5
507.073	515.5
507.289	515.5
507.506	517.5
507.722	523.5
507.939	536.5
508.155	504.5
508.372	501.5
508.588	492.5
508.805	513.5
509.021	499.5
509.238	508.5
509.454	480.5
509.67	468.5
509.887	489.5
510.103	489.5
510.319	481.5
510.536	562.5
510.752	820.5
510.968	675.5
511.184	504.5
511.401	496.5
511.617	516.5
511.833	523.5
512.049	537.5
512.265	543.5
512.481	507.5
512.698	475.5
512.914	491.5
513.13	506.5
513.346	479.5
513.562	480.5
513.778	475.5
513.994	497.5
514.21	475.5
514.426	487.5
514.642	510.5
514.858	507.5
515.074	551.5
515.29	621.5
515.506	808.5
515.721	709.5
515.937	563.5
516.153	536.5
516.369	531.5
516.585	529.5
516.801	557.5
517.016	521.5
517.232	540.5
517.448	575.5
517.664	578.5
517.879	556.5
518.095	559.5
518.311	551.5
518.527	553.5
518.742	533.5
518.958	523.5
519.173	518.5
519.389	527.5
519.605	512.5
519.82	508.5
520.036	488.5
