Data from 1984.PennyLincolnUp.Lamp.En5.5.200Scan.071819.P1_HRD10591_16-57-36-969.txt Node
Date: Thu Jul 18 16:57:36 EDT 2019
User: cochatt
Spectrometer: HR+D1059
Trigger mode: 1
Integration Time (sec): 1.000000E-1
Scans to average: 1
Electric dark correction enabled: true
Nonlinearity correction enabled: false
Boxcar width: 0
XAxis mode: Wavelengths
Number of Pixels in Spectrum: 2048
>>>>>Begin Spectral Data<<<<<
223.165	-22.5
223.4	-22.5
223.635	-22.5
223.869	-12.5
224.104	-14.5
224.338	-14.5
224.573	-6.5
224.808	-0.5
225.042	0.5
225.277	-16.5
225.511	-8.5
225.746	-6.5
225.98	3.5
226.215	9.5
226.449	10.5
226.683	17.5
226.918	22.5
227.152	38.5
227.387	27.5
227.621	41.5
227.856	49.5
228.09	44.5
228.324	39.5
228.559	57.5
228.793	63.5
229.027	83.5
229.262	81.5
229.496	78.5
229.73	87.5
229.964	103.5
230.199	108.5
230.433	89.5
230.667	98.5
230.901	97.5
231.136	89.5
231.37	106.5
231.604	111.5
231.838	104.5
232.072	110.5
232.306	111.5
232.541	106.5
232.775	114.5
233.009	116.5
233.243	113.5
233.477	116.5
233.711	104.5
233.945	107.5
234.179	96.5
234.413	129.5
234.647	111.5
234.881	106.5
235.115	86.5
235.349	99.5
235.583	123.5
235.817	115.5
236.051	113.5
236.285	120.5
236.519	111.5
236.753	115.5
236.987	126.5
237.221	130.5
237.455	166.5
237.689	140.5
237.922	108.5
238.156	108.5
238.39	108.5
238.624	121.5
238.858	114.5
239.091	114.5
239.325	111.5
239.559	111.5
239.793	116.5
240.027	134.5
240.26	122.5
240.494	140.5
240.728	138.5
240.961	115.5
241.195	122.5
241.429	106.5
241.662	114.5
241.896	123.5
242.13	126.5
242.363	115.5
242.597	124.5
242.83	130.5
243.064	112.5
243.298	122.5
243.531	128.5
243.765	124.5
243.998	127.5
244.232	115.5
244.465	122.5
244.699	131.5
244.932	134.5
245.166	141.5
245.399	122.5
245.633	135.5
245.866	135.5
246.099	141.5
246.333	125.5
246.566	136.5
246.8	141.5
247.033	131.5
247.266	137.5
247.5	136.5
247.733	151.5
247.966	152.5
248.2	133.5
248.433	153.5
248.666	151.5
248.899	154.5
249.133	164.5
249.366	152.5
249.599	141.5
249.832	156.5
250.066	161.5
250.299	152.5
250.532	169.5
250.765	167.5
250.998	162.5
251.231	179.5
251.465	172.5
251.698	165.5
251.931	175.5
252.164	145.5
252.397	165.5
252.63	171.5
252.863	169.5
253.096	178.5
253.329	187.5
253.562	177.5
253.795	175.5
254.028	197.5
254.261	182.5
254.494	167.5
254.727	214.5
254.96	210.5
255.193	206.5
255.426	188.5
255.659	170.5
255.892	171.5
256.124	159.5
256.357	177.5
256.59	186.5
256.823	165.5
257.056	187.5
257.289	170.5
257.521	163.5
257.754	168.5
257.987	189.5
258.22	183.5
258.452	170.5
258.685	181.5
258.918	163.5
259.151	192.5
259.383	181.5
259.616	165.5
259.849	186.5
260.081	193.5
260.314	205.5
260.547	219.5
260.779	209.5
261.012	181.5
261.244	201.5
261.477	186.5
261.71	168.5
261.942	195.5
262.175	193.5
262.407	192.5
262.64	187.5
262.872	199.5
263.105	199.5
263.337	177.5
263.57	198.5
263.802	179.5
264.035	200.5
264.267	188.5
264.499	207.5
264.732	197.5
264.964	196.5
265.197	189.5
265.429	175.5
265.661	181.5
265.894	187.5
266.126	191.5
266.358	196.5
266.591	207.5
266.823	185.5
267.055	198.5
267.287	203.5
267.52	197.5
267.752	194.5
267.984	218.5
268.216	205.5
268.448	204.5
268.681	232.5
268.913	199.5
269.145	209.5
269.377	216.5
269.609	224.5
269.841	205.5
270.073	220.5
270.306	239.5
270.538	237.5
270.77	249.5
271.002	243.5
271.234	229.5
271.466	225.5
271.698	245.5
271.93	247.5
272.162	254.5
272.394	245.5
272.626	227.5
272.858	226.5
273.09	232.5
273.322	227.5
273.553	228.5
273.785	225.5
274.017	238.5
274.249	214.5
274.481	220.5
274.713	212.5
274.945	247.5
275.176	223.5
275.408	228.5
275.64	235.5
275.872	216.5
276.104	248.5
276.335	240.5
276.567	228.5
276.799	255.5
277.031	263.5
277.262	260.5
277.494	281.5
277.726	245.5
277.957	266.5
278.189	243.5
278.421	228.5
278.652	228.5
278.884	228.5
279.115	235.5
279.347	236.5
279.579	252.5
279.81	232.5
280.042	245.5
280.273	235.5
280.505	229.5
280.736	237.5
280.968	233.5
281.199	237.5
281.431	249.5
281.662	243.5
281.894	253.5
282.125	256.5
282.356	272.5
282.588	266.5
282.819	259.5
283.051	249.5
283.282	254.5
283.513	249.5
283.745	231.5
283.976	243.5
284.207	255.5
284.439	252.5
284.67	259.5
284.901	251.5
285.132	268.5
285.364	247.5
285.595	257.5
285.826	265.5
286.057	257.5
286.288	268.5
286.52	255.5
286.751	245.5
286.982	250.5
287.213	254.5
287.444	261.5
287.675	262.5
287.906	272.5
288.138	271.5
288.369	290.5
288.6	285.5
288.831	270.5
289.062	271.5
289.293	279.5
289.524	286.5
289.755	264.5
289.986	265.5
290.217	274.5
290.448	276.5
290.679	274.5
290.91	268.5
291.141	242.5
291.371	269.5
291.602	290.5
291.833	265.5
292.064	263.5
292.295	274.5
292.526	283.5
292.757	274.5
292.987	272.5
293.218	276.5
293.449	274.5
293.68	277.5
293.91	288.5
294.141	276.5
294.372	273.5
294.603	274.5
294.833	279.5
295.064	266.5
295.295	281.5
295.525	276.5
295.756	279.5
295.987	282.5
296.217	279.5
296.448	284.5
296.679	287.5
296.909	279.5
297.14	276.5
297.37	292.5
297.601	297.5
297.831	286.5
298.062	290.5
298.292	285.5
298.523	295.5
298.753	281.5
298.984	282.5
299.214	299.5
299.445	294.5
299.675	284.5
299.905	285.5
300.136	305.5
300.366	287.5
300.597	293.5
300.827	315.5
301.057	319.5
301.288	313.5
301.518	307.5
301.748	299.5
301.979	295.5
302.209	301.5
302.439	309.5
302.669	298.5
302.9	328.5
303.13	300.5
303.36	299.5
303.59	314.5
303.82	295.5
304.051	299.5
304.281	306.5
304.511	289.5
304.741	291.5
304.971	305.5
305.201	314.5
305.431	315.5
305.661	298.5
305.891	313.5
306.121	295.5
306.352	321.5
306.582	295.5
306.812	296.5
307.042	305.5
307.272	303.5
307.502	310.5
307.731	305.5
307.961	303.5
308.191	292.5
308.421	299.5
308.651	307.5
308.881	305.5
309.111	316.5
309.341	321.5
309.571	304.5
309.8	333.5
310.03	312.5
310.26	320.5
310.49	323.5
310.72	313.5
310.949	306.5
311.179	314.5
311.409	332.5
311.639	328.5
311.868	324.5
312.098	313.5
312.328	320.5
312.557	331.5
312.787	332.5
313.017	338.5
313.246	336.5
313.476	325.5
313.706	314.5
313.935	327.5
314.165	338.5
314.394	336.5
314.624	335.5
314.853	339.5
315.083	332.5
315.312	335.5
315.542	341.5
315.771	336.5
316.001	325.5
316.23	317.5
316.46	327.5
316.689	341.5
316.919	335.5
317.148	337.5
317.377	327.5
317.607	331.5
317.836	338.5
318.065	333.5
318.295	359.5
318.524	347.5
318.753	321.5
318.983	329.5
319.212	323.5
319.441	330.5
319.67	335.5
319.9	321.5
320.129	324.5
320.358	334.5
320.587	321.5
320.816	324.5
321.046	330.5
321.275	335.5
321.504	344.5
321.733	342.5
321.962	325.5
322.191	337.5
322.42	345.5
322.649	346.5
322.878	349.5
323.108	360.5
323.337	364.5
323.566	369.5
323.795	393.5
324.024	421.5
324.253	463.5
324.482	625.5
324.71	881.5
324.939	1165.5
325.168	1022.5
325.397	584.5
325.626	452.5
325.855	393.5
326.084	384.5
326.313	389.5
326.542	380.5
326.77	420.5
326.999	486.5
327.228	586.5
327.457	830.5
327.686	919.5
327.914	647.5
328.143	483.5
328.372	433.5
328.6	433.5
328.829	417.5
329.058	425.5
329.287	420.5
329.515	408.5
329.744	389.5
329.972	390.5
330.201	397.5
330.43	418.5
330.658	404.5
330.887	429.5
331.115	422.5
331.344	383.5
331.572	381.5
331.801	397.5
332.03	395.5
332.258	413.5
332.486	380.5
332.715	403.5
332.943	401.5
333.172	417.5
333.4	424.5
333.629	434.5
333.857	445.5
334.085	451.5
334.314	438.5
334.542	441.5
334.771	436.5
334.999	429.5
335.227	412.5
335.455	406.5
335.684	411.5
335.912	413.5
336.14	406.5
336.369	395.5
336.597	400.5
336.825	405.5
337.053	391.5
337.281	393.5
337.51	372.5
337.738	397.5
337.966	405.5
338.194	390.5
338.422	380.5
338.65	360.5
338.878	391.5
339.106	371.5
339.334	395.5
339.562	372.5
339.79	364.5
340.018	371.5
340.246	381.5
340.474	369.5
340.702	379.5
340.93	370.5
341.158	368.5
341.386	366.5
341.614	364.5
341.842	353.5
342.07	383.5
342.298	364.5
342.526	353.5
342.754	371.5
342.981	364.5
343.209	368.5
343.437	383.5
343.665	403.5
343.893	413.5
344.12	402.5
344.348	400.5
344.576	392.5
344.804	392.5
345.031	365.5
345.259	385.5
345.487	365.5
345.714	367.5
345.942	357.5
346.17	353.5
346.397	372.5
346.625	339.5
346.853	346.5
347.08	346.5
347.308	348.5
347.535	370.5
347.763	359.5
347.99	364.5
348.218	344.5
348.445	358.5
348.673	360.5
348.9	349.5
349.128	355.5
349.355	354.5
349.583	343.5
349.81	361.5
350.037	347.5
350.265	341.5
350.492	343.5
350.72	341.5
350.947	348.5
351.174	358.5
351.402	356.5
351.629	345.5
351.856	346.5
352.083	364.5
352.311	346.5
352.538	333.5
352.765	345.5
352.992	344.5
353.22	338.5
353.447	343.5
353.674	330.5
353.901	356.5
354.128	338.5
354.355	324.5
354.583	336.5
354.81	327.5
355.037	345.5
355.264	341.5
355.491	328.5
355.718	318.5
355.945	338.5
356.172	355.5
356.399	337.5
356.626	333.5
356.853	322.5
357.08	335.5
357.307	331.5
357.534	338.5
357.761	325.5
357.988	325.5
358.215	341.5
358.441	359.5
358.668	340.5
358.895	322.5
359.122	325.5
359.349	356.5
359.576	334.5
359.802	364.5
360.029	367.5
360.256	362.5
360.483	356.5
360.709	346.5
360.936	343.5
361.163	355.5
361.39	348.5
361.616	346.5
361.843	326.5
362.07	340.5
362.296	332.5
362.523	332.5
362.749	356.5
362.976	337.5
363.203	335.5
363.429	330.5
363.656	334.5
363.882	337.5
364.109	349.5
364.335	348.5
364.562	326.5
364.788	329.5
365.015	352.5
365.241	328.5
365.468	323.5
365.694	335.5
365.92	331.5
366.147	333.5
366.373	328.5
366.599	328.5
366.826	324.5
367.052	311.5
367.278	336.5
367.505	345.5
367.731	334.5
367.957	336.5
368.184	341.5
368.41	326.5
368.636	351.5
368.862	345.5
369.089	337.5
369.315	331.5
369.541	330.5
369.767	330.5
369.993	327.5
370.219	317.5
370.445	333.5
370.672	331.5
370.898	329.5
371.124	339.5
371.35	348.5
371.576	337.5
371.802	344.5
372.028	340.5
372.254	357.5
372.48	346.5
372.706	352.5
372.932	376.5
373.158	341.5
373.384	352.5
373.61	347.5
373.835	347.5
374.061	344.5
374.287	345.5
374.513	361.5
374.739	345.5
374.965	339.5
375.191	369.5
375.416	359.5
375.642	376.5
375.868	371.5
376.094	364.5
376.319	367.5
376.545	343.5
376.771	349.5
376.997	324.5
377.222	327.5
377.448	339.5
377.674	346.5
377.899	324.5
378.125	336.5
378.35	339.5
378.576	344.5
378.802	332.5
379.027	354.5
379.253	347.5
379.478	349.5
379.704	358.5
379.929	351.5
380.155	336.5
380.38	324.5
380.606	345.5
380.831	320.5
381.057	356.5
381.282	323.5
381.507	354.5
381.733	346.5
381.958	349.5
382.184	326.5
382.409	331.5
382.634	338.5
382.86	353.5
383.085	363.5
383.31	377.5
383.535	368.5
383.761	351.5
383.986	337.5
384.211	362.5
384.436	378.5
384.662	367.5
384.887	397.5
385.112	377.5
385.337	404.5
385.562	383.5
385.787	395.5
386.013	387.5
386.238	396.5
386.463	394.5
386.688	394.5
386.913	375.5
387.138	380.5
387.363	401.5
387.588	381.5
387.813	386.5
388.038	392.5
388.263	384.5
388.488	386.5
388.713	378.5
388.938	379.5
389.163	396.5
389.387	395.5
389.612	391.5
389.837	372.5
390.062	385.5
390.287	384.5
390.512	387.5
390.736	386.5
390.961	391.5
391.186	405.5
391.411	420.5
391.636	390.5
391.86	404.5
392.085	417.5
392.31	422.5
392.534	420.5
392.759	397.5
392.984	397.5
393.208	396.5
393.433	417.5
393.658	408.5
393.882	381.5
394.107	399.5
394.331	391.5
394.556	413.5
394.78	410.5
395.005	401.5
395.229	412.5
395.454	420.5
395.678	408.5
395.903	434.5
396.127	429.5
396.352	426.5
396.576	387.5
396.801	404.5
397.025	412.5
397.249	419.5
397.474	423.5
397.698	427.5
397.922	432.5
398.147	409.5
398.371	426.5
398.595	423.5
398.82	433.5
399.044	490.5
399.268	489.5
399.492	555.5
399.717	606.5
399.941	617.5
400.165	598.5
400.389	566.5
400.613	520.5
400.837	470.5
401.062	486.5
401.286	469.5
401.51	450.5
401.734	459.5
401.958	450.5
402.182	456.5
402.406	441.5
402.63	458.5
402.854	483.5
403.078	466.5
403.302	475.5
403.526	484.5
403.75	497.5
403.974	498.5
404.198	490.5
404.422	521.5
404.645	499.5
404.869	492.5
405.093	511.5
405.317	511.5
405.541	512.5
405.765	505.5
405.988	497.5
406.212	501.5
406.436	484.5
406.66	522.5
406.883	512.5
407.107	555.5
407.331	579.5
407.555	609.5
407.778	610.5
408.002	572.5
408.226	548.5
408.449	522.5
408.673	527.5
408.896	523.5
409.12	537.5
409.344	529.5
409.567	507.5
409.791	498.5
410.014	477.5
410.238	471.5
410.461	482.5
410.685	495.5
410.908	503.5
411.132	519.5
411.355	529.5
411.578	500.5
411.802	474.5
412.025	455.5
412.249	473.5
412.472	467.5
412.695	473.5
412.919	456.5
413.142	438.5
413.365	455.5
413.589	454.5
413.812	440.5
414.035	443.5
414.258	444.5
414.482	441.5
414.705	449.5
414.928	453.5
415.151	456.5
415.374	448.5
415.597	420.5
415.821	441.5
416.044	437.5
416.267	438.5
416.49	432.5
416.713	435.5
416.936	425.5
417.159	419.5
417.382	446.5
417.605	458.5
417.828	459.5
418.051	467.5
418.274	447.5
418.497	432.5
418.72	458.5
418.943	443.5
419.166	486.5
419.389	508.5
419.611	490.5
419.834	472.5
420.057	460.5
420.28	461.5
420.503	453.5
420.726	452.5
420.948	458.5
421.171	474.5
421.394	489.5
421.617	460.5
421.839	433.5
422.062	465.5
422.285	452.5
422.507	485.5
422.73	554.5
422.953	533.5
423.175	490.5
423.398	467.5
423.621	491.5
423.843	481.5
424.066	515.5
424.288	498.5
424.511	484.5
424.733	499.5
424.956	553.5
425.178	531.5
425.401	522.5
425.623	538.5
425.846	474.5
426.068	470.5
426.291	445.5
426.513	457.5
426.735	459.5
426.958	498.5
427.18	531.5
427.402	590.5
427.625	607.5
427.847	558.5
428.069	468.5
428.292	479.5
428.514	438.5
428.736	459.5
428.958	429.5
429.181	439.5
429.403	413.5
429.625	432.5
429.847	439.5
430.069	486.5
430.292	479.5
430.514	436.5
430.736	393.5
430.958	419.5
431.18	413.5
431.402	423.5
431.624	404.5
431.846	421.5
432.068	415.5
432.29	424.5
432.512	408.5
432.734	426.5
432.956	406.5
433.178	411.5
433.4	418.5
433.622	409.5
433.844	415.5
434.066	422.5
434.287	413.5
434.509	445.5
434.731	435.5
434.953	423.5
435.175	433.5
435.397	465.5
435.618	439.5
435.84	480.5
436.062	514.5
436.284	553.5
436.505	487.5
436.727	447.5
436.949	441.5
437.17	444.5
437.392	425.5
437.614	435.5
437.835	443.5
438.057	460.5
438.278	517.5
438.5	539.5
438.721	582.5
438.943	575.5
439.165	463.5
439.386	432.5
439.608	424.5
439.829	443.5
440.05	449.5
440.272	496.5
440.493	445.5
440.715	436.5
440.936	423.5
441.158	447.5
441.379	431.5
441.6	463.5
441.822	466.5
442.043	476.5
442.264	513.5
442.486	529.5
442.707	480.5
442.928	455.5
443.149	474.5
443.371	475.5
443.592	481.5
443.813	534.5
444.034	566.5
444.255	527.5
444.476	497.5
444.698	512.5
444.919	503.5
445.14	627.5
445.361	527.5
445.582	504.5
445.803	515.5
446.024	541.5
446.245	563.5
446.466	519.5
446.687	469.5
446.908	437.5
447.129	436.5
447.35	409.5
447.571	398.5
447.792	413.5
448.013	420.5
448.234	411.5
448.455	439.5
448.675	499.5
448.896	570.5
449.117	489.5
449.338	483.5
449.559	540.5
449.779	565.5
450	485.5
450.221	418.5
450.442	415.5
450.662	409.5
450.883	403.5
451.104	399.5
451.324	401.5
451.545	390.5
451.766	384.5
451.986	388.5
452.207	386.5
452.428	380.5
452.648	365.5
452.869	350.5
453.089	368.5
453.31	359.5
453.53	371.5
453.751	367.5
453.971	365.5
454.192	374.5
454.412	376.5
454.633	360.5
454.853	362.5
455.073	360.5
455.294	377.5
455.514	416.5
455.734	396.5
455.955	350.5
456.175	351.5
456.395	357.5
456.616	354.5
456.836	361.5
457.056	365.5
457.276	356.5
457.497	356.5
457.717	360.5
457.937	362.5
458.157	363.5
458.377	378.5
458.598	393.5
458.818	422.5
459.038	444.5
459.258	471.5
459.478	417.5
459.698	426.5
459.918	429.5
460.138	417.5
460.358	449.5
460.578	460.5
460.798	428.5
461.018	478.5
461.238	457.5
461.458	462.5
461.678	443.5
461.898	474.5
462.118	448.5
462.338	466.5
462.558	464.5
462.777	469.5
462.997	501.5
463.217	547.5
463.437	534.5
463.657	495.5
463.876	475.5
464.096	497.5
464.316	501.5
464.536	498.5
464.755	485.5
464.975	462.5
465.195	481.5
465.414	496.5
465.634	435.5
465.854	399.5
466.073	420.5
466.293	412.5
466.512	402.5
466.732	407.5
466.951	401.5
467.171	394.5
467.391	381.5
467.61	404.5
467.829	395.5
468.049	388.5
468.268	389.5
468.488	377.5
468.707	379.5
468.927	376.5
469.146	392.5
469.365	381.5
469.585	366.5
469.804	395.5
470.023	411.5
470.243	391.5
470.462	436.5
470.681	419.5
470.901	396.5
471.12	393.5
471.339	403.5
471.558	404.5
471.777	387.5
471.997	357.5
472.216	400.5
472.435	375.5
472.654	383.5
472.873	385.5
473.092	391.5
473.311	375.5
473.53	399.5
473.749	386.5
473.968	411.5
474.187	437.5
474.406	445.5
474.625	416.5
474.844	370.5
475.063	390.5
475.282	403.5
475.501	395.5
475.72	403.5
475.939	371.5
476.158	399.5
476.377	397.5
476.596	395.5
476.814	393.5
477.033	420.5
477.252	394.5
477.471	389.5
477.69	421.5
477.908	396.5
478.127	440.5
478.346	403.5
478.564	444.5
478.783	461.5
479.002	437.5
479.22	459.5
479.439	462.5
479.658	459.5
479.876	473.5
480.095	477.5
480.313	507.5
480.532	492.5
480.751	509.5
480.969	474.5
481.188	483.5
481.406	461.5
481.624	448.5
481.843	447.5
482.061	442.5
482.28	441.5
482.498	447.5
482.717	418.5
482.935	436.5
483.153	436.5
483.372	456.5
483.59	424.5
483.808	437.5
484.027	448.5
484.245	445.5
484.463	443.5
484.681	451.5
484.9	443.5
485.118	441.5
485.336	455.5
485.554	469.5
485.772	463.5
485.99	476.5
486.209	456.5
486.427	452.5
486.645	470.5
486.863	465.5
487.081	441.5
487.299	472.5
487.517	452.5
487.735	456.5
487.953	460.5
488.171	497.5
488.389	458.5
488.607	466.5
488.825	472.5
489.043	421.5
489.261	443.5
489.479	461.5
489.696	475.5
489.914	475.5
490.132	468.5
490.35	478.5
490.568	446.5
490.786	496.5
491.003	467.5
491.221	473.5
491.439	492.5
491.657	504.5
491.874	504.5
492.092	485.5
492.31	483.5
492.527	505.5
492.745	509.5
492.963	515.5
493.18	509.5
493.398	519.5
493.615	502.5
493.833	517.5
494.05	517.5
494.268	503.5
494.485	521.5
494.703	525.5
494.92	526.5
495.138	490.5
495.355	503.5
495.573	522.5
495.79	520.5
496.008	522.5
496.225	533.5
496.442	505.5
496.66	546.5
496.877	546.5
497.094	530.5
497.312	539.5
497.529	573.5
497.746	571.5
497.963	567.5
498.181	611.5
498.398	614.5
498.615	612.5
498.832	657.5
499.049	685.5
499.267	719.5
499.484	765.5
499.701	844.5
499.918	876.5
500.135	947.5
500.352	1002.5
500.569	1049.5
500.786	1078.5
501.003	1028.5
501.22	957.5
501.437	894.5
501.654	829.5
501.871	783.5
502.088	723.5
502.305	675.5
502.522	693.5
502.739	651.5
502.956	611.5
503.172	616.5
503.389	580.5
503.606	576.5
503.823	590.5
504.04	557.5
504.256	582.5
504.473	579.5
504.69	573.5
504.907	569.5
505.123	557.5
505.34	540.5
505.557	530.5
505.773	535.5
505.99	501.5
506.207	484.5
506.423	495.5
506.64	507.5
506.856	464.5
507.073	469.5
507.289	476.5
507.506	469.5
507.722	479.5
507.939	497.5
508.155	466.5
508.372	458.5
508.588	452.5
508.805	453.5
509.021	461.5
509.238	452.5
509.454	474.5
509.67	475.5
509.887	463.5
510.103	467.5
510.319	461.5
510.536	504.5
510.752	694.5
510.968	595.5
511.184	465.5
511.401	444.5
511.617	432.5
511.833	426.5
512.049	444.5
512.265	430.5
512.481	441.5
512.698	443.5
512.914	431.5
513.13	435.5
513.346	449.5
513.562	442.5
513.778	439.5
513.994	429.5
514.21	431.5
514.426	444.5
514.642	449.5
514.858	470.5
515.074	460.5
515.29	530.5
515.506	672.5
515.721	587.5
515.937	511.5
516.153	484.5
516.369	496.5
516.585	470.5
516.801	475.5
517.016	471.5
517.232	489.5
517.448	520.5
517.664	521.5
517.879	515.5
518.095	525.5
518.311	529.5
518.527	495.5
518.742	484.5
518.958	468.5
519.173	477.5
519.389	470.5
519.605	478.5
519.82	476.5
520.036	457.5
