Data from 1984.PennyLincolnUp.Lamp.En5.5.200Scan.071819.P1_HRD10591_16-57-56-967.txt Node
Date: Thu Jul 18 16:57:56 EDT 2019
User: cochatt
Spectrometer: HR+D1059
Trigger mode: 1
Integration Time (sec): 1.000000E-1
Scans to average: 1
Electric dark correction enabled: true
Nonlinearity correction enabled: false
Boxcar width: 0
XAxis mode: Wavelengths
Number of Pixels in Spectrum: 2048
>>>>>Begin Spectral Data<<<<<
223.165	-7.81
223.4	-7.81
223.635	-7.81
223.869	-25.81
224.104	-19.81
224.338	-16.81
224.573	-10.81
224.808	-5.81
225.042	-8.81
225.277	-0.81
225.511	-6.81
225.746	1.19
225.98	6.19
226.215	14.19
226.449	10.19
226.683	20.19
226.918	25.19
227.152	26.19
227.387	49.19
227.621	45.19
227.856	40.19
228.09	44.19
228.324	49.19
228.559	64.19
228.793	56.19
229.027	88.19
229.262	94.19
229.496	107.19
229.73	114.19
229.964	115.19
230.199	99.19
230.433	96.19
230.667	88.19
230.901	102.19
231.136	100.19
231.37	101.19
231.604	111.19
231.838	110.19
232.072	104.19
232.306	105.19
232.541	102.19
232.775	113.19
233.009	125.19
233.243	116.19
233.477	109.19
233.711	123.19
233.945	121.19
234.179	122.19
234.413	119.19
234.647	109.19
234.881	112.19
235.115	125.19
235.349	118.19
235.583	135.19
235.817	107.19
236.051	125.19
236.285	105.19
236.519	101.19
236.753	133.19
236.987	120.19
237.221	131.19
237.455	171.19
237.689	150.19
237.922	128.19
238.156	120.19
238.39	128.19
238.624	125.19
238.858	129.19
239.091	128.19
239.325	126.19
239.559	117.19
239.793	125.19
240.027	128.19
240.26	113.19
240.494	135.19
240.728	135.19
240.961	138.19
241.195	147.19
241.429	122.19
241.662	127.19
241.896	116.19
242.13	128.19
242.363	117.19
242.597	124.19
242.83	123.19
243.064	135.19
243.298	135.19
243.531	150.19
243.765	136.19
243.998	133.19
244.232	143.19
244.465	156.19
244.699	128.19
244.932	138.19
245.166	143.19
245.399	143.19
245.633	136.19
245.866	126.19
246.099	146.19
246.333	150.19
246.566	136.19
246.8	151.19
247.033	152.19
247.266	155.19
247.5	149.19
247.733	153.19
247.966	148.19
248.2	151.19
248.433	148.19
248.666	171.19
248.899	169.19
249.133	185.19
249.366	187.19
249.599	177.19
249.832	169.19
250.066	198.19
250.299	171.19
250.532	196.19
250.765	181.19
250.998	187.19
251.231	186.19
251.465	175.19
251.698	187.19
251.931	173.19
252.164	169.19
252.397	172.19
252.63	173.19
252.863	174.19
253.096	187.19
253.329	184.19
253.562	173.19
253.795	198.19
254.028	181.19
254.261	196.19
254.494	195.19
254.727	202.19
254.96	211.19
255.193	213.19
255.426	198.19
255.659	198.19
255.892	192.19
256.124	198.19
256.357	192.19
256.59	196.19
256.823	185.19
257.056	209.19
257.289	182.19
257.521	206.19
257.754	191.19
257.987	199.19
258.22	185.19
258.452	189.19
258.685	184.19
258.918	190.19
259.151	178.19
259.383	197.19
259.616	200.19
259.849	191.19
260.081	181.19
260.314	212.19
260.547	220.19
260.779	213.19
261.012	198.19
261.244	198.19
261.477	219.19
261.71	206.19
261.942	215.19
262.175	215.19
262.407	201.19
262.64	183.19
262.872	201.19
263.105	203.19
263.337	186.19
263.57	198.19
263.802	209.19
264.035	185.19
264.267	186.19
264.499	216.19
264.732	210.19
264.964	201.19
265.197	213.19
265.429	212.19
265.661	192.19
265.894	197.19
266.126	198.19
266.358	205.19
266.591	211.19
266.823	196.19
267.055	205.19
267.287	221.19
267.52	216.19
267.752	209.19
267.984	214.19
268.216	223.19
268.448	223.19
268.681	206.19
268.913	223.19
269.145	236.19
269.377	233.19
269.609	238.19
269.841	232.19
270.073	234.19
270.306	246.19
270.538	261.19
270.77	253.19
271.002	262.19
271.234	255.19
271.466	252.19
271.698	274.19
271.93	272.19
272.162	246.19
272.394	274.19
272.626	261.19
272.858	235.19
273.09	245.19
273.322	237.19
273.553	245.19
273.785	229.19
274.017	229.19
274.249	226.19
274.481	238.19
274.713	243.19
274.945	253.19
275.176	235.19
275.408	248.19
275.64	249.19
275.872	230.19
276.104	240.19
276.335	235.19
276.567	245.19
276.799	257.19
277.031	267.19
277.262	270.19
277.494	273.19
277.726	253.19
277.957	269.19
278.189	249.19
278.421	261.19
278.652	266.19
278.884	246.19
279.115	243.19
279.347	259.19
279.579	265.19
279.81	271.19
280.042	251.19
280.273	253.19
280.505	251.19
280.736	253.19
280.968	257.19
281.199	271.19
281.431	261.19
281.662	266.19
281.894	264.19
282.125	279.19
282.356	264.19
282.588	293.19
282.819	306.19
283.051	280.19
283.282	255.19
283.513	266.19
283.745	269.19
283.976	279.19
284.207	284.19
284.439	284.19
284.67	278.19
284.901	299.19
285.132	259.19
285.364	273.19
285.595	265.19
285.826	261.19
286.057	262.19
286.288	274.19
286.52	278.19
286.751	281.19
286.982	271.19
287.213	270.19
287.444	279.19
287.675	280.19
287.906	275.19
288.138	274.19
288.369	287.19
288.6	300.19
288.831	295.19
289.062	268.19
289.293	290.19
289.524	287.19
289.755	293.19
289.986	281.19
290.217	296.19
290.448	273.19
290.679	261.19
290.91	304.19
291.141	287.19
291.371	284.19
291.602	302.19
291.833	276.19
292.064	271.19
292.295	281.19
292.526	289.19
292.757	281.19
292.987	281.19
293.218	264.19
293.449	295.19
293.68	295.19
293.91	296.19
294.141	277.19
294.372	295.19
294.603	288.19
294.833	279.19
295.064	299.19
295.295	297.19
295.525	291.19
295.756	300.19
295.987	299.19
296.217	316.19
296.448	328.19
296.679	305.19
296.909	289.19
297.14	304.19
297.37	296.19
297.601	299.19
297.831	320.19
298.062	313.19
298.292	324.19
298.523	319.19
298.753	299.19
298.984	303.19
299.214	287.19
299.445	298.19
299.675	307.19
299.905	299.19
300.136	297.19
300.366	288.19
300.597	314.19
300.827	291.19
301.057	301.19
301.288	315.19
301.518	319.19
301.748	318.19
301.979	322.19
302.209	334.19
302.439	324.19
302.669	334.19
302.9	323.19
303.13	317.19
303.36	343.19
303.59	337.19
303.82	324.19
304.051	339.19
304.281	323.19
304.511	341.19
304.741	332.19
304.971	320.19
305.201	302.19
305.431	319.19
305.661	322.19
305.891	339.19
306.121	313.19
306.352	332.19
306.582	315.19
306.812	288.19
307.042	317.19
307.272	309.19
307.502	321.19
307.731	327.19
307.961	323.19
308.191	315.19
308.421	310.19
308.651	311.19
308.881	314.19
309.111	326.19
309.341	309.19
309.571	319.19
309.8	333.19
310.03	328.19
310.26	359.19
310.49	344.19
310.72	349.19
310.949	372.19
311.179	354.19
311.409	358.19
311.639	353.19
311.868	343.19
312.098	342.19
312.328	354.19
312.557	351.19
312.787	377.19
313.017	359.19
313.246	344.19
313.476	356.19
313.706	340.19
313.935	360.19
314.165	358.19
314.394	328.19
314.624	373.19
314.853	334.19
315.083	355.19
315.312	351.19
315.542	336.19
315.771	358.19
316.001	348.19
316.23	349.19
316.46	356.19
316.689	327.19
316.919	344.19
317.148	358.19
317.377	352.19
317.607	369.19
317.836	361.19
318.065	335.19
318.295	356.19
318.524	365.19
318.753	333.19
318.983	338.19
319.212	340.19
319.441	337.19
319.67	362.19
319.9	336.19
320.129	353.19
320.358	367.19
320.587	358.19
320.816	372.19
321.046	375.19
321.275	357.19
321.504	365.19
321.733	375.19
321.962	371.19
322.191	358.19
322.42	373.19
322.649	381.19
322.878	379.19
323.108	389.19
323.337	407.19
323.566	403.19
323.795	408.19
324.024	436.19
324.253	533.19
324.482	667.19
324.71	923.19
324.939	1285.19
325.168	1114.19
325.397	665.19
325.626	493.19
325.855	435.19
326.084	453.19
326.313	417.19
326.542	412.19
326.77	460.19
326.999	493.19
327.228	616.19
327.457	860.19
327.686	1011.19
327.914	723.19
328.143	515.19
328.372	483.19
328.6	436.19
328.829	451.19
329.058	451.19
329.287	436.19
329.515	441.19
329.744	425.19
329.972	420.19
330.201	425.19
330.43	455.19
330.658	432.19
330.887	468.19
331.115	462.19
331.344	428.19
331.572	425.19
331.801	433.19
332.03	425.19
332.258	436.19
332.486	417.19
332.715	413.19
332.943	427.19
333.172	452.19
333.4	476.19
333.629	449.19
333.857	472.19
334.085	489.19
334.314	476.19
334.542	494.19
334.771	453.19
334.999	442.19
335.227	440.19
335.455	437.19
335.684	447.19
335.912	436.19
336.14	428.19
336.369	426.19
336.597	416.19
336.825	412.19
337.053	435.19
337.281	422.19
337.51	420.19
337.738	421.19
337.966	392.19
338.194	392.19
338.422	418.19
338.65	405.19
338.878	419.19
339.106	419.19
339.334	382.19
339.562	394.19
339.79	403.19
340.018	392.19
340.246	387.19
340.474	408.19
340.702	404.19
340.93	404.19
341.158	395.19
341.386	383.19
341.614	385.19
341.842	383.19
342.07	397.19
342.298	380.19
342.526	396.19
342.754	386.19
342.981	391.19
343.209	382.19
343.437	391.19
343.665	400.19
343.893	416.19
344.12	431.19
344.348	453.19
344.576	417.19
344.804	406.19
345.031	396.19
345.259	391.19
345.487	385.19
345.714	382.19
345.942	380.19
346.17	365.19
346.397	364.19
346.625	360.19
346.853	379.19
347.08	359.19
347.308	373.19
347.535	372.19
347.763	372.19
347.99	369.19
348.218	385.19
348.445	373.19
348.673	374.19
348.9	375.19
349.128	368.19
349.355	366.19
349.583	364.19
349.81	360.19
350.037	357.19
350.265	351.19
350.492	344.19
350.72	363.19
350.947	372.19
351.174	367.19
351.402	375.19
351.629	368.19
351.856	359.19
352.083	381.19
352.311	375.19
352.538	377.19
352.765	368.19
352.992	353.19
353.22	367.19
353.447	357.19
353.674	360.19
353.901	339.19
354.128	367.19
354.355	357.19
354.583	363.19
354.81	359.19
355.037	349.19
355.264	353.19
355.491	332.19
355.718	335.19
355.945	348.19
356.172	369.19
356.399	345.19
356.626	315.19
356.853	366.19
357.08	342.19
357.307	344.19
357.534	340.19
357.761	383.19
357.988	356.19
358.215	355.19
358.441	347.19
358.668	359.19
358.895	347.19
359.122	344.19
359.349	364.19
359.576	363.19
359.802	383.19
360.029	377.19
360.256	382.19
360.483	366.19
360.709	357.19
360.936	357.19
361.163	376.19
361.39	379.19
361.616	382.19
361.843	360.19
362.07	354.19
362.296	358.19
362.523	352.19
362.749	332.19
362.976	360.19
363.203	354.19
363.429	340.19
363.656	349.19
363.882	373.19
364.109	361.19
364.335	368.19
364.562	340.19
364.788	355.19
365.015	335.19
365.241	358.19
365.468	341.19
365.694	357.19
365.92	349.19
366.147	343.19
366.373	331.19
366.599	365.19
366.826	355.19
367.052	361.19
367.278	363.19
367.505	346.19
367.731	352.19
367.957	340.19
368.184	340.19
368.41	342.19
368.636	349.19
368.862	372.19
369.089	363.19
369.315	337.19
369.541	365.19
369.767	350.19
369.993	342.19
370.219	367.19
370.445	351.19
370.672	351.19
370.898	348.19
371.124	364.19
371.35	362.19
371.576	358.19
371.802	367.19
372.028	368.19
372.254	357.19
372.48	383.19
372.706	370.19
372.932	357.19
373.158	363.19
373.384	371.19
373.61	371.19
373.835	367.19
374.061	338.19
374.287	335.19
374.513	361.19
374.739	367.19
374.965	377.19
375.191	373.19
375.416	371.19
375.642	363.19
375.868	383.19
376.094	377.19
376.319	364.19
376.545	370.19
376.771	361.19
376.997	364.19
377.222	364.19
377.448	359.19
377.674	371.19
377.899	375.19
378.125	353.19
378.35	353.19
378.576	349.19
378.802	362.19
379.027	365.19
379.253	335.19
379.478	377.19
379.704	350.19
379.929	352.19
380.155	371.19
380.38	348.19
380.606	362.19
380.831	351.19
381.057	359.19
381.282	355.19
381.507	371.19
381.733	366.19
381.958	366.19
382.184	363.19
382.409	368.19
382.634	367.19
382.86	356.19
383.085	355.19
383.31	379.19
383.535	379.19
383.761	375.19
383.986	381.19
384.211	389.19
384.436	403.19
384.662	406.19
384.887	401.19
385.112	395.19
385.337	381.19
385.562	402.19
385.787	418.19
386.013	436.19
386.238	399.19
386.463	417.19
386.688	413.19
386.913	388.19
387.138	397.19
387.363	399.19
387.588	398.19
387.813	402.19
388.038	414.19
388.263	411.19
388.488	425.19
388.713	422.19
388.938	408.19
389.163	411.19
389.387	400.19
389.612	419.19
389.837	412.19
390.062	401.19
390.287	400.19
390.512	400.19
390.736	412.19
390.961	418.19
391.186	432.19
391.411	410.19
391.636	426.19
391.86	420.19
392.085	423.19
392.31	438.19
392.534	440.19
392.759	433.19
392.984	429.19
393.208	412.19
393.433	438.19
393.658	420.19
393.882	419.19
394.107	415.19
394.331	400.19
394.556	413.19
394.78	408.19
395.005	410.19
395.229	424.19
395.454	437.19
395.678	433.19
395.903	437.19
396.127	439.19
396.352	443.19
396.576	436.19
396.801	432.19
397.025	420.19
397.249	439.19
397.474	426.19
397.698	443.19
397.922	436.19
398.147	446.19
398.371	479.19
398.595	449.19
398.82	466.19
399.044	483.19
399.268	533.19
399.492	581.19
399.717	619.19
399.941	638.19
400.165	627.19
400.389	608.19
400.613	555.19
400.837	513.19
401.062	480.19
401.286	491.19
401.51	465.19
401.734	488.19
401.958	476.19
402.182	492.19
402.406	500.19
402.63	488.19
402.854	486.19
403.078	497.19
403.302	500.19
403.526	515.19
403.75	512.19
403.974	507.19
404.198	482.19
404.422	519.19
404.645	515.19
404.869	523.19
405.093	548.19
405.317	537.19
405.541	545.19
405.765	532.19
405.988	508.19
406.212	505.19
406.436	542.19
406.66	552.19
406.883	535.19
407.107	575.19
407.331	589.19
407.555	638.19
407.778	657.19
408.002	604.19
408.226	547.19
408.449	549.19
408.673	564.19
408.896	565.19
409.12	548.19
409.344	548.19
409.567	503.19
409.791	517.19
410.014	503.19
410.238	509.19
410.461	493.19
410.685	489.19
410.908	476.19
411.132	499.19
411.355	529.19
411.578	511.19
411.802	519.19
412.025	463.19
412.249	501.19
412.472	525.19
412.695	514.19
412.919	507.19
413.142	459.19
413.365	459.19
413.589	475.19
413.812	468.19
414.035	479.19
414.258	462.19
414.482	481.19
414.705	479.19
414.928	447.19
415.151	480.19
415.374	465.19
415.597	463.19
415.821	454.19
416.044	449.19
416.267	470.19
416.49	450.19
416.713	446.19
416.936	469.19
417.159	443.19
417.382	467.19
417.605	476.19
417.828	474.19
418.051	465.19
418.274	467.19
418.497	467.19
418.72	463.19
418.943	477.19
419.166	491.19
419.389	499.19
419.611	479.19
419.834	504.19
420.057	510.19
420.28	492.19
420.503	483.19
420.726	487.19
420.948	471.19
421.171	491.19
421.394	493.19
421.617	474.19
421.839	474.19
422.062	469.19
422.285	492.19
422.507	538.19
422.73	556.19
422.953	533.19
423.175	509.19
423.398	484.19
423.621	486.19
423.843	496.19
424.066	529.19
424.288	501.19
424.511	515.19
424.733	550.19
424.956	584.19
425.178	552.19
425.401	558.19
425.623	573.19
425.846	511.19
426.068	487.19
426.291	485.19
426.513	464.19
426.735	475.19
426.958	504.19
427.18	548.19
427.402	581.19
427.625	658.19
427.847	571.19
428.069	521.19
428.292	516.19
428.514	461.19
428.736	460.19
428.958	446.19
429.181	430.19
429.403	453.19
429.625	453.19
429.847	472.19
430.069	491.19
430.292	514.19
430.514	445.19
430.736	425.19
430.958	447.19
431.18	410.19
431.402	411.19
431.624	417.19
431.846	429.19
432.068	439.19
432.29	428.19
432.512	426.19
432.734	431.19
432.956	437.19
433.178	442.19
433.4	453.19
433.622	427.19
433.844	406.19
434.066	405.19
434.287	439.19
434.509	451.19
434.731	467.19
434.953	449.19
435.175	471.19
435.397	487.19
435.618	485.19
435.84	501.19
436.062	543.19
436.284	556.19
436.505	495.19
436.727	472.19
436.949	460.19
437.17	435.19
437.392	423.19
437.614	452.19
437.835	459.19
438.057	509.19
438.278	555.19
438.5	567.19
438.721	595.19
438.943	573.19
439.165	499.19
439.386	476.19
439.608	465.19
439.829	473.19
440.05	475.19
440.272	490.19
440.493	514.19
440.715	456.19
440.936	451.19
441.158	455.19
441.379	448.19
441.6	481.19
441.822	488.19
442.043	521.19
442.264	537.19
442.486	557.19
442.707	510.19
442.928	478.19
443.149	500.19
443.371	489.19
443.592	523.19
443.813	570.19
444.034	624.19
444.255	551.19
444.476	504.19
444.698	535.19
444.919	536.19
445.14	632.19
445.361	580.19
445.582	492.19
445.803	516.19
446.024	585.19
446.245	567.19
446.466	527.19
446.687	473.19
446.908	483.19
447.129	442.19
447.35	443.19
447.571	423.19
447.792	412.19
448.013	415.19
448.234	423.19
448.455	459.19
448.675	516.19
448.896	563.19
449.117	533.19
449.338	494.19
449.559	541.19
449.779	570.19
450	517.19
450.221	448.19
450.442	445.19
450.662	442.19
450.883	422.19
451.104	405.19
451.324	409.19
451.545	433.19
451.766	419.19
451.986	402.19
452.207	417.19
452.428	391.19
452.648	399.19
452.869	399.19
453.089	415.19
453.31	396.19
453.53	397.19
453.751	391.19
453.971	399.19
454.192	396.19
454.412	417.19
454.633	382.19
454.853	383.19
455.073	380.19
455.294	411.19
455.514	438.19
455.734	412.19
455.955	384.19
456.175	403.19
456.395	380.19
456.616	374.19
456.836	381.19
457.056	360.19
457.276	378.19
457.497	377.19
457.717	379.19
457.937	365.19
458.157	385.19
458.377	381.19
458.598	410.19
458.818	421.19
459.038	452.19
459.258	485.19
459.478	447.19
459.698	456.19
459.918	431.19
460.138	437.19
460.358	451.19
460.578	477.19
460.798	457.19
461.018	480.19
461.238	455.19
461.458	484.19
461.678	459.19
461.898	459.19
462.118	455.19
462.338	475.19
462.558	478.19
462.777	501.19
462.997	507.19
463.217	570.19
463.437	559.19
463.657	527.19
463.876	515.19
464.096	537.19
464.316	509.19
464.536	507.19
464.755	498.19
464.975	492.19
465.195	517.19
465.414	510.19
465.634	495.19
465.854	431.19
466.073	443.19
466.293	435.19
466.512	400.19
466.732	385.19
466.951	412.19
467.171	407.19
467.391	419.19
467.61	409.19
467.829	421.19
468.049	416.19
468.268	408.19
468.488	407.19
468.707	406.19
468.927	388.19
469.146	413.19
469.365	400.19
469.585	413.19
469.804	411.19
470.023	427.19
470.243	426.19
470.462	418.19
470.681	435.19
470.901	423.19
471.12	400.19
471.339	424.19
471.558	412.19
471.777	417.19
471.997	401.19
472.216	437.19
472.435	419.19
472.654	419.19
472.873	406.19
473.092	401.19
473.311	407.19
473.53	400.19
473.749	396.19
473.968	421.19
474.187	465.19
474.406	484.19
474.625	427.19
474.844	424.19
475.063	405.19
475.282	410.19
475.501	407.19
475.72	415.19
475.939	398.19
476.158	407.19
476.377	399.19
476.596	411.19
476.814	414.19
477.033	414.19
477.252	423.19
477.471	424.19
477.69	422.19
477.908	432.19
478.127	453.19
478.346	465.19
478.564	463.19
478.783	452.19
479.002	463.19
479.22	482.19
479.439	478.19
479.658	475.19
479.876	483.19
480.095	515.19
480.313	524.19
480.532	513.19
480.751	516.19
480.969	495.19
481.188	507.19
481.406	523.19
481.624	488.19
481.843	444.19
482.061	470.19
482.28	462.19
482.498	460.19
482.717	456.19
482.935	459.19
483.153	474.19
483.372	466.19
483.59	482.19
483.808	466.19
484.027	470.19
484.245	460.19
484.463	461.19
484.681	483.19
484.9	477.19
485.118	483.19
485.336	464.19
485.554	463.19
485.772	478.19
485.99	478.19
486.209	481.19
486.427	481.19
486.645	500.19
486.863	476.19
487.081	477.19
487.299	499.19
487.517	484.19
487.735	475.19
487.953	490.19
488.171	496.19
488.389	462.19
488.607	472.19
488.825	471.19
489.043	492.19
489.261	508.19
489.479	500.19
489.696	485.19
489.914	488.19
490.132	502.19
490.35	503.19
490.568	501.19
490.786	530.19
491.003	503.19
491.221	516.19
491.439	532.19
491.657	528.19
491.874	527.19
492.092	529.19
492.31	508.19
492.527	528.19
492.745	515.19
492.963	544.19
493.18	528.19
493.398	538.19
493.615	547.19
493.833	554.19
494.05	552.19
494.268	557.19
494.485	557.19
494.703	532.19
494.92	528.19
495.138	536.19
495.355	554.19
495.573	563.19
495.79	547.19
496.008	580.19
496.225	553.19
496.442	549.19
496.66	587.19
496.877	563.19
497.094	573.19
497.312	584.19
497.529	567.19
497.746	586.19
497.963	628.19
498.181	610.19
498.398	635.19
498.615	637.19
498.832	683.19
499.049	723.19
499.267	758.19
499.484	767.19
499.701	822.19
499.918	899.19
500.135	944.19
500.352	1059.19
500.569	1066.19
500.786	1085.19
501.003	1019.19
501.22	973.19
501.437	926.19
501.654	877.19
501.871	823.19
502.088	774.19
