Data from 1984.PennyLincolnUp.Lamp.En5.5.200Scan.071819.P1_HRD10591_16-59-04-968.txt Node
Date: Thu Jul 18 16:59:04 EDT 2019
User: cochatt
Spectrometer: HR+D1059
Trigger mode: 1
Integration Time (sec): 1.000000E-1
Scans to average: 1
Electric dark correction enabled: true
Nonlinearity correction enabled: false
Boxcar width: 0
XAxis mode: Wavelengths
Number of Pixels in Spectrum: 2048
>>>>>Begin Spectral Data<<<<<
223.165	-17.69
223.4	-17.69
223.635	-17.69
223.869	-32.69
224.104	-16.69
224.338	-15.69
224.573	-18.69
224.808	-16.69
225.042	-0.69
225.277	-8.69
225.511	15.31
225.746	7.31
225.98	3.31
226.215	22.31
226.449	16.31
226.683	12.31
226.918	22.31
227.152	28.31
227.387	41.31
227.621	31.31
227.856	33.31
228.09	59.31
228.324	54.31
228.559	50.31
228.793	44.31
229.027	101.31
229.262	100.31
229.496	95.31
229.73	103.31
229.964	108.31
230.199	119.31
230.433	83.31
230.667	86.31
230.901	93.31
231.136	101.31
231.37	100.31
231.604	89.31
231.838	120.31
232.072	106.31
232.306	99.31
232.541	103.31
232.775	106.31
233.009	122.31
233.243	112.31
233.477	103.31
233.711	99.31
233.945	84.31
234.179	102.31
234.413	109.31
234.647	113.31
234.881	96.31
235.115	118.31
235.349	114.31
235.583	119.31
235.817	119.31
236.051	131.31
236.285	105.31
236.519	113.31
236.753	104.31
236.987	130.31
237.221	141.31
237.455	166.31
237.689	134.31
237.922	120.31
238.156	115.31
238.39	115.31
238.624	125.31
238.858	121.31
239.091	117.31
239.325	113.31
239.559	104.31
239.793	112.31
240.027	111.31
240.26	118.31
240.494	126.31
240.728	134.31
240.961	130.31
241.195	142.31
241.429	127.31
241.662	123.31
241.896	106.31
242.13	119.31
242.363	130.31
242.597	119.31
242.83	107.31
243.064	128.31
243.298	120.31
243.531	135.31
243.765	127.31
243.998	127.31
244.232	130.31
244.465	144.31
244.699	131.31
244.932	139.31
245.166	130.31
245.399	139.31
245.633	140.31
245.866	146.31
246.099	153.31
246.333	130.31
246.566	132.31
246.8	131.31
247.033	138.31
247.266	141.31
247.5	137.31
247.733	157.31
247.966	142.31
248.2	152.31
248.433	160.31
248.666	154.31
248.899	160.31
249.133	172.31
249.366	168.31
249.599	155.31
249.832	163.31
250.066	164.31
250.299	165.31
250.532	195.31
250.765	198.31
250.998	208.31
251.231	196.31
251.465	188.31
251.698	190.31
251.931	172.31
252.164	168.31
252.397	177.31
252.63	168.31
252.863	184.31
253.096	192.31
253.329	179.31
253.562	175.31
253.795	187.31
254.028	195.31
254.261	192.31
254.494	200.31
254.727	197.31
254.96	225.31
255.193	218.31
255.426	208.31
255.659	226.31
255.892	236.31
256.124	252.31
256.357	251.31
256.59	231.31
256.823	195.31
257.056	194.31
257.289	214.31
257.521	178.31
257.754	179.31
257.987	182.31
258.22	201.31
258.452	190.31
258.685	185.31
258.918	176.31
259.151	186.31
259.383	204.31
259.616	178.31
259.849	175.31
260.081	186.31
260.314	212.31
260.547	199.31
260.779	208.31
261.012	206.31
261.244	193.31
261.477	211.31
261.71	193.31
261.942	200.31
262.175	199.31
262.407	201.31
262.64	183.31
262.872	182.31
263.105	172.31
263.337	195.31
263.57	196.31
263.802	210.31
264.035	196.31
264.267	192.31
264.499	189.31
264.732	201.31
264.964	202.31
265.197	209.31
265.429	198.31
265.661	212.31
265.894	196.31
266.126	183.31
266.358	212.31
266.591	204.31
266.823	219.31
267.055	182.31
267.287	201.31
267.52	191.31
267.752	204.31
267.984	212.31
268.216	225.31
268.448	229.31
268.681	208.31
268.913	226.31
269.145	215.31
269.377	225.31
269.609	239.31
269.841	229.31
270.073	239.31
270.306	246.31
270.538	264.31
270.77	258.31
271.002	279.31
271.234	264.31
271.466	236.31
271.698	279.31
271.93	260.31
272.162	256.31
272.394	273.31
272.626	266.31
272.858	251.31
273.09	242.31
273.322	240.31
273.553	241.31
273.785	250.31
274.017	241.31
274.249	237.31
274.481	231.31
274.713	223.31
274.945	258.31
275.176	238.31
275.408	240.31
275.64	249.31
275.872	240.31
276.104	245.31
276.335	247.31
276.567	243.31
276.799	266.31
277.031	281.31
277.262	258.31
277.494	271.31
277.726	290.31
277.957	263.31
278.189	258.31
278.421	242.31
278.652	266.31
278.884	247.31
279.115	251.31
279.347	266.31
279.579	262.31
279.81	241.31
280.042	249.31
280.273	252.31
280.505	267.31
280.736	251.31
280.968	271.31
281.199	262.31
281.431	247.31
281.662	239.31
281.894	252.31
282.125	248.31
282.356	271.31
282.588	277.31
282.819	288.31
283.051	284.31
283.282	269.31
283.513	267.31
283.745	264.31
283.976	258.31
284.207	256.31
284.439	276.31
284.67	270.31
284.901	250.31
285.132	267.31
285.364	238.31
285.595	290.31
285.826	278.31
286.057	247.31
286.288	265.31
286.52	244.31
286.751	281.31
286.982	274.31
287.213	260.31
287.444	267.31
287.675	277.31
287.906	289.31
288.138	287.31
288.369	279.31
288.6	277.31
288.831	289.31
289.062	274.31
289.293	279.31
289.524	264.31
289.755	278.31
289.986	276.31
290.217	274.31
290.448	287.31
290.679	295.31
290.91	281.31
291.141	288.31
291.371	283.31
291.602	291.31
291.833	289.31
292.064	279.31
292.295	260.31
292.526	292.31
292.757	274.31
292.987	268.31
293.218	274.31
293.449	272.31
293.68	290.31
293.91	271.31
294.141	265.31
294.372	286.31
294.603	270.31
294.833	283.31
295.064	265.31
295.295	287.31
295.525	282.31
295.756	289.31
295.987	302.31
296.217	314.31
296.448	307.31
296.679	294.31
296.909	297.31
297.14	296.31
297.37	300.31
297.601	293.31
297.831	306.31
298.062	296.31
298.292	298.31
298.523	302.31
298.753	298.31
298.984	289.31
299.214	286.31
299.445	282.31
299.675	297.31
299.905	334.31
300.136	293.31
300.366	322.31
300.597	294.31
300.827	287.31
301.057	312.31
301.288	306.31
301.518	314.31
301.748	328.31
301.979	307.31
302.209	307.31
302.439	318.31
302.669	323.31
302.9	323.31
303.13	304.31
303.36	306.31
303.59	317.31
303.82	316.31
304.051	299.31
304.281	302.31
304.511	298.31
304.741	334.31
304.971	323.31
305.201	325.31
305.431	302.31
305.661	331.31
305.891	321.31
306.121	333.31
306.352	320.31
306.582	332.31
306.812	311.31
307.042	328.31
307.272	318.31
307.502	330.31
307.731	334.31
307.961	319.31
308.191	322.31
308.421	310.31
308.651	300.31
308.881	320.31
309.111	326.31
309.341	334.31
309.571	328.31
309.8	321.31
310.03	342.31
310.26	341.31
310.49	339.31
310.72	337.31
310.949	347.31
311.179	354.31
311.409	346.31
311.639	350.31
311.868	352.31
312.098	362.31
312.328	358.31
312.557	355.31
312.787	367.31
313.017	357.31
313.246	350.31
313.476	346.31
313.706	354.31
313.935	350.31
314.165	360.31
314.394	352.31
314.624	358.31
314.853	378.31
315.083	370.31
315.312	356.31
315.542	333.31
315.771	353.31
316.001	346.31
316.23	328.31
316.46	341.31
316.689	338.31
316.919	346.31
317.148	358.31
317.377	348.31
317.607	354.31
317.836	346.31
318.065	344.31
318.295	341.31
318.524	355.31
318.753	336.31
318.983	338.31
319.212	361.31
319.441	338.31
319.67	361.31
319.9	350.31
320.129	345.31
320.358	360.31
320.587	353.31
320.816	373.31
321.046	374.31
321.275	339.31
321.504	357.31
321.733	366.31
321.962	390.31
322.191	384.31
322.42	374.31
322.649	377.31
322.878	392.31
323.108	397.31
323.337	418.31
323.566	416.31
323.795	441.31
324.024	462.31
324.253	542.31
324.482	709.31
324.71	1082.31
324.939	1478.31
325.168	1276.31
325.397	699.31
325.626	532.31
325.855	470.31
326.084	441.31
326.313	424.31
326.542	434.31
326.77	487.31
326.999	553.31
327.228	699.31
327.457	1008.31
327.686	1164.31
327.914	790.31
328.143	569.31
328.372	541.31
328.6	504.31
328.829	471.31
329.058	496.31
329.287	482.31
329.515	485.31
329.744	472.31
329.972	483.31
330.201	543.31
330.43	571.31
330.658	568.31
330.887	531.31
331.115	518.31
331.344	456.31
331.572	441.31
331.801	451.31
332.03	444.31
332.258	450.31
332.486	428.31
332.715	453.31
332.943	441.31
333.172	464.31
333.4	485.31
333.629	505.31
333.857	515.31
334.085	538.31
334.314	576.31
334.542	664.31
334.771	650.31
334.999	558.31
335.227	466.31
335.455	460.31
335.684	466.31
335.912	454.31
336.14	441.31
336.369	418.31
336.597	443.31
336.825	422.31
337.053	418.31
337.281	409.31
337.51	415.31
337.738	411.31
337.966	405.31
338.194	407.31
338.422	411.31
338.65	405.31
338.878	402.31
339.106	404.31
339.334	407.31
339.562	387.31
339.79	396.31
340.018	389.31
340.246	411.31
340.474	402.31
340.702	382.31
340.93	370.31
341.158	386.31
341.386	397.31
341.614	389.31
341.842	387.31
342.07	375.31
342.298	376.31
342.526	394.31
342.754	391.31
342.981	374.31
343.209	396.31
343.437	400.31
343.665	397.31
343.893	425.31
344.12	426.31
344.348	434.31
344.576	412.31
344.804	418.31
345.031	407.31
345.259	407.31
345.487	396.31
345.714	384.31
345.942	390.31
346.17	378.31
346.397	382.31
346.625	381.31
346.853	370.31
347.08	363.31
347.308	352.31
347.535	377.31
347.763	374.31
347.99	381.31
348.218	369.31
348.445	377.31
348.673	372.31
348.9	371.31
349.128	350.31
349.355	366.31
349.583	369.31
349.81	359.31
350.037	351.31
350.265	357.31
350.492	366.31
350.72	376.31
350.947	382.31
351.174	370.31
351.402	367.31
351.629	389.31
351.856	374.31
352.083	374.31
352.311	375.31
352.538	366.31
352.765	364.31
352.992	368.31
353.22	364.31
353.447	370.31
353.674	363.31
353.901	332.31
354.128	331.31
354.355	344.31
354.583	359.31
354.81	347.31
355.037	341.31
355.264	352.31
355.491	345.31
355.718	344.31
355.945	353.31
356.172	359.31
356.399	362.31
356.626	358.31
356.853	363.31
357.08	355.31
357.307	327.31
357.534	355.31
357.761	354.31
357.988	339.31
358.215	371.31
358.441	342.31
358.668	368.31
358.895	352.31
359.122	344.31
359.349	362.31
359.576	376.31
359.802	359.31
360.029	377.31
360.256	400.31
360.483	376.31
360.709	366.31
360.936	366.31
361.163	370.31
361.39	368.31
361.616	367.31
361.843	374.31
362.07	390.31
362.296	379.31
362.523	336.31
362.749	356.31
362.976	352.31
363.203	345.31
363.429	356.31
363.656	350.31
363.882	370.31
364.109	352.31
364.335	339.31
364.562	343.31
364.788	358.31
365.015	357.31
365.241	360.31
365.468	367.31
365.694	361.31
365.92	382.31
366.147	363.31
366.373	362.31
366.599	354.31
366.826	351.31
367.052	345.31
367.278	354.31
367.505	362.31
367.731	347.31
367.957	345.31
368.184	348.31
368.41	345.31
368.636	358.31
368.862	366.31
369.089	354.31
369.315	353.31
369.541	370.31
369.767	355.31
369.993	356.31
370.219	374.31
370.445	352.31
370.672	359.31
370.898	351.31
371.124	359.31
371.35	356.31
371.576	352.31
371.802	353.31
372.028	378.31
372.254	357.31
372.48	371.31
372.706	362.31
372.932	357.31
373.158	345.31
373.384	384.31
373.61	359.31
373.835	361.31
374.061	345.31
374.287	353.31
374.513	368.31
374.739	382.31
374.965	380.31
375.191	368.31
375.416	377.31
375.642	369.31
375.868	366.31
376.094	350.31
376.319	361.31
376.545	361.31
376.771	355.31
376.997	355.31
377.222	346.31
377.448	354.31
377.674	356.31
377.899	349.31
378.125	361.31
378.35	360.31
378.576	341.31
378.802	345.31
379.027	352.31
379.253	374.31
379.478	368.31
379.704	367.31
379.929	344.31
380.155	344.31
380.38	352.31
380.606	330.31
380.831	363.31
381.057	377.31
381.282	366.31
381.507	378.31
381.733	342.31
381.958	357.31
382.184	366.31
382.409	378.31
382.634	363.31
382.86	361.31
383.085	364.31
383.31	363.31
383.535	374.31
383.761	367.31
383.986	371.31
384.211	393.31
384.436	358.31
384.662	386.31
384.887	400.31
385.112	397.31
385.337	378.31
385.562	388.31
385.787	404.31
386.013	417.31
386.238	415.31
386.463	413.31
386.688	410.31
386.913	407.31
387.138	399.31
387.363	390.31
387.588	401.31
387.813	400.31
388.038	407.31
388.263	390.31
388.488	420.31
388.713	400.31
388.938	405.31
389.163	395.31
389.387	392.31
389.612	403.31
389.837	394.31
390.062	424.31
390.287	403.31
390.512	394.31
390.736	416.31
390.961	399.31
391.186	405.31
391.411	420.31
391.636	409.31
391.86	441.31
392.085	431.31
392.31	433.31
392.534	410.31
392.759	406.31
392.984	435.31
393.208	416.31
393.433	402.31
393.658	423.31
393.882	423.31
394.107	398.31
394.331	405.31
394.556	410.31
394.78	408.31
395.005	424.31
395.229	420.31
395.454	419.31
395.678	453.31
395.903	428.31
396.127	451.31
396.352	454.31
396.576	423.31
396.801	414.31
397.025	413.31
397.249	416.31
397.474	435.31
397.698	434.31
397.922	427.31
398.147	439.31
398.371	469.31
398.595	456.31
398.82	458.31
399.044	484.31
399.268	536.31
399.492	580.31
399.717	636.31
399.941	615.31
400.165	594.31
400.389	587.31
400.613	544.31
400.837	512.31
401.062	473.31
401.286	487.31
401.51	465.31
401.734	494.31
401.958	480.31
402.182	487.31
402.406	480.31
402.63	479.31
402.854	478.31
403.078	488.31
403.302	488.31
403.526	513.31
403.75	508.31
403.974	523.31
404.198	533.31
404.422	538.31
404.645	544.31
404.869	526.31
405.093	560.31
405.317	599.31
405.541	611.31
405.765	584.31
405.988	535.31
406.212	530.31
406.436	548.31
406.66	562.31
406.883	535.31
407.107	554.31
407.331	603.31
407.555	627.31
407.778	642.31
408.002	602.31
408.226	544.31
408.449	552.31
408.673	545.31
408.896	552.31
409.12	561.31
409.344	548.31
409.567	530.31
409.791	507.31
410.014	508.31
410.238	496.31
410.461	490.31
410.685	482.31
410.908	497.31
411.132	538.31
411.355	548.31
411.578	510.31
411.802	513.31
412.025	497.31
412.249	520.31
412.472	545.31
412.695	579.31
412.919	565.31
413.142	532.31
413.365	514.31
413.589	477.31
413.812	465.31
414.035	459.31
414.258	466.31
414.482	467.31
414.705	479.31
414.928	458.31
415.151	481.31
415.374	442.31
415.597	449.31
415.821	451.31
416.044	471.31
416.267	450.31
416.49	449.31
416.713	429.31
416.936	450.31
417.159	474.31
417.382	441.31
417.605	489.31
417.828	466.31
418.051	483.31
418.274	488.31
418.497	460.31
418.72	470.31
418.943	467.31
419.166	514.31
419.389	538.31
419.611	520.31
419.834	515.31
420.057	505.31
420.28	516.31
420.503	497.31
420.726	490.31
420.948	516.31
421.171	502.31
421.394	521.31
421.617	481.31
421.839	467.31
422.062	502.31
422.285	473.31
422.507	518.31
422.73	555.31
422.953	543.31
423.175	518.31
423.398	513.31
423.621	506.31
423.843	504.31
424.066	517.31
424.288	513.31
424.511	496.31
424.733	542.31
424.956	582.31
425.178	575.31
425.401	563.31
425.623	579.31
425.846	510.31
426.068	500.31
426.291	466.31
426.513	483.31
426.735	484.31
426.958	483.31
427.18	574.31
427.402	643.31
427.625	682.31
427.847	593.31
428.069	577.31
428.292	500.31
428.514	464.31
428.736	474.31
428.958	462.31
429.181	455.31
429.403	446.31
429.625	430.31
429.847	452.31
430.069	480.31
430.292	494.31
430.514	454.31
430.736	434.31
430.958	438.31
431.18	414.31
431.402	420.31
431.624	422.31
431.846	445.31
432.068	442.31
432.29	422.31
432.512	415.31
432.734	420.31
432.956	431.31
433.178	427.31
433.4	424.31
433.622	430.31
433.844	418.31
434.066	416.31
434.287	450.31
434.509	447.31
434.731	451.31
434.953	463.31
435.175	452.31
435.397	491.31
435.618	476.31
435.84	495.31
436.062	557.31
436.284	586.31
436.505	498.31
436.727	472.31
436.949	470.31
437.17	440.31
437.392	449.31
437.614	432.31
437.835	448.31
438.057	504.31
438.278	554.31
438.5	587.31
438.721	611.31
438.943	611.31
439.165	511.31
439.386	474.31
439.608	469.31
439.829	466.31
440.05	501.31
440.272	519.31
440.493	509.31
440.715	465.31
440.936	444.31
441.158	458.31
441.379	440.31
441.6	463.31
441.822	468.31
442.043	519.31
442.264	554.31
442.486	570.31
442.707	515.31
442.928	503.31
443.149	491.31
443.371	491.31
443.592	531.31
443.813	574.31
444.034	621.31
444.255	536.31
444.476	522.31
444.698	515.31
444.919	531.31
445.14	621.31
445.361	538.31
445.582	521.31
445.803	528.31
446.024	594.31
446.245	566.31
446.466	542.31
446.687	490.31
446.908	450.31
447.129	444.31
447.35	421.31
447.571	422.31
447.792	433.31
448.013	418.31
448.234	415.31
448.455	457.31
448.675	504.31
448.896	582.31
449.117	518.31
449.338	494.31
449.559	570.31
449.779	615.31
450	490.31
450.221	438.31
450.442	437.31
450.662	425.31
450.883	423.31
451.104	440.31
451.324	453.31
451.545	418.31
451.766	393.31
451.986	383.31
452.207	408.31
452.428	391.31
452.648	394.31
452.869	401.31
453.089	430.31
453.31	409.31
453.53	394.31
453.751	390.31
453.971	390.31
454.192	400.31
454.412	378.31
454.633	374.31
454.853	369.31
455.073	359.31
455.294	384.31
455.514	444.31
455.734	424.31
455.955	359.31
456.175	377.31
456.395	384.31
456.616	376.31
456.836	356.31
457.056	378.31
457.276	372.31
457.497	382.31
457.717	366.31
457.937	380.31
458.157	388.31
458.377	394.31
458.598	391.31
458.818	423.31
459.038	495.31
459.258	498.31
459.478	478.31
459.698	426.31
459.918	431.31
460.138	432.31
460.358	451.31
460.578	454.31
460.798	458.31
461.018	447.31
461.238	441.31
461.458	464.31
461.678	440.31
461.898	452.31
462.118	457.31
462.338	456.31
462.558	483.31
462.777	491.31
462.997	541.31
463.217	547.31
463.437	564.31
463.657	535.31
463.876	505.31
464.096	523.31
464.316	503.31
464.536	499.31
464.755	499.31
464.975	491.31
465.195	506.31
465.414	528.31
465.634	454.31
465.854	436.31
466.073	428.31
466.293	416.31
466.512	408.31
466.732	402.31
466.951	422.31
467.171	418.31
467.391	401.31
467.61	399.31
467.829	416.31
468.049	437.31
468.268	438.31
468.488	419.31
468.707	410.31
468.927	385.31
469.146	405.31
469.365	420.31
469.585	412.31
469.804	390.31
470.023	404.31
470.243	406.31
470.462	400.31
470.681	414.31
470.901	430.31
471.12	410.31
471.339	421.31
471.558	415.31
471.777	423.31
471.997	410.31
472.216	431.31
472.435	496.31
472.654	476.31
472.873	446.31
473.092	425.31
473.311	438.31
473.53	404.31
473.749	404.31
473.968	448.31
474.187	481.31
474.406	473.31
474.625	451.31
474.844	396.31
475.063	404.31
475.282	408.31
475.501	409.31
475.72	420.31
475.939	432.31
476.158	409.31
476.377	410.31
476.596	411.31
476.814	416.31
477.033	423.31
477.252	436.31
477.471	419.31
477.69	416.31
477.908	437.31
478.127	430.31
478.346	458.31
478.564	471.31
478.783	485.31
479.002	468.31
479.22	481.31
479.439	487.31
479.658	492.31
479.876	503.31
480.095	509.31
480.313	511.31
480.532	550.31
480.751	527.31
480.969	546.31
481.188	651.31
481.406	705.31
481.624	589.31
481.843	523.31
482.061	497.31
482.28	508.31
482.498	466.31
482.717	459.31
482.935	451.31
483.153	459.31
483.372	471.31
483.59	459.31
483.808	475.31
484.027	471.31
484.245	476.31
484.463	451.31
484.681	469.31
484.9	493.31
485.118	481.31
485.336	475.31
485.554	468.31
485.772	490.31
485.99	474.31
486.209	479.31
486.427	473.31
486.645	490.31
486.863	499.31
487.081	505.31
487.299	502.31
487.517	492.31
487.735	487.31
487.953	490.31
488.171	487.31
488.389	484.31
488.607	499.31
488.825	490.31
489.043	486.31
489.261	496.31
489.479	514.31
489.696	515.31
489.914	510.31
490.132	512.31
490.35	518.31
490.568	504.31
490.786	512.31
491.003	523.31
491.221	534.31
491.439	568.31
491.657	545.31
491.874	532.31
492.092	551.31
492.31	558.31
492.527	568.31
492.745	590.31
492.963	593.31
493.18	572.31
493.398	574.31
493.615	567.31
493.833	552.31
494.05	587.31
494.268	559.31
494.485	577.31
494.703	576.31
494.92	568.31
495.138	564.31
495.355	570.31
495.573	563.31
495.79	545.31
496.008	564.31
496.225	551.31
496.442	583.31
496.66	565.31
496.877	555.31
497.094	587.31
497.312	587.31
497.529	584.31
497.746	602.31
497.963	603.31
498.181	650.31
498.398	648.31
498.615	646.31
498.832	702.31
499.049	743.31
499.267	753.31
499.484	793.31
499.701	866.31
499.918	900.31
500.135	942.31
500.352	1044.31
500.569	1074.31
500.786	1090.31
501.003	1059.31
501.22	996.31
501.437	918.31
501.654	859.31
501.871	850.31
502.088	771.31
