Data from 1984.PennyLincolnUp.Lamp.En5.5.200Scan.071819.P1_HRD10591_16-58-07-967.txt Node
Date: Thu Jul 18 16:58:07 EDT 2019
User: cochatt
Spectrometer: HR+D1059
Trigger mode: 1
Integration Time (sec): 1.000000E-1
Scans to average: 1
Electric dark correction enabled: true
Nonlinearity correction enabled: false
Boxcar width: 0
XAxis mode: Wavelengths
Number of Pixels in Spectrum: 2048
>>>>>Begin Spectral Data<<<<<
223.165	-11.69
223.4	-11.69
223.635	-11.69
223.869	-19.69
224.104	-12.69
224.338	-10.69
224.573	-14.69
224.808	-4.69
225.042	5.31
225.277	-4.69
225.511	-4.69
225.746	6.31
225.98	4.31
226.215	4.31
226.449	7.31
226.683	10.31
226.918	13.31
227.152	32.31
227.387	32.31
227.621	37.31
227.856	46.31
228.09	39.31
228.324	49.31
228.559	52.31
228.793	60.31
229.027	92.31
229.262	89.31
229.496	98.31
229.73	104.31
229.964	134.31
230.199	115.31
230.433	103.31
230.667	90.31
230.901	104.31
231.136	103.31
231.37	115.31
231.604	117.31
231.838	115.31
232.072	117.31
232.306	91.31
232.541	117.31
232.775	107.31
233.009	110.31
233.243	106.31
233.477	98.31
233.711	111.31
233.945	105.31
234.179	110.31
234.413	113.31
234.647	110.31
234.881	106.31
235.115	114.31
235.349	118.31
235.583	123.31
235.817	117.31
236.051	113.31
236.285	109.31
236.519	115.31
236.753	126.31
236.987	138.31
237.221	149.31
237.455	172.31
237.689	151.31
237.922	122.31
238.156	116.31
238.39	125.31
238.624	119.31
238.858	115.31
239.091	103.31
239.325	119.31
239.559	124.31
239.793	107.31
240.027	129.31
240.26	130.31
240.494	122.31
240.728	137.31
240.961	138.31
241.195	122.31
241.429	113.31
241.662	115.31
241.896	118.31
242.13	133.31
242.363	128.31
242.597	117.31
242.83	134.31
243.064	129.31
243.298	124.31
243.531	131.31
243.765	142.31
243.998	117.31
244.232	135.31
244.465	131.31
244.699	134.31
244.932	126.31
245.166	135.31
245.399	133.31
245.633	130.31
245.866	131.31
246.099	148.31
246.333	135.31
246.566	133.31
246.8	124.31
247.033	138.31
247.266	150.31
247.5	145.31
247.733	139.31
247.966	162.31
248.2	157.31
248.433	138.31
248.666	164.31
248.899	172.31
249.133	170.31
249.366	169.31
249.599	170.31
249.832	166.31
250.066	162.31
250.299	167.31
250.532	171.31
250.765	182.31
250.998	169.31
251.231	187.31
251.465	168.31
251.698	177.31
251.931	177.31
252.164	156.31
252.397	169.31
252.63	177.31
252.863	170.31
253.096	186.31
253.329	207.31
253.562	181.31
253.795	182.31
254.028	175.31
254.261	177.31
254.494	191.31
254.727	198.31
254.96	226.31
255.193	233.31
255.426	185.31
255.659	187.31
255.892	202.31
256.124	220.31
256.357	203.31
256.59	218.31
256.823	194.31
257.056	186.31
257.289	189.31
257.521	180.31
257.754	195.31
257.987	192.31
258.22	189.31
258.452	180.31
258.685	187.31
258.918	171.31
259.151	190.31
259.383	181.31
259.616	185.31
259.849	185.31
260.081	215.31
260.314	205.31
260.547	213.31
260.779	199.31
261.012	197.31
261.244	202.31
261.477	218.31
261.71	191.31
261.942	207.31
262.175	215.31
262.407	199.31
262.64	204.31
262.872	196.31
263.105	184.31
263.337	208.31
263.57	195.31
263.802	197.31
264.035	184.31
264.267	197.31
264.499	183.31
264.732	197.31
264.964	197.31
265.197	191.31
265.429	189.31
265.661	193.31
265.894	191.31
266.126	205.31
266.358	200.31
266.591	202.31
266.823	214.31
267.055	193.31
267.287	217.31
267.52	204.31
267.752	196.31
267.984	213.31
268.216	204.31
268.448	210.31
268.681	221.31
268.913	240.31
269.145	217.31
269.377	233.31
269.609	231.31
269.841	244.31
270.073	243.31
270.306	250.31
270.538	263.31
270.77	269.31
271.002	253.31
271.234	263.31
271.466	261.31
271.698	270.31
271.93	273.31
272.162	275.31
272.394	276.31
272.626	245.31
272.858	246.31
273.09	245.31
273.322	254.31
273.553	230.31
273.785	257.31
274.017	238.31
274.249	246.31
274.481	232.31
274.713	235.31
274.945	254.31
275.176	244.31
275.408	246.31
275.64	248.31
275.872	243.31
276.104	248.31
276.335	255.31
276.567	249.31
276.799	254.31
277.031	265.31
277.262	265.31
277.494	269.31
277.726	274.31
277.957	261.31
278.189	232.31
278.421	238.31
278.652	260.31
278.884	238.31
279.115	236.31
279.347	248.31
279.579	248.31
279.81	248.31
280.042	250.31
280.273	245.31
280.505	253.31
280.736	246.31
280.968	247.31
281.199	249.31
281.431	249.31
281.662	252.31
281.894	257.31
282.125	255.31
282.356	274.31
282.588	292.31
282.819	267.31
283.051	261.31
283.282	267.31
283.513	279.31
283.745	268.31
283.976	266.31
284.207	276.31
284.439	259.31
284.67	270.31
284.901	282.31
285.132	285.31
285.364	281.31
285.595	280.31
285.826	276.31
286.057	278.31
286.288	292.31
286.52	294.31
286.751	267.31
286.982	276.31
287.213	263.31
287.444	278.31
287.675	289.31
287.906	287.31
288.138	277.31
288.369	310.31
288.6	279.31
288.831	281.31
289.062	278.31
289.293	298.31
289.524	277.31
289.755	278.31
289.986	279.31
290.217	289.31
290.448	257.31
290.679	268.31
290.91	304.31
291.141	291.31
291.371	288.31
291.602	294.31
291.833	292.31
292.064	263.31
292.295	286.31
292.526	268.31
292.757	283.31
292.987	281.31
293.218	268.31
293.449	283.31
293.68	291.31
293.91	284.31
294.141	284.31
294.372	271.31
294.603	279.31
294.833	303.31
295.064	280.31
295.295	302.31
295.525	284.31
295.756	282.31
295.987	294.31
296.217	312.31
296.448	313.31
296.679	299.31
296.909	289.31
297.14	287.31
297.37	288.31
297.601	296.31
297.831	275.31
298.062	279.31
298.292	308.31
298.523	313.31
298.753	293.31
298.984	291.31
299.214	309.31
299.445	297.31
299.675	305.31
299.905	325.31
300.136	284.31
300.366	292.31
300.597	289.31
300.827	292.31
301.057	315.31
301.288	326.31
301.518	292.31
301.748	330.31
301.979	318.31
302.209	305.31
302.439	323.31
302.669	300.31
302.9	313.31
303.13	299.31
303.36	342.31
303.59	316.31
303.82	326.31
304.051	320.31
304.281	312.31
304.511	321.31
304.741	314.31
304.971	326.31
305.201	323.31
305.431	289.31
305.661	312.31
305.891	288.31
306.121	310.31
306.352	320.31
306.582	305.31
306.812	308.31
307.042	325.31
307.272	323.31
307.502	317.31
307.731	321.31
307.961	313.31
308.191	312.31
308.421	318.31
308.651	318.31
308.881	326.31
309.111	323.31
309.341	311.31
309.571	321.31
309.8	333.31
310.03	319.31
310.26	347.31
310.49	354.31
310.72	341.31
310.949	346.31
311.179	340.31
311.409	351.31
311.639	351.31
311.868	352.31
312.098	343.31
312.328	353.31
312.557	356.31
312.787	366.31
313.017	360.31
313.246	327.31
313.476	329.31
313.706	337.31
313.935	364.31
314.165	341.31
314.394	356.31
314.624	357.31
314.853	338.31
315.083	356.31
315.312	345.31
315.542	346.31
315.771	351.31
316.001	347.31
316.23	343.31
316.46	342.31
316.689	345.31
316.919	339.31
317.148	347.31
317.377	343.31
317.607	332.31
317.836	353.31
318.065	338.31
318.295	351.31
318.524	326.31
318.753	333.31
318.983	357.31
319.212	323.31
319.441	350.31
319.67	358.31
319.9	344.31
320.129	357.31
320.358	341.31
320.587	348.31
320.816	359.31
321.046	359.31
321.275	359.31
321.504	353.31
321.733	339.31
321.962	374.31
322.191	349.31
322.42	368.31
322.649	377.31
322.878	376.31
323.108	386.31
323.337	382.31
323.566	415.31
323.795	434.31
324.024	469.31
324.253	524.31
324.482	681.31
324.71	979.31
324.939	1378.31
325.168	1181.31
325.397	697.31
325.626	517.31
325.855	454.31
326.084	445.31
326.313	423.31
326.542	439.31
326.77	472.31
326.999	510.31
327.228	659.31
327.457	919.31
327.686	1076.31
327.914	740.31
328.143	566.31
328.372	501.31
328.6	471.31
328.829	448.31
329.058	455.31
329.287	469.31
329.515	437.31
329.744	432.31
329.972	431.31
330.201	452.31
330.43	488.31
330.658	499.31
330.887	478.31
331.115	486.31
331.344	452.31
331.572	417.31
331.801	431.31
332.03	428.31
332.258	429.31
332.486	439.31
332.715	442.31
332.943	447.31
333.172	441.31
333.4	454.31
333.629	466.31
333.857	463.31
334.085	477.31
334.314	475.31
334.542	523.31
334.771	531.31
334.999	481.31
335.227	464.31
335.455	452.31
335.684	441.31
335.912	418.31
336.14	429.31
336.369	433.31
336.597	417.31
336.825	435.31
337.053	419.31
337.281	405.31
337.51	403.31
337.738	399.31
337.966	424.31
338.194	404.31
338.422	405.31
338.65	407.31
338.878	394.31
339.106	375.31
339.334	397.31
339.562	385.31
339.79	377.31
340.018	378.31
340.246	373.31
340.474	389.31
340.702	381.31
340.93	380.31
341.158	381.31
341.386	366.31
341.614	380.31
341.842	385.31
342.07	389.31
342.298	383.31
342.526	360.31
342.754	373.31
342.981	381.31
343.209	379.31
343.437	394.31
343.665	410.31
343.893	409.31
344.12	440.31
344.348	427.31
344.576	407.31
344.804	408.31
345.031	386.31
345.259	408.31
345.487	378.31
345.714	371.31
345.942	389.31
346.17	375.31
346.397	386.31
346.625	351.31
346.853	361.31
347.08	369.31
347.308	387.31
347.535	355.31
347.763	381.31
347.99	385.31
348.218	378.31
348.445	371.31
348.673	375.31
348.9	361.31
349.128	371.31
349.355	373.31
349.583	346.31
349.81	357.31
350.037	359.31
350.265	353.31
350.492	347.31
350.72	362.31
350.947	362.31
351.174	347.31
351.402	370.31
351.629	393.31
351.856	355.31
352.083	377.31
352.311	378.31
352.538	360.31
352.765	358.31
352.992	370.31
353.22	369.31
353.447	360.31
353.674	377.31
353.901	358.31
354.128	364.31
354.355	344.31
354.583	329.31
354.81	331.31
355.037	331.31
355.264	324.31
355.491	348.31
355.718	369.31
355.945	355.31
356.172	360.31
356.399	339.31
356.626	339.31
356.853	348.31
357.08	348.31
357.307	352.31
357.534	349.31
357.761	335.31
357.988	343.31
358.215	369.31
358.441	325.31
358.668	363.31
358.895	339.31
359.122	342.31
359.349	358.31
359.576	357.31
359.802	361.31
360.029	385.31
360.256	389.31
360.483	392.31
360.709	353.31
360.936	349.31
361.163	351.31
361.39	372.31
361.616	336.31
361.843	346.31
362.07	366.31
362.296	371.31
362.523	342.31
362.749	361.31
362.976	341.31
363.203	357.31
363.429	347.31
363.656	361.31
363.882	347.31
364.109	365.31
364.335	349.31
364.562	340.31
364.788	348.31
365.015	360.31
365.241	346.31
365.468	339.31
365.694	354.31
365.92	343.31
366.147	341.31
366.373	342.31
366.599	362.31
366.826	324.31
367.052	361.31
367.278	356.31
367.505	350.31
367.731	351.31
367.957	346.31
368.184	332.31
368.41	343.31
368.636	345.31
368.862	349.31
369.089	356.31
369.315	343.31
369.541	341.31
369.767	359.31
369.993	380.31
370.219	363.31
370.445	340.31
370.672	358.31
370.898	343.31
371.124	354.31
371.35	363.31
371.576	352.31
371.802	358.31
372.028	344.31
372.254	341.31
372.48	368.31
372.706	356.31
372.932	367.31
373.158	367.31
373.384	357.31
373.61	337.31
373.835	363.31
374.061	358.31
374.287	365.31
374.513	370.31
374.739	369.31
374.965	399.31
375.191	389.31
375.416	356.31
375.642	391.31
375.868	355.31
376.094	369.31
376.319	353.31
376.545	353.31
376.771	341.31
376.997	376.31
377.222	345.31
377.448	365.31
377.674	357.31
377.899	357.31
378.125	358.31
378.35	367.31
378.576	338.31
378.802	330.31
379.027	344.31
379.253	346.31
379.478	349.31
379.704	346.31
379.929	342.31
380.155	351.31
380.38	354.31
380.606	362.31
380.831	353.31
381.057	371.31
381.282	339.31
381.507	358.31
381.733	358.31
381.958	338.31
382.184	364.31
382.409	348.31
382.634	352.31
382.86	367.31
383.085	397.31
383.31	357.31
383.535	387.31
383.761	371.31
383.986	364.31
384.211	383.31
384.436	387.31
384.662	387.31
384.887	417.31
385.112	409.31
385.337	393.31
385.562	383.31
385.787	387.31
386.013	401.31
386.238	399.31
386.463	401.31
386.688	399.31
386.913	415.31
387.138	391.31
387.363	409.31
387.588	397.31
387.813	387.31
388.038	389.31
388.263	410.31
388.488	387.31
388.713	399.31
388.938	413.31
389.163	400.31
389.387	387.31
389.612	380.31
389.837	389.31
390.062	398.31
390.287	379.31
390.512	397.31
390.736	403.31
390.961	415.31
391.186	421.31
391.411	412.31
391.636	382.31
391.86	423.31
392.085	428.31
392.31	434.31
392.534	426.31
392.759	413.31
392.984	413.31
393.208	412.31
393.433	398.31
393.658	408.31
393.882	399.31
394.107	407.31
394.331	418.31
394.556	416.31
394.78	395.31
395.005	394.31
395.229	416.31
395.454	422.31
395.678	418.31
395.903	424.31
396.127	443.31
396.352	443.31
396.576	421.31
396.801	423.31
397.025	427.31
397.249	424.31
397.474	460.31
397.698	433.31
397.922	442.31
398.147	453.31
398.371	462.31
398.595	473.31
398.82	467.31
399.044	511.31
399.268	502.31
399.492	580.31
399.717	606.31
399.941	647.31
400.165	611.31
400.389	581.31
400.613	546.31
400.837	485.31
401.062	475.31
401.286	489.31
401.51	487.31
401.734	477.31
401.958	448.31
402.182	460.31
402.406	488.31
402.63	499.31
402.854	487.31
403.078	490.31
403.302	490.31
403.526	510.31
403.75	517.31
403.974	501.31
404.198	506.31
404.422	514.31
404.645	506.31
404.869	523.31
405.093	531.31
405.317	547.31
405.541	594.31
405.765	528.31
405.988	524.31
406.212	538.31
406.436	522.31
406.66	559.31
406.883	542.31
407.107	558.31
407.331	586.31
407.555	641.31
407.778	626.31
408.002	591.31
408.226	546.31
408.449	566.31
408.673	526.31
408.896	548.31
409.12	574.31
409.344	556.31
409.567	535.31
409.791	517.31
410.014	510.31
410.238	483.31
410.461	497.31
410.685	485.31
410.908	493.31
411.132	526.31
411.355	524.31
411.578	511.31
411.802	499.31
412.025	486.31
412.249	523.31
412.472	487.31
412.695	548.31
412.919	511.31
413.142	493.31
413.365	469.31
413.589	494.31
413.812	468.31
414.035	467.31
414.258	463.31
414.482	465.31
414.705	478.31
414.928	459.31
415.151	447.31
415.374	464.31
415.597	463.31
415.821	453.31
416.044	450.31
416.267	462.31
416.49	450.31
416.713	464.31
416.936	461.31
417.159	447.31
417.382	463.31
417.605	460.31
417.828	440.31
418.051	458.31
418.274	487.31
418.497	462.31
418.72	484.31
418.943	470.31
419.166	486.31
419.389	526.31
419.611	511.31
419.834	500.31
420.057	460.31
420.28	483.31
420.503	487.31
420.726	472.31
420.948	501.31
421.171	479.31
421.394	511.31
421.617	473.31
421.839	477.31
422.062	458.31
422.285	494.31
422.507	523.31
422.73	562.31
422.953	547.31
423.175	493.31
423.398	503.31
423.621	504.31
423.843	501.31
424.066	515.31
424.288	495.31
424.511	527.31
424.733	531.31
424.956	591.31
425.178	539.31
425.401	549.31
425.623	580.31
425.846	516.31
426.068	476.31
426.291	477.31
426.513	478.31
426.735	487.31
426.958	498.31
427.18	542.31
427.402	627.31
427.625	651.31
427.847	601.31
428.069	541.31
428.292	516.31
428.514	479.31
428.736	459.31
428.958	462.31
429.181	433.31
429.403	424.31
429.625	440.31
429.847	470.31
430.069	490.31
430.292	482.31
430.514	450.31
430.736	425.31
430.958	438.31
431.18	420.31
431.402	439.31
431.624	439.31
431.846	433.31
432.068	442.31
432.29	446.31
432.512	436.31
432.734	414.31
432.956	423.31
433.178	449.31
433.4	438.31
433.622	438.31
433.844	433.31
434.066	449.31
434.287	439.31
434.509	430.31
434.731	461.31
434.953	468.31
435.175	478.31
435.397	501.31
435.618	474.31
435.84	497.31
436.062	551.31
436.284	578.31
436.505	493.31
436.727	469.31
436.949	449.31
437.17	428.31
437.392	432.31
437.614	441.31
437.835	447.31
438.057	492.31
438.278	579.31
438.5	561.31
438.721	619.31
438.943	589.31
439.165	492.31
439.386	477.31
439.608	472.31
439.829	455.31
440.05	468.31
440.272	505.31
440.493	479.31
440.715	479.31
440.936	457.31
441.158	472.31
441.379	474.31
441.6	468.31
441.822	488.31
442.043	505.31
442.264	542.31
442.486	559.31
442.707	523.31
442.928	457.31
443.149	484.31
443.371	515.31
443.592	540.31
443.813	588.31
444.034	646.31
444.255	528.31
444.476	535.31
444.698	539.31
444.919	518.31
445.14	616.31
445.361	548.31
445.582	513.31
445.803	549.31
446.024	573.31
446.245	595.31
446.466	537.31
446.687	501.31
446.908	462.31
447.129	445.31
447.35	445.31
447.571	441.31
447.792	431.31
448.013	427.31
448.234	428.31
448.455	476.31
448.675	525.31
448.896	557.31
449.117	512.31
449.338	501.31
449.559	566.31
449.779	597.31
450	501.31
450.221	451.31
450.442	411.31
450.662	400.31
450.883	435.31
451.104	425.31
451.324	429.31
451.545	384.31
451.766	408.31
451.986	408.31
452.207	387.31
452.428	396.31
452.648	398.31
452.869	383.31
453.089	377.31
453.31	389.31
453.53	398.31
453.751	412.31
453.971	374.31
454.192	397.31
454.412	368.31
454.633	377.31
454.853	378.31
455.073	381.31
455.294	405.31
455.514	425.31
455.734	407.31
455.955	397.31
456.175	366.31
456.395	365.31
456.616	363.31
456.836	355.31
457.056	379.31
457.276	361.31
457.497	377.31
457.717	391.31
457.937	378.31
458.157	383.31
458.377	411.31
458.598	388.31
458.818	431.31
459.038	485.31
459.258	494.31
459.478	456.31
459.698	439.31
459.918	445.31
460.138	441.31
460.358	447.31
460.578	452.31
460.798	446.31
461.018	467.31
461.238	474.31
461.458	469.31
461.678	473.31
461.898	461.31
462.118	474.31
462.338	489.31
462.558	488.31
462.777	528.31
462.997	533.31
463.217	548.31
463.437	557.31
463.657	527.31
463.876	513.31
464.096	494.31
464.316	523.31
464.536	511.31
464.755	507.31
464.975	493.31
465.195	519.31
465.414	526.31
465.634	464.31
465.854	449.31
466.073	422.31
466.293	433.31
466.512	430.31
466.732	405.31
466.951	410.31
467.171	417.31
467.391	401.31
467.61	419.31
467.829	412.31
468.049	405.31
468.268	409.31
468.488	404.31
468.707	391.31
468.927	385.31
469.146	405.31
469.365	389.31
469.585	406.31
469.804	415.31
470.023	416.31
470.243	410.31
470.462	412.31
470.681	405.31
470.901	446.31
471.12	444.31
471.339	406.31
471.558	409.31
471.777	391.31
471.997	421.31
472.216	407.31
472.435	437.31
472.654	429.31
472.873	410.31
473.092	389.31
473.311	395.31
473.53	413.31
473.749	383.31
473.968	421.31
474.187	463.31
474.406	499.31
474.625	434.31
474.844	421.31
475.063	391.31
475.282	409.31
475.501	393.31
475.72	421.31
475.939	398.31
476.158	419.31
476.377	409.31
476.596	396.31
476.814	398.31
477.033	438.31
477.252	439.31
477.471	437.31
477.69	429.31
477.908	445.31
478.127	446.31
478.346	463.31
478.564	446.31
478.783	428.31
479.002	456.31
479.22	471.31
479.439	458.31
479.658	484.31
479.876	479.31
480.095	481.31
480.313	501.31
480.532	499.31
480.751	519.31
480.969	528.31
481.188	521.31
481.406	568.31
481.624	527.31
481.843	490.31
482.061	487.31
482.28	479.31
482.498	469.31
482.717	458.31
482.935	467.31
483.153	466.31
483.372	450.31
483.59	458.31
483.808	464.31
484.027	470.31
484.245	461.31
484.463	458.31
484.681	474.31
484.9	437.31
485.118	464.31
485.336	470.31
485.554	460.31
485.772	482.31
485.99	474.31
486.209	491.31
486.427	503.31
486.645	493.31
486.863	490.31
487.081	483.31
487.299	478.31
487.517	503.31
487.735	474.31
487.953	474.31
488.171	472.31
488.389	467.31
488.607	466.31
488.825	470.31
489.043	491.31
489.261	488.31
489.479	485.31
489.696	509.31
489.914	510.31
490.132	491.31
490.35	494.31
490.568	493.31
490.786	506.31
491.003	525.31
491.221	532.31
491.439	537.31
491.657	519.31
491.874	527.31
492.092	530.31
492.31	543.31
492.527	543.31
492.745	539.31
492.963	557.31
493.18	530.31
493.398	545.31
493.615	534.31
493.833	576.31
494.05	535.31
494.268	549.31
494.485	542.31
494.703	538.31
494.92	547.31
495.138	555.31
495.355	553.31
495.573	549.31
495.79	555.31
496.008	569.31
496.225	562.31
496.442	543.31
496.66	555.31
496.877	542.31
497.094	575.31
497.312	574.31
497.529	566.31
497.746	579.31
497.963	621.31
498.181	633.31
498.398	621.31
498.615	647.31
498.832	675.31
499.049	714.31
499.267	748.31
499.484	781.31
499.701	826.31
499.918	901.31
500.135	977.31
500.352	1055.31
500.569	1105.31
500.786	1054.31
501.003	1040.31
501.22	974.31
501.437	881.31
501.654	854.31
501.871	820.31
502.088	762.31
