Data from 1984.PennyLincolnUp.Lamp.En5.5.200Scan.071819.P1_HRD10591_16-59-53-968.txt Node
Date: Thu Jul 18 16:59:53 EDT 2019
User: cochatt
Spectrometer: HR+D1059
Trigger mode: 1
Integration Time (sec): 1.000000E-1
Scans to average: 1
Electric dark correction enabled: true
Nonlinearity correction enabled: false
Boxcar width: 0
XAxis mode: Wavelengths
Number of Pixels in Spectrum: 2048
>>>>>Begin Spectral Data<<<<<
223.165	-15.25
223.4	-15.25
223.635	-15.25
223.869	-24.25
224.104	-17.25
224.338	-0.25
224.573	-15.25
224.808	-6.25
225.042	-18.25
225.277	4.75
225.511	-0.25
225.746	6.75
225.98	7.75
226.215	4.75
226.449	1.75
226.683	16.75
226.918	14.75
227.152	39.75
227.387	30.75
227.621	28.75
227.856	51.75
228.09	25.75
228.324	41.75
228.559	53.75
228.793	66.75
229.027	88.75
229.262	98.75
229.496	99.75
229.73	122.75
229.964	116.75
230.199	106.75
230.433	94.75
230.667	104.75
230.901	103.75
231.136	115.75
231.37	119.75
231.604	96.75
231.838	110.75
232.072	121.75
232.306	106.75
232.541	116.75
232.775	108.75
233.009	104.75
233.243	114.75
233.477	124.75
233.711	120.75
233.945	120.75
234.179	106.75
234.413	99.75
234.647	116.75
234.881	116.75
235.115	112.75
235.349	120.75
235.583	116.75
235.817	107.75
236.051	118.75
236.285	114.75
236.519	117.75
236.753	120.75
236.987	119.75
237.221	136.75
237.455	167.75
237.689	139.75
237.922	119.75
238.156	120.75
238.39	118.75
238.624	115.75
238.858	119.75
239.091	100.75
239.325	114.75
239.559	118.75
239.793	115.75
240.027	126.75
240.26	129.75
240.494	129.75
240.728	132.75
240.961	131.75
241.195	144.75
241.429	131.75
241.662	122.75
241.896	134.75
242.13	119.75
242.363	129.75
242.597	130.75
242.83	126.75
243.064	122.75
243.298	117.75
243.531	131.75
243.765	121.75
243.998	119.75
244.232	146.75
244.465	127.75
244.699	122.75
244.932	133.75
245.166	140.75
245.399	139.75
245.633	123.75
245.866	144.75
246.099	134.75
246.333	124.75
246.566	122.75
246.8	140.75
247.033	134.75
247.266	136.75
247.5	149.75
247.733	143.75
247.966	165.75
248.2	141.75
248.433	152.75
248.666	151.75
248.899	163.75
249.133	170.75
249.366	176.75
249.599	167.75
249.832	163.75
250.066	160.75
250.299	168.75
250.532	211.75
250.765	212.75
250.998	217.75
251.231	205.75
251.465	182.75
251.698	180.75
251.931	180.75
252.164	187.75
252.397	175.75
252.63	181.75
252.863	175.75
253.096	184.75
253.329	214.75
253.562	195.75
253.795	198.75
254.028	190.75
254.261	183.75
254.494	177.75
254.727	205.75
254.96	217.75
255.193	214.75
255.426	222.75
255.659	199.75
255.892	233.75
256.124	262.75
256.357	290.75
256.59	243.75
256.823	205.75
257.056	204.75
257.289	191.75
257.521	203.75
257.754	212.75
257.987	182.75
258.22	184.75
258.452	191.75
258.685	181.75
258.918	195.75
259.151	193.75
259.383	210.75
259.616	215.75
259.849	202.75
260.081	196.75
260.314	218.75
260.547	211.75
260.779	212.75
261.012	202.75
261.244	189.75
261.477	206.75
261.71	207.75
261.942	197.75
262.175	216.75
262.407	219.75
262.64	198.75
262.872	203.75
263.105	210.75
263.337	201.75
263.57	186.75
263.802	194.75
264.035	193.75
264.267	196.75
264.499	204.75
264.732	195.75
264.964	200.75
265.197	196.75
265.429	208.75
265.661	196.75
265.894	201.75
266.126	195.75
266.358	216.75
266.591	196.75
266.823	214.75
267.055	208.75
267.287	218.75
267.52	214.75
267.752	216.75
267.984	216.75
268.216	219.75
268.448	207.75
268.681	204.75
268.913	206.75
269.145	245.75
269.377	222.75
269.609	234.75
269.841	246.75
270.073	243.75
270.306	224.75
270.538	254.75
270.77	250.75
271.002	250.75
271.234	244.75
271.466	256.75
271.698	266.75
271.93	276.75
272.162	256.75
272.394	251.75
272.626	243.75
272.858	246.75
273.09	259.75
273.322	251.75
273.553	244.75
273.785	229.75
274.017	246.75
274.249	263.75
274.481	237.75
274.713	235.75
274.945	259.75
275.176	255.75
275.408	255.75
275.64	244.75
275.872	251.75
276.104	262.75
276.335	256.75
276.567	251.75
276.799	243.75
277.031	279.75
277.262	272.75
277.494	293.75
277.726	261.75
277.957	260.75
278.189	258.75
278.421	260.75
278.652	266.75
278.884	259.75
279.115	260.75
279.347	266.75
279.579	252.75
279.81	254.75
280.042	262.75
280.273	272.75
280.505	264.75
280.736	281.75
280.968	281.75
281.199	239.75
281.431	258.75
281.662	262.75
281.894	252.75
282.125	259.75
282.356	280.75
282.588	279.75
282.819	271.75
283.051	272.75
283.282	283.75
283.513	260.75
283.745	285.75
283.976	252.75
284.207	267.75
284.439	278.75
284.67	259.75
284.901	262.75
285.132	281.75
285.364	256.75
285.595	276.75
285.826	284.75
286.057	281.75
286.288	258.75
286.52	274.75
286.751	271.75
286.982	275.75
287.213	294.75
287.444	276.75
287.675	283.75
287.906	281.75
288.138	295.75
288.369	291.75
288.6	305.75
288.831	303.75
289.062	286.75
289.293	280.75
289.524	294.75
289.755	298.75
289.986	286.75
290.217	277.75
290.448	290.75
290.679	291.75
290.91	295.75
291.141	289.75
291.371	293.75
291.602	294.75
291.833	288.75
292.064	286.75
292.295	278.75
292.526	261.75
292.757	270.75
292.987	283.75
293.218	273.75
293.449	303.75
293.68	286.75
293.91	268.75
294.141	287.75
294.372	289.75
294.603	307.75
294.833	280.75
295.064	295.75
295.295	295.75
295.525	291.75
295.756	300.75
295.987	286.75
296.217	312.75
296.448	306.75
296.679	288.75
296.909	290.75
297.14	297.75
297.37	304.75
297.601	310.75
297.831	286.75
298.062	291.75
298.292	305.75
298.523	294.75
298.753	312.75
298.984	293.75
299.214	306.75
299.445	308.75
299.675	319.75
299.905	300.75
300.136	305.75
300.366	334.75
300.597	309.75
300.827	319.75
301.057	319.75
301.288	328.75
301.518	324.75
301.748	302.75
301.979	332.75
302.209	336.75
302.439	338.75
302.669	316.75
302.9	306.75
303.13	334.75
303.36	321.75
303.59	321.75
303.82	327.75
304.051	345.75
304.281	338.75
304.511	331.75
304.741	327.75
304.971	329.75
305.201	308.75
305.431	325.75
305.661	330.75
305.891	331.75
306.121	327.75
306.352	335.75
306.582	304.75
306.812	313.75
307.042	330.75
307.272	314.75
307.502	329.75
307.731	324.75
307.961	325.75
308.191	330.75
308.421	294.75
308.651	328.75
308.881	302.75
309.111	304.75
309.341	322.75
309.571	323.75
309.8	335.75
310.03	334.75
310.26	363.75
310.49	346.75
310.72	347.75
310.949	351.75
311.179	364.75
311.409	353.75
311.639	352.75
311.868	343.75
312.098	347.75
312.328	346.75
312.557	371.75
312.787	345.75
313.017	396.75
313.246	378.75
313.476	356.75
313.706	342.75
313.935	355.75
314.165	363.75
314.394	378.75
314.624	350.75
314.853	368.75
315.083	348.75
315.312	332.75
315.542	331.75
315.771	337.75
316.001	338.75
316.23	332.75
316.46	347.75
316.689	373.75
316.919	368.75
317.148	358.75
317.377	348.75
317.607	355.75
317.836	348.75
318.065	337.75
318.295	354.75
318.524	347.75
318.753	352.75
318.983	354.75
319.212	352.75
319.441	342.75
319.67	360.75
319.9	361.75
320.129	337.75
320.358	370.75
320.587	363.75
320.816	356.75
321.046	356.75
321.275	374.75
321.504	362.75
321.733	364.75
321.962	370.75
322.191	364.75
322.42	391.75
322.649	380.75
322.878	403.75
323.108	401.75
323.337	417.75
323.566	407.75
323.795	445.75
324.024	476.75
324.253	557.75
324.482	739.75
324.71	1096.75
324.939	1461.75
325.168	1264.75
325.397	721.75
325.626	540.75
325.855	466.75
326.084	448.75
326.313	436.75
326.542	427.75
326.77	482.75
326.999	552.75
327.228	698.75
327.457	976.75
327.686	1142.75
327.914	810.75
328.143	608.75
328.372	577.75
328.6	571.75
328.829	496.75
329.058	515.75
329.287	508.75
329.515	527.75
329.744	503.75
329.972	555.75
330.201	601.75
330.43	693.75
330.658	649.75
330.887	573.75
331.115	532.75
331.344	496.75
331.572	452.75
331.801	476.75
332.03	481.75
332.258	456.75
332.486	460.75
332.715	457.75
332.943	462.75
333.172	454.75
333.4	490.75
333.629	512.75
333.857	559.75
334.085	614.75
334.314	697.75
334.542	802.75
334.771	800.75
334.999	649.75
335.227	555.75
335.455	485.75
335.684	490.75
335.912	465.75
336.14	454.75
336.369	471.75
336.597	464.75
336.825	459.75
337.053	419.75
337.281	430.75
337.51	414.75
337.738	433.75
337.966	430.75
338.194	422.75
338.422	400.75
338.65	425.75
338.878	409.75
339.106	404.75
339.334	402.75
339.562	402.75
339.79	412.75
340.018	407.75
340.246	416.75
340.474	408.75
340.702	404.75
340.93	391.75
341.158	401.75
341.386	382.75
341.614	371.75
341.842	405.75
342.07	380.75
342.298	400.75
342.526	388.75
342.754	387.75
342.981	389.75
343.209	363.75
343.437	384.75
343.665	404.75
343.893	438.75
344.12	443.75
344.348	423.75
344.576	406.75
344.804	422.75
345.031	411.75
345.259	418.75
345.487	426.75
345.714	382.75
345.942	372.75
346.17	378.75
346.397	379.75
346.625	383.75
346.853	383.75
347.08	363.75
347.308	382.75
347.535	393.75
347.763	378.75
347.99	393.75
348.218	383.75
348.445	386.75
348.673	384.75
348.9	388.75
349.128	383.75
349.355	368.75
349.583	362.75
349.81	382.75
350.037	359.75
350.265	376.75
350.492	366.75
350.72	358.75
350.947	372.75
351.174	378.75
351.402	373.75
351.629	383.75
351.856	374.75
352.083	376.75
352.311	367.75
352.538	378.75
352.765	378.75
352.992	384.75
353.22	362.75
353.447	376.75
353.674	347.75
353.901	358.75
354.128	327.75
354.355	343.75
354.583	353.75
354.81	365.75
355.037	332.75
355.264	332.75
355.491	358.75
355.718	356.75
355.945	358.75
356.172	336.75
356.399	346.75
356.626	361.75
356.853	374.75
357.08	360.75
357.307	342.75
357.534	361.75
357.761	356.75
357.988	341.75
358.215	344.75
358.441	347.75
358.668	355.75
358.895	357.75
359.122	330.75
359.349	358.75
359.576	382.75
359.802	383.75
360.029	408.75
360.256	373.75
360.483	383.75
360.709	362.75
360.936	382.75
361.163	368.75
361.39	375.75
361.616	348.75
361.843	362.75
362.07	359.75
362.296	372.75
362.523	363.75
362.749	357.75
362.976	348.75
363.203	368.75
363.429	357.75
363.656	359.75
363.882	347.75
364.109	350.75
364.335	350.75
364.562	345.75
364.788	357.75
365.015	360.75
365.241	355.75
365.468	343.75
365.694	355.75
365.92	372.75
366.147	343.75
366.373	362.75
366.599	346.75
366.826	363.75
367.052	349.75
367.278	348.75
367.505	352.75
367.731	366.75
367.957	358.75
368.184	364.75
368.41	375.75
368.636	360.75
368.862	388.75
369.089	356.75
369.315	362.75
369.541	366.75
369.767	347.75
369.993	354.75
370.219	341.75
370.445	348.75
370.672	351.75
370.898	358.75
371.124	348.75
371.35	345.75
371.576	358.75
371.802	374.75
372.028	352.75
372.254	370.75
372.48	375.75
372.706	374.75
372.932	374.75
373.158	347.75
373.384	353.75
373.61	372.75
373.835	358.75
374.061	366.75
374.287	371.75
374.513	354.75
374.739	373.75
374.965	378.75
375.191	400.75
375.416	381.75
375.642	376.75
375.868	370.75
376.094	353.75
376.319	342.75
376.545	353.75
376.771	362.75
376.997	352.75
377.222	340.75
377.448	353.75
377.674	344.75
377.899	352.75
378.125	357.75
378.35	368.75
378.576	351.75
378.802	350.75
379.027	351.75
379.253	357.75
379.478	350.75
379.704	374.75
379.929	360.75
380.155	370.75
380.38	362.75
380.606	357.75
380.831	346.75
381.057	358.75
381.282	345.75
381.507	367.75
381.733	364.75
381.958	340.75
382.184	371.75
382.409	390.75
382.634	385.75
382.86	374.75
383.085	361.75
383.31	374.75
383.535	382.75
383.761	361.75
383.986	362.75
384.211	391.75
384.436	392.75
384.662	413.75
384.887	398.75
385.112	406.75
385.337	386.75
385.562	412.75
385.787	398.75
386.013	427.75
386.238	418.75
386.463	402.75
386.688	400.75
386.913	419.75
387.138	378.75
387.363	388.75
387.588	390.75
387.813	402.75
388.038	434.75
388.263	396.75
388.488	409.75
388.713	405.75
388.938	406.75
389.163	382.75
389.387	397.75
389.612	392.75
389.837	389.75
390.062	393.75
390.287	402.75
390.512	404.75
390.736	409.75
390.961	411.75
391.186	414.75
391.411	412.75
391.636	401.75
391.86	433.75
392.085	417.75
392.31	446.75
392.534	432.75
392.759	423.75
392.984	418.75
393.208	410.75
393.433	382.75
393.658	412.75
393.882	412.75
394.107	424.75
394.331	414.75
394.556	435.75
394.78	418.75
395.005	419.75
395.229	406.75
395.454	407.75
395.678	439.75
395.903	441.75
396.127	462.75
396.352	443.75
396.576	411.75
396.801	403.75
397.025	403.75
397.249	416.75
397.474	423.75
397.698	440.75
397.922	451.75
398.147	462.75
398.371	457.75
398.595	465.75
398.82	481.75
399.044	492.75
399.268	521.75
399.492	570.75
399.717	632.75
399.941	635.75
400.165	612.75
400.389	606.75
400.613	531.75
400.837	507.75
401.062	484.75
401.286	489.75
401.51	489.75
401.734	452.75
401.958	493.75
402.182	486.75
402.406	497.75
402.63	502.75
402.854	506.75
403.078	491.75
403.302	472.75
403.526	528.75
403.75	519.75
403.974	519.75
404.198	511.75
404.422	538.75
404.645	539.75
404.869	542.75
405.093	568.75
405.317	610.75
405.541	630.75
405.765	590.75
405.988	530.75
406.212	534.75
406.436	531.75
406.66	551.75
406.883	532.75
407.107	585.75
407.331	581.75
407.555	649.75
407.778	632.75
408.002	619.75
408.226	574.75
408.449	538.75
408.673	534.75
408.896	549.75
409.12	571.75
409.344	557.75
409.567	503.75
409.791	522.75
410.014	515.75
410.238	489.75
410.461	491.75
410.685	508.75
410.908	496.75
411.132	512.75
411.355	528.75
411.578	538.75
411.802	535.75
412.025	492.75
412.249	526.75
412.472	567.75
412.695	579.75
412.919	580.75
413.142	559.75
413.365	528.75
413.589	505.75
413.812	496.75
414.035	467.75
414.258	475.75
414.482	488.75
414.705	479.75
414.928	476.75
415.151	468.75
415.374	471.75
415.597	479.75
415.821	474.75
416.044	447.75
416.267	452.75
416.49	478.75
416.713	482.75
416.936	483.75
417.159	465.75
417.382	458.75
417.605	462.75
417.828	486.75
418.051	474.75
418.274	474.75
418.497	460.75
418.72	467.75
418.943	488.75
419.166	495.75
419.389	514.75
419.611	522.75
419.834	518.75
420.057	527.75
420.28	538.75
420.503	540.75
420.726	534.75
420.948	504.75
421.171	524.75
421.394	508.75
421.617	483.75
421.839	486.75
422.062	481.75
422.285	463.75
422.507	530.75
422.73	552.75
422.953	560.75
423.175	521.75
423.398	512.75
423.621	484.75
423.843	491.75
424.066	520.75
424.288	501.75
424.511	522.75
424.733	534.75
424.956	584.75
425.178	548.75
425.401	563.75
425.623	566.75
425.846	528.75
426.068	489.75
426.291	489.75
426.513	483.75
426.735	484.75
426.958	518.75
427.18	540.75
427.402	623.75
427.625	694.75
427.847	629.75
428.069	597.75
428.292	537.75
428.514	495.75
428.736	468.75
428.958	438.75
429.181	437.75
429.403	446.75
429.625	457.75
429.847	492.75
430.069	504.75
430.292	500.75
430.514	444.75
430.736	451.75
430.958	443.75
431.18	431.75
431.402	437.75
431.624	420.75
431.846	450.75
432.068	430.75
432.29	442.75
432.512	440.75
432.734	440.75
432.956	420.75
433.178	423.75
433.4	425.75
433.622	445.75
433.844	432.75
434.066	440.75
434.287	447.75
434.509	454.75
434.731	457.75
434.953	455.75
435.175	453.75
435.397	475.75
435.618	485.75
435.84	485.75
436.062	544.75
436.284	586.75
436.505	490.75
436.727	471.75
436.949	442.75
437.17	457.75
437.392	457.75
437.614	456.75
437.835	458.75
438.057	500.75
438.278	571.75
438.5	578.75
438.721	630.75
438.943	596.75
439.165	510.75
439.386	487.75
439.608	460.75
439.829	455.75
440.05	478.75
440.272	534.75
440.493	499.75
440.715	469.75
440.936	450.75
441.158	452.75
441.379	459.75
441.6	483.75
441.822	481.75
442.043	505.75
442.264	555.75
442.486	571.75
442.707	518.75
442.928	496.75
443.149	503.75
443.371	517.75
443.592	533.75
443.813	558.75
444.034	614.75
444.255	543.75
444.476	523.75
444.698	523.75
444.919	542.75
445.14	587.75
445.361	559.75
445.582	520.75
445.803	528.75
446.024	605.75
446.245	584.75
446.466	563.75
446.687	496.75
446.908	437.75
447.129	449.75
447.35	456.75
447.571	437.75
447.792	405.75
448.013	434.75
448.234	457.75
448.455	457.75
448.675	516.75
448.896	607.75
449.117	526.75
449.338	504.75
449.559	586.75
449.779	640.75
450	508.75
450.221	442.75
450.442	420.75
450.662	402.75
450.883	396.75
451.104	416.75
451.324	432.75
451.545	407.75
451.766	395.75
451.986	395.75
452.207	389.75
452.428	406.75
452.648	386.75
452.869	402.75
453.089	406.75
453.31	420.75
453.53	408.75
453.751	387.75
453.971	383.75
454.192	392.75
454.412	386.75
454.633	378.75
454.853	394.75
455.073	373.75
455.294	360.75
455.514	432.75
455.734	426.75
455.955	378.75
456.175	361.75
456.395	366.75
456.616	362.75
456.836	376.75
457.056	363.75
457.276	369.75
457.497	387.75
457.717	371.75
457.937	383.75
458.157	397.75
458.377	390.75
458.598	421.75
458.818	431.75
459.038	467.75
459.258	479.75
459.478	460.75
459.698	420.75
459.918	419.75
460.138	449.75
460.358	450.75
460.578	462.75
460.798	445.75
461.018	462.75
461.238	463.75
461.458	465.75
461.678	439.75
461.898	488.75
462.118	513.75
462.338	490.75
462.558	498.75
462.777	496.75
462.997	550.75
463.217	548.75
463.437	579.75
463.657	536.75
463.876	510.75
464.096	531.75
464.316	523.75
464.536	515.75
464.755	490.75
464.975	512.75
465.195	517.75
465.414	514.75
465.634	466.75
465.854	466.75
466.073	446.75
466.293	431.75
466.512	424.75
466.732	424.75
466.951	392.75
467.171	409.75
467.391	414.75
467.61	427.75
467.829	430.75
468.049	420.75
468.268	443.75
468.488	445.75
468.707	415.75
468.927	412.75
469.146	415.75
469.365	406.75
469.585	393.75
469.804	416.75
470.023	400.75
470.243	440.75
470.462	411.75
470.681	433.75
470.901	422.75
471.12	418.75
471.339	416.75
471.558	412.75
471.777	440.75
471.997	429.75
472.216	459.75
472.435	563.75
472.654	545.75
472.873	464.75
473.092	442.75
473.311	420.75
473.53	425.75
473.749	410.75
473.968	442.75
474.187	497.75
474.406	485.75
474.625	435.75
474.844	407.75
475.063	416.75
475.282	418.75
475.501	405.75
475.72	404.75
475.939	407.75
476.158	415.75
476.377	424.75
476.596	418.75
476.814	422.75
477.033	417.75
477.252	450.75
477.471	443.75
477.69	456.75
477.908	448.75
478.127	447.75
478.346	478.75
478.564	464.75
478.783	483.75
479.002	473.75
479.22	458.75
479.439	477.75
479.658	501.75
479.876	500.75
480.095	498.75
480.313	512.75
480.532	530.75
480.751	519.75
480.969	555.75
481.188	727.75
481.406	812.75
481.624	643.75
481.843	561.75
482.061	530.75
482.28	499.75
482.498	489.75
482.717	496.75
482.935	474.75
483.153	489.75
483.372	475.75
483.59	478.75
483.808	457.75
484.027	480.75
484.245	470.75
484.463	473.75
484.681	482.75
484.9	476.75
485.118	486.75
485.336	489.75
485.554	479.75
485.772	502.75
485.99	489.75
486.209	487.75
486.427	499.75
486.645	485.75
486.863	498.75
487.081	502.75
487.299	497.75
487.517	507.75
487.735	482.75
487.953	486.75
488.171	499.75
488.389	493.75
488.607	500.75
488.825	512.75
489.043	510.75
489.261	515.75
489.479	496.75
489.696	496.75
489.914	507.75
490.132	538.75
490.35	537.75
490.568	546.75
490.786	540.75
491.003	556.75
491.221	588.75
491.439	575.75
491.657	577.75
491.874	590.75
492.092	594.75
492.31	601.75
492.527	589.75
492.745	607.75
492.963	609.75
493.18	596.75
493.398	601.75
493.615	626.75
493.833	603.75
494.05	598.75
494.268	585.75
494.485	575.75
494.703	600.75
494.92	576.75
495.138	591.75
495.355	583.75
495.573	578.75
495.79	576.75
496.008	585.75
496.225	563.75
496.442	565.75
496.66	586.75
496.877	564.75
497.094	581.75
497.312	586.75
497.529	606.75
497.746	612.75
497.963	631.75
498.181	640.75
498.398	664.75
498.615	695.75
498.832	714.75
499.049	733.75
499.267	775.75
499.484	806.75
499.701	868.75
499.918	911.75
500.135	1012.75
500.352	1060.75
500.569	1079.75
500.786	1132.75
501.003	1074.75
501.22	982.75
501.437	918.75
501.654	838.75
501.871	816.75
502.088	786.75
