Data from 1984.PennyLincolnUp.Lamp.En5.5.200Scan.071819.P1_HRD10591_16-59-48-982.txt Node
Date: Thu Jul 18 16:59:48 EDT 2019
User: cochatt
Spectrometer: HR+D1059
Trigger mode: 1
Integration Time (sec): 1.000000E-1
Scans to average: 1
Electric dark correction enabled: true
Nonlinearity correction enabled: false
Boxcar width: 0
XAxis mode: Wavelengths
Number of Pixels in Spectrum: 2048
>>>>>Begin Spectral Data<<<<<
223.165	-15.69
223.4	-15.69
223.635	-15.69
223.869	-15.69
224.104	-27.69
224.338	-8.69
224.573	-21.69
224.808	-23.69
225.042	-1.69
225.277	-3.69
225.511	9.31
225.746	12.31
225.98	3.31
226.215	10.31
226.449	4.31
226.683	18.31
226.918	35.31
227.152	25.31
227.387	34.31
227.621	47.31
227.856	40.31
228.09	31.31
228.324	47.31
228.559	47.31
228.793	70.31
229.027	75.31
229.262	75.31
229.496	105.31
229.73	91.31
229.964	130.31
230.199	90.31
230.433	92.31
230.667	110.31
230.901	111.31
231.136	114.31
231.37	107.31
231.604	110.31
231.838	116.31
232.072	111.31
232.306	104.31
232.541	97.31
232.775	111.31
233.009	103.31
233.243	102.31
233.477	109.31
233.711	115.31
233.945	112.31
234.179	114.31
234.413	100.31
234.647	106.31
234.881	116.31
235.115	123.31
235.349	126.31
235.583	124.31
235.817	114.31
236.051	102.31
236.285	114.31
236.519	122.31
236.753	106.31
236.987	122.31
237.221	148.31
237.455	181.31
237.689	156.31
237.922	120.31
238.156	110.31
238.39	122.31
238.624	108.31
238.858	134.31
239.091	126.31
239.325	115.31
239.559	106.31
239.793	98.31
240.027	122.31
240.26	132.31
240.494	139.31
240.728	138.31
240.961	127.31
241.195	118.31
241.429	126.31
241.662	126.31
241.896	124.31
242.13	114.31
242.363	121.31
242.597	132.31
242.83	119.31
243.064	126.31
243.298	136.31
243.531	122.31
243.765	128.31
243.998	128.31
244.232	130.31
244.465	126.31
244.699	130.31
244.932	149.31
245.166	131.31
245.399	142.31
245.633	134.31
245.866	131.31
246.099	128.31
246.333	139.31
246.566	145.31
246.8	150.31
247.033	140.31
247.266	151.31
247.5	139.31
247.733	145.31
247.966	171.31
248.2	151.31
248.433	159.31
248.666	173.31
248.899	156.31
249.133	155.31
249.366	168.31
249.599	182.31
249.832	162.31
250.066	161.31
250.299	179.31
250.532	188.31
250.765	217.31
250.998	213.31
251.231	205.31
251.465	190.31
251.698	199.31
251.931	186.31
252.164	180.31
252.397	184.31
252.63	175.31
252.863	170.31
253.096	180.31
253.329	194.31
253.562	187.31
253.795	196.31
254.028	180.31
254.261	187.31
254.494	188.31
254.727	196.31
254.96	218.31
255.193	208.31
255.426	209.31
255.659	207.31
255.892	247.31
256.124	274.31
256.357	287.31
256.59	244.31
256.823	205.31
257.056	217.31
257.289	209.31
257.521	208.31
257.754	192.31
257.987	190.31
258.22	193.31
258.452	196.31
258.685	184.31
258.918	195.31
259.151	186.31
259.383	198.31
259.616	198.31
259.849	203.31
260.081	208.31
260.314	198.31
260.547	204.31
260.779	219.31
261.012	209.31
261.244	209.31
261.477	183.31
261.71	193.31
261.942	207.31
262.175	218.31
262.407	215.31
262.64	198.31
262.872	205.31
263.105	209.31
263.337	201.31
263.57	187.31
263.802	211.31
264.035	191.31
264.267	211.31
264.499	194.31
264.732	207.31
264.964	220.31
265.197	202.31
265.429	190.31
265.661	196.31
265.894	202.31
266.126	201.31
266.358	214.31
266.591	206.31
266.823	214.31
267.055	189.31
267.287	209.31
267.52	206.31
267.752	224.31
267.984	212.31
268.216	211.31
268.448	231.31
268.681	208.31
268.913	241.31
269.145	253.31
269.377	238.31
269.609	251.31
269.841	246.31
270.073	227.31
270.306	246.31
270.538	270.31
270.77	263.31
271.002	260.31
271.234	255.31
271.466	260.31
271.698	266.31
271.93	267.31
272.162	288.31
272.394	277.31
272.626	273.31
272.858	258.31
273.09	248.31
273.322	240.31
273.553	254.31
273.785	233.31
274.017	252.31
274.249	260.31
274.481	257.31
274.713	256.31
274.945	262.31
275.176	272.31
275.408	242.31
275.64	258.31
275.872	244.31
276.104	268.31
276.335	241.31
276.567	263.31
276.799	279.31
277.031	286.31
277.262	286.31
277.494	282.31
277.726	280.31
277.957	263.31
278.189	270.31
278.421	256.31
278.652	254.31
278.884	238.31
279.115	258.31
279.347	267.31
279.579	267.31
279.81	248.31
280.042	236.31
280.273	270.31
280.505	270.31
280.736	273.31
280.968	287.31
281.199	276.31
281.431	262.31
281.662	270.31
281.894	259.31
282.125	248.31
282.356	287.31
282.588	298.31
282.819	282.31
283.051	260.31
283.282	264.31
283.513	266.31
283.745	272.31
283.976	295.31
284.207	260.31
284.439	276.31
284.67	292.31
284.901	265.31
285.132	275.31
285.364	262.31
285.595	264.31
285.826	259.31
286.057	283.31
286.288	254.31
286.52	290.31
286.751	274.31
286.982	288.31
287.213	282.31
287.444	287.31
287.675	272.31
287.906	285.31
288.138	295.31
288.369	299.31
288.6	303.31
288.831	287.31
289.062	298.31
289.293	284.31
289.524	303.31
289.755	270.31
289.986	284.31
290.217	292.31
290.448	290.31
290.679	275.31
290.91	292.31
291.141	275.31
291.371	287.31
291.602	269.31
291.833	270.31
292.064	289.31
292.295	279.31
292.526	293.31
292.757	286.31
292.987	283.31
293.218	288.31
293.449	304.31
293.68	286.31
293.91	276.31
294.141	286.31
294.372	305.31
294.603	289.31
294.833	279.31
295.064	285.31
295.295	304.31
295.525	302.31
295.756	306.31
295.987	301.31
296.217	321.31
296.448	326.31
296.679	308.31
296.909	300.31
297.14	315.31
297.37	311.31
297.601	292.31
297.831	293.31
298.062	284.31
298.292	314.31
298.523	302.31
298.753	299.31
298.984	296.31
299.214	303.31
299.445	316.31
299.675	305.31
299.905	298.31
300.136	322.31
300.366	321.31
300.597	293.31
300.827	320.31
301.057	316.31
301.288	326.31
301.518	341.31
301.748	319.31
301.979	330.31
302.209	320.31
302.439	310.31
302.669	352.31
302.9	326.31
303.13	324.31
303.36	347.31
303.59	330.31
303.82	327.31
304.051	345.31
304.281	315.31
304.511	342.31
304.741	345.31
304.971	312.31
305.201	315.31
305.431	304.31
305.661	324.31
305.891	325.31
306.121	318.31
306.352	339.31
306.582	330.31
306.812	338.31
307.042	324.31
307.272	327.31
307.502	327.31
307.731	323.31
307.961	327.31
308.191	328.31
308.421	341.31
308.651	332.31
308.881	312.31
309.111	350.31
309.341	348.31
309.571	331.31
309.8	344.31
310.03	337.31
310.26	363.31
310.49	355.31
310.72	352.31
310.949	366.31
311.179	353.31
311.409	350.31
311.639	370.31
311.868	343.31
312.098	348.31
312.328	352.31
312.557	370.31
312.787	369.31
313.017	368.31
313.246	374.31
313.476	342.31
313.706	345.31
313.935	346.31
314.165	369.31
314.394	358.31
314.624	350.31
314.853	366.31
315.083	348.31
315.312	342.31
315.542	356.31
315.771	342.31
316.001	355.31
316.23	363.31
316.46	355.31
316.689	373.31
316.919	345.31
317.148	364.31
317.377	352.31
317.607	361.31
317.836	360.31
318.065	370.31
318.295	345.31
318.524	356.31
318.753	369.31
318.983	361.31
319.212	357.31
319.441	360.31
319.67	378.31
319.9	332.31
320.129	350.31
320.358	362.31
320.587	363.31
320.816	353.31
321.046	376.31
321.275	369.31
321.504	385.31
321.733	372.31
321.962	357.31
322.191	390.31
322.42	370.31
322.649	403.31
322.878	399.31
323.108	406.31
323.337	426.31
323.566	424.31
323.795	457.31
324.024	476.31
324.253	571.31
324.482	767.31
324.71	1090.31
324.939	1491.31
325.168	1272.31
325.397	716.31
325.626	547.31
325.855	465.31
326.084	435.31
326.313	437.31
326.542	448.31
326.77	490.31
326.999	553.31
327.228	716.31
327.457	1010.31
327.686	1194.31
327.914	820.31
328.143	619.31
328.372	579.31
328.6	540.31
328.829	499.31
329.058	494.31
329.287	538.31
329.515	496.31
329.744	502.31
329.972	530.31
330.201	595.31
330.43	628.31
330.658	615.31
330.887	576.31
331.115	509.31
331.344	486.31
331.572	469.31
331.801	475.31
332.03	458.31
332.258	469.31
332.486	470.31
332.715	451.31
332.943	476.31
333.172	479.31
333.4	493.31
333.629	530.31
333.857	560.31
334.085	560.31
334.314	647.31
334.542	752.31
334.771	735.31
334.999	614.31
335.227	551.31
335.455	503.31
335.684	473.31
335.912	458.31
336.14	466.31
336.369	459.31
336.597	458.31
336.825	434.31
337.053	423.31
337.281	459.31
337.51	413.31
337.738	434.31
337.966	441.31
338.194	418.31
338.422	426.31
338.65	433.31
338.878	418.31
339.106	407.31
339.334	417.31
339.562	417.31
339.79	410.31
340.018	404.31
340.246	401.31
340.474	400.31
340.702	392.31
340.93	403.31
341.158	402.31
341.386	377.31
341.614	403.31
341.842	376.31
342.07	384.31
342.298	370.31
342.526	380.31
342.754	395.31
342.981	402.31
343.209	395.31
343.437	400.31
343.665	407.31
343.893	423.31
344.12	449.31
344.348	446.31
344.576	434.31
344.804	424.31
345.031	402.31
345.259	411.31
345.487	389.31
345.714	366.31
345.942	378.31
346.17	385.31
346.397	390.31
346.625	391.31
346.853	392.31
347.08	390.31
347.308	375.31
347.535	372.31
347.763	380.31
347.99	381.31
348.218	402.31
348.445	390.31
348.673	372.31
348.9	354.31
349.128	374.31
349.355	379.31
349.583	391.31
349.81	369.31
350.037	370.31
350.265	367.31
350.492	390.31
350.72	382.31
350.947	358.31
351.174	370.31
351.402	382.31
351.629	369.31
351.856	376.31
352.083	373.31
352.311	369.31
352.538	375.31
352.765	371.31
352.992	356.31
353.22	367.31
353.447	377.31
353.674	347.31
353.901	373.31
354.128	368.31
354.355	348.31
354.583	359.31
354.81	359.31
355.037	346.31
355.264	350.31
355.491	371.31
355.718	362.31
355.945	357.31
356.172	359.31
356.399	344.31
356.626	352.31
356.853	378.31
357.08	346.31
357.307	373.31
357.534	356.31
357.761	370.31
357.988	364.31
358.215	351.31
358.441	359.31
358.668	370.31
358.895	379.31
359.122	347.31
359.349	363.31
359.576	369.31
359.802	379.31
360.029	393.31
360.256	406.31
360.483	381.31
360.709	376.31
360.936	367.31
361.163	363.31
361.39	368.31
361.616	384.31
361.843	352.31
362.07	357.31
362.296	374.31
362.523	382.31
362.749	358.31
362.976	359.31
363.203	357.31
363.429	352.31
363.656	366.31
363.882	376.31
364.109	347.31
364.335	370.31
364.562	337.31
364.788	378.31
365.015	359.31
365.241	352.31
365.468	339.31
365.694	373.31
365.92	340.31
366.147	349.31
366.373	353.31
366.599	343.31
366.826	353.31
367.052	345.31
367.278	369.31
367.505	351.31
367.731	342.31
367.957	366.31
368.184	347.31
368.41	364.31
368.636	366.31
368.862	372.31
369.089	366.31
369.315	367.31
369.541	363.31
369.767	364.31
369.993	369.31
370.219	362.31
370.445	370.31
370.672	359.31
370.898	342.31
371.124	364.31
371.35	374.31
371.576	379.31
371.802	367.31
372.028	376.31
372.254	352.31
372.48	351.31
372.706	362.31
372.932	351.31
373.158	396.31
373.384	370.31
373.61	356.31
373.835	384.31
374.061	372.31
374.287	360.31
374.513	382.31
374.739	392.31
374.965	385.31
375.191	406.31
375.416	404.31
375.642	382.31
375.868	377.31
376.094	388.31
376.319	356.31
376.545	390.31
376.771	358.31
376.997	347.31
377.222	374.31
377.448	358.31
377.674	347.31
377.899	384.31
378.125	350.31
378.35	350.31
378.576	347.31
378.802	335.31
379.027	369.31
379.253	353.31
379.478	363.31
379.704	369.31
379.929	356.31
380.155	342.31
380.38	366.31
380.606	358.31
380.831	358.31
381.057	395.31
381.282	374.31
381.507	355.31
381.733	368.31
381.958	370.31
382.184	357.31
382.409	370.31
382.634	356.31
382.86	388.31
383.085	352.31
383.31	382.31
383.535	404.31
383.761	382.31
383.986	381.31
384.211	399.31
384.436	386.31
384.662	392.31
384.887	397.31
385.112	387.31
385.337	416.31
385.562	412.31
385.787	406.31
386.013	409.31
386.238	417.31
386.463	420.31
386.688	394.31
386.913	418.31
387.138	411.31
387.363	420.31
387.588	410.31
387.813	402.31
388.038	389.31
388.263	390.31
388.488	402.31
388.713	415.31
388.938	398.31
389.163	393.31
389.387	414.31
389.612	410.31
389.837	413.31
390.062	404.31
390.287	410.31
390.512	416.31
390.736	418.31
390.961	372.31
391.186	400.31
391.411	411.31
391.636	409.31
391.86	429.31
392.085	434.31
392.31	447.31
392.534	431.31
392.759	438.31
392.984	416.31
393.208	416.31
393.433	406.31
393.658	409.31
393.882	419.31
394.107	434.31
394.331	423.31
394.556	419.31
394.78	416.31
395.005	413.31
395.229	426.31
395.454	430.31
395.678	454.31
395.903	468.31
396.127	444.31
396.352	472.31
396.576	431.31
396.801	427.31
397.025	434.31
397.249	442.31
397.474	426.31
397.698	452.31
397.922	459.31
398.147	460.31
398.371	466.31
398.595	468.31
398.82	482.31
399.044	529.31
399.268	530.31
399.492	577.31
399.717	610.31
399.941	647.31
400.165	660.31
400.389	560.31
400.613	523.31
400.837	516.31
401.062	485.31
401.286	483.31
401.51	473.31
401.734	484.31
401.958	472.31
402.182	479.31
402.406	506.31
402.63	484.31
402.854	503.31
403.078	516.31
403.302	528.31
403.526	532.31
403.75	514.31
403.974	525.31
404.198	533.31
404.422	547.31
404.645	531.31
404.869	584.31
405.093	580.31
405.317	608.31
405.541	641.31
405.765	595.31
405.988	546.31
406.212	540.31
406.436	570.31
406.66	582.31
406.883	541.31
407.107	576.31
407.331	598.31
407.555	640.31
407.778	667.31
408.002	620.31
408.226	594.31
408.449	536.31
408.673	551.31
408.896	586.31
409.12	584.31
409.344	584.31
409.567	538.31
409.791	501.31
410.014	497.31
410.238	525.31
410.461	512.31
410.685	504.31
410.908	520.31
411.132	513.31
411.355	574.31
411.578	544.31
411.802	520.31
412.025	518.31
412.249	519.31
412.472	559.31
412.695	636.31
412.919	601.31
413.142	557.31
413.365	536.31
413.589	517.31
413.812	502.31
414.035	464.31
414.258	469.31
414.482	487.31
414.705	500.31
414.928	484.31
415.151	490.31
415.374	482.31
415.597	475.31
415.821	473.31
416.044	492.31
416.267	473.31
416.49	456.31
416.713	477.31
416.936	463.31
417.159	472.31
417.382	501.31
417.605	484.31
417.828	506.31
418.051	496.31
418.274	504.31
418.497	467.31
418.72	480.31
418.943	485.31
419.166	492.31
419.389	539.31
419.611	506.31
419.834	508.31
420.057	511.31
420.28	532.31
420.503	541.31
420.726	521.31
420.948	533.31
421.171	544.31
421.394	531.31
421.617	506.31
421.839	481.31
422.062	492.31
422.285	508.31
422.507	520.31
422.73	579.31
422.953	566.31
423.175	516.31
423.398	524.31
423.621	521.31
423.843	533.31
424.066	534.31
424.288	516.31
424.511	531.31
424.733	556.31
424.956	611.31
425.178	580.31
425.401	564.31
425.623	575.31
425.846	527.31
426.068	506.31
426.291	490.31
426.513	502.31
426.735	482.31
426.958	506.31
427.18	564.31
427.402	643.31
427.625	709.31
427.847	631.31
428.069	606.31
428.292	542.31
428.514	497.31
428.736	455.31
428.958	470.31
429.181	461.31
429.403	469.31
429.625	465.31
429.847	465.31
430.069	499.31
430.292	518.31
430.514	448.31
430.736	455.31
430.958	446.31
431.18	446.31
431.402	448.31
431.624	427.31
431.846	455.31
432.068	437.31
432.29	426.31
432.512	418.31
432.734	455.31
432.956	451.31
433.178	452.31
433.4	438.31
433.622	436.31
433.844	438.31
434.066	443.31
434.287	434.31
434.509	463.31
434.731	478.31
434.953	457.31
435.175	488.31
435.397	496.31
435.618	508.31
435.84	512.31
436.062	544.31
436.284	608.31
436.505	496.31
436.727	492.31
436.949	464.31
437.17	466.31
437.392	453.31
437.614	459.31
437.835	451.31
438.057	533.31
438.278	572.31
438.5	585.31
438.721	619.31
438.943	603.31
439.165	520.31
439.386	459.31
439.608	470.31
439.829	474.31
440.05	502.31
440.272	524.31
440.493	497.31
440.715	482.31
440.936	475.31
441.158	465.31
441.379	466.31
441.6	484.31
441.822	482.31
442.043	522.31
442.264	564.31
442.486	568.31
442.707	537.31
442.928	497.31
443.149	514.31
443.371	521.31
443.592	548.31
443.813	611.31
444.034	624.31
444.255	562.31
444.476	540.31
444.698	547.31
444.919	533.31
445.14	611.31
445.361	563.31
445.582	532.31
445.803	551.31
446.024	603.31
446.245	567.31
446.466	553.31
446.687	512.31
446.908	470.31
447.129	446.31
447.35	451.31
447.571	450.31
447.792	438.31
448.013	460.31
448.234	458.31
448.455	477.31
448.675	534.31
448.896	609.31
449.117	522.31
449.338	502.31
449.559	580.31
449.779	606.31
450	534.31
450.221	473.31
450.442	447.31
450.662	428.31
450.883	435.31
451.104	441.31
451.324	426.31
451.545	405.31
451.766	408.31
451.986	397.31
452.207	412.31
452.428	408.31
452.648	380.31
452.869	387.31
453.089	383.31
453.31	414.31
453.53	390.31
453.751	386.31
453.971	396.31
454.192	392.31
454.412	392.31
454.633	405.31
454.853	378.31
455.073	389.31
455.294	405.31
455.514	450.31
455.734	414.31
455.955	403.31
456.175	373.31
456.395	376.31
456.616	364.31
456.836	376.31
457.056	372.31
457.276	371.31
457.497	386.31
457.717	377.31
457.937	376.31
458.157	391.31
458.377	391.31
458.598	418.31
458.818	443.31
459.038	476.31
459.258	506.31
459.478	459.31
459.698	479.31
459.918	462.31
460.138	454.31
460.358	471.31
460.578	486.31
460.798	467.31
461.018	480.31
461.238	492.31
461.458	479.31
461.678	471.31
461.898	464.31
462.118	474.31
462.338	497.31
462.558	488.31
462.777	502.31
462.997	522.31
463.217	552.31
463.437	580.31
463.657	566.31
463.876	547.31
464.096	526.31
464.316	512.31
464.536	524.31
464.755	523.31
464.975	513.31
465.195	511.31
465.414	535.31
465.634	486.31
465.854	460.31
466.073	462.31
466.293	434.31
466.512	427.31
466.732	406.31
466.951	427.31
467.171	435.31
467.391	439.31
467.61	438.31
467.829	452.31
468.049	439.31
468.268	441.31
468.488	440.31
468.707	419.31
468.927	385.31
469.146	407.31
469.365	405.31
469.585	423.31
469.804	427.31
470.023	435.31
470.243	438.31
470.462	444.31
470.681	462.31
470.901	440.31
471.12	409.31
471.339	434.31
471.558	435.31
471.777	436.31
471.997	433.31
472.216	458.31
472.435	551.31
472.654	516.31
472.873	450.31
473.092	430.31
473.311	427.31
473.53	423.31
473.749	434.31
473.968	457.31
474.187	477.31
474.406	481.31
474.625	443.31
474.844	436.31
475.063	419.31
475.282	416.31
475.501	422.31
475.72	438.31
475.939	433.31
476.158	426.31
476.377	397.31
476.596	433.31
476.814	454.31
477.033	432.31
477.252	438.31
477.471	443.31
477.69	452.31
477.908	464.31
478.127	474.31
478.346	472.31
478.564	477.31
478.783	482.31
479.002	486.31
479.22	479.31
479.439	498.31
479.658	490.31
479.876	510.31
480.095	517.31
480.313	533.31
480.532	517.31
480.751	550.31
480.969	576.31
481.188	696.31
481.406	774.31
481.624	618.31
481.843	536.31
482.061	530.31
482.28	527.31
482.498	512.31
482.717	519.31
482.935	499.31
483.153	499.31
483.372	483.31
483.59	507.31
483.808	489.31
484.027	477.31
484.245	504.31
484.463	492.31
484.681	495.31
484.9	502.31
485.118	508.31
485.336	499.31
485.554	486.31
485.772	500.31
485.99	492.31
486.209	498.31
486.427	498.31
486.645	517.31
486.863	526.31
487.081	510.31
487.299	532.31
487.517	498.31
487.735	500.31
487.953	521.31
488.171	497.31
488.389	512.31
488.607	489.31
488.825	517.31
489.043	508.31
489.261	503.31
489.479	505.31
489.696	512.31
489.914	536.31
490.132	546.31
490.35	538.31
490.568	539.31
490.786	541.31
491.003	564.31
491.221	576.31
491.439	601.31
491.657	570.31
491.874	593.31
492.092	584.31
492.31	597.31
492.527	596.31
492.745	623.31
492.963	622.31
493.18	617.31
493.398	608.31
493.615	623.31
493.833	585.31
494.05	608.31
494.268	604.31
494.485	584.31
494.703	594.31
494.92	578.31
495.138	580.31
495.355	591.31
495.573	588.31
495.79	576.31
496.008	577.31
496.225	598.31
496.442	578.31
496.66	599.31
496.877	598.31
497.094	610.31
497.312	623.31
497.529	606.31
497.746	614.31
497.963	632.31
498.181	672.31
498.398	666.31
498.615	704.31
498.832	707.31
499.049	752.31
499.267	745.31
499.484	828.31
499.701	894.31
499.918	917.31
500.135	1014.31
500.352	1097.31
500.569	1154.31
500.786	1168.31
501.003	1090.31
501.22	1006.31
501.437	953.31
501.654	911.31
501.871	846.31
