Data from 1984.PennyLincolnUp.Lamp.En5.5.200Scan.071819.P1_HRD10591_16-58-32-968.txt Node
Date: Thu Jul 18 16:58:32 EDT 2019
User: cochatt
Spectrometer: HR+D1059
Trigger mode: 1
Integration Time (sec): 1.000000E-1
Scans to average: 1
Electric dark correction enabled: true
Nonlinearity correction enabled: false
Boxcar width: 0
XAxis mode: Wavelengths
Number of Pixels in Spectrum: 2048
>>>>>Begin Spectral Data<<<<<
223.165	-0.56
223.4	-0.56
223.635	-0.56
223.869	-14.56
224.104	-23.56
224.338	-2.56
224.573	-30.56
224.808	-10.56
225.042	-0.56
225.277	-7.56
225.511	-16.56
225.746	-1.56
225.98	6.44
226.215	11.44
226.449	27.44
226.683	15.44
226.918	19.44
227.152	28.44
227.387	21.44
227.621	45.44
227.856	46.44
228.09	46.44
228.324	53.44
228.559	53.44
228.793	68.44
229.027	91.44
229.262	83.44
229.496	97.44
229.73	100.44
229.964	115.44
230.199	117.44
230.433	109.44
230.667	115.44
230.901	115.44
231.136	115.44
231.37	107.44
231.604	105.44
231.838	97.44
232.072	106.44
232.306	110.44
232.541	102.44
232.775	110.44
233.009	107.44
233.243	105.44
233.477	111.44
233.711	113.44
233.945	108.44
234.179	110.44
234.413	98.44
234.647	105.44
234.881	110.44
235.115	114.44
235.349	122.44
235.583	120.44
235.817	119.44
236.051	109.44
236.285	130.44
236.519	115.44
236.753	130.44
236.987	125.44
237.221	140.44
237.455	180.44
237.689	154.44
237.922	109.44
238.156	119.44
238.39	108.44
238.624	109.44
238.858	111.44
239.091	114.44
239.325	123.44
239.559	109.44
239.793	125.44
240.027	127.44
240.26	121.44
240.494	122.44
240.728	120.44
240.961	127.44
241.195	124.44
241.429	132.44
241.662	137.44
241.896	132.44
242.13	117.44
242.363	125.44
242.597	130.44
242.83	125.44
243.064	125.44
243.298	127.44
243.531	116.44
243.765	125.44
243.998	126.44
244.232	124.44
244.465	127.44
244.699	140.44
244.932	125.44
245.166	130.44
245.399	125.44
245.633	137.44
245.866	124.44
246.099	136.44
246.333	142.44
246.566	144.44
246.8	149.44
247.033	135.44
247.266	144.44
247.5	162.44
247.733	150.44
247.966	143.44
248.2	149.44
248.433	137.44
248.666	146.44
248.899	153.44
249.133	162.44
249.366	163.44
249.599	170.44
249.832	151.44
250.066	168.44
250.299	144.44
250.532	152.44
250.765	180.44
250.998	203.44
251.231	189.44
251.465	183.44
251.698	177.44
251.931	163.44
252.164	161.44
252.397	160.44
252.63	162.44
252.863	166.44
253.096	171.44
253.329	202.44
253.562	198.44
253.795	169.44
254.028	181.44
254.261	180.44
254.494	181.44
254.727	205.44
254.96	214.44
255.193	212.44
255.426	197.44
255.659	199.44
255.892	206.44
256.124	214.44
256.357	242.44
256.59	205.44
256.823	209.44
257.056	197.44
257.289	177.44
257.521	183.44
257.754	187.44
257.987	171.44
258.22	180.44
258.452	169.44
258.685	185.44
258.918	181.44
259.151	182.44
259.383	188.44
259.616	194.44
259.849	198.44
260.081	201.44
260.314	204.44
260.547	206.44
260.779	213.44
261.012	194.44
261.244	193.44
261.477	187.44
261.71	188.44
261.942	206.44
262.175	186.44
262.407	211.44
262.64	189.44
262.872	183.44
263.105	177.44
263.337	191.44
263.57	195.44
263.802	196.44
264.035	185.44
264.267	185.44
264.499	204.44
264.732	202.44
264.964	185.44
265.197	193.44
265.429	191.44
265.661	194.44
265.894	210.44
266.126	207.44
266.358	200.44
266.591	194.44
266.823	216.44
267.055	205.44
267.287	208.44
267.52	211.44
267.752	195.44
267.984	197.44
268.216	195.44
268.448	216.44
268.681	216.44
268.913	214.44
269.145	226.44
269.377	221.44
269.609	213.44
269.841	221.44
270.073	242.44
270.306	245.44
270.538	249.44
270.77	257.44
271.002	254.44
271.234	242.44
271.466	235.44
271.698	255.44
271.93	257.44
272.162	243.44
272.394	258.44
272.626	257.44
272.858	232.44
273.09	250.44
273.322	234.44
273.553	223.44
273.785	231.44
274.017	221.44
274.249	222.44
274.481	246.44
274.713	237.44
274.945	225.44
275.176	237.44
275.408	238.44
275.64	229.44
275.872	227.44
276.104	234.44
276.335	246.44
276.567	227.44
276.799	252.44
277.031	265.44
277.262	261.44
277.494	274.44
277.726	255.44
277.957	277.44
278.189	247.44
278.421	255.44
278.652	247.44
278.884	246.44
279.115	231.44
279.347	242.44
279.579	245.44
279.81	242.44
280.042	241.44
280.273	253.44
280.505	234.44
280.736	241.44
280.968	233.44
281.199	229.44
281.431	243.44
281.662	257.44
281.894	227.44
282.125	232.44
282.356	255.44
282.588	270.44
282.819	264.44
283.051	270.44
283.282	263.44
283.513	268.44
283.745	257.44
283.976	254.44
284.207	249.44
284.439	280.44
284.67	243.44
284.901	284.44
285.132	257.44
285.364	261.44
285.595	274.44
285.826	261.44
286.057	252.44
286.288	256.44
286.52	253.44
286.751	264.44
286.982	261.44
287.213	242.44
287.444	278.44
287.675	266.44
287.906	261.44
288.138	274.44
288.369	272.44
288.6	286.44
288.831	276.44
289.062	268.44
289.293	267.44
289.524	281.44
289.755	279.44
289.986	273.44
290.217	279.44
290.448	266.44
290.679	246.44
290.91	279.44
291.141	268.44
291.371	267.44
291.602	274.44
291.833	263.44
292.064	271.44
292.295	266.44
292.526	271.44
292.757	291.44
292.987	272.44
293.218	266.44
293.449	272.44
293.68	282.44
293.91	263.44
294.141	273.44
294.372	269.44
294.603	271.44
294.833	274.44
295.064	295.44
295.295	287.44
295.525	277.44
295.756	271.44
295.987	270.44
296.217	280.44
296.448	286.44
296.679	302.44
296.909	286.44
297.14	276.44
297.37	271.44
297.601	290.44
297.831	283.44
298.062	281.44
298.292	281.44
298.523	306.44
298.753	293.44
298.984	293.44
299.214	287.44
299.445	289.44
299.675	285.44
299.905	300.44
300.136	283.44
300.366	286.44
300.597	289.44
300.827	301.44
301.057	310.44
301.288	307.44
301.518	291.44
301.748	315.44
301.979	291.44
302.209	313.44
302.439	315.44
302.669	295.44
302.9	298.44
303.13	305.44
303.36	294.44
303.59	309.44
303.82	301.44
304.051	315.44
304.281	325.44
304.511	316.44
304.741	316.44
304.971	301.44
305.201	307.44
305.431	307.44
305.661	295.44
305.891	309.44
306.121	290.44
306.352	295.44
306.582	303.44
306.812	307.44
307.042	325.44
307.272	318.44
307.502	311.44
307.731	309.44
307.961	311.44
308.191	309.44
308.421	286.44
308.651	303.44
308.881	311.44
309.111	308.44
309.341	319.44
309.571	311.44
309.8	334.44
310.03	328.44
310.26	331.44
310.49	327.44
310.72	315.44
310.949	339.44
311.179	332.44
311.409	323.44
311.639	322.44
311.868	316.44
312.098	313.44
312.328	319.44
312.557	346.44
312.787	329.44
313.017	325.44
313.246	326.44
313.476	346.44
313.706	339.44
313.935	333.44
314.165	343.44
314.394	351.44
314.624	338.44
314.853	333.44
315.083	320.44
315.312	334.44
315.542	345.44
315.771	339.44
316.001	330.44
316.23	334.44
316.46	328.44
316.689	323.44
316.919	347.44
317.148	336.44
317.377	334.44
317.607	343.44
317.836	337.44
318.065	349.44
318.295	336.44
318.524	335.44
318.753	336.44
318.983	331.44
319.212	333.44
319.441	334.44
319.67	325.44
319.9	330.44
320.129	344.44
320.358	340.44
320.587	335.44
320.816	333.44
321.046	344.44
321.275	350.44
321.504	344.44
321.733	344.44
321.962	345.44
322.191	354.44
322.42	349.44
322.649	369.44
322.878	364.44
323.108	355.44
323.337	399.44
323.566	402.44
323.795	411.44
324.024	435.44
324.253	504.44
324.482	693.44
324.71	960.44
324.939	1306.44
325.168	1113.44
325.397	638.44
325.626	487.44
325.855	424.44
326.084	434.44
326.313	414.44
326.542	410.44
326.77	444.44
326.999	501.44
327.228	645.44
327.457	869.44
327.686	1018.44
327.914	732.44
328.143	523.44
328.372	510.44
328.6	471.44
328.829	425.44
329.058	416.44
329.287	452.44
329.515	426.44
329.744	435.44
329.972	450.44
330.201	465.44
330.43	509.44
330.658	485.44
330.887	483.44
331.115	456.44
331.344	444.44
331.572	411.44
331.801	411.44
332.03	418.44
332.258	420.44
332.486	440.44
332.715	425.44
332.943	409.44
333.172	449.44
333.4	453.44
333.629	466.44
333.857	503.44
334.085	486.44
334.314	526.44
334.542	566.44
334.771	546.44
334.999	505.44
335.227	453.44
335.455	449.44
335.684	446.44
335.912	409.44
336.14	421.44
336.369	421.44
336.597	404.44
336.825	419.44
337.053	395.44
337.281	398.44
337.51	398.44
337.738	411.44
337.966	369.44
338.194	392.44
338.422	417.44
338.65	384.44
338.878	391.44
339.106	377.44
339.334	396.44
339.562	367.44
339.79	369.44
340.018	377.44
340.246	373.44
340.474	378.44
340.702	375.44
340.93	376.44
341.158	374.44
341.386	375.44
341.614	379.44
341.842	379.44
342.07	376.44
342.298	352.44
342.526	372.44
342.754	387.44
342.981	372.44
343.209	379.44
343.437	370.44
343.665	409.44
343.893	407.44
344.12	438.44
344.348	413.44
344.576	405.44
344.804	394.44
345.031	395.44
345.259	374.44
345.487	372.44
345.714	379.44
345.942	371.44
346.17	357.44
346.397	355.44
346.625	345.44
346.853	343.44
347.08	366.44
347.308	370.44
347.535	365.44
347.763	371.44
347.99	359.44
348.218	357.44
348.445	367.44
348.673	363.44
348.9	356.44
349.128	364.44
349.355	344.44
349.583	350.44
349.81	343.44
350.037	352.44
350.265	363.44
350.492	370.44
350.72	355.44
350.947	348.44
351.174	333.44
351.402	356.44
351.629	349.44
351.856	377.44
352.083	358.44
352.311	345.44
352.538	349.44
352.765	362.44
352.992	340.44
353.22	363.44
353.447	344.44
353.674	341.44
353.901	334.44
354.128	332.44
354.355	348.44
354.583	349.44
354.81	349.44
355.037	348.44
355.264	335.44
355.491	341.44
355.718	341.44
355.945	346.44
356.172	342.44
356.399	348.44
356.626	330.44
356.853	353.44
357.08	340.44
357.307	345.44
357.534	331.44
357.761	341.44
357.988	333.44
358.215	349.44
358.441	356.44
358.668	355.44
358.895	348.44
359.122	348.44
359.349	335.44
359.576	351.44
359.802	356.44
360.029	369.44
360.256	375.44
360.483	362.44
360.709	333.44
360.936	342.44
361.163	349.44
361.39	360.44
361.616	344.44
361.843	348.44
362.07	374.44
362.296	357.44
362.523	356.44
362.749	351.44
362.976	347.44
363.203	349.44
363.429	317.44
363.656	340.44
363.882	356.44
364.109	331.44
364.335	334.44
364.562	340.44
364.788	332.44
365.015	321.44
365.241	346.44
365.468	332.44
365.694	341.44
365.92	330.44
366.147	342.44
366.373	332.44
366.599	343.44
366.826	347.44
367.052	341.44
367.278	345.44
367.505	343.44
367.731	350.44
367.957	341.44
368.184	341.44
368.41	345.44
368.636	326.44
368.862	359.44
369.089	342.44
369.315	350.44
369.541	327.44
369.767	350.44
369.993	335.44
370.219	333.44
370.445	335.44
370.672	338.44
370.898	358.44
371.124	344.44
371.35	357.44
371.576	348.44
371.802	344.44
372.028	352.44
372.254	346.44
372.48	367.44
372.706	354.44
372.932	365.44
373.158	363.44
373.384	338.44
373.61	355.44
373.835	347.44
374.061	367.44
374.287	345.44
374.513	362.44
374.739	366.44
374.965	379.44
375.191	376.44
375.416	376.44
375.642	359.44
375.868	353.44
376.094	340.44
376.319	333.44
376.545	356.44
376.771	360.44
376.997	325.44
377.222	350.44
377.448	342.44
377.674	366.44
377.899	345.44
378.125	346.44
378.35	337.44
378.576	337.44
378.802	339.44
379.027	344.44
379.253	342.44
379.478	353.44
379.704	346.44
379.929	348.44
380.155	326.44
380.38	343.44
380.606	349.44
380.831	323.44
381.057	336.44
381.282	345.44
381.507	364.44
381.733	341.44
381.958	346.44
382.184	346.44
382.409	354.44
382.634	366.44
382.86	348.44
383.085	347.44
383.31	368.44
383.535	375.44
383.761	374.44
383.986	361.44
384.211	364.44
384.436	370.44
384.662	375.44
384.887	387.44
385.112	379.44
385.337	385.44
385.562	397.44
385.787	408.44
386.013	407.44
386.238	423.44
386.463	386.44
386.688	396.44
386.913	387.44
387.138	405.44
387.363	407.44
387.588	392.44
387.813	375.44
388.038	389.44
388.263	395.44
388.488	379.44
388.713	369.44
388.938	395.44
389.163	393.44
389.387	392.44
389.612	374.44
389.837	381.44
390.062	376.44
390.287	362.44
390.512	398.44
390.736	385.44
390.961	381.44
391.186	389.44
391.411	393.44
391.636	397.44
391.86	423.44
392.085	419.44
392.31	419.44
392.534	411.44
392.759	378.44
392.984	400.44
393.208	395.44
393.433	397.44
393.658	418.44
393.882	416.44
394.107	377.44
394.331	419.44
394.556	394.44
394.78	395.44
395.005	406.44
395.229	412.44
395.454	407.44
395.678	411.44
395.903	434.44
396.127	426.44
396.352	406.44
396.576	423.44
396.801	405.44
397.025	411.44
397.249	425.44
397.474	433.44
397.698	413.44
397.922	421.44
398.147	415.44
398.371	428.44
398.595	446.44
398.82	461.44
399.044	485.44
399.268	497.44
399.492	557.44
399.717	601.44
399.941	601.44
400.165	574.44
400.389	572.44
400.613	519.44
400.837	488.44
401.062	482.44
401.286	466.44
401.51	454.44
401.734	456.44
401.958	464.44
402.182	493.44
402.406	473.44
402.63	456.44
402.854	467.44
403.078	479.44
403.302	483.44
403.526	475.44
403.75	489.44
403.974	514.44
404.198	478.44
404.422	514.44
404.645	517.44
404.869	543.44
405.093	534.44
405.317	550.44
405.541	572.44
405.765	517.44
405.988	516.44
406.212	518.44
406.436	506.44
406.66	512.44
406.883	505.44
407.107	553.44
407.331	598.44
407.555	581.44
407.778	616.44
408.002	574.44
408.226	531.44
408.449	513.44
408.673	523.44
408.896	528.44
409.12	566.44
409.344	526.44
409.567	495.44
409.791	494.44
410.014	498.44
410.238	490.44
410.461	493.44
410.685	484.44
410.908	485.44
411.132	499.44
411.355	515.44
411.578	518.44
411.802	467.44
412.025	476.44
412.249	494.44
412.472	513.44
412.695	550.44
412.919	537.44
413.142	525.44
413.365	470.44
413.589	463.44
413.812	479.44
414.035	455.44
414.258	463.44
414.482	450.44
414.705	467.44
414.928	457.44
415.151	441.44
415.374	446.44
415.597	440.44
415.821	438.44
416.044	415.44
416.267	459.44
416.49	454.44
416.713	442.44
416.936	433.44
417.159	443.44
417.382	450.44
417.605	449.44
417.828	460.44
418.051	467.44
418.274	474.44
418.497	458.44
418.72	460.44
418.943	446.44
419.166	477.44
419.389	490.44
419.611	487.44
419.834	495.44
420.057	461.44
420.28	489.44
420.503	486.44
420.726	475.44
420.948	474.44
421.171	489.44
421.394	484.44
421.617	452.44
421.839	464.44
422.062	441.44
422.285	471.44
422.507	501.44
422.73	555.44
422.953	518.44
423.175	479.44
423.398	490.44
423.621	481.44
423.843	506.44
424.066	469.44
424.288	480.44
424.511	510.44
424.733	541.44
424.956	562.44
425.178	545.44
425.401	535.44
425.623	553.44
425.846	481.44
426.068	470.44
426.291	476.44
426.513	447.44
426.735	472.44
426.958	484.44
427.18	541.44
427.402	598.44
427.625	646.44
427.847	575.44
428.069	530.44
428.292	504.44
428.514	468.44
428.736	448.44
428.958	415.44
429.181	399.44
429.403	410.44
429.625	443.44
429.847	449.44
430.069	486.44
430.292	459.44
430.514	427.44
430.736	414.44
430.958	410.44
431.18	418.44
431.402	428.44
431.624	414.44
431.846	422.44
432.068	426.44
432.29	413.44
432.512	413.44
432.734	420.44
432.956	430.44
433.178	427.44
433.4	437.44
433.622	425.44
433.844	407.44
434.066	439.44
434.287	429.44
434.509	419.44
434.731	436.44
434.953	447.44
435.175	439.44
435.397	489.44
435.618	443.44
435.84	465.44
436.062	523.44
436.284	551.44
436.505	488.44
436.727	443.44
436.949	437.44
437.17	429.44
437.392	427.44
437.614	434.44
437.835	436.44
438.057	487.44
438.278	554.44
438.5	550.44
438.721	584.44
438.943	563.44
439.165	470.44
439.386	453.44
439.608	449.44
439.829	442.44
440.05	475.44
440.272	485.44
440.493	487.44
440.715	444.44
440.936	437.44
441.158	437.44
441.379	438.44
441.6	448.44
441.822	474.44
442.043	505.44
442.264	517.44
442.486	535.44
442.707	497.44
442.928	475.44
443.149	483.44
443.371	500.44
443.592	513.44
443.813	580.44
444.034	609.44
444.255	539.44
444.476	512.44
444.698	515.44
444.919	526.44
445.14	614.44
445.361	542.44
445.582	513.44
445.803	515.44
446.024	551.44
446.245	540.44
446.466	534.44
446.687	454.44
446.908	454.44
447.129	444.44
447.35	409.44
447.571	418.44
447.792	387.44
448.013	395.44
448.234	428.44
448.455	442.44
448.675	508.44
448.896	550.44
449.117	515.44
449.338	488.44
449.559	539.44
449.779	569.44
450	490.44
450.221	414.44
450.442	390.44
450.662	425.44
450.883	402.44
451.104	406.44
451.324	411.44
451.545	416.44
451.766	389.44
451.986	397.44
452.207	378.44
452.428	387.44
452.648	383.44
452.869	369.44
453.089	389.44
453.31	402.44
453.53	383.44
453.751	358.44
453.971	373.44
454.192	365.44
454.412	354.44
454.633	365.44
454.853	375.44
455.073	369.44
455.294	390.44
455.514	415.44
455.734	411.44
455.955	365.44
456.175	347.44
456.395	356.44
456.616	364.44
456.836	364.44
457.056	355.44
457.276	357.44
457.497	334.44
457.717	355.44
457.937	366.44
458.157	381.44
458.377	378.44
458.598	392.44
458.818	411.44
459.038	451.44
459.258	479.44
459.478	425.44
459.698	417.44
459.918	442.44
460.138	448.44
460.358	443.44
460.578	428.44
460.798	433.44
461.018	462.44
461.238	467.44
461.458	447.44
461.678	443.44
461.898	464.44
462.118	453.44
462.338	475.44
462.558	495.44
462.777	458.44
462.997	502.44
463.217	538.44
463.437	550.44
463.657	518.44
463.876	482.44
464.096	517.44
464.316	513.44
464.536	513.44
464.755	474.44
464.975	459.44
465.195	483.44
465.414	475.44
465.634	441.44
465.854	445.44
466.073	414.44
466.293	425.44
466.512	391.44
466.732	389.44
466.951	403.44
467.171	397.44
467.391	406.44
467.61	406.44
467.829	385.44
468.049	394.44
468.268	405.44
468.488	393.44
468.707	389.44
468.927	401.44
469.146	372.44
469.365	374.44
469.585	389.44
469.804	417.44
470.023	401.44
470.243	405.44
470.462	426.44
470.681	418.44
470.901	422.44
471.12	413.44
471.339	397.44
471.558	392.44
471.777	401.44
471.997	382.44
472.216	405.44
472.435	454.44
472.654	417.44
472.873	408.44
473.092	395.44
473.311	380.44
473.53	392.44
473.749	383.44
473.968	416.44
474.187	436.44
474.406	472.44
474.625	403.44
474.844	389.44
475.063	397.44
475.282	388.44
475.501	373.44
475.72	379.44
475.939	391.44
476.158	389.44
476.377	382.44
476.596	387.44
476.814	404.44
477.033	427.44
477.252	417.44
477.471	429.44
477.69	420.44
477.908	421.44
478.127	427.44
478.346	457.44
478.564	446.44
478.783	434.44
479.002	439.44
479.22	443.44
479.439	479.44
479.658	471.44
479.876	477.44
480.095	469.44
480.313	492.44
480.532	489.44
480.751	500.44
480.969	499.44
481.188	561.44
481.406	598.44
481.624	526.44
481.843	486.44
482.061	470.44
482.28	487.44
482.498	439.44
482.717	460.44
482.935	450.44
483.153	422.44
483.372	431.44
483.59	454.44
483.808	453.44
484.027	447.44
484.245	450.44
484.463	433.44
484.681	435.44
484.9	465.44
485.118	466.44
485.336	445.44
485.554	446.44
485.772	456.44
485.99	467.44
486.209	454.44
486.427	453.44
486.645	467.44
486.863	475.44
487.081	469.44
487.299	461.44
487.517	459.44
487.735	487.44
487.953	464.44
488.171	482.44
488.389	466.44
488.607	482.44
488.825	471.44
489.043	467.44
489.261	479.44
489.479	438.44
489.696	461.44
489.914	467.44
490.132	472.44
490.35	485.44
490.568	473.44
490.786	486.44
491.003	474.44
491.221	494.44
491.439	536.44
491.657	518.44
491.874	548.44
492.092	514.44
492.31	534.44
492.527	522.44
492.745	557.44
492.963	539.44
493.18	558.44
493.398	544.44
493.615	550.44
493.833	549.44
494.05	560.44
494.268	525.44
494.485	527.44
494.703	556.44
494.92	561.44
495.138	555.44
495.355	523.44
495.573	537.44
495.79	527.44
496.008	534.44
496.225	519.44
496.442	547.44
496.66	552.44
496.877	539.44
497.094	565.44
497.312	574.44
497.529	585.44
497.746	582.44
497.963	602.44
498.181	594.44
498.398	628.44
498.615	626.44
498.832	677.44
499.049	714.44
499.267	734.44
499.484	769.44
499.701	821.44
499.918	875.44
500.135	951.44
500.352	1015.44
500.569	1052.44
500.786	1079.44
501.003	1015.44
501.22	959.44
501.437	896.44
501.654	835.44
501.871	787.44
502.088	733.44
