Data from 1985.PennyLincolnUp.Lamp.En5.5.200Scan.071819.P1_HRD10591_17-03-11-971.txt Node
Date: Thu Jul 18 17:03:11 EDT 2019
User: cochatt
Spectrometer: HR+D1059
Trigger mode: 1
Integration Time (sec): 1.000000E-1
Scans to average: 1
Electric dark correction enabled: true
Nonlinearity correction enabled: false
Boxcar width: 0
XAxis mode: Wavelengths
Number of Pixels in Spectrum: 2048
>>>>>Begin Spectral Data<<<<<
223.165	-12.62
223.4	-12.62
223.635	-12.62
223.869	-13.62
224.104	-19.62
224.338	-6.62
224.573	-7.62
224.808	-15.62
225.042	-25.62
225.277	-1.62
225.511	1.38
225.746	-1.62
225.98	7.38
226.215	4.38
226.449	18.38
226.683	15.38
226.918	32.38
227.152	25.38
227.387	43.38
227.621	41.38
227.856	45.38
228.09	61.38
228.324	67.38
228.559	62.38
228.793	75.38
229.027	76.38
229.262	122.38
229.496	111.38
229.73	124.38
229.964	144.38
230.199	125.38
230.433	110.38
230.667	105.38
230.901	108.38
231.136	104.38
231.37	112.38
231.604	126.38
231.838	123.38
232.072	103.38
232.306	104.38
232.541	119.38
232.775	113.38
233.009	122.38
233.243	105.38
233.477	112.38
233.711	121.38
233.945	126.38
234.179	119.38
234.413	116.38
234.647	116.38
234.881	130.38
235.115	115.38
235.349	124.38
235.583	128.38
235.817	135.38
236.051	135.38
236.285	141.38
236.519	124.38
236.753	128.38
236.987	148.38
237.221	179.38
237.455	216.38
237.689	163.38
237.922	137.38
238.156	151.38
238.39	128.38
238.624	121.38
238.858	120.38
239.091	118.38
239.325	104.38
239.559	126.38
239.793	133.38
240.027	136.38
240.26	162.38
240.494	155.38
240.728	137.38
240.961	157.38
241.195	144.38
241.429	140.38
241.662	129.38
241.896	137.38
242.13	134.38
242.363	130.38
242.597	143.38
242.83	138.38
243.064	150.38
243.298	135.38
243.531	148.38
243.765	133.38
243.998	134.38
244.232	126.38
244.465	156.38
244.699	160.38
244.932	159.38
245.166	148.38
245.399	154.38
245.633	150.38
245.866	144.38
246.099	137.38
246.333	169.38
246.566	162.38
246.8	160.38
247.033	154.38
247.266	168.38
247.5	160.38
247.733	159.38
247.966	171.38
248.2	179.38
248.433	163.38
248.666	187.38
248.899	187.38
249.133	182.38
249.366	204.38
249.599	198.38
249.832	172.38
250.066	172.38
250.299	188.38
250.532	202.38
250.765	207.38
250.998	230.38
251.231	237.38
251.465	210.38
251.698	216.38
251.931	208.38
252.164	182.38
252.397	207.38
252.63	221.38
252.863	221.38
253.096	213.38
253.329	232.38
253.562	217.38
253.795	221.38
254.028	194.38
254.261	215.38
254.494	226.38
254.727	267.38
254.96	260.38
255.193	283.38
255.426	235.38
255.659	220.38
255.892	224.38
256.124	226.38
256.357	228.38
256.59	234.38
256.823	235.38
257.056	220.38
257.289	206.38
257.521	232.38
257.754	203.38
257.987	206.38
258.22	223.38
258.452	215.38
258.685	221.38
258.918	211.38
259.151	200.38
259.383	214.38
259.616	214.38
259.849	225.38
260.081	226.38
260.314	242.38
260.547	262.38
260.779	233.38
261.012	252.38
261.244	244.38
261.477	231.38
261.71	240.38
261.942	225.38
262.175	236.38
262.407	216.38
262.64	226.38
262.872	218.38
263.105	230.38
263.337	209.38
263.57	238.38
263.802	220.38
264.035	226.38
264.267	228.38
264.499	216.38
264.732	228.38
264.964	215.38
265.197	216.38
265.429	231.38
265.661	221.38
265.894	234.38
266.126	226.38
266.358	220.38
266.591	220.38
266.823	258.38
267.055	245.38
267.287	235.38
267.52	243.38
267.752	253.38
267.984	230.38
268.216	248.38
268.448	260.38
268.681	253.38
268.913	248.38
269.145	282.38
269.377	288.38
269.609	281.38
269.841	289.38
270.073	275.38
270.306	292.38
270.538	330.38
270.77	331.38
271.002	299.38
271.234	301.38
271.466	293.38
271.698	309.38
271.93	336.38
272.162	317.38
272.394	324.38
272.626	317.38
272.858	299.38
273.09	302.38
273.322	280.38
273.553	267.38
273.785	282.38
274.017	281.38
274.249	293.38
274.481	299.38
274.713	281.38
274.945	288.38
275.176	278.38
275.408	266.38
275.64	287.38
275.872	294.38
276.104	279.38
276.335	289.38
276.567	286.38
276.799	304.38
277.031	327.38
277.262	330.38
277.494	341.38
277.726	311.38
277.957	296.38
278.189	294.38
278.421	293.38
278.652	301.38
278.884	284.38
279.115	286.38
279.347	286.38
279.579	293.38
279.81	311.38
280.042	287.38
280.273	270.38
280.505	272.38
280.736	279.38
280.968	292.38
281.199	290.38
281.431	300.38
281.662	299.38
281.894	291.38
282.125	317.38
282.356	333.38
282.588	343.38
282.819	330.38
283.051	295.38
283.282	285.38
283.513	307.38
283.745	309.38
283.976	329.38
284.207	309.38
284.439	335.38
284.67	306.38
284.901	303.38
285.132	303.38
285.364	298.38
285.595	298.38
285.826	291.38
286.057	298.38
286.288	311.38
286.52	296.38
286.751	301.38
286.982	319.38
287.213	296.38
287.444	290.38
287.675	326.38
287.906	328.38
288.138	338.38
288.369	347.38
288.6	346.38
288.831	308.38
289.062	325.38
289.293	319.38
289.524	323.38
289.755	347.38
289.986	315.38
290.217	327.38
290.448	321.38
290.679	346.38
290.91	320.38
291.141	322.38
291.371	317.38
291.602	328.38
291.833	323.38
292.064	339.38
292.295	318.38
292.526	332.38
292.757	320.38
292.987	316.38
293.218	328.38
293.449	334.38
293.68	343.38
293.91	330.38
294.141	314.38
294.372	317.38
294.603	334.38
294.833	333.38
295.064	329.38
295.295	323.38
295.525	319.38
295.756	334.38
295.987	343.38
296.217	377.38
296.448	366.38
296.679	327.38
296.909	344.38
297.14	336.38
297.37	335.38
297.601	324.38
297.831	335.38
298.062	352.38
298.292	349.38
298.523	338.38
298.753	352.38
298.984	347.38
299.214	354.38
299.445	362.38
299.675	367.38
299.905	356.38
300.136	381.38
300.366	351.38
300.597	346.38
300.827	354.38
301.057	362.38
301.288	368.38
301.518	365.38
301.748	371.38
301.979	394.38
302.209	377.38
302.439	365.38
302.669	378.38
302.9	374.38
303.13	364.38
303.36	360.38
303.59	362.38
303.82	382.38
304.051	373.38
304.281	378.38
304.511	368.38
304.741	359.38
304.971	362.38
305.201	364.38
305.431	364.38
305.661	369.38
305.891	359.38
306.121	382.38
306.352	370.38
306.582	361.38
306.812	373.38
307.042	364.38
307.272	374.38
307.502	376.38
307.731	384.38
307.961	380.38
308.191	376.38
308.421	371.38
308.651	378.38
308.881	402.38
309.111	385.38
309.341	387.38
309.571	379.38
309.8	411.38
310.03	411.38
310.26	417.38
310.49	408.38
310.72	428.38
310.949	447.38
311.179	433.38
311.409	424.38
311.639	423.38
311.868	418.38
312.098	446.38
312.328	428.38
312.557	443.38
312.787	438.38
313.017	428.38
313.246	429.38
313.476	404.38
313.706	409.38
313.935	422.38
314.165	423.38
314.394	470.38
314.624	438.38
314.853	413.38
315.083	422.38
315.312	412.38
315.542	412.38
315.771	414.38
316.001	409.38
316.23	428.38
316.46	428.38
316.689	420.38
316.919	444.38
317.148	425.38
317.377	415.38
317.607	423.38
317.836	444.38
318.065	431.38
318.295	405.38
318.524	424.38
318.753	427.38
318.983	418.38
319.212	441.38
319.441	430.38
319.67	445.38
319.9	419.38
320.129	416.38
320.358	429.38
320.587	426.38
320.816	430.38
321.046	451.38
321.275	428.38
321.504	429.38
321.733	438.38
321.962	459.38
322.191	455.38
322.42	468.38
322.649	485.38
322.878	496.38
323.108	488.38
323.337	515.38
323.566	544.38
323.795	567.38
324.024	584.38
324.253	694.38
324.482	945.38
324.71	1455.38
324.939	2014.38
325.168	1745.38
325.397	907.38
325.626	658.38
325.855	591.38
326.084	544.38
326.313	529.38
326.542	535.38
326.77	582.38
326.999	661.38
327.228	884.38
327.457	1290.38
327.686	1563.38
327.914	1029.38
328.143	710.38
328.372	650.38
328.6	612.38
328.829	583.38
329.058	603.38
329.287	599.38
329.515	554.38
329.744	562.38
329.972	544.38
330.201	545.38
330.43	598.38
330.658	618.38
330.887	647.38
331.115	633.38
331.344	548.38
331.572	542.38
331.801	537.38
332.03	525.38
332.258	536.38
332.486	496.38
332.715	503.38
332.943	521.38
333.172	541.38
333.4	524.38
333.629	548.38
333.857	550.38
334.085	553.38
334.314	551.38
334.542	569.38
334.771	584.38
334.999	562.38
335.227	549.38
335.455	533.38
335.684	535.38
335.912	526.38
336.14	498.38
336.369	518.38
336.597	514.38
336.825	523.38
337.053	492.38
337.281	493.38
337.51	469.38
337.738	490.38
337.966	504.38
338.194	528.38
338.422	488.38
338.65	495.38
338.878	472.38
339.106	477.38
339.334	471.38
339.562	468.38
339.79	471.38
340.018	461.38
340.246	470.38
340.474	476.38
340.702	485.38
340.93	469.38
341.158	477.38
341.386	467.38
341.614	476.38
341.842	483.38
342.07	460.38
342.298	468.38
342.526	476.38
342.754	473.38
342.981	453.38
343.209	454.38
343.437	483.38
343.665	494.38
343.893	511.38
344.12	508.38
344.348	490.38
344.576	491.38
344.804	495.38
345.031	503.38
345.259	488.38
345.487	464.38
345.714	465.38
345.942	453.38
346.17	459.38
346.397	461.38
346.625	464.38
346.853	446.38
347.08	465.38
347.308	470.38
347.535	467.38
347.763	477.38
347.99	465.38
348.218	480.38
348.445	456.38
348.673	470.38
348.9	461.38
349.128	432.38
349.355	432.38
349.583	451.38
349.81	437.38
350.037	439.38
350.265	442.38
350.492	436.38
350.72	434.38
350.947	462.38
351.174	450.38
351.402	468.38
351.629	473.38
351.856	474.38
352.083	469.38
352.311	496.38
352.538	463.38
352.765	436.38
352.992	451.38
353.22	442.38
353.447	459.38
353.674	427.38
353.901	420.38
354.128	425.38
354.355	423.38
354.583	436.38
354.81	410.38
355.037	428.38
355.264	416.38
355.491	421.38
355.718	426.38
355.945	410.38
356.172	430.38
356.399	430.38
356.626	422.38
356.853	426.38
357.08	419.38
357.307	442.38
357.534	429.38
357.761	423.38
357.988	414.38
358.215	426.38
358.441	427.38
358.668	432.38
358.895	419.38
359.122	455.38
359.349	456.38
359.576	461.38
359.802	466.38
360.029	512.38
360.256	505.38
360.483	476.38
360.709	458.38
360.936	473.38
361.163	459.38
361.39	450.38
361.616	468.38
361.843	455.38
362.07	450.38
362.296	463.38
362.523	451.38
362.749	432.38
362.976	430.38
363.203	422.38
363.429	426.38
363.656	446.38
363.882	408.38
364.109	426.38
364.335	425.38
364.562	423.38
364.788	430.38
365.015	438.38
365.241	438.38
365.468	444.38
365.694	446.38
365.92	457.38
366.147	442.38
366.373	416.38
366.599	417.38
366.826	426.38
367.052	432.38
367.278	421.38
367.505	415.38
367.731	434.38
367.957	426.38
368.184	426.38
368.41	436.38
368.636	441.38
368.862	427.38
369.089	424.38
369.315	428.38
369.541	435.38
369.767	426.38
369.993	445.38
370.219	442.38
370.445	445.38
370.672	422.38
370.898	442.38
371.124	416.38
371.35	420.38
371.576	432.38
371.802	448.38
372.028	441.38
372.254	424.38
372.48	414.38
372.706	451.38
372.932	438.38
373.158	446.38
373.384	452.38
373.61	429.38
373.835	450.38
374.061	432.38
374.287	438.38
374.513	439.38
374.739	448.38
374.965	452.38
375.191	446.38
375.416	448.38
375.642	458.38
375.868	430.38
376.094	414.38
376.319	419.38
376.545	426.38
376.771	419.38
376.997	426.38
377.222	439.38
377.448	425.38
377.674	444.38
377.899	427.38
378.125	431.38
378.35	414.38
378.576	421.38
378.802	425.38
379.027	435.38
379.253	419.38
379.478	421.38
379.704	415.38
379.929	422.38
380.155	422.38
380.38	414.38
380.606	421.38
380.831	436.38
381.057	433.38
381.282	431.38
381.507	454.38
381.733	420.38
381.958	438.38
382.184	428.38
382.409	427.38
382.634	440.38
382.86	430.38
383.085	428.38
383.31	440.38
383.535	447.38
383.761	462.38
383.986	468.38
384.211	454.38
384.436	458.38
384.662	462.38
384.887	463.38
385.112	468.38
385.337	460.38
385.562	474.38
385.787	449.38
386.013	481.38
386.238	492.38
386.463	479.38
386.688	476.38
386.913	463.38
387.138	470.38
387.363	469.38
387.588	480.38
387.813	462.38
388.038	486.38
388.263	458.38
388.488	479.38
388.713	480.38
388.938	467.38
389.163	470.38
389.387	487.38
389.612	475.38
389.837	470.38
390.062	472.38
390.287	477.38
390.512	455.38
390.736	476.38
390.961	494.38
391.186	478.38
391.411	485.38
391.636	493.38
391.86	502.38
392.085	500.38
392.31	507.38
392.534	503.38
392.759	496.38
392.984	477.38
393.208	485.38
393.433	466.38
393.658	464.38
393.882	491.38
394.107	484.38
394.331	491.38
394.556	479.38
394.78	468.38
395.005	507.38
395.229	491.38
395.454	487.38
395.678	500.38
395.903	498.38
396.127	525.38
396.352	528.38
396.576	507.38
396.801	469.38
397.025	494.38
397.249	470.38
397.474	520.38
397.698	516.38
397.922	531.38
398.147	529.38
398.371	558.38
398.595	556.38
398.82	568.38
399.044	565.38
399.268	596.38
399.492	644.38
399.717	707.38
399.941	699.38
400.165	711.38
400.389	719.38
400.613	644.38
400.837	587.38
401.062	581.38
401.286	564.38
401.51	552.38
401.734	559.38
401.958	555.38
402.182	589.38
402.406	576.38
402.63	575.38
402.854	578.38
403.078	607.38
403.302	566.38
403.526	605.38
403.75	598.38
403.974	583.38
404.198	598.38
404.422	619.38
404.645	596.38
404.869	586.38
405.093	611.38
405.317	648.38
405.541	646.38
405.765	641.38
405.988	622.38
406.212	601.38
406.436	639.38
406.66	636.38
406.883	626.38
407.107	663.38
407.331	709.38
407.555	784.38
407.778	751.38
408.002	694.38
408.226	648.38
408.449	615.38
408.673	607.38
408.896	640.38
409.12	662.38
409.344	626.38
409.567	592.38
409.791	570.38
410.014	581.38
410.238	584.38
410.461	584.38
410.685	569.38
410.908	582.38
411.132	649.38
411.355	622.38
411.578	602.38
411.802	571.38
412.025	579.38
412.249	585.38
412.472	588.38
412.695	598.38
412.919	578.38
413.142	544.38
413.365	557.38
413.589	559.38
413.812	541.38
414.035	538.38
414.258	541.38
414.482	524.38
414.705	544.38
414.928	546.38
415.151	543.38
415.374	519.38
415.597	538.38
415.821	538.38
416.044	521.38
416.267	543.38
416.49	546.38
416.713	529.38
416.936	517.38
417.159	511.38
417.382	523.38
417.605	524.38
417.828	534.38
418.051	557.38
418.274	543.38
418.497	534.38
418.72	549.38
418.943	536.38
419.166	548.38
419.389	573.38
419.611	606.38
419.834	553.38
420.057	577.38
420.28	590.38
420.503	548.38
420.726	541.38
420.948	579.38
421.171	617.38
421.394	631.38
421.617	572.38
421.839	550.38
422.062	579.38
422.285	564.38
422.507	634.38
422.73	690.38
422.953	681.38
423.175	611.38
423.398	585.38
423.621	578.38
423.843	594.38
424.066	599.38
424.288	591.38
424.511	592.38
424.733	647.38
424.956	719.38
425.178	687.38
425.401	691.38
425.623	730.38
425.846	619.38
426.068	592.38
426.291	588.38
426.513	593.38
426.735	584.38
426.958	603.38
427.18	708.38
427.402	828.38
427.625	893.38
427.847	771.38
428.069	660.38
428.292	586.38
428.514	558.38
428.736	543.38
428.958	554.38
429.181	529.38
429.403	533.38
429.625	533.38
429.847	559.38
430.069	613.38
430.292	635.38
430.514	546.38
430.736	523.38
430.958	511.38
431.18	511.38
431.402	520.38
431.624	504.38
431.846	523.38
432.068	509.38
432.29	494.38
432.512	507.38
432.734	520.38
432.956	526.38
433.178	514.38
433.4	525.38
433.622	507.38
433.844	501.38
434.066	521.38
434.287	517.38
434.509	506.38
434.731	548.38
434.953	541.38
435.175	549.38
435.397	581.38
435.618	553.38
435.84	622.38
436.062	701.38
436.284	774.38
436.505	647.38
436.727	569.38
436.949	542.38
437.17	534.38
437.392	543.38
437.614	546.38
437.835	575.38
438.057	655.38
438.278	741.38
438.5	751.38
438.721	818.38
438.943	779.38
439.165	646.38
439.386	608.38
439.608	581.38
439.829	555.38
440.05	564.38
440.272	632.38
440.493	600.38
440.715	536.38
440.936	554.38
441.158	563.38
441.379	530.38
441.6	552.38
441.822	570.38
442.043	612.38
442.264	680.38
442.486	726.38
442.707	642.38
442.928	590.38
443.149	600.38
443.371	618.38
443.592	653.38
443.813	729.38
444.034	788.38
444.255	662.38
444.476	619.38
444.698	609.38
444.919	628.38
445.14	760.38
445.361	668.38
445.582	640.38
445.803	694.38
446.024	770.38
446.245	766.38
446.466	703.38
446.687	611.38
446.908	571.38
447.129	523.38
447.35	531.38
447.571	532.38
447.792	501.38
448.013	535.38
448.234	538.38
448.455	584.38
448.675	674.38
448.896	799.38
449.117	658.38
449.338	644.38
449.559	737.38
449.779	857.38
450	664.38
450.221	552.38
450.442	528.38
450.662	501.38
450.883	493.38
451.104	523.38
451.324	517.38
451.545	493.38
451.766	487.38
451.986	479.38
452.207	479.38
452.428	479.38
452.648	484.38
452.869	473.38
453.089	463.38
453.31	475.38
453.53	483.38
453.751	489.38
453.971	475.38
454.192	471.38
454.412	492.38
454.633	461.38
454.853	471.38
455.073	434.38
455.294	494.38
455.514	564.38
455.734	548.38
455.955	440.38
456.175	447.38
456.395	440.38
456.616	450.38
456.836	441.38
457.056	438.38
457.276	404.38
457.497	450.38
457.717	452.38
457.937	446.38
458.157	458.38
458.377	472.38
458.598	504.38
458.818	547.38
459.038	656.38
459.258	642.38
459.478	558.38
459.698	534.38
459.918	519.38
460.138	502.38
460.358	536.38
460.578	546.38
460.798	547.38
461.018	562.38
461.238	542.38
461.458	535.38
461.678	544.38
461.898	530.38
462.118	538.38
462.338	556.38
462.558	566.38
462.777	585.38
462.997	601.38
463.217	634.38
463.437	618.38
463.657	614.38
463.876	594.38
464.096	572.38
464.316	598.38
464.536	584.38
464.755	591.38
464.975	575.38
465.195	598.38
465.414	668.38
465.634	600.38
465.854	554.38
466.073	513.38
466.293	512.38
466.512	482.38
466.732	474.38
466.951	479.38
467.171	493.38
467.391	490.38
467.61	510.38
467.829	499.38
468.049	488.38
468.268	489.38
468.488	477.38
468.707	461.38
468.927	453.38
469.146	474.38
469.365	479.38
469.585	481.38
469.804	491.38
470.023	483.38
470.243	485.38
470.462	495.38
470.681	544.38
470.901	519.38
471.12	502.38
471.339	484.38
471.558	507.38
471.777	483.38
471.997	483.38
472.216	490.38
472.435	515.38
472.654	492.38
472.873	486.38
473.092	465.38
473.311	468.38
473.53	494.38
473.749	501.38
473.968	532.38
474.187	627.38
474.406	648.38
474.625	532.38
474.844	508.38
475.063	486.38
475.282	491.38
475.501	504.38
475.72	503.38
475.939	486.38
476.158	508.38
476.377	508.38
476.596	499.38
476.814	531.38
477.033	536.38
477.252	510.38
477.471	513.38
477.69	532.38
477.908	539.38
478.127	564.38
478.346	537.38
478.564	550.38
478.783	553.38
479.002	573.38
479.22	554.38
479.439	596.38
479.658	618.38
479.876	595.38
480.095	615.38
480.313	631.38
480.532	639.38
480.751	634.38
480.969	621.38
481.188	634.38
481.406	654.38
481.624	613.38
481.843	573.38
482.061	587.38
482.28	588.38
482.498	568.38
482.717	583.38
482.935	558.38
483.153	559.38
483.372	560.38
483.59	566.38
483.808	551.38
484.027	576.38
484.245	576.38
484.463	580.38
484.681	583.38
484.9	568.38
485.118	565.38
485.336	566.38
485.554	573.38
485.772	575.38
485.99	594.38
486.209	601.38
486.427	597.38
486.645	590.38
486.863	623.38
487.081	626.38
487.299	623.38
487.517	599.38
487.735	604.38
487.953	610.38
488.171	604.38
488.389	600.38
488.607	591.38
488.825	623.38
489.043	605.38
489.261	626.38
489.479	606.38
489.696	642.38
489.914	580.38
490.132	622.38
490.35	636.38
490.568	642.38
490.786	646.38
491.003	636.38
491.221	654.38
491.439	688.38
491.657	660.38
491.874	671.38
492.092	674.38
492.31	694.38
492.527	698.38
492.745	710.38
492.963	681.38
493.18	717.38
493.398	714.38
493.615	700.38
493.833	695.38
494.05	692.38
494.268	698.38
494.485	703.38
494.703	706.38
494.92	729.38
495.138	696.38
495.355	728.38
495.573	720.38
495.79	717.38
496.008	735.38
496.225	715.38
496.442	724.38
496.66	726.38
496.877	717.38
497.094	732.38
497.312	730.38
497.529	749.38
497.746	782.38
497.963	794.38
498.181	811.38
498.398	808.38
498.615	820.38
498.832	864.38
499.049	908.38
499.267	916.38
499.484	954.38
499.701	1008.38
499.918	1058.38
500.135	1138.38
500.352	1203.38
500.569	1214.38
500.786	1228.38
501.003	1201.38
501.22	1154.38
501.437	1067.38
501.654	1030.38
501.871	1015.38
