Data from 1985.PennyLincolnUp.Lamp.En5.5.200Scan.071819.P1_HRD10591_17-02-14-971.txt Node
Date: Thu Jul 18 17:02:14 EDT 2019
User: cochatt
Spectrometer: HR+D1059
Trigger mode: 1
Integration Time (sec): 1.000000E-1
Scans to average: 1
Electric dark correction enabled: true
Nonlinearity correction enabled: false
Boxcar width: 0
XAxis mode: Wavelengths
Number of Pixels in Spectrum: 2048
>>>>>Begin Spectral Data<<<<<
223.165	-2.94
223.4	-2.94
223.635	-2.94
223.869	-24.94
224.104	-11.94
224.338	-11.94
224.573	-28.94
224.808	-19.94
225.042	3.06
225.277	2.06
225.511	-0.94
225.746	-23.94
225.98	14.06
226.215	6.06
226.449	10.06
226.683	37.06
226.918	27.06
227.152	26.06
227.387	47.06
227.621	39.06
227.856	58.06
228.09	44.06
228.324	45.06
228.559	39.06
228.793	72.06
229.027	101.06
229.262	107.06
229.496	113.06
229.73	126.06
229.964	137.06
230.199	134.06
230.433	116.06
230.667	115.06
230.901	103.06
231.136	112.06
231.37	114.06
231.604	100.06
231.838	102.06
232.072	90.06
232.306	122.06
232.541	112.06
232.775	115.06
233.009	107.06
233.243	112.06
233.477	132.06
233.711	115.06
233.945	111.06
234.179	128.06
234.413	120.06
234.647	115.06
234.881	117.06
235.115	112.06
235.349	134.06
235.583	130.06
235.817	121.06
236.051	126.06
236.285	137.06
236.519	119.06
236.753	126.06
236.987	143.06
237.221	161.06
237.455	205.06
237.689	170.06
237.922	126.06
238.156	118.06
238.39	122.06
238.624	120.06
238.858	124.06
239.091	124.06
239.325	120.06
239.559	118.06
239.793	123.06
240.027	125.06
240.26	138.06
240.494	152.06
240.728	145.06
240.961	138.06
241.195	140.06
241.429	141.06
241.662	127.06
241.896	128.06
242.13	135.06
242.363	113.06
242.597	134.06
242.83	136.06
243.064	136.06
243.298	137.06
243.531	140.06
243.765	143.06
243.998	144.06
244.232	136.06
244.465	132.06
244.699	139.06
244.932	130.06
245.166	135.06
245.399	148.06
245.633	142.06
245.866	153.06
246.099	136.06
246.333	148.06
246.566	160.06
246.8	154.06
247.033	145.06
247.266	164.06
247.5	153.06
247.733	164.06
247.966	177.06
248.2	171.06
248.433	145.06
248.666	174.06
248.899	185.06
249.133	197.06
249.366	208.06
249.599	199.06
249.832	173.06
250.066	161.06
250.299	191.06
250.532	180.06
250.765	183.06
250.998	212.06
251.231	215.06
251.465	197.06
251.698	197.06
251.931	194.06
252.164	179.06
252.397	197.06
252.63	186.06
252.863	193.06
253.096	204.06
253.329	209.06
253.562	223.06
253.795	205.06
254.028	216.06
254.261	219.06
254.494	226.06
254.727	239.06
254.96	251.06
255.193	237.06
255.426	234.06
255.659	239.06
255.892	203.06
256.124	205.06
256.357	194.06
256.59	201.06
256.823	204.06
257.056	195.06
257.289	203.06
257.521	205.06
257.754	208.06
257.987	192.06
258.22	201.06
258.452	203.06
258.685	211.06
258.918	203.06
259.151	207.06
259.383	227.06
259.616	219.06
259.849	217.06
260.081	225.06
260.314	234.06
260.547	233.06
260.779	235.06
261.012	226.06
261.244	214.06
261.477	212.06
261.71	218.06
261.942	207.06
262.175	213.06
262.407	228.06
262.64	229.06
262.872	216.06
263.105	203.06
263.337	209.06
263.57	230.06
263.802	219.06
264.035	207.06
264.267	215.06
264.499	217.06
264.732	211.06
264.964	204.06
265.197	214.06
265.429	201.06
265.661	210.06
265.894	214.06
266.126	215.06
266.358	220.06
266.591	238.06
266.823	220.06
267.055	218.06
267.287	227.06
267.52	234.06
267.752	227.06
267.984	231.06
268.216	240.06
268.448	235.06
268.681	247.06
268.913	251.06
269.145	258.06
269.377	268.06
269.609	276.06
269.841	283.06
270.073	275.06
270.306	293.06
270.538	293.06
270.77	297.06
271.002	302.06
271.234	280.06
271.466	290.06
271.698	314.06
271.93	320.06
272.162	295.06
272.394	312.06
272.626	279.06
272.858	290.06
273.09	266.06
273.322	264.06
273.553	277.06
273.785	282.06
274.017	266.06
274.249	276.06
274.481	271.06
274.713	264.06
274.945	283.06
275.176	277.06
275.408	264.06
275.64	267.06
275.872	287.06
276.104	279.06
276.335	275.06
276.567	278.06
276.799	303.06
277.031	315.06
277.262	318.06
277.494	307.06
277.726	319.06
277.957	292.06
278.189	277.06
278.421	276.06
278.652	271.06
278.884	273.06
279.115	292.06
279.347	270.06
279.579	280.06
279.81	278.06
280.042	276.06
280.273	275.06
280.505	267.06
280.736	262.06
280.968	275.06
281.199	270.06
281.431	282.06
281.662	279.06
281.894	278.06
282.125	277.06
282.356	307.06
282.588	329.06
282.819	314.06
283.051	288.06
283.282	255.06
283.513	297.06
283.745	295.06
283.976	301.06
284.207	284.06
284.439	306.06
284.67	307.06
284.901	294.06
285.132	290.06
285.364	296.06
285.595	282.06
285.826	293.06
286.057	308.06
286.288	288.06
286.52	306.06
286.751	310.06
286.982	286.06
287.213	297.06
287.444	292.06
287.675	303.06
287.906	301.06
288.138	322.06
288.369	326.06
288.6	288.06
288.831	314.06
289.062	314.06
289.293	317.06
289.524	319.06
289.755	320.06
289.986	307.06
290.217	284.06
290.448	308.06
290.679	316.06
290.91	324.06
291.141	285.06
291.371	312.06
291.602	322.06
291.833	316.06
292.064	303.06
292.295	303.06
292.526	307.06
292.757	308.06
292.987	300.06
293.218	307.06
293.449	319.06
293.68	306.06
293.91	320.06
294.141	314.06
294.372	321.06
294.603	326.06
294.833	325.06
295.064	312.06
295.295	321.06
295.525	335.06
295.756	331.06
295.987	335.06
296.217	348.06
296.448	352.06
296.679	328.06
296.909	323.06
297.14	334.06
297.37	323.06
297.601	333.06
297.831	307.06
298.062	335.06
298.292	332.06
298.523	325.06
298.753	334.06
298.984	326.06
299.214	348.06
299.445	327.06
299.675	335.06
299.905	337.06
300.136	340.06
300.366	336.06
300.597	331.06
300.827	364.06
301.057	342.06
301.288	340.06
301.518	351.06
301.748	348.06
301.979	358.06
302.209	348.06
302.439	346.06
302.669	342.06
302.9	344.06
303.13	352.06
303.36	365.06
303.59	370.06
303.82	359.06
304.051	350.06
304.281	363.06
304.511	343.06
304.741	365.06
304.971	352.06
305.201	325.06
305.431	336.06
305.661	373.06
305.891	348.06
306.121	355.06
306.352	372.06
306.582	357.06
306.812	366.06
307.042	360.06
307.272	352.06
307.502	375.06
307.731	371.06
307.961	337.06
308.191	347.06
308.421	323.06
308.651	346.06
308.881	347.06
309.111	355.06
309.341	349.06
309.571	386.06
309.8	399.06
310.03	399.06
310.26	383.06
310.49	387.06
310.72	396.06
310.949	398.06
311.179	411.06
311.409	379.06
311.639	398.06
311.868	390.06
312.098	412.06
312.328	394.06
312.557	436.06
312.787	432.06
313.017	430.06
313.246	407.06
313.476	400.06
313.706	384.06
313.935	408.06
314.165	387.06
314.394	428.06
314.624	421.06
314.853	411.06
315.083	406.06
315.312	412.06
315.542	393.06
315.771	378.06
316.001	386.06
316.23	398.06
316.46	391.06
316.689	408.06
316.919	400.06
317.148	416.06
317.377	430.06
317.607	392.06
317.836	382.06
318.065	392.06
318.295	396.06
318.524	402.06
318.753	396.06
318.983	390.06
319.212	405.06
319.441	401.06
319.67	408.06
319.9	408.06
320.129	390.06
320.358	399.06
320.587	411.06
320.816	406.06
321.046	406.06
321.275	435.06
321.504	407.06
321.733	420.06
321.962	411.06
322.191	450.06
322.42	445.06
322.649	464.06
322.878	470.06
323.108	454.06
323.337	493.06
323.566	495.06
323.795	522.06
324.024	559.06
324.253	637.06
324.482	854.06
324.71	1308.06
324.939	1861.06
325.168	1604.06
325.397	867.06
325.626	614.06
325.855	534.06
326.084	500.06
326.313	478.06
326.542	494.06
326.77	548.06
326.999	630.06
327.228	819.06
327.457	1200.06
327.686	1404.06
327.914	928.06
328.143	677.06
328.372	585.06
328.6	565.06
328.829	532.06
329.058	577.06
329.287	566.06
329.515	533.06
329.744	491.06
329.972	490.06
330.201	506.06
330.43	542.06
330.658	555.06
330.887	581.06
331.115	560.06
331.344	532.06
331.572	488.06
331.801	499.06
332.03	508.06
332.258	501.06
332.486	473.06
332.715	495.06
332.943	478.06
333.172	516.06
333.4	522.06
333.629	517.06
333.857	526.06
334.085	531.06
334.314	523.06
334.542	492.06
334.771	505.06
334.999	512.06
335.227	469.06
335.455	490.06
335.684	496.06
335.912	471.06
336.14	478.06
336.369	476.06
336.597	474.06
336.825	498.06
337.053	479.06
337.281	465.06
337.51	467.06
337.738	460.06
337.966	476.06
338.194	465.06
338.422	476.06
338.65	460.06
338.878	456.06
339.106	455.06
339.334	470.06
339.562	472.06
339.79	448.06
340.018	439.06
340.246	458.06
340.474	459.06
340.702	452.06
340.93	453.06
341.158	463.06
341.386	432.06
341.614	442.06
341.842	462.06
342.07	437.06
342.298	437.06
342.526	436.06
342.754	428.06
342.981	450.06
343.209	435.06
343.437	452.06
343.665	452.06
343.893	471.06
344.12	498.06
344.348	478.06
344.576	478.06
344.804	487.06
345.031	486.06
345.259	470.06
345.487	474.06
345.714	453.06
345.942	430.06
346.17	444.06
346.397	430.06
346.625	422.06
346.853	429.06
347.08	426.06
347.308	427.06
347.535	424.06
347.763	460.06
347.99	441.06
348.218	445.06
348.445	469.06
348.673	455.06
348.9	442.06
349.128	420.06
349.355	413.06
349.583	406.06
349.81	423.06
350.037	406.06
350.265	417.06
350.492	427.06
350.72	425.06
350.947	434.06
351.174	439.06
351.402	426.06
351.629	439.06
351.856	435.06
352.083	424.06
352.311	442.06
352.538	426.06
352.765	438.06
352.992	427.06
353.22	418.06
353.447	438.06
353.674	412.06
353.901	416.06
354.128	410.06
354.355	409.06
354.583	399.06
354.81	406.06
355.037	412.06
355.264	409.06
355.491	401.06
355.718	393.06
355.945	400.06
356.172	417.06
356.399	399.06
356.626	410.06
356.853	412.06
357.08	384.06
357.307	408.06
357.534	418.06
357.761	404.06
357.988	429.06
358.215	406.06
358.441	383.06
358.668	408.06
358.895	402.06
359.122	420.06
359.349	417.06
359.576	425.06
359.802	439.06
360.029	447.06
360.256	469.06
360.483	459.06
360.709	447.06
360.936	433.06
361.163	417.06
361.39	423.06
361.616	409.06
361.843	426.06
362.07	423.06
362.296	413.06
362.523	417.06
362.749	423.06
362.976	420.06
363.203	403.06
363.429	404.06
363.656	412.06
363.882	398.06
364.109	396.06
364.335	403.06
364.562	402.06
364.788	399.06
365.015	430.06
365.241	402.06
365.468	408.06
365.694	418.06
365.92	411.06
366.147	419.06
366.373	423.06
366.599	414.06
366.826	401.06
367.052	401.06
367.278	383.06
367.505	410.06
367.731	420.06
367.957	401.06
368.184	420.06
368.41	435.06
368.636	406.06
368.862	407.06
369.089	425.06
369.315	396.06
369.541	403.06
369.767	404.06
369.993	412.06
370.219	414.06
370.445	426.06
370.672	412.06
370.898	395.06
371.124	416.06
371.35	405.06
371.576	434.06
371.802	418.06
372.028	430.06
372.254	420.06
372.48	409.06
372.706	414.06
372.932	430.06
373.158	424.06
373.384	424.06
373.61	398.06
373.835	406.06
374.061	429.06
374.287	414.06
374.513	438.06
374.739	449.06
374.965	448.06
375.191	424.06
375.416	447.06
375.642	410.06
375.868	411.06
376.094	415.06
376.319	417.06
376.545	398.06
376.771	403.06
376.997	421.06
377.222	427.06
377.448	425.06
377.674	422.06
377.899	417.06
378.125	386.06
378.35	394.06
378.576	403.06
378.802	401.06
379.027	407.06
379.253	401.06
379.478	413.06
379.704	417.06
379.929	407.06
380.155	416.06
380.38	406.06
380.606	399.06
380.831	390.06
381.057	409.06
381.282	417.06
381.507	407.06
381.733	409.06
381.958	403.06
382.184	400.06
382.409	404.06
382.634	420.06
382.86	432.06
383.085	411.06
383.31	443.06
383.535	427.06
383.761	435.06
383.986	445.06
384.211	437.06
384.436	424.06
384.662	444.06
384.887	440.06
385.112	438.06
385.337	453.06
385.562	459.06
385.787	448.06
386.013	463.06
386.238	456.06
386.463	477.06
386.688	475.06
386.913	456.06
387.138	458.06
387.363	446.06
387.588	458.06
387.813	455.06
388.038	450.06
388.263	463.06
388.488	464.06
388.713	468.06
388.938	460.06
389.163	452.06
389.387	452.06
389.612	452.06
389.837	454.06
390.062	439.06
390.287	468.06
390.512	438.06
390.736	457.06
390.961	473.06
391.186	461.06
391.411	484.06
391.636	465.06
391.86	470.06
392.085	474.06
392.31	488.06
392.534	480.06
392.759	479.06
392.984	463.06
393.208	467.06
393.433	451.06
393.658	453.06
393.882	453.06
394.107	448.06
394.331	468.06
394.556	484.06
394.78	470.06
395.005	464.06
395.229	472.06
395.454	465.06
395.678	475.06
395.903	491.06
396.127	493.06
396.352	514.06
396.576	479.06
396.801	490.06
397.025	492.06
397.249	482.06
397.474	487.06
397.698	505.06
397.922	514.06
398.147	518.06
398.371	502.06
398.595	511.06
398.82	515.06
399.044	540.06
399.268	590.06
399.492	603.06
399.717	659.06
399.941	654.06
400.165	655.06
400.389	663.06
400.613	616.06
400.837	562.06
401.062	532.06
401.286	540.06
401.51	536.06
401.734	551.06
401.958	535.06
402.182	524.06
402.406	537.06
402.63	535.06
402.854	532.06
403.078	545.06
403.302	542.06
403.526	565.06
403.75	567.06
403.974	569.06
404.198	555.06
404.422	580.06
404.645	580.06
404.869	552.06
405.093	578.06
405.317	590.06
405.541	616.06
405.765	582.06
405.988	564.06
406.212	579.06
406.436	585.06
406.66	589.06
406.883	608.06
407.107	638.06
407.331	659.06
407.555	718.06
407.778	726.06
408.002	650.06
408.226	631.06
408.449	616.06
408.673	579.06
408.896	620.06
409.12	645.06
409.344	628.06
409.567	583.06
409.791	560.06
410.014	554.06
410.238	546.06
410.461	567.06
410.685	552.06
410.908	556.06
411.132	578.06
411.355	596.06
411.578	583.06
411.802	524.06
412.025	525.06
412.249	525.06
412.472	528.06
412.695	568.06
412.919	538.06
413.142	543.06
413.365	503.06
413.589	506.06
413.812	533.06
414.035	534.06
414.258	511.06
414.482	487.06
414.705	494.06
414.928	517.06
415.151	494.06
415.374	512.06
415.597	531.06
415.821	504.06
416.044	502.06
416.267	506.06
416.49	507.06
416.713	506.06
416.936	520.06
417.159	485.06
417.382	521.06
417.605	502.06
417.828	489.06
418.051	536.06
418.274	536.06
418.497	536.06
418.72	510.06
418.943	494.06
419.166	524.06
419.389	552.06
419.611	522.06
419.834	538.06
420.057	520.06
420.28	520.06
420.503	490.06
420.726	518.06
420.948	551.06
421.171	590.06
421.394	597.06
421.617	543.06
421.839	529.06
422.062	529.06
422.285	531.06
422.507	606.06
422.73	642.06
422.953	619.06
423.175	581.06
423.398	552.06
423.621	582.06
423.843	574.06
424.066	537.06
424.288	559.06
424.511	578.06
424.733	626.06
424.956	676.06
425.178	670.06
425.401	632.06
425.623	681.06
425.846	590.06
426.068	548.06
426.291	536.06
426.513	533.06
426.735	543.06
426.958	572.06
427.18	650.06
427.402	760.06
427.625	842.06
427.847	732.06
428.069	603.06
428.292	582.06
428.514	535.06
428.736	527.06
428.958	532.06
429.181	507.06
429.403	480.06
429.625	506.06
429.847	533.06
430.069	589.06
430.292	591.06
430.514	533.06
430.736	506.06
430.958	508.06
431.18	500.06
431.402	480.06
431.624	483.06
431.846	465.06
432.068	493.06
432.29	502.06
432.512	497.06
432.734	477.06
432.956	481.06
433.178	490.06
433.4	513.06
433.622	508.06
433.844	468.06
434.066	486.06
434.287	484.06
434.509	495.06
434.731	483.06
434.953	519.06
435.175	526.06
435.397	555.06
435.618	536.06
435.84	584.06
436.062	625.06
436.284	704.06
436.505	602.06
436.727	543.06
436.949	512.06
437.17	516.06
437.392	502.06
437.614	522.06
437.835	542.06
438.057	630.06
438.278	727.06
438.5	679.06
438.721	760.06
438.943	711.06
439.165	587.06
439.386	546.06
439.608	546.06
439.829	528.06
440.05	558.06
440.272	572.06
440.493	560.06
440.715	524.06
440.936	505.06
441.158	540.06
441.379	517.06
441.6	545.06
441.822	548.06
442.043	583.06
442.264	641.06
442.486	700.06
442.707	603.06
442.928	569.06
443.149	581.06
443.371	566.06
443.592	629.06
443.813	694.06
444.034	757.06
444.255	617.06
444.476	585.06
444.698	592.06
444.919	558.06
445.14	693.06
445.361	634.06
445.582	586.06
445.803	606.06
446.024	699.06
446.245	706.06
446.466	652.06
446.687	567.06
446.908	556.06
447.129	519.06
447.35	501.06
447.571	505.06
447.792	491.06
448.013	513.06
448.234	542.06
448.455	555.06
448.675	652.06
448.896	759.06
449.117	614.06
449.338	601.06
449.559	710.06
449.779	775.06
450	620.06
450.221	520.06
450.442	474.06
450.662	499.06
450.883	466.06
451.104	507.06
451.324	486.06
451.545	479.06
451.766	465.06
451.986	440.06
452.207	439.06
452.428	448.06
452.648	448.06
452.869	461.06
453.089	474.06
453.31	478.06
453.53	461.06
453.751	459.06
453.971	463.06
454.192	462.06
454.412	465.06
454.633	443.06
454.853	427.06
455.073	435.06
455.294	464.06
455.514	521.06
455.734	492.06
455.955	438.06
456.175	412.06
456.395	426.06
456.616	404.06
456.836	430.06
457.056	444.06
457.276	400.06
457.497	427.06
457.717	417.06
457.937	434.06
458.157	446.06
458.377	445.06
458.598	443.06
458.818	495.06
459.038	583.06
459.258	603.06
459.478	524.06
459.698	498.06
459.918	488.06
460.138	518.06
460.358	524.06
460.578	512.06
460.798	517.06
461.018	525.06
461.238	531.06
461.458	512.06
461.678	530.06
461.898	543.06
462.118	531.06
462.338	534.06
462.558	536.06
462.777	544.06
462.997	563.06
463.217	621.06
463.437	607.06
463.657	558.06
463.876	577.06
464.096	558.06
464.316	564.06
464.536	591.06
464.755	557.06
464.975	560.06
465.195	589.06
465.414	633.06
465.634	562.06
465.854	525.06
466.073	503.06
466.293	495.06
466.512	472.06
466.732	483.06
466.951	443.06
467.171	467.06
467.391	459.06
467.61	486.06
467.829	471.06
468.049	476.06
468.268	472.06
468.488	446.06
468.707	459.06
468.927	447.06
469.146	438.06
469.365	462.06
469.585	449.06
469.804	459.06
470.023	486.06
470.243	489.06
470.462	491.06
470.681	491.06
470.901	468.06
471.12	479.06
471.339	476.06
471.558	470.06
471.777	460.06
471.997	457.06
472.216	446.06
472.435	452.06
472.654	452.06
472.873	456.06
473.092	440.06
473.311	454.06
473.53	447.06
473.749	480.06
473.968	520.06
474.187	586.06
474.406	602.06
474.625	514.06
474.844	474.06
475.063	460.06
475.282	464.06
475.501	480.06
475.72	490.06
475.939	484.06
476.158	491.06
476.377	499.06
476.596	486.06
476.814	489.06
477.033	484.06
477.252	508.06
477.471	482.06
477.69	520.06
477.908	514.06
478.127	537.06
478.346	518.06
478.564	557.06
478.783	547.06
479.002	542.06
479.22	530.06
479.439	569.06
479.658	582.06
479.876	575.06
480.095	592.06
480.313	608.06
480.532	584.06
480.751	578.06
480.969	570.06
481.188	566.06
481.406	556.06
481.624	558.06
481.843	525.06
482.061	537.06
482.28	533.06
482.498	547.06
482.717	539.06
482.935	518.06
483.153	537.06
483.372	531.06
483.59	518.06
483.808	514.06
484.027	528.06
484.245	548.06
484.463	548.06
484.681	539.06
484.9	540.06
485.118	565.06
485.336	546.06
485.554	560.06
485.772	557.06
485.99	565.06
486.209	545.06
486.427	563.06
486.645	589.06
486.863	588.06
487.081	571.06
487.299	580.06
487.517	598.06
487.735	572.06
487.953	566.06
488.171	582.06
488.389	581.06
488.607	567.06
488.825	573.06
489.043	568.06
489.261	566.06
489.479	574.06
489.696	583.06
489.914	587.06
490.132	596.06
490.35	577.06
490.568	600.06
490.786	614.06
491.003	620.06
491.221	617.06
491.439	637.06
491.657	638.06
491.874	629.06
492.092	640.06
492.31	649.06
492.527	637.06
492.745	656.06
492.963	638.06
493.18	626.06
493.398	636.06
493.615	661.06
493.833	667.06
494.05	680.06
494.268	665.06
494.485	674.06
494.703	680.06
494.92	668.06
495.138	656.06
495.355	668.06
495.573	661.06
495.79	675.06
496.008	705.06
496.225	679.06
496.442	683.06
496.66	675.06
496.877	687.06
497.094	692.06
497.312	690.06
497.529	688.06
497.746	728.06
497.963	726.06
498.181	765.06
498.398	775.06
498.615	766.06
498.832	809.06
499.049	830.06
499.267	874.06
499.484	902.06
499.701	950.06
499.918	1020.06
500.135	1096.06
500.352	1150.06
500.569	1157.06
500.786	1157.06
501.003	1146.06
501.22	1063.06
501.437	1011.06
501.654	955.06
501.871	951.06
