Data from 1985.PennyLincolnUp.Lamp.En5.5.200Scan.071819.P1_HRD10591_17-02-04-969.txt Node
Date: Thu Jul 18 17:02:04 EDT 2019
User: cochatt
Spectrometer: HR+D1059
Trigger mode: 1
Integration Time (sec): 1.000000E-1
Scans to average: 1
Electric dark correction enabled: true
Nonlinearity correction enabled: false
Boxcar width: 0
XAxis mode: Wavelengths
Number of Pixels in Spectrum: 2048
>>>>>Begin Spectral Data<<<<<
223.165	-14.88
223.4	-14.88
223.635	-14.88
223.869	-17.88
224.104	-10.88
224.338	-15.88
224.573	-20.88
224.808	-4.88
225.042	-5.88
225.277	4.12
225.511	0.12
225.746	-9.88
225.98	8.12
226.215	10.12
226.449	17.12
226.683	18.12
226.918	22.12
227.152	21.12
227.387	30.12
227.621	40.12
227.856	42.12
228.09	36.12
228.324	44.12
228.559	52.12
228.793	59.12
229.027	86.12
229.262	93.12
229.496	103.12
229.73	99.12
229.964	133.12
230.199	121.12
230.433	103.12
230.667	106.12
230.901	112.12
231.136	104.12
231.37	122.12
231.604	99.12
231.838	91.12
232.072	112.12
232.306	116.12
232.541	96.12
232.775	110.12
233.009	110.12
233.243	120.12
233.477	106.12
233.711	107.12
233.945	126.12
234.179	107.12
234.413	125.12
234.647	116.12
234.881	119.12
235.115	116.12
235.349	120.12
235.583	102.12
235.817	122.12
236.051	122.12
236.285	123.12
236.519	109.12
236.753	130.12
236.987	133.12
237.221	171.12
237.455	216.12
237.689	178.12
237.922	121.12
238.156	116.12
238.39	121.12
238.624	135.12
238.858	118.12
239.091	130.12
239.325	126.12
239.559	134.12
239.793	123.12
240.027	135.12
240.26	128.12
240.494	148.12
240.728	138.12
240.961	130.12
241.195	145.12
241.429	134.12
241.662	134.12
241.896	128.12
242.13	148.12
242.363	133.12
242.597	138.12
242.83	136.12
243.064	139.12
243.298	135.12
243.531	136.12
243.765	132.12
243.998	129.12
244.232	124.12
244.465	129.12
244.699	133.12
244.932	138.12
245.166	135.12
245.399	149.12
245.633	154.12
245.866	147.12
246.099	141.12
246.333	140.12
246.566	138.12
246.8	151.12
247.033	130.12
247.266	148.12
247.5	136.12
247.733	166.12
247.966	148.12
248.2	158.12
248.433	153.12
248.666	182.12
248.899	168.12
249.133	188.12
249.366	178.12
249.599	182.12
249.832	177.12
250.066	170.12
250.299	162.12
250.532	177.12
250.765	204.12
250.998	199.12
251.231	198.12
251.465	204.12
251.698	198.12
251.931	162.12
252.164	178.12
252.397	185.12
252.63	186.12
252.863	189.12
253.096	190.12
253.329	199.12
253.562	214.12
253.795	204.12
254.028	194.12
254.261	207.12
254.494	217.12
254.727	215.12
254.96	258.12
255.193	254.12
255.426	224.12
255.659	193.12
255.892	212.12
256.124	219.12
256.357	207.12
256.59	191.12
256.823	212.12
257.056	199.12
257.289	196.12
257.521	202.12
257.754	196.12
257.987	206.12
258.22	201.12
258.452	194.12
258.685	198.12
258.918	214.12
259.151	215.12
259.383	218.12
259.616	223.12
259.849	211.12
260.081	228.12
260.314	248.12
260.547	233.12
260.779	227.12
261.012	225.12
261.244	208.12
261.477	246.12
261.71	200.12
261.942	215.12
262.175	215.12
262.407	220.12
262.64	204.12
262.872	207.12
263.105	201.12
263.337	216.12
263.57	202.12
263.802	216.12
264.035	205.12
264.267	220.12
264.499	209.12
264.732	196.12
264.964	209.12
265.197	216.12
265.429	223.12
265.661	211.12
265.894	213.12
266.126	206.12
266.358	214.12
266.591	215.12
266.823	239.12
267.055	210.12
267.287	226.12
267.52	228.12
267.752	217.12
267.984	222.12
268.216	225.12
268.448	241.12
268.681	249.12
268.913	255.12
269.145	262.12
269.377	267.12
269.609	274.12
269.841	264.12
270.073	263.12
270.306	296.12
270.538	306.12
270.77	290.12
271.002	289.12
271.234	261.12
271.466	279.12
271.698	308.12
271.93	305.12
272.162	291.12
272.394	278.12
272.626	296.12
272.858	296.12
273.09	294.12
273.322	281.12
273.553	272.12
273.785	263.12
274.017	263.12
274.249	259.12
274.481	268.12
274.713	285.12
274.945	271.12
275.176	250.12
275.408	265.12
275.64	244.12
275.872	247.12
276.104	265.12
276.335	274.12
276.567	272.12
276.799	267.12
277.031	306.12
277.262	308.12
277.494	301.12
277.726	297.12
277.957	286.12
278.189	282.12
278.421	283.12
278.652	270.12
278.884	278.12
279.115	269.12
279.347	269.12
279.579	259.12
279.81	274.12
280.042	271.12
280.273	264.12
280.505	269.12
280.736	274.12
280.968	289.12
281.199	283.12
281.431	286.12
281.662	298.12
281.894	287.12
282.125	279.12
282.356	296.12
282.588	306.12
282.819	294.12
283.051	272.12
283.282	283.12
283.513	291.12
283.745	304.12
283.976	270.12
284.207	278.12
284.439	277.12
284.67	280.12
284.901	297.12
285.132	305.12
285.364	295.12
285.595	284.12
285.826	282.12
286.057	284.12
286.288	290.12
286.52	281.12
286.751	296.12
286.982	287.12
287.213	311.12
287.444	307.12
287.675	290.12
287.906	306.12
288.138	322.12
288.369	324.12
288.6	313.12
288.831	320.12
289.062	324.12
289.293	308.12
289.524	310.12
289.755	311.12
289.986	287.12
290.217	316.12
290.448	299.12
290.679	313.12
290.91	317.12
291.141	313.12
291.371	290.12
291.602	288.12
291.833	294.12
292.064	297.12
292.295	288.12
292.526	289.12
292.757	315.12
292.987	306.12
293.218	314.12
293.449	328.12
293.68	315.12
293.91	303.12
294.141	297.12
294.372	308.12
294.603	311.12
294.833	312.12
295.064	312.12
295.295	309.12
295.525	316.12
295.756	333.12
295.987	326.12
296.217	352.12
296.448	335.12
296.679	331.12
296.909	318.12
297.14	310.12
297.37	319.12
297.601	319.12
297.831	326.12
298.062	325.12
298.292	317.12
298.523	323.12
298.753	325.12
298.984	333.12
299.214	321.12
299.445	316.12
299.675	333.12
299.905	336.12
300.136	354.12
300.366	360.12
300.597	342.12
300.827	327.12
301.057	330.12
301.288	344.12
301.518	350.12
301.748	351.12
301.979	337.12
302.209	361.12
302.439	353.12
302.669	352.12
302.9	350.12
303.13	352.12
303.36	363.12
303.59	360.12
303.82	353.12
304.051	352.12
304.281	349.12
304.511	339.12
304.741	328.12
304.971	348.12
305.201	336.12
305.431	363.12
305.661	343.12
305.891	341.12
306.121	337.12
306.352	381.12
306.582	346.12
306.812	348.12
307.042	366.12
307.272	362.12
307.502	354.12
307.731	350.12
307.961	345.12
308.191	354.12
308.421	336.12
308.651	365.12
308.881	378.12
309.111	359.12
309.341	363.12
309.571	370.12
309.8	372.12
310.03	368.12
310.26	372.12
310.49	374.12
310.72	408.12
310.949	391.12
311.179	394.12
311.409	396.12
311.639	394.12
311.868	388.12
312.098	390.12
312.328	390.12
312.557	428.12
312.787	426.12
313.017	409.12
313.246	403.12
313.476	394.12
313.706	372.12
313.935	390.12
314.165	405.12
314.394	407.12
314.624	416.12
314.853	390.12
315.083	400.12
315.312	396.12
315.542	378.12
315.771	395.12
316.001	404.12
316.23	392.12
316.46	385.12
316.689	405.12
316.919	424.12
317.148	425.12
317.377	405.12
317.607	418.12
317.836	404.12
318.065	387.12
318.295	401.12
318.524	400.12
318.753	394.12
318.983	401.12
319.212	396.12
319.441	410.12
319.67	412.12
319.9	411.12
320.129	402.12
320.358	397.12
320.587	395.12
320.816	403.12
321.046	432.12
321.275	442.12
321.504	427.12
321.733	428.12
321.962	417.12
322.191	426.12
322.42	461.12
322.649	444.12
322.878	463.12
323.108	459.12
323.337	481.12
323.566	471.12
323.795	498.12
324.024	536.12
324.253	665.12
324.482	873.12
324.71	1328.12
324.939	1823.12
325.168	1518.12
325.397	832.12
325.626	614.12
325.855	540.12
326.084	507.12
326.313	504.12
326.542	510.12
326.77	541.12
326.999	612.12
327.228	809.12
327.457	1171.12
327.686	1387.12
327.914	947.12
328.143	660.12
328.372	577.12
328.6	544.12
328.829	546.12
329.058	528.12
329.287	547.12
329.515	533.12
329.744	515.12
329.972	474.12
330.201	483.12
330.43	512.12
330.658	536.12
330.887	566.12
331.115	571.12
331.344	511.12
331.572	509.12
331.801	531.12
332.03	510.12
332.258	494.12
332.486	484.12
332.715	484.12
332.943	509.12
333.172	504.12
333.4	484.12
333.629	518.12
333.857	512.12
334.085	501.12
334.314	495.12
334.542	479.12
334.771	484.12
334.999	486.12
335.227	499.12
335.455	507.12
335.684	475.12
335.912	474.12
336.14	469.12
336.369	466.12
336.597	469.12
336.825	469.12
337.053	486.12
337.281	463.12
337.51	457.12
337.738	465.12
337.966	469.12
338.194	488.12
338.422	478.12
338.65	454.12
338.878	451.12
339.106	434.12
339.334	428.12
339.562	457.12
339.79	437.12
340.018	446.12
340.246	449.12
340.474	463.12
340.702	448.12
340.93	443.12
341.158	445.12
341.386	448.12
341.614	446.12
341.842	460.12
342.07	446.12
342.298	469.12
342.526	426.12
342.754	455.12
342.981	442.12
343.209	435.12
343.437	466.12
343.665	464.12
343.893	475.12
344.12	491.12
344.348	450.12
344.576	455.12
344.804	480.12
345.031	472.12
345.259	465.12
345.487	443.12
345.714	428.12
345.942	424.12
346.17	434.12
346.397	428.12
346.625	442.12
346.853	424.12
347.08	416.12
347.308	435.12
347.535	447.12
347.763	445.12
347.99	423.12
348.218	449.12
348.445	438.12
348.673	423.12
348.9	426.12
349.128	427.12
349.355	433.12
349.583	418.12
349.81	412.12
350.037	428.12
350.265	408.12
350.492	403.12
350.72	420.12
350.947	422.12
351.174	425.12
351.402	422.12
351.629	438.12
351.856	422.12
352.083	440.12
352.311	420.12
352.538	450.12
352.765	439.12
352.992	433.12
353.22	417.12
353.447	419.12
353.674	415.12
353.901	414.12
354.128	394.12
354.355	399.12
354.583	400.12
354.81	403.12
355.037	407.12
355.264	403.12
355.491	396.12
355.718	396.12
355.945	393.12
356.172	398.12
356.399	414.12
356.626	410.12
356.853	401.12
357.08	392.12
357.307	407.12
357.534	395.12
357.761	416.12
357.988	389.12
358.215	416.12
358.441	427.12
358.668	402.12
358.895	407.12
359.122	406.12
359.349	418.12
359.576	408.12
359.802	434.12
360.029	447.12
360.256	456.12
360.483	458.12
360.709	421.12
360.936	411.12
361.163	412.12
361.39	416.12
361.616	401.12
361.843	417.12
362.07	424.12
362.296	414.12
362.523	400.12
362.749	421.12
362.976	408.12
363.203	395.12
363.429	389.12
363.656	406.12
363.882	407.12
364.109	401.12
364.335	426.12
364.562	419.12
364.788	407.12
365.015	395.12
365.241	411.12
365.468	420.12
365.694	424.12
365.92	427.12
366.147	392.12
366.373	411.12
366.599	399.12
366.826	395.12
367.052	398.12
367.278	390.12
367.505	412.12
367.731	394.12
367.957	406.12
368.184	402.12
368.41	425.12
368.636	417.12
368.862	420.12
369.089	419.12
369.315	400.12
369.541	400.12
369.767	407.12
369.993	399.12
370.219	402.12
370.445	414.12
370.672	386.12
370.898	402.12
371.124	400.12
371.35	411.12
371.576	392.12
371.802	406.12
372.028	399.12
372.254	410.12
372.48	406.12
372.706	392.12
372.932	392.12
373.158	412.12
373.384	430.12
373.61	418.12
373.835	406.12
374.061	389.12
374.287	416.12
374.513	411.12
374.739	440.12
374.965	426.12
375.191	413.12
375.416	419.12
375.642	424.12
375.868	402.12
376.094	427.12
376.319	409.12
376.545	417.12
376.771	425.12
376.997	411.12
377.222	397.12
377.448	386.12
377.674	402.12
377.899	408.12
378.125	391.12
378.35	415.12
378.576	415.12
378.802	384.12
379.027	396.12
379.253	415.12
379.478	406.12
379.704	423.12
379.929	415.12
380.155	398.12
380.38	388.12
380.606	422.12
380.831	417.12
381.057	399.12
381.282	415.12
381.507	411.12
381.733	402.12
381.958	415.12
382.184	406.12
382.409	415.12
382.634	420.12
382.86	393.12
383.085	417.12
383.31	423.12
383.535	416.12
383.761	441.12
383.986	430.12
384.211	422.12
384.436	457.12
384.662	438.12
384.887	441.12
385.112	450.12
385.337	433.12
385.562	454.12
385.787	430.12
386.013	462.12
386.238	462.12
386.463	460.12
386.688	439.12
386.913	449.12
387.138	440.12
387.363	441.12
387.588	460.12
387.813	442.12
388.038	450.12
388.263	438.12
388.488	444.12
388.713	442.12
388.938	471.12
389.163	448.12
389.387	461.12
389.612	442.12
389.837	456.12
390.062	448.12
390.287	434.12
390.512	441.12
390.736	436.12
390.961	438.12
391.186	440.12
391.411	458.12
391.636	446.12
391.86	488.12
392.085	458.12
392.31	474.12
392.534	457.12
392.759	459.12
392.984	459.12
393.208	446.12
393.433	465.12
393.658	471.12
393.882	467.12
394.107	464.12
394.331	455.12
394.556	466.12
394.78	456.12
395.005	468.12
395.229	476.12
395.454	467.12
395.678	463.12
395.903	479.12
396.127	483.12
396.352	502.12
396.576	483.12
396.801	457.12
397.025	450.12
397.249	475.12
397.474	494.12
397.698	490.12
397.922	498.12
398.147	484.12
398.371	536.12
398.595	518.12
398.82	534.12
399.044	553.12
399.268	561.12
399.492	605.12
399.717	634.12
399.941	662.12
400.165	653.12
400.389	638.12
400.613	584.12
400.837	558.12
401.062	552.12
401.286	523.12
401.51	524.12
401.734	528.12
401.958	527.12
402.182	523.12
402.406	530.12
402.63	547.12
402.854	539.12
403.078	543.12
403.302	548.12
403.526	556.12
403.75	576.12
403.974	540.12
404.198	561.12
404.422	572.12
404.645	554.12
404.869	570.12
405.093	588.12
405.317	584.12
405.541	616.12
405.765	590.12
405.988	558.12
406.212	579.12
406.436	615.12
406.66	608.12
406.883	594.12
407.107	610.12
407.331	658.12
407.555	719.12
407.778	705.12
408.002	636.12
408.226	619.12
408.449	601.12
408.673	585.12
408.896	633.12
409.12	640.12
409.344	628.12
409.567	548.12
409.791	554.12
410.014	533.12
410.238	555.12
410.461	543.12
410.685	546.12
410.908	560.12
411.132	575.12
411.355	584.12
411.578	588.12
411.802	555.12
412.025	520.12
412.249	534.12
412.472	523.12
412.695	532.12
412.919	535.12
413.142	516.12
413.365	518.12
413.589	512.12
413.812	485.12
414.035	517.12
414.258	484.12
414.482	506.12
414.705	506.12
414.928	515.12
415.151	523.12
415.374	514.12
415.597	520.12
415.821	482.12
416.044	495.12
416.267	520.12
416.49	504.12
416.713	497.12
416.936	491.12
417.159	508.12
417.382	505.12
417.605	528.12
417.828	516.12
418.051	532.12
418.274	519.12
418.497	508.12
418.72	517.12
418.943	499.12
419.166	544.12
419.389	535.12
419.611	561.12
419.834	517.12
420.057	550.12
420.28	508.12
420.503	516.12
420.726	501.12
420.948	538.12
421.171	582.12
421.394	574.12
421.617	531.12
421.839	520.12
422.062	535.12
422.285	532.12
422.507	601.12
422.73	656.12
422.953	626.12
423.175	582.12
423.398	551.12
423.621	546.12
423.843	579.12
424.066	558.12
424.288	562.12
424.511	563.12
424.733	637.12
424.956	672.12
425.178	643.12
425.401	662.12
425.623	674.12
425.846	590.12
426.068	562.12
426.291	553.12
426.513	558.12
426.735	544.12
426.958	604.12
427.18	655.12
427.402	784.12
427.625	821.12
427.847	698.12
428.069	622.12
428.292	549.12
428.514	541.12
428.736	528.12
428.958	542.12
429.181	503.12
429.403	506.12
429.625	512.12
429.847	542.12
430.069	603.12
430.292	600.12
430.514	502.12
430.736	505.12
430.958	502.12
431.18	491.12
431.402	490.12
431.624	475.12
431.846	466.12
432.068	477.12
432.29	504.12
432.512	483.12
432.734	499.12
432.956	466.12
433.178	483.12
433.4	489.12
433.622	487.12
433.844	483.12
434.066	472.12
434.287	473.12
434.509	489.12
434.731	506.12
434.953	490.12
435.175	530.12
435.397	530.12
435.618	520.12
435.84	580.12
436.062	661.12
436.284	702.12
436.505	594.12
436.727	537.12
436.949	514.12
437.17	513.12
437.392	511.12
437.614	510.12
437.835	552.12
438.057	606.12
438.278	706.12
438.5	709.12
438.721	747.12
438.943	744.12
439.165	575.12
439.386	529.12
439.608	542.12
439.829	518.12
440.05	561.12
440.272	610.12
440.493	561.12
440.715	531.12
440.936	532.12
441.158	511.12
441.379	506.12
441.6	531.12
441.822	535.12
442.043	563.12
442.264	638.12
442.486	682.12
442.707	582.12
442.928	573.12
443.149	552.12
443.371	584.12
443.592	615.12
443.813	715.12
444.034	743.12
444.255	627.12
444.476	597.12
444.698	589.12
444.919	569.12
445.14	712.12
445.361	636.12
445.582	593.12
445.803	604.12
446.024	711.12
446.245	722.12
446.466	657.12
446.687	568.12
446.908	522.12
447.129	485.12
447.35	514.12
447.571	511.12
447.792	479.12
448.013	476.12
448.234	504.12
448.455	565.12
448.675	643.12
448.896	720.12
449.117	613.12
449.338	592.12
449.559	699.12
449.779	780.12
450	642.12
450.221	534.12
450.442	490.12
450.662	470.12
450.883	487.12
451.104	487.12
451.324	460.12
451.545	465.12
451.766	484.12
451.986	436.12
452.207	451.12
452.428	419.12
452.648	454.12
452.869	468.12
453.089	448.12
453.31	461.12
453.53	456.12
453.751	440.12
453.971	456.12
454.192	442.12
454.412	450.12
454.633	419.12
454.853	434.12
455.073	438.12
455.294	476.12
455.514	519.12
455.734	499.12
455.955	452.12
456.175	421.12
456.395	411.12
456.616	409.12
456.836	404.12
457.056	420.12
457.276	414.12
457.497	420.12
457.717	432.12
457.937	435.12
458.157	437.12
458.377	450.12
458.598	455.12
458.818	496.12
459.038	587.12
459.258	596.12
459.478	524.12
459.698	495.12
459.918	483.12
460.138	508.12
460.358	520.12
460.578	520.12
460.798	498.12
461.018	508.12
461.238	520.12
461.458	512.12
461.678	513.12
461.898	550.12
462.118	507.12
462.338	534.12
462.558	532.12
462.777	549.12
462.997	579.12
463.217	582.12
463.437	584.12
463.657	585.12
463.876	569.12
464.096	560.12
464.316	560.12
464.536	563.12
464.755	565.12
464.975	551.12
465.195	577.12
465.414	630.12
465.634	530.12
465.854	531.12
466.073	481.12
466.293	487.12
466.512	485.12
466.732	485.12
466.951	459.12
467.171	474.12
467.391	467.12
467.61	471.12
467.829	483.12
468.049	469.12
468.268	458.12
468.488	450.12
468.707	446.12
468.927	446.12
469.146	457.12
469.365	456.12
469.585	456.12
469.804	464.12
470.023	469.12
470.243	471.12
470.462	483.12
470.681	488.12
470.901	466.12
471.12	464.12
471.339	462.12
471.558	501.12
471.777	482.12
471.997	466.12
472.216	444.12
472.435	455.12
472.654	439.12
472.873	466.12
473.092	460.12
473.311	484.12
473.53	428.12
473.749	455.12
473.968	493.12
474.187	584.12
474.406	606.12
474.625	526.12
474.844	472.12
475.063	463.12
475.282	460.12
475.501	452.12
475.72	465.12
475.939	472.12
476.158	470.12
476.377	476.12
476.596	460.12
476.814	473.12
477.033	491.12
477.252	501.12
477.471	472.12
477.69	518.12
477.908	501.12
478.127	516.12
478.346	528.12
478.564	506.12
478.783	545.12
479.002	532.12
479.22	556.12
479.439	555.12
479.658	571.12
479.876	592.12
480.095	595.12
480.313	599.12
480.532	587.12
480.751	584.12
480.969	590.12
481.188	584.12
481.406	587.12
481.624	550.12
481.843	546.12
482.061	543.12
482.28	532.12
482.498	542.12
482.717	516.12
482.935	530.12
483.153	545.12
483.372	548.12
483.59	538.12
483.808	538.12
484.027	572.12
484.245	547.12
484.463	542.12
484.681	569.12
484.9	550.12
485.118	561.12
485.336	565.12
485.554	556.12
485.772	582.12
485.99	563.12
486.209	573.12
486.427	564.12
486.645	583.12
486.863	574.12
487.081	576.12
487.299	575.12
487.517	579.12
487.735	558.12
487.953	581.12
488.171	572.12
488.389	549.12
488.607	567.12
488.825	559.12
489.043	571.12
489.261	575.12
489.479	581.12
489.696	584.12
489.914	581.12
490.132	593.12
490.35	613.12
490.568	611.12
490.786	595.12
491.003	601.12
491.221	628.12
491.439	617.12
491.657	632.12
491.874	644.12
492.092	645.12
492.31	661.12
492.527	672.12
492.745	652.12
492.963	645.12
493.18	660.12
493.398	643.12
493.615	662.12
493.833	683.12
494.05	659.12
494.268	658.12
494.485	673.12
494.703	660.12
494.92	657.12
495.138	666.12
495.355	681.12
495.573	658.12
495.79	678.12
496.008	686.12
496.225	662.12
496.442	675.12
496.66	703.12
496.877	696.12
497.094	702.12
497.312	720.12
497.529	692.12
497.746	763.12
497.963	750.12
498.181	753.12
498.398	786.12
498.615	773.12
498.832	802.12
499.049	841.12
499.267	884.12
499.484	896.12
499.701	980.12
499.918	1035.12
500.135	1098.12
500.352	1118.12
500.569	1188.12
500.786	1165.12
501.003	1103.12
501.22	1060.12
501.437	1043.12
501.654	959.12
501.871	948.12
