Data from 1985.PennyLincolnUp.Lamp.En5.5.200Scan.071819.P1_HRD10591_17-04-17-972.txt Node
Date: Thu Jul 18 17:04:17 EDT 2019
User: cochatt
Spectrometer: HR+D1059
Trigger mode: 1
Integration Time (sec): 1.000000E-1
Scans to average: 1
Electric dark correction enabled: true
Nonlinearity correction enabled: false
Boxcar width: 0
XAxis mode: Wavelengths
Number of Pixels in Spectrum: 2048
>>>>>Begin Spectral Data<<<<<
223.165	-20.44
223.4	-20.44
223.635	-20.44
223.869	-17.44
224.104	-28.44
224.338	-22.44
224.573	-26.44
224.808	-11.44
225.042	5.56
225.277	-9.44
225.511	7.56
225.746	22.56
225.98	10.56
226.215	8.56
226.449	19.56
226.683	16.56
226.918	14.56
227.152	30.56
227.387	37.56
227.621	23.56
227.856	43.56
228.09	49.56
228.324	49.56
228.559	58.56
228.793	84.56
229.027	95.56
229.262	99.56
229.496	113.56
229.73	130.56
229.964	137.56
230.199	125.56
230.433	113.56
230.667	104.56
230.901	113.56
231.136	108.56
231.37	120.56
231.604	116.56
231.838	106.56
232.072	116.56
232.306	121.56
232.541	116.56
232.775	115.56
233.009	120.56
233.243	121.56
233.477	125.56
233.711	116.56
233.945	119.56
234.179	106.56
234.413	119.56
234.647	110.56
234.881	110.56
235.115	113.56
235.349	107.56
235.583	103.56
235.817	121.56
236.051	133.56
236.285	130.56
236.519	125.56
236.753	131.56
236.987	142.56
237.221	163.56
237.455	198.56
237.689	179.56
237.922	142.56
238.156	142.56
238.39	129.56
238.624	129.56
238.858	124.56
239.091	116.56
239.325	130.56
239.559	139.56
239.793	131.56
240.027	125.56
240.26	149.56
240.494	158.56
240.728	144.56
240.961	160.56
241.195	144.56
241.429	131.56
241.662	127.56
241.896	131.56
242.13	108.56
242.363	146.56
242.597	133.56
242.83	134.56
243.064	143.56
243.298	146.56
243.531	125.56
243.765	141.56
243.998	144.56
244.232	132.56
244.465	139.56
244.699	155.56
244.932	149.56
245.166	149.56
245.399	145.56
245.633	139.56
245.866	158.56
246.099	144.56
246.333	154.56
246.566	143.56
246.8	146.56
247.033	155.56
247.266	167.56
247.5	175.56
247.733	168.56
247.966	163.56
248.2	166.56
248.433	160.56
248.666	181.56
248.899	179.56
249.133	188.56
249.366	208.56
249.599	200.56
249.832	183.56
250.066	183.56
250.299	193.56
250.532	205.56
250.765	221.56
250.998	243.56
251.231	240.56
251.465	218.56
251.698	216.56
251.931	205.56
252.164	184.56
252.397	196.56
252.63	201.56
252.863	228.56
253.096	224.56
253.329	234.56
253.562	219.56
253.795	217.56
254.028	232.56
254.261	235.56
254.494	219.56
254.727	241.56
254.96	260.56
255.193	268.56
255.426	251.56
255.659	245.56
255.892	259.56
256.124	269.56
256.357	282.56
256.59	249.56
256.823	230.56
257.056	225.56
257.289	215.56
257.521	204.56
257.754	207.56
257.987	215.56
258.22	218.56
258.452	207.56
258.685	216.56
258.918	218.56
259.151	203.56
259.383	238.56
259.616	212.56
259.849	221.56
260.081	260.56
260.314	259.56
260.547	274.56
260.779	235.56
261.012	232.56
261.244	245.56
261.477	234.56
261.71	223.56
261.942	226.56
262.175	237.56
262.407	222.56
262.64	219.56
262.872	208.56
263.105	230.56
263.337	211.56
263.57	206.56
263.802	230.56
264.035	221.56
264.267	219.56
264.499	224.56
264.732	238.56
264.964	229.56
265.197	211.56
265.429	231.56
265.661	232.56
265.894	226.56
266.126	232.56
266.358	221.56
266.591	232.56
266.823	236.56
267.055	259.56
267.287	251.56
267.52	241.56
267.752	248.56
267.984	234.56
268.216	227.56
268.448	238.56
268.681	239.56
268.913	257.56
269.145	257.56
269.377	291.56
269.609	285.56
269.841	291.56
270.073	284.56
270.306	293.56
270.538	313.56
270.77	318.56
271.002	303.56
271.234	298.56
271.466	316.56
271.698	324.56
271.93	321.56
272.162	311.56
272.394	322.56
272.626	303.56
272.858	304.56
273.09	298.56
273.322	293.56
273.553	272.56
273.785	281.56
274.017	282.56
274.249	289.56
274.481	288.56
274.713	283.56
274.945	278.56
275.176	288.56
275.408	280.56
275.64	289.56
275.872	280.56
276.104	283.56
276.335	281.56
276.567	295.56
276.799	313.56
277.031	333.56
277.262	333.56
277.494	322.56
277.726	341.56
277.957	321.56
278.189	310.56
278.421	284.56
278.652	300.56
278.884	284.56
279.115	282.56
279.347	297.56
279.579	277.56
279.81	287.56
280.042	289.56
280.273	289.56
280.505	302.56
280.736	290.56
280.968	289.56
281.199	286.56
281.431	292.56
281.662	298.56
281.894	294.56
282.125	301.56
282.356	298.56
282.588	332.56
282.819	334.56
283.051	305.56
283.282	302.56
283.513	306.56
283.745	299.56
283.976	315.56
284.207	323.56
284.439	299.56
284.67	293.56
284.901	308.56
285.132	297.56
285.364	329.56
285.595	326.56
285.826	307.56
286.057	303.56
286.288	325.56
286.52	313.56
286.751	295.56
286.982	310.56
287.213	318.56
287.444	333.56
287.675	309.56
287.906	338.56
288.138	351.56
288.369	338.56
288.6	342.56
288.831	333.56
289.062	341.56
289.293	318.56
289.524	335.56
289.755	318.56
289.986	329.56
290.217	316.56
290.448	315.56
290.679	316.56
290.91	334.56
291.141	321.56
291.371	335.56
291.602	334.56
291.833	346.56
292.064	321.56
292.295	330.56
292.526	327.56
292.757	326.56
292.987	300.56
293.218	338.56
293.449	343.56
293.68	338.56
293.91	329.56
294.141	315.56
294.372	329.56
294.603	326.56
294.833	315.56
295.064	354.56
295.295	326.56
295.525	347.56
295.756	348.56
295.987	348.56
296.217	347.56
296.448	355.56
296.679	344.56
296.909	336.56
297.14	328.56
297.37	315.56
297.601	334.56
297.831	348.56
298.062	343.56
298.292	356.56
298.523	344.56
298.753	339.56
298.984	363.56
299.214	357.56
299.445	340.56
299.675	370.56
299.905	359.56
300.136	369.56
300.366	347.56
300.597	351.56
300.827	369.56
301.057	374.56
301.288	372.56
301.518	376.56
301.748	373.56
301.979	394.56
302.209	362.56
302.439	376.56
302.669	381.56
302.9	376.56
303.13	362.56
303.36	373.56
303.59	387.56
303.82	382.56
304.051	398.56
304.281	357.56
304.511	363.56
304.741	393.56
304.971	378.56
305.201	377.56
305.431	380.56
305.661	350.56
305.891	364.56
306.121	365.56
306.352	380.56
306.582	387.56
306.812	377.56
307.042	373.56
307.272	393.56
307.502	374.56
307.731	377.56
307.961	385.56
308.191	382.56
308.421	362.56
308.651	377.56
308.881	381.56
309.111	388.56
309.341	399.56
309.571	399.56
309.8	418.56
310.03	419.56
310.26	408.56
310.49	400.56
310.72	411.56
310.949	448.56
311.179	403.56
311.409	413.56
311.639	400.56
311.868	405.56
312.098	413.56
312.328	422.56
312.557	441.56
312.787	457.56
313.017	444.56
313.246	434.56
313.476	421.56
313.706	419.56
313.935	436.56
314.165	445.56
314.394	436.56
314.624	453.56
314.853	425.56
315.083	425.56
315.312	428.56
315.542	427.56
315.771	435.56
316.001	433.56
316.23	435.56
316.46	426.56
316.689	417.56
316.919	416.56
317.148	433.56
317.377	398.56
317.607	433.56
317.836	417.56
318.065	416.56
318.295	425.56
318.524	415.56
318.753	400.56
318.983	423.56
319.212	410.56
319.441	427.56
319.67	430.56
319.9	433.56
320.129	416.56
320.358	423.56
320.587	446.56
320.816	442.56
321.046	439.56
321.275	442.56
321.504	445.56
321.733	456.56
321.962	435.56
322.191	450.56
322.42	451.56
322.649	467.56
322.878	474.56
323.108	492.56
323.337	527.56
323.566	543.56
323.795	560.56
324.024	585.56
324.253	684.56
324.482	957.56
324.71	1410.56
324.939	2043.56
325.168	1678.56
325.397	902.56
325.626	661.56
325.855	576.56
326.084	523.56
326.313	546.56
326.542	530.56
326.77	565.56
326.999	650.56
327.228	874.56
327.457	1285.56
327.686	1517.56
327.914	1057.56
328.143	718.56
328.372	659.56
328.6	601.56
328.829	583.56
329.058	622.56
329.287	626.56
329.515	585.56
329.744	569.56
329.972	594.56
330.201	583.56
330.43	641.56
330.658	670.56
330.887	644.56
331.115	602.56
331.344	560.56
331.572	556.56
331.801	551.56
332.03	555.56
332.258	549.56
332.486	556.56
332.715	534.56
332.943	540.56
333.172	531.56
333.4	575.56
333.629	552.56
333.857	577.56
334.085	599.56
334.314	616.56
334.542	669.56
334.771	679.56
334.999	604.56
335.227	579.56
335.455	544.56
335.684	518.56
335.912	509.56
336.14	526.56
336.369	522.56
336.597	517.56
336.825	517.56
337.053	496.56
337.281	493.56
337.51	524.56
337.738	516.56
337.966	478.56
338.194	483.56
338.422	492.56
338.65	485.56
338.878	471.56
339.106	485.56
339.334	500.56
339.562	477.56
339.79	445.56
340.018	471.56
340.246	477.56
340.474	484.56
340.702	508.56
340.93	481.56
341.158	481.56
341.386	481.56
341.614	482.56
341.842	472.56
342.07	449.56
342.298	470.56
342.526	470.56
342.754	466.56
342.981	464.56
343.209	476.56
343.437	485.56
343.665	489.56
343.893	500.56
344.12	531.56
344.348	479.56
344.576	515.56
344.804	485.56
345.031	494.56
345.259	524.56
345.487	486.56
345.714	463.56
345.942	475.56
346.17	461.56
346.397	464.56
346.625	447.56
346.853	475.56
347.08	462.56
347.308	472.56
347.535	468.56
347.763	483.56
347.99	455.56
348.218	465.56
348.445	448.56
348.673	452.56
348.9	455.56
349.128	465.56
349.355	473.56
349.583	452.56
349.81	446.56
350.037	454.56
350.265	457.56
350.492	445.56
350.72	429.56
350.947	436.56
351.174	427.56
351.402	430.56
351.629	441.56
351.856	477.56
352.083	462.56
352.311	462.56
352.538	469.56
352.765	465.56
352.992	453.56
353.22	465.56
353.447	435.56
353.674	453.56
353.901	437.56
354.128	436.56
354.355	424.56
354.583	427.56
354.81	419.56
355.037	430.56
355.264	429.56
355.491	417.56
355.718	438.56
355.945	423.56
356.172	442.56
356.399	425.56
356.626	429.56
356.853	429.56
357.08	431.56
357.307	430.56
357.534	426.56
357.761	418.56
357.988	419.56
358.215	427.56
358.441	429.56
358.668	416.56
358.895	391.56
359.122	419.56
359.349	431.56
359.576	444.56
359.802	458.56
360.029	502.56
360.256	507.56
360.483	475.56
360.709	453.56
360.936	451.56
361.163	439.56
361.39	436.56
361.616	442.56
361.843	459.56
362.07	443.56
362.296	462.56
362.523	447.56
362.749	441.56
362.976	444.56
363.203	454.56
363.429	435.56
363.656	439.56
363.882	431.56
364.109	423.56
364.335	418.56
364.562	421.56
364.788	426.56
365.015	431.56
365.241	444.56
365.468	452.56
365.694	445.56
365.92	428.56
366.147	424.56
366.373	419.56
366.599	429.56
366.826	430.56
367.052	436.56
367.278	431.56
367.505	421.56
367.731	424.56
367.957	411.56
368.184	428.56
368.41	425.56
368.636	427.56
368.862	474.56
369.089	449.56
369.315	425.56
369.541	438.56
369.767	425.56
369.993	428.56
370.219	429.56
370.445	435.56
370.672	438.56
370.898	428.56
371.124	433.56
371.35	441.56
371.576	436.56
371.802	424.56
372.028	419.56
372.254	413.56
372.48	445.56
372.706	451.56
372.932	454.56
373.158	436.56
373.384	428.56
373.61	444.56
373.835	445.56
374.061	440.56
374.287	436.56
374.513	455.56
374.739	457.56
374.965	458.56
375.191	455.56
375.416	438.56
375.642	454.56
375.868	428.56
376.094	458.56
376.319	445.56
376.545	413.56
376.771	425.56
376.997	409.56
377.222	428.56
377.448	415.56
377.674	406.56
377.899	403.56
378.125	405.56
378.35	423.56
378.576	430.56
378.802	430.56
379.027	430.56
379.253	436.56
379.478	416.56
379.704	429.56
379.929	405.56
380.155	392.56
380.38	431.56
380.606	419.56
380.831	434.56
381.057	423.56
381.282	417.56
381.507	424.56
381.733	417.56
381.958	406.56
382.184	446.56
382.409	426.56
382.634	425.56
382.86	451.56
383.085	447.56
383.31	445.56
383.535	451.56
383.761	450.56
383.986	461.56
384.211	481.56
384.436	464.56
384.662	483.56
384.887	476.56
385.112	479.56
385.337	483.56
385.562	472.56
385.787	478.56
386.013	492.56
386.238	490.56
386.463	490.56
386.688	471.56
386.913	480.56
387.138	474.56
387.363	472.56
387.588	460.56
387.813	454.56
388.038	459.56
388.263	498.56
388.488	458.56
388.713	463.56
388.938	476.56
389.163	483.56
389.387	473.56
389.612	486.56
389.837	472.56
390.062	460.56
390.287	446.56
390.512	483.56
390.736	483.56
390.961	477.56
391.186	471.56
391.411	478.56
391.636	477.56
391.86	505.56
392.085	506.56
392.31	503.56
392.534	494.56
392.759	482.56
392.984	466.56
393.208	493.56
393.433	484.56
393.658	474.56
393.882	486.56
394.107	462.56
394.331	494.56
394.556	504.56
394.78	485.56
395.005	489.56
395.229	452.56
395.454	507.56
395.678	503.56
395.903	515.56
396.127	523.56
396.352	523.56
396.576	504.56
396.801	513.56
397.025	488.56
397.249	498.56
397.474	513.56
397.698	519.56
397.922	521.56
398.147	531.56
398.371	558.56
398.595	530.56
398.82	536.56
399.044	579.56
399.268	606.56
399.492	635.56
399.717	670.56
399.941	718.56
400.165	719.56
400.389	651.56
400.613	604.56
400.837	609.56
401.062	587.56
401.286	568.56
401.51	547.56
401.734	552.56
401.958	569.56
402.182	565.56
402.406	573.56
402.63	576.56
402.854	568.56
403.078	578.56
403.302	610.56
403.526	614.56
403.75	581.56
403.974	574.56
404.198	596.56
404.422	575.56
404.645	586.56
404.869	617.56
405.093	647.56
405.317	655.56
405.541	716.56
405.765	658.56
405.988	599.56
406.212	628.56
406.436	645.56
406.66	650.56
406.883	634.56
407.107	656.56
407.331	692.56
407.555	761.56
407.778	770.56
408.002	689.56
408.226	618.56
408.449	632.56
408.673	653.56
408.896	644.56
409.12	660.56
409.344	634.56
409.567	609.56
409.791	590.56
410.014	569.56
410.238	553.56
410.461	563.56
410.685	596.56
410.908	585.56
411.132	607.56
411.355	662.56
411.578	641.56
411.802	577.56
412.025	567.56
412.249	585.56
412.472	595.56
412.695	646.56
412.919	630.56
413.142	582.56
413.365	587.56
413.589	556.56
413.812	538.56
414.035	535.56
414.258	561.56
414.482	553.56
414.705	541.56
414.928	534.56
415.151	514.56
415.374	519.56
415.597	537.56
415.821	551.56
416.044	533.56
416.267	535.56
416.49	532.56
416.713	525.56
416.936	542.56
417.159	527.56
417.382	528.56
417.605	554.56
417.828	576.56
418.051	547.56
418.274	559.56
418.497	530.56
418.72	540.56
418.943	562.56
419.166	578.56
419.389	604.56
419.611	598.56
419.834	577.56
420.057	581.56
420.28	583.56
420.503	590.56
420.726	588.56
420.948	578.56
421.171	603.56
421.394	631.56
421.617	581.56
421.839	537.56
422.062	551.56
422.285	580.56
422.507	621.56
422.73	678.56
422.953	663.56
423.175	589.56
423.398	599.56
423.621	544.56
423.843	575.56
424.066	573.56
424.288	607.56
424.511	612.56
424.733	641.56
424.956	702.56
425.178	694.56
425.401	683.56
425.623	715.56
425.846	611.56
426.068	579.56
426.291	563.56
426.513	573.56
426.735	594.56
426.958	622.56
427.18	689.56
427.402	802.56
427.625	885.56
427.847	765.56
428.069	690.56
428.292	612.56
428.514	545.56
428.736	549.56
428.958	555.56
429.181	496.56
429.403	522.56
429.625	538.56
429.847	559.56
430.069	614.56
430.292	625.56
430.514	540.56
430.736	514.56
430.958	499.56
431.18	515.56
431.402	494.56
431.624	495.56
431.846	503.56
432.068	486.56
432.29	519.56
432.512	510.56
432.734	510.56
432.956	508.56
433.178	526.56
433.4	515.56
433.622	501.56
433.844	513.56
434.066	503.56
434.287	521.56
434.509	531.56
434.731	526.56
434.953	548.56
435.175	565.56
435.397	550.56
435.618	576.56
435.84	610.56
436.062	681.56
436.284	741.56
436.505	630.56
436.727	559.56
436.949	521.56
437.17	532.56
437.392	528.56
437.614	524.56
437.835	537.56
438.057	637.56
438.278	726.56
438.5	721.56
438.721	788.56
438.943	749.56
439.165	594.56
439.386	577.56
439.608	579.56
439.829	552.56
440.05	599.56
440.272	637.56
440.493	599.56
440.715	567.56
440.936	524.56
441.158	532.56
441.379	545.56
441.6	563.56
441.822	582.56
442.043	602.56
442.264	689.56
442.486	714.56
442.707	625.56
442.928	572.56
443.149	586.56
443.371	610.56
443.592	663.56
443.813	724.56
444.034	784.56
444.255	660.56
444.476	610.56
444.698	601.56
444.919	615.56
445.14	716.56
445.361	659.56
445.582	642.56
445.803	665.56
446.024	756.56
446.245	747.56
446.466	715.56
446.687	601.56
446.908	567.56
447.129	534.56
447.35	524.56
447.571	519.56
447.792	522.56
448.013	505.56
448.234	531.56
448.455	588.56
448.675	682.56
448.896	781.56
449.117	673.56
449.338	654.56
449.559	753.56
449.779	849.56
450	650.56
450.221	573.56
450.442	521.56
450.662	486.56
450.883	497.56
451.104	521.56
451.324	526.56
451.545	506.56
451.766	492.56
451.986	481.56
452.207	485.56
452.428	476.56
452.648	502.56
452.869	507.56
453.089	468.56
453.31	495.56
453.53	476.56
453.751	467.56
453.971	491.56
454.192	523.56
454.412	489.56
454.633	473.56
454.853	458.56
455.073	463.56
455.294	486.56
455.514	546.56
455.734	524.56
455.955	468.56
456.175	460.56
456.395	458.56
456.616	439.56
456.836	426.56
457.056	437.56
457.276	445.56
457.497	435.56
457.717	465.56
457.937	466.56
458.157	467.56
458.377	474.56
458.598	478.56
458.818	527.56
459.038	608.56
459.258	620.56
459.478	562.56
459.698	527.56
459.918	493.56
460.138	526.56
460.358	523.56
460.578	543.56
460.798	555.56
461.018	551.56
461.238	548.56
461.458	538.56
461.678	518.56
461.898	540.56
462.118	540.56
462.338	570.56
462.558	540.56
462.777	578.56
462.997	595.56
463.217	634.56
463.437	611.56
463.657	603.56
463.876	599.56
464.096	570.56
464.316	585.56
464.536	593.56
464.755	593.56
464.975	576.56
465.195	597.56
465.414	637.56
465.634	578.56
465.854	504.56
466.073	526.56
466.293	481.56
466.512	503.56
466.732	492.56
466.951	492.56
467.171	484.56
467.391	502.56
467.61	501.56
467.829	512.56
468.049	503.56
468.268	515.56
468.488	492.56
468.707	487.56
468.927	502.56
469.146	467.56
469.365	464.56
469.585	476.56
469.804	496.56
470.023	485.56
470.243	508.56
470.462	504.56
470.681	514.56
470.901	531.56
471.12	505.56
471.339	481.56
471.558	511.56
471.777	495.56
471.997	498.56
472.216	501.56
472.435	551.56
472.654	539.56
472.873	499.56
473.092	494.56
473.311	495.56
473.53	487.56
473.749	507.56
473.968	522.56
474.187	595.56
474.406	619.56
474.625	539.56
474.844	506.56
475.063	486.56
475.282	510.56
475.501	483.56
475.72	524.56
475.939	486.56
476.158	510.56
476.377	509.56
476.596	497.56
476.814	484.56
477.033	528.56
477.252	521.56
477.471	528.56
477.69	534.56
477.908	542.56
478.127	538.56
478.346	548.56
478.564	574.56
478.783	571.56
479.002	594.56
479.22	605.56
479.439	597.56
479.658	583.56
479.876	586.56
480.095	614.56
480.313	649.56
480.532	592.56
480.751	607.56
480.969	632.56
481.188	686.56
481.406	745.56
481.624	667.56
481.843	623.56
482.061	589.56
482.28	591.56
482.498	569.56
482.717	602.56
482.935	591.56
483.153	571.56
483.372	575.56
483.59	580.56
483.808	573.56
484.027	563.56
484.245	600.56
484.463	586.56
484.681	594.56
484.9	600.56
485.118	607.56
485.336	593.56
485.554	603.56
485.772	604.56
485.99	569.56
486.209	600.56
486.427	599.56
486.645	617.56
486.863	624.56
487.081	619.56
487.299	623.56
487.517	615.56
487.735	616.56
487.953	596.56
488.171	616.56
488.389	622.56
488.607	606.56
488.825	617.56
489.043	604.56
489.261	640.56
489.479	602.56
489.696	623.56
489.914	625.56
490.132	631.56
490.35	638.56
490.568	658.56
490.786	660.56
491.003	673.56
491.221	694.56
491.439	694.56
491.657	679.56
491.874	685.56
492.092	689.56
492.31	730.56
492.527	723.56
492.745	725.56
492.963	743.56
493.18	717.56
493.398	724.56
493.615	738.56
493.833	727.56
494.05	725.56
494.268	733.56
494.485	742.56
494.703	743.56
494.92	739.56
495.138	711.56
495.355	723.56
495.573	724.56
495.79	746.56
496.008	738.56
496.225	728.56
496.442	740.56
496.66	746.56
496.877	724.56
497.094	719.56
497.312	741.56
497.529	760.56
497.746	767.56
497.963	767.56
498.181	786.56
498.398	825.56
498.615	846.56
498.832	883.56
499.049	911.56
499.267	930.56
499.484	968.56
499.701	1013.56
499.918	1063.56
500.135	1178.56
500.352	1231.56
500.569	1227.56
500.786	1199.56
501.003	1180.56
501.22	1153.56
501.437	1061.56
501.654	1031.56
501.871	982.56
