Data from 1985.PennyLincolnUp.Lamp.En5.5.200Scan.071819.P1_HRD10591_17-02-58-971.txt Node
Date: Thu Jul 18 17:02:58 EDT 2019
User: cochatt
Spectrometer: HR+D1059
Trigger mode: 1
Integration Time (sec): 1.000000E-1
Scans to average: 1
Electric dark correction enabled: true
Nonlinearity correction enabled: false
Boxcar width: 0
XAxis mode: Wavelengths
Number of Pixels in Spectrum: 2048
>>>>>Begin Spectral Data<<<<<
223.165	-18.19
223.4	-18.19
223.635	-18.19
223.869	-15.19
224.104	-17.19
224.338	-13.19
224.573	-16.19
224.808	-12.19
225.042	-0.19
225.277	-16.19
225.511	-2.19
225.746	2.81
225.98	2.81
226.215	20.81
226.449	13.81
226.683	28.81
226.918	10.81
227.152	30.81
227.387	23.81
227.621	44.81
227.856	47.81
228.09	40.81
228.324	54.81
228.559	54.81
228.793	80.81
229.027	101.81
229.262	118.81
229.496	118.81
229.73	133.81
229.964	126.81
230.199	109.81
230.433	128.81
230.667	120.81
230.901	103.81
231.136	118.81
231.37	110.81
231.604	110.81
231.838	121.81
232.072	108.81
232.306	118.81
232.541	126.81
232.775	111.81
233.009	114.81
233.243	124.81
233.477	114.81
233.711	103.81
233.945	134.81
234.179	121.81
234.413	121.81
234.647	127.81
234.881	127.81
235.115	115.81
235.349	120.81
235.583	120.81
235.817	135.81
236.051	122.81
236.285	124.81
236.519	123.81
236.753	121.81
236.987	136.81
237.221	176.81
237.455	215.81
237.689	171.81
237.922	143.81
238.156	137.81
238.39	114.81
238.624	121.81
238.858	139.81
239.091	129.81
239.325	130.81
239.559	127.81
239.793	128.81
240.027	134.81
240.26	144.81
240.494	155.81
240.728	149.81
240.961	156.81
241.195	142.81
241.429	135.81
241.662	137.81
241.896	144.81
242.13	130.81
242.363	132.81
242.597	146.81
242.83	130.81
243.064	157.81
243.298	127.81
243.531	139.81
243.765	143.81
243.998	140.81
244.232	134.81
244.465	141.81
244.699	158.81
244.932	146.81
245.166	144.81
245.399	146.81
245.633	148.81
245.866	164.81
246.099	159.81
246.333	150.81
246.566	148.81
246.8	160.81
247.033	154.81
247.266	174.81
247.5	179.81
247.733	157.81
247.966	176.81
248.2	178.81
248.433	174.81
248.666	183.81
248.899	169.81
249.133	197.81
249.366	206.81
249.599	194.81
249.832	171.81
250.066	181.81
250.299	171.81
250.532	211.81
250.765	205.81
250.998	223.81
251.231	215.81
251.465	210.81
251.698	197.81
251.931	186.81
252.164	207.81
252.397	182.81
252.63	199.81
252.863	205.81
253.096	222.81
253.329	211.81
253.562	221.81
253.795	242.81
254.028	206.81
254.261	206.81
254.494	217.81
254.727	263.81
254.96	270.81
255.193	259.81
255.426	239.81
255.659	219.81
255.892	216.81
256.124	226.81
256.357	223.81
256.59	214.81
256.823	203.81
257.056	216.81
257.289	231.81
257.521	219.81
257.754	224.81
257.987	212.81
258.22	198.81
258.452	213.81
258.685	210.81
258.918	203.81
259.151	208.81
259.383	234.81
259.616	225.81
259.849	239.81
260.081	237.81
260.314	249.81
260.547	265.81
260.779	262.81
261.012	237.81
261.244	223.81
261.477	217.81
261.71	227.81
261.942	238.81
262.175	232.81
262.407	246.81
262.64	216.81
262.872	228.81
263.105	229.81
263.337	242.81
263.57	227.81
263.802	234.81
264.035	224.81
264.267	215.81
264.499	221.81
264.732	232.81
264.964	230.81
265.197	233.81
265.429	229.81
265.661	223.81
265.894	223.81
266.126	227.81
266.358	246.81
266.591	247.81
266.823	229.81
267.055	227.81
267.287	250.81
267.52	249.81
267.752	242.81
267.984	231.81
268.216	260.81
268.448	262.81
268.681	249.81
268.913	264.81
269.145	262.81
269.377	296.81
269.609	297.81
269.841	286.81
270.073	278.81
270.306	289.81
270.538	317.81
270.77	327.81
271.002	308.81
271.234	320.81
271.466	307.81
271.698	334.81
271.93	333.81
272.162	335.81
272.394	329.81
272.626	339.81
272.858	303.81
273.09	285.81
273.322	300.81
273.553	284.81
273.785	284.81
274.017	279.81
274.249	281.81
274.481	276.81
274.713	284.81
274.945	293.81
275.176	266.81
275.408	286.81
275.64	251.81
275.872	288.81
276.104	279.81
276.335	295.81
276.567	284.81
276.799	302.81
277.031	333.81
277.262	342.81
277.494	343.81
277.726	333.81
277.957	311.81
278.189	298.81
278.421	299.81
278.652	294.81
278.884	277.81
279.115	300.81
279.347	284.81
279.579	293.81
279.81	299.81
280.042	274.81
280.273	286.81
280.505	296.81
280.736	284.81
280.968	296.81
281.199	292.81
281.431	278.81
281.662	288.81
281.894	308.81
282.125	304.81
282.356	329.81
282.588	331.81
282.819	347.81
283.051	299.81
283.282	302.81
283.513	317.81
283.745	318.81
283.976	321.81
284.207	310.81
284.439	301.81
284.67	325.81
284.901	317.81
285.132	323.81
285.364	316.81
285.595	320.81
285.826	312.81
286.057	323.81
286.288	303.81
286.52	314.81
286.751	310.81
286.982	328.81
287.213	323.81
287.444	315.81
287.675	324.81
287.906	339.81
288.138	338.81
288.369	339.81
288.6	352.81
288.831	355.81
289.062	328.81
289.293	326.81
289.524	310.81
289.755	318.81
289.986	299.81
290.217	319.81
290.448	328.81
290.679	333.81
290.91	332.81
291.141	344.81
291.371	331.81
291.602	321.81
291.833	334.81
292.064	339.81
292.295	339.81
292.526	346.81
292.757	312.81
292.987	333.81
293.218	339.81
293.449	316.81
293.68	334.81
293.91	330.81
294.141	336.81
294.372	332.81
294.603	322.81
294.833	334.81
295.064	336.81
295.295	330.81
295.525	323.81
295.756	323.81
295.987	332.81
296.217	370.81
296.448	360.81
296.679	358.81
296.909	338.81
297.14	331.81
297.37	322.81
297.601	348.81
297.831	342.81
298.062	351.81
298.292	363.81
298.523	344.81
298.753	342.81
298.984	348.81
299.214	347.81
299.445	332.81
299.675	340.81
299.905	361.81
300.136	345.81
300.366	349.81
300.597	372.81
300.827	352.81
301.057	360.81
301.288	363.81
301.518	367.81
301.748	364.81
301.979	371.81
302.209	394.81
302.439	377.81
302.669	375.81
302.9	375.81
303.13	364.81
303.36	366.81
303.59	381.81
303.82	386.81
304.051	386.81
304.281	349.81
304.511	375.81
304.741	378.81
304.971	381.81
305.201	371.81
305.431	388.81
305.661	394.81
305.891	368.81
306.121	367.81
306.352	373.81
306.582	372.81
306.812	384.81
307.042	365.81
307.272	396.81
307.502	380.81
307.731	380.81
307.961	365.81
308.191	383.81
308.421	390.81
308.651	379.81
308.881	388.81
309.111	390.81
309.341	392.81
309.571	407.81
309.8	406.81
310.03	406.81
310.26	420.81
310.49	407.81
310.72	427.81
310.949	431.81
311.179	423.81
311.409	418.81
311.639	412.81
311.868	417.81
312.098	428.81
312.328	414.81
312.557	442.81
312.787	463.81
313.017	444.81
313.246	420.81
313.476	414.81
313.706	400.81
313.935	410.81
314.165	420.81
314.394	429.81
314.624	453.81
314.853	426.81
315.083	434.81
315.312	415.81
315.542	425.81
315.771	428.81
316.001	387.81
316.23	426.81
316.46	414.81
316.689	421.81
316.919	423.81
317.148	416.81
317.377	444.81
317.607	424.81
317.836	436.81
318.065	422.81
318.295	410.81
318.524	418.81
318.753	426.81
318.983	450.81
319.212	430.81
319.441	432.81
319.67	442.81
319.9	442.81
320.129	432.81
320.358	424.81
320.587	415.81
320.816	428.81
321.046	434.81
321.275	421.81
321.504	452.81
321.733	434.81
321.962	445.81
322.191	458.81
322.42	490.81
322.649	484.81
322.878	488.81
323.108	472.81
323.337	504.81
323.566	532.81
323.795	565.81
324.024	623.81
324.253	738.81
324.482	973.81
324.71	1475.81
324.939	2102.81
325.168	1794.81
325.397	958.81
325.626	658.81
325.855	587.81
326.084	544.81
326.313	550.81
326.542	546.81
326.77	583.81
326.999	676.81
327.228	917.81
327.457	1320.81
327.686	1606.81
327.914	1042.81
328.143	721.81
328.372	642.81
328.6	610.81
328.829	586.81
329.058	603.81
329.287	585.81
329.515	575.81
329.744	528.81
329.972	535.81
330.201	568.81
330.43	566.81
330.658	615.81
330.887	635.81
331.115	642.81
331.344	574.81
331.572	538.81
331.801	557.81
332.03	552.81
332.258	536.81
332.486	522.81
332.715	530.81
332.943	519.81
333.172	508.81
333.4	525.81
333.629	526.81
333.857	556.81
334.085	556.81
334.314	564.81
334.542	554.81
334.771	570.81
334.999	534.81
335.227	551.81
335.455	509.81
335.684	516.81
335.912	503.81
336.14	510.81
336.369	516.81
336.597	541.81
336.825	492.81
337.053	510.81
337.281	492.81
337.51	516.81
337.738	495.81
337.966	470.81
338.194	475.81
338.422	480.81
338.65	481.81
338.878	494.81
339.106	485.81
339.334	508.81
339.562	478.81
339.79	474.81
340.018	470.81
340.246	492.81
340.474	495.81
340.702	485.81
340.93	490.81
341.158	480.81
341.386	478.81
341.614	469.81
341.842	482.81
342.07	487.81
342.298	487.81
342.526	471.81
342.754	463.81
342.981	484.81
343.209	463.81
343.437	488.81
343.665	476.81
343.893	491.81
344.12	495.81
344.348	503.81
344.576	505.81
344.804	480.81
345.031	494.81
345.259	488.81
345.487	504.81
345.714	482.81
345.942	448.81
346.17	478.81
346.397	480.81
346.625	452.81
346.853	466.81
347.08	454.81
347.308	447.81
347.535	454.81
347.763	461.81
347.99	468.81
348.218	466.81
348.445	465.81
348.673	499.81
348.9	468.81
349.128	440.81
349.355	430.81
349.583	449.81
349.81	438.81
350.037	440.81
350.265	434.81
350.492	427.81
350.72	436.81
350.947	446.81
351.174	463.81
351.402	444.81
351.629	460.81
351.856	450.81
352.083	447.81
352.311	473.81
352.538	457.81
352.765	472.81
352.992	458.81
353.22	423.81
353.447	458.81
353.674	456.81
353.901	437.81
354.128	441.81
354.355	438.81
354.583	420.81
354.81	434.81
355.037	420.81
355.264	438.81
355.491	418.81
355.718	411.81
355.945	425.81
356.172	417.81
356.399	406.81
356.626	414.81
356.853	439.81
357.08	422.81
357.307	430.81
357.534	423.81
357.761	429.81
357.988	420.81
358.215	435.81
358.441	397.81
358.668	430.81
358.895	440.81
359.122	426.81
359.349	471.81
359.576	458.81
359.802	463.81
360.029	479.81
360.256	485.81
360.483	486.81
360.709	470.81
360.936	446.81
361.163	428.81
361.39	445.81
361.616	442.81
361.843	442.81
362.07	426.81
362.296	432.81
362.523	451.81
362.749	458.81
362.976	466.81
363.203	444.81
363.429	443.81
363.656	448.81
363.882	407.81
364.109	411.81
364.335	405.81
364.562	423.81
364.788	436.81
365.015	414.81
365.241	452.81
365.468	438.81
365.694	430.81
365.92	453.81
366.147	449.81
366.373	439.81
366.599	431.81
366.826	437.81
367.052	442.81
367.278	429.81
367.505	436.81
367.731	426.81
367.957	443.81
368.184	421.81
368.41	431.81
368.636	420.81
368.862	469.81
369.089	433.81
369.315	436.81
369.541	422.81
369.767	440.81
369.993	437.81
370.219	433.81
370.445	426.81
370.672	424.81
370.898	435.81
371.124	434.81
371.35	426.81
371.576	440.81
371.802	426.81
372.028	444.81
372.254	434.81
372.48	432.81
372.706	448.81
372.932	443.81
373.158	451.81
373.384	434.81
373.61	457.81
373.835	451.81
374.061	409.81
374.287	432.81
374.513	434.81
374.739	456.81
374.965	450.81
375.191	456.81
375.416	454.81
375.642	408.81
375.868	462.81
376.094	442.81
376.319	419.81
376.545	423.81
376.771	446.81
376.997	420.81
377.222	438.81
377.448	429.81
377.674	436.81
377.899	414.81
378.125	413.81
378.35	424.81
378.576	402.81
378.802	413.81
379.027	422.81
379.253	411.81
379.478	416.81
379.704	407.81
379.929	424.81
380.155	423.81
380.38	415.81
380.606	416.81
380.831	413.81
381.057	442.81
381.282	414.81
381.507	431.81
381.733	443.81
381.958	438.81
382.184	434.81
382.409	434.81
382.634	419.81
382.86	432.81
383.085	431.81
383.31	449.81
383.535	456.81
383.761	459.81
383.986	463.81
384.211	438.81
384.436	453.81
384.662	461.81
384.887	466.81
385.112	476.81
385.337	462.81
385.562	481.81
385.787	466.81
386.013	481.81
386.238	492.81
386.463	476.81
386.688	488.81
386.913	481.81
387.138	496.81
387.363	477.81
387.588	458.81
387.813	485.81
388.038	468.81
388.263	478.81
388.488	482.81
388.713	475.81
388.938	476.81
389.163	472.81
389.387	452.81
389.612	464.81
389.837	484.81
390.062	476.81
390.287	475.81
390.512	484.81
390.736	477.81
390.961	480.81
391.186	458.81
391.411	479.81
391.636	498.81
391.86	479.81
392.085	501.81
392.31	485.81
392.534	499.81
392.759	491.81
392.984	484.81
393.208	478.81
393.433	487.81
393.658	480.81
393.882	473.81
394.107	498.81
394.331	468.81
394.556	486.81
394.78	475.81
395.005	484.81
395.229	490.81
395.454	491.81
395.678	534.81
395.903	500.81
396.127	526.81
396.352	532.81
396.576	506.81
396.801	503.81
397.025	496.81
397.249	508.81
397.474	524.81
397.698	528.81
397.922	527.81
398.147	550.81
398.371	544.81
398.595	538.81
398.82	552.81
399.044	576.81
399.268	596.81
399.492	655.81
399.717	676.81
399.941	722.81
400.165	724.81
400.389	711.81
400.613	617.81
400.837	591.81
401.062	558.81
401.286	543.81
401.51	552.81
401.734	552.81
401.958	561.81
402.182	572.81
402.406	601.81
402.63	557.81
402.854	557.81
403.078	555.81
403.302	571.81
403.526	618.81
403.75	601.81
403.974	592.81
404.198	590.81
404.422	602.81
404.645	603.81
404.869	583.81
405.093	610.81
405.317	618.81
405.541	652.81
405.765	618.81
405.988	626.81
406.212	609.81
406.436	636.81
406.66	668.81
406.883	619.81
407.107	666.81
407.331	694.81
407.555	752.81
407.778	748.81
408.002	707.81
408.226	647.81
408.449	615.81
408.673	621.81
408.896	647.81
409.12	663.81
409.344	655.81
409.567	608.81
409.791	584.81
410.014	568.81
410.238	564.81
410.461	598.81
410.685	553.81
410.908	603.81
411.132	604.81
411.355	650.81
411.578	598.81
411.802	593.81
412.025	564.81
412.249	573.81
412.472	583.81
412.695	620.81
412.919	599.81
413.142	557.81
413.365	556.81
413.589	553.81
413.812	542.81
414.035	518.81
414.258	528.81
414.482	529.81
414.705	534.81
414.928	536.81
415.151	520.81
415.374	542.81
415.597	536.81
415.821	533.81
416.044	539.81
416.267	539.81
416.49	543.81
416.713	542.81
416.936	538.81
417.159	537.81
417.382	531.81
417.605	519.81
417.828	542.81
418.051	567.81
418.274	524.81
418.497	538.81
418.72	535.81
418.943	550.81
419.166	582.81
419.389	550.81
419.611	589.81
419.834	570.81
420.057	583.81
420.28	549.81
420.503	549.81
420.726	550.81
420.948	557.81
421.171	590.81
421.394	607.81
421.617	567.81
421.839	559.81
422.062	560.81
422.285	560.81
422.507	636.81
422.73	696.81
422.953	665.81
423.175	600.81
423.398	578.81
423.621	590.81
423.843	599.81
424.066	617.81
424.288	590.81
424.511	616.81
424.733	665.81
424.956	715.81
425.178	724.81
425.401	692.81
425.623	722.81
425.846	618.81
426.068	584.81
426.291	593.81
426.513	591.81
426.735	588.81
426.958	627.81
427.18	686.81
427.402	828.81
427.625	902.81
427.847	792.81
428.069	664.81
428.292	580.81
428.514	567.81
428.736	552.81
428.958	552.81
429.181	538.81
429.403	510.81
429.625	520.81
429.847	575.81
430.069	605.81
430.292	607.81
430.514	536.81
430.736	540.81
430.958	518.81
431.18	512.81
431.402	525.81
431.624	524.81
431.846	516.81
432.068	523.81
432.29	532.81
432.512	503.81
432.734	525.81
432.956	527.81
433.178	520.81
433.4	523.81
433.622	519.81
433.844	493.81
434.066	499.81
434.287	490.81
434.509	503.81
434.731	516.81
434.953	549.81
435.175	557.81
435.397	593.81
435.618	591.81
435.84	584.81
436.062	682.81
436.284	747.81
436.505	635.81
436.727	583.81
436.949	549.81
437.17	541.81
437.392	535.81
437.614	536.81
437.835	569.81
438.057	672.81
438.278	754.81
438.5	746.81
438.721	818.81
438.943	796.81
439.165	621.81
439.386	557.81
439.608	574.81
439.829	575.81
440.05	612.81
440.272	660.81
440.493	574.81
440.715	574.81
440.936	544.81
441.158	542.81
441.379	546.81
441.6	566.81
441.822	570.81
442.043	614.81
442.264	721.81
442.486	730.81
442.707	639.81
442.928	602.81
443.149	604.81
443.371	626.81
443.592	660.81
443.813	761.81
444.034	790.81
444.255	685.81
444.476	635.81
444.698	617.81
444.919	619.81
445.14	735.81
445.361	665.81
445.582	616.81
445.803	674.81
446.024	759.81
446.245	792.81
446.466	700.81
446.687	606.81
446.908	579.81
447.129	556.81
447.35	533.81
447.571	529.81
447.792	512.81
448.013	514.81
448.234	547.81
448.455	605.81
448.675	688.81
448.896	824.81
449.117	682.81
449.338	646.81
449.559	749.81
449.779	814.81
450	665.81
450.221	562.81
450.442	534.81
450.662	494.81
450.883	517.81
451.104	548.81
451.324	516.81
451.545	489.81
451.766	493.81
451.986	466.81
452.207	491.81
452.428	470.81
452.648	470.81
452.869	485.81
453.089	481.81
453.31	515.81
453.53	481.81
453.751	466.81
453.971	468.81
454.192	508.81
454.412	489.81
454.633	483.81
454.853	450.81
455.073	470.81
455.294	501.81
455.514	548.81
455.734	548.81
455.955	483.81
456.175	463.81
456.395	447.81
456.616	452.81
456.836	441.81
457.056	453.81
457.276	437.81
457.497	455.81
457.717	436.81
457.937	464.81
458.157	478.81
458.377	492.81
458.598	498.81
458.818	546.81
459.038	622.81
459.258	658.81
459.478	563.81
459.698	527.81
459.918	518.81
460.138	526.81
460.358	547.81
460.578	540.81
460.798	545.81
461.018	550.81
461.238	557.81
461.458	554.81
461.678	543.81
461.898	543.81
462.118	541.81
462.338	558.81
462.558	544.81
462.777	571.81
462.997	623.81
463.217	650.81
463.437	637.81
463.657	629.81
463.876	608.81
464.096	606.81
464.316	590.81
464.536	588.81
464.755	605.81
464.975	596.81
465.195	623.81
465.414	664.81
465.634	604.81
465.854	570.81
466.073	523.81
466.293	492.81
466.512	515.81
466.732	506.81
466.951	484.81
467.171	480.81
467.391	492.81
467.61	514.81
467.829	502.81
468.049	504.81
468.268	491.81
468.488	486.81
468.707	472.81
468.927	495.81
469.146	493.81
469.365	482.81
469.585	475.81
469.804	493.81
470.023	498.81
470.243	490.81
470.462	489.81
470.681	534.81
470.901	540.81
471.12	535.81
471.339	507.81
471.558	503.81
471.777	522.81
471.997	467.81
472.216	484.81
472.435	499.81
472.654	494.81
472.873	478.81
473.092	499.81
473.311	487.81
473.53	477.81
473.749	487.81
473.968	532.81
474.187	609.81
474.406	653.81
474.625	534.81
474.844	504.81
475.063	487.81
475.282	475.81
475.501	489.81
475.72	511.81
475.939	516.81
476.158	510.81
476.377	524.81
476.596	493.81
476.814	494.81
477.033	529.81
477.252	516.81
477.471	518.81
477.69	533.81
477.908	537.81
478.127	558.81
478.346	527.81
478.564	562.81
478.783	553.81
479.002	547.81
479.22	586.81
479.439	578.81
479.658	599.81
479.876	610.81
480.095	583.81
480.313	634.81
480.532	632.81
480.751	602.81
480.969	622.81
481.188	642.81
481.406	653.81
481.624	616.81
481.843	584.81
482.061	567.81
482.28	547.81
482.498	563.81
482.717	584.81
482.935	567.81
483.153	562.81
483.372	581.81
483.59	590.81
483.808	553.81
484.027	574.81
484.245	574.81
484.463	583.81
484.681	590.81
484.9	606.81
485.118	586.81
485.336	587.81
485.554	576.81
485.772	618.81
485.99	587.81
486.209	588.81
486.427	584.81
486.645	607.81
486.863	602.81
487.081	612.81
487.299	602.81
487.517	596.81
487.735	596.81
487.953	597.81
488.171	589.81
488.389	602.81
488.607	594.81
488.825	604.81
489.043	600.81
489.261	632.81
489.479	613.81
489.696	603.81
489.914	635.81
490.132	642.81
490.35	665.81
490.568	642.81
490.786	638.81
491.003	657.81
491.221	658.81
491.439	674.81
491.657	679.81
491.874	686.81
492.092	707.81
492.31	713.81
492.527	715.81
492.745	703.81
492.963	694.81
493.18	709.81
493.398	723.81
493.615	711.81
493.833	720.81
494.05	726.81
494.268	730.81
494.485	721.81
494.703	711.81
494.92	704.81
495.138	706.81
495.355	721.81
495.573	721.81
495.79	734.81
496.008	716.81
496.225	721.81
496.442	731.81
496.66	723.81
496.877	708.81
497.094	732.81
497.312	744.81
497.529	750.81
497.746	761.81
497.963	796.81
498.181	823.81
498.398	802.81
498.615	846.81
498.832	855.81
499.049	873.81
499.267	926.81
499.484	952.81
499.701	1005.81
499.918	1082.81
500.135	1113.81
500.352	1196.81
500.569	1243.81
500.786	1288.81
501.003	1160.81
501.22	1133.81
501.437	1059.81
501.654	1043.81
