Data from 1985.PennyLincolnUp.Lamp.En5.5.200Scan.071819.P1_HRD10591_17-02-34-970.txt Node
Date: Thu Jul 18 17:02:34 EDT 2019
User: cochatt
Spectrometer: HR+D1059
Trigger mode: 1
Integration Time (sec): 1.000000E-1
Scans to average: 1
Electric dark correction enabled: true
Nonlinearity correction enabled: false
Boxcar width: 0
XAxis mode: Wavelengths
Number of Pixels in Spectrum: 2048
>>>>>Begin Spectral Data<<<<<
223.165	-11.19
223.4	-11.19
223.635	-11.19
223.869	-28.19
224.104	-25.19
224.338	-16.19
224.573	-7.19
224.808	-11.19
225.042	-11.19
225.277	-6.19
225.511	2.81
225.746	0.81
225.98	9.81
226.215	10.81
226.449	15.81
226.683	22.81
226.918	32.81
227.152	20.81
227.387	29.81
227.621	30.81
227.856	37.81
228.09	40.81
228.324	50.81
228.559	54.81
228.793	54.81
229.027	84.81
229.262	107.81
229.496	106.81
229.73	125.81
229.964	120.81
230.199	120.81
230.433	125.81
230.667	124.81
230.901	120.81
231.136	113.81
231.37	116.81
231.604	110.81
231.838	123.81
232.072	120.81
232.306	112.81
232.541	116.81
232.775	103.81
233.009	110.81
233.243	122.81
233.477	126.81
233.711	122.81
233.945	116.81
234.179	108.81
234.413	128.81
234.647	120.81
234.881	119.81
235.115	121.81
235.349	113.81
235.583	104.81
235.817	116.81
236.051	125.81
236.285	122.81
236.519	129.81
236.753	117.81
236.987	124.81
237.221	191.81
237.455	210.81
237.689	175.81
237.922	140.81
238.156	122.81
238.39	121.81
238.624	121.81
238.858	129.81
239.091	106.81
239.325	116.81
239.559	119.81
239.793	136.81
240.027	126.81
240.26	140.81
240.494	144.81
240.728	149.81
240.961	154.81
241.195	145.81
241.429	122.81
241.662	126.81
241.896	139.81
242.13	150.81
242.363	135.81
242.597	148.81
242.83	132.81
243.064	142.81
243.298	137.81
243.531	143.81
243.765	140.81
243.998	130.81
244.232	147.81
244.465	150.81
244.699	142.81
244.932	150.81
245.166	140.81
245.399	147.81
245.633	145.81
245.866	144.81
246.099	142.81
246.333	146.81
246.566	145.81
246.8	153.81
247.033	152.81
247.266	154.81
247.5	169.81
247.733	167.81
247.966	166.81
248.2	170.81
248.433	155.81
248.666	170.81
248.899	187.81
249.133	196.81
249.366	204.81
249.599	205.81
249.832	189.81
250.066	175.81
250.299	167.81
250.532	182.81
250.765	180.81
250.998	194.81
251.231	212.81
251.465	213.81
251.698	200.81
251.931	196.81
252.164	191.81
252.397	198.81
252.63	184.81
252.863	204.81
253.096	197.81
253.329	233.81
253.562	243.81
253.795	213.81
254.028	208.81
254.261	206.81
254.494	221.81
254.727	240.81
254.96	272.81
255.193	247.81
255.426	248.81
255.659	213.81
255.892	214.81
256.124	220.81
256.357	206.81
256.59	212.81
256.823	209.81
257.056	197.81
257.289	200.81
257.521	206.81
257.754	218.81
257.987	204.81
258.22	201.81
258.452	202.81
258.685	200.81
258.918	199.81
259.151	190.81
259.383	213.81
259.616	201.81
259.849	237.81
260.081	256.81
260.314	244.81
260.547	245.81
260.779	246.81
261.012	226.81
261.244	216.81
261.477	234.81
261.71	208.81
261.942	222.81
262.175	225.81
262.407	234.81
262.64	221.81
262.872	205.81
263.105	215.81
263.337	210.81
263.57	212.81
263.802	218.81
264.035	228.81
264.267	228.81
264.499	233.81
264.732	219.81
264.964	217.81
265.197	213.81
265.429	227.81
265.661	223.81
265.894	216.81
266.126	227.81
266.358	237.81
266.591	230.81
266.823	221.81
267.055	256.81
267.287	256.81
267.52	233.81
267.752	241.81
267.984	230.81
268.216	233.81
268.448	248.81
268.681	230.81
268.913	251.81
269.145	280.81
269.377	291.81
269.609	293.81
269.841	277.81
270.073	285.81
270.306	281.81
270.538	330.81
270.77	319.81
271.002	316.81
271.234	280.81
271.466	281.81
271.698	301.81
271.93	300.81
272.162	324.81
272.394	315.81
272.626	307.81
272.858	313.81
273.09	284.81
273.322	282.81
273.553	251.81
273.785	264.81
274.017	272.81
274.249	260.81
274.481	267.81
274.713	288.81
274.945	286.81
275.176	295.81
275.408	280.81
275.64	262.81
275.872	285.81
276.104	280.81
276.335	280.81
276.567	288.81
276.799	285.81
277.031	316.81
277.262	300.81
277.494	332.81
277.726	299.81
277.957	306.81
278.189	294.81
278.421	284.81
278.652	302.81
278.884	297.81
279.115	291.81
279.347	283.81
279.579	276.81
279.81	274.81
280.042	307.81
280.273	288.81
280.505	276.81
280.736	282.81
280.968	273.81
281.199	266.81
281.431	284.81
281.662	294.81
281.894	301.81
282.125	279.81
282.356	307.81
282.588	322.81
282.819	338.81
283.051	292.81
283.282	296.81
283.513	322.81
283.745	297.81
283.976	317.81
284.207	310.81
284.439	302.81
284.67	296.81
284.901	310.81
285.132	293.81
285.364	298.81
285.595	301.81
285.826	298.81
286.057	318.81
286.288	306.81
286.52	316.81
286.751	310.81
286.982	312.81
287.213	313.81
287.444	314.81
287.675	309.81
287.906	349.81
288.138	326.81
288.369	324.81
288.6	322.81
288.831	310.81
289.062	327.81
289.293	344.81
289.524	312.81
289.755	321.81
289.986	325.81
290.217	303.81
290.448	313.81
290.679	324.81
290.91	312.81
291.141	321.81
291.371	304.81
291.602	316.81
291.833	325.81
292.064	302.81
292.295	294.81
292.526	321.81
292.757	310.81
292.987	331.81
293.218	317.81
293.449	339.81
293.68	311.81
293.91	322.81
294.141	308.81
294.372	329.81
294.603	339.81
294.833	327.81
295.064	328.81
295.295	320.81
295.525	321.81
295.756	330.81
295.987	337.81
296.217	345.81
296.448	357.81
296.679	330.81
296.909	326.81
297.14	339.81
297.37	347.81
297.601	315.81
297.831	326.81
298.062	323.81
298.292	329.81
298.523	341.81
298.753	348.81
298.984	348.81
299.214	336.81
299.445	336.81
299.675	335.81
299.905	363.81
300.136	354.81
300.366	324.81
300.597	352.81
300.827	332.81
301.057	362.81
301.288	370.81
301.518	364.81
301.748	362.81
301.979	368.81
302.209	366.81
302.439	376.81
302.669	362.81
302.9	343.81
303.13	375.81
303.36	368.81
303.59	366.81
303.82	384.81
304.051	370.81
304.281	350.81
304.511	374.81
304.741	359.81
304.971	364.81
305.201	360.81
305.431	364.81
305.661	371.81
305.891	350.81
306.121	355.81
306.352	389.81
306.582	382.81
306.812	366.81
307.042	345.81
307.272	376.81
307.502	374.81
307.731	382.81
307.961	378.81
308.191	371.81
308.421	386.81
308.651	369.81
308.881	341.81
309.111	376.81
309.341	379.81
309.571	390.81
309.8	390.81
310.03	407.81
310.26	402.81
310.49	389.81
310.72	421.81
310.949	441.81
311.179	428.81
311.409	401.81
311.639	420.81
311.868	408.81
312.098	411.81
312.328	423.81
312.557	420.81
312.787	453.81
313.017	459.81
313.246	420.81
313.476	432.81
313.706	422.81
313.935	421.81
314.165	419.81
314.394	417.81
314.624	455.81
314.853	433.81
315.083	432.81
315.312	426.81
315.542	421.81
315.771	416.81
316.001	417.81
316.23	410.81
316.46	412.81
316.689	415.81
316.919	411.81
317.148	412.81
317.377	429.81
317.607	417.81
317.836	406.81
318.065	407.81
318.295	412.81
318.524	414.81
318.753	398.81
318.983	405.81
319.212	414.81
319.441	411.81
319.67	444.81
319.9	414.81
320.129	417.81
320.358	398.81
320.587	414.81
320.816	412.81
321.046	419.81
321.275	423.81
321.504	426.81
321.733	452.81
321.962	445.81
322.191	444.81
322.42	450.81
322.649	460.81
322.878	478.81
323.108	465.81
323.337	504.81
323.566	506.81
323.795	542.81
324.024	596.81
324.253	690.81
324.482	923.81
324.71	1421.81
324.939	2009.81
325.168	1680.81
325.397	912.81
325.626	638.81
325.855	573.81
326.084	532.81
326.313	526.81
326.542	538.81
326.77	553.81
326.999	640.81
327.228	865.81
327.457	1241.81
327.686	1545.81
327.914	997.81
328.143	701.81
328.372	595.81
328.6	581.81
328.829	566.81
329.058	574.81
329.287	611.81
329.515	570.81
329.744	516.81
329.972	523.81
330.201	525.81
330.43	553.81
330.658	564.81
330.887	633.81
331.115	615.81
331.344	538.81
331.572	526.81
331.801	532.81
332.03	535.81
332.258	524.81
332.486	526.81
332.715	485.81
332.943	526.81
333.172	524.81
333.4	516.81
333.629	523.81
333.857	545.81
334.085	535.81
334.314	529.81
334.542	530.81
334.771	536.81
334.999	527.81
335.227	533.81
335.455	522.81
335.684	525.81
335.912	499.81
336.14	478.81
336.369	496.81
336.597	518.81
336.825	515.81
337.053	495.81
337.281	489.81
337.51	484.81
337.738	499.81
337.966	489.81
338.194	482.81
338.422	485.81
338.65	468.81
338.878	496.81
339.106	467.81
339.334	478.81
339.562	441.81
339.79	462.81
340.018	483.81
340.246	482.81
340.474	476.81
340.702	467.81
340.93	466.81
341.158	448.81
341.386	474.81
341.614	458.81
341.842	458.81
342.07	464.81
342.298	456.81
342.526	458.81
342.754	457.81
342.981	443.81
343.209	448.81
343.437	476.81
343.665	478.81
343.893	505.81
344.12	535.81
344.348	510.81
344.576	476.81
344.804	486.81
345.031	477.81
345.259	498.81
345.487	455.81
345.714	476.81
345.942	455.81
346.17	464.81
346.397	450.81
346.625	419.81
346.853	437.81
347.08	457.81
347.308	456.81
347.535	459.81
347.763	462.81
347.99	458.81
348.218	422.81
348.445	455.81
348.673	464.81
348.9	468.81
349.128	442.81
349.355	448.81
349.583	434.81
349.81	435.81
350.037	442.81
350.265	434.81
350.492	421.81
350.72	448.81
350.947	422.81
351.174	458.81
351.402	440.81
351.629	455.81
351.856	449.81
352.083	444.81
352.311	452.81
352.538	453.81
352.765	457.81
352.992	452.81
353.22	444.81
353.447	442.81
353.674	445.81
353.901	418.81
354.128	403.81
354.355	442.81
354.583	436.81
354.81	436.81
355.037	441.81
355.264	398.81
355.491	421.81
355.718	402.81
355.945	421.81
356.172	419.81
356.399	435.81
356.626	400.81
356.853	410.81
357.08	421.81
357.307	397.81
357.534	424.81
357.761	419.81
357.988	421.81
358.215	439.81
358.441	408.81
358.668	398.81
358.895	422.81
359.122	402.81
359.349	422.81
359.576	451.81
359.802	462.81
360.029	472.81
360.256	463.81
360.483	498.81
360.709	448.81
360.936	436.81
361.163	438.81
361.39	431.81
361.616	443.81
361.843	425.81
362.07	460.81
362.296	459.81
362.523	442.81
362.749	445.81
362.976	446.81
363.203	429.81
363.429	441.81
363.656	421.81
363.882	441.81
364.109	408.81
364.335	407.81
364.562	422.81
364.788	418.81
365.015	414.81
365.241	453.81
365.468	441.81
365.694	418.81
365.92	422.81
366.147	428.81
366.373	427.81
366.599	410.81
366.826	437.81
367.052	417.81
367.278	429.81
367.505	425.81
367.731	403.81
367.957	418.81
368.184	434.81
368.41	414.81
368.636	425.81
368.862	453.81
369.089	409.81
369.315	449.81
369.541	426.81
369.767	420.81
369.993	435.81
370.219	418.81
370.445	415.81
370.672	415.81
370.898	424.81
371.124	448.81
371.35	420.81
371.576	429.81
371.802	414.81
372.028	416.81
372.254	432.81
372.48	418.81
372.706	426.81
372.932	424.81
373.158	419.81
373.384	451.81
373.61	435.81
373.835	437.81
374.061	427.81
374.287	413.81
374.513	445.81
374.739	452.81
374.965	442.81
375.191	447.81
375.416	453.81
375.642	428.81
375.868	421.81
376.094	437.81
376.319	432.81
376.545	414.81
376.771	417.81
376.997	411.81
377.222	408.81
377.448	432.81
377.674	427.81
377.899	425.81
378.125	427.81
378.35	419.81
378.576	396.81
378.802	406.81
379.027	406.81
379.253	421.81
379.478	415.81
379.704	417.81
379.929	423.81
380.155	412.81
380.38	425.81
380.606	416.81
380.831	413.81
381.057	416.81
381.282	404.81
381.507	430.81
381.733	448.81
381.958	436.81
382.184	441.81
382.409	431.81
382.634	457.81
382.86	418.81
383.085	420.81
383.31	452.81
383.535	448.81
383.761	469.81
383.986	450.81
384.211	440.81
384.436	458.81
384.662	454.81
384.887	462.81
385.112	449.81
385.337	448.81
385.562	464.81
385.787	473.81
386.013	486.81
386.238	488.81
386.463	461.81
386.688	483.81
386.913	462.81
387.138	461.81
387.363	480.81
387.588	476.81
387.813	458.81
388.038	487.81
388.263	478.81
388.488	455.81
388.713	461.81
388.938	467.81
389.163	465.81
389.387	467.81
389.612	452.81
389.837	456.81
390.062	458.81
390.287	468.81
390.512	449.81
390.736	452.81
390.961	470.81
391.186	492.81
391.411	465.81
391.636	477.81
391.86	501.81
392.085	500.81
392.31	496.81
392.534	497.81
392.759	473.81
392.984	478.81
393.208	485.81
393.433	484.81
393.658	487.81
393.882	464.81
394.107	481.81
394.331	504.81
394.556	490.81
394.78	465.81
395.005	487.81
395.229	480.81
395.454	492.81
395.678	501.81
395.903	521.81
396.127	520.81
396.352	518.81
396.576	498.81
396.801	499.81
397.025	514.81
397.249	527.81
397.474	503.81
397.698	486.81
397.922	510.81
398.147	527.81
398.371	540.81
398.595	545.81
398.82	553.81
399.044	580.81
399.268	584.81
399.492	639.81
399.717	679.81
399.941	705.81
400.165	682.81
400.389	679.81
400.613	632.81
400.837	603.81
401.062	562.81
401.286	549.81
401.51	569.81
401.734	554.81
401.958	576.81
402.182	548.81
402.406	563.81
402.63	570.81
402.854	568.81
403.078	575.81
403.302	583.81
403.526	573.81
403.75	569.81
403.974	595.81
404.198	565.81
404.422	577.81
404.645	590.81
404.869	590.81
405.093	614.81
405.317	632.81
405.541	649.81
405.765	595.81
405.988	587.81
406.212	605.81
406.436	643.81
406.66	635.81
406.883	613.81
407.107	652.81
407.331	696.81
407.555	741.81
407.778	738.81
408.002	679.81
408.226	617.81
408.449	626.81
408.673	602.81
408.896	628.81
409.12	690.81
409.344	652.81
409.567	590.81
409.791	566.81
410.014	582.81
410.238	548.81
410.461	563.81
410.685	570.81
410.908	579.81
411.132	602.81
411.355	636.81
411.578	588.81
411.802	569.81
412.025	542.81
412.249	558.81
412.472	574.81
412.695	574.81
412.919	549.81
413.142	571.81
413.365	558.81
413.589	553.81
413.812	548.81
414.035	518.81
414.258	542.81
414.482	517.81
414.705	519.81
414.928	534.81
415.151	538.81
415.374	517.81
415.597	537.81
415.821	510.81
416.044	534.81
416.267	532.81
416.49	528.81
416.713	515.81
416.936	505.81
417.159	523.81
417.382	521.81
417.605	528.81
417.828	533.81
418.051	562.81
418.274	558.81
418.497	525.81
418.72	539.81
418.943	555.81
419.166	555.81
419.389	579.81
419.611	554.81
419.834	563.81
420.057	571.81
420.28	534.81
420.503	537.81
420.726	530.81
420.948	542.81
421.171	598.81
421.394	633.81
421.617	590.81
421.839	528.81
422.062	532.81
422.285	531.81
422.507	607.81
422.73	683.81
422.953	646.81
423.175	597.81
423.398	578.81
423.621	563.81
423.843	588.81
424.066	595.81
424.288	605.81
424.511	611.81
424.733	653.81
424.956	720.81
425.178	698.81
425.401	682.81
425.623	682.81
425.846	624.81
426.068	594.81
426.291	569.81
426.513	564.81
426.735	550.81
426.958	609.81
427.18	670.81
427.402	823.81
427.625	857.81
427.847	759.81
428.069	644.81
428.292	583.81
428.514	544.81
428.736	540.81
428.958	541.81
429.181	524.81
429.403	516.81
429.625	525.81
429.847	533.81
430.069	632.81
430.292	626.81
430.514	526.81
430.736	525.81
430.958	539.81
431.18	499.81
431.402	483.81
431.624	496.81
431.846	506.81
432.068	489.81
432.29	518.81
432.512	487.81
432.734	505.81
432.956	525.81
433.178	518.81
433.4	527.81
433.622	526.81
433.844	500.81
434.066	520.81
434.287	482.81
434.509	503.81
434.731	508.81
434.953	545.81
435.175	549.81
435.397	580.81
435.618	581.81
435.84	587.81
436.062	682.81
436.284	758.81
436.505	628.81
436.727	587.81
436.949	520.81
437.17	498.81
437.392	524.81
437.614	540.81
437.835	555.81
438.057	652.81
438.278	727.81
438.5	709.81
438.721	770.81
438.943	778.81
439.165	630.81
439.386	566.81
439.608	583.81
439.829	568.81
440.05	587.81
440.272	627.81
440.493	595.81
440.715	549.81
440.936	543.81
441.158	551.81
441.379	528.81
441.6	548.81
441.822	571.81
442.043	597.81
442.264	685.81
442.486	713.81
442.707	638.81
442.928	575.81
443.149	582.81
443.371	614.81
443.592	642.81
443.813	730.81
444.034	808.81
444.255	677.81
444.476	600.81
444.698	594.81
444.919	638.81
445.14	708.81
445.361	625.81
445.582	602.81
445.803	668.81
446.024	754.81
446.245	754.81
446.466	709.81
446.687	602.81
446.908	572.81
447.129	542.81
447.35	506.81
447.571	519.81
447.792	516.81
448.013	524.81
448.234	538.81
448.455	593.81
448.675	681.81
448.896	797.81
449.117	658.81
449.338	647.81
449.559	718.81
449.779	825.81
450	634.81
450.221	561.81
450.442	514.81
450.662	513.81
450.883	496.81
451.104	535.81
451.324	491.81
451.545	484.81
451.766	487.81
451.986	494.81
452.207	469.81
452.428	446.81
452.648	443.81
452.869	472.81
453.089	462.81
453.31	474.81
453.53	482.81
453.751	472.81
453.971	474.81
454.192	480.81
454.412	473.81
454.633	443.81
454.853	451.81
455.073	453.81
455.294	489.81
455.514	555.81
455.734	537.81
455.955	466.81
456.175	441.81
456.395	452.81
456.616	462.81
456.836	432.81
457.056	419.81
457.276	442.81
457.497	449.81
457.717	436.81
457.937	456.81
458.157	449.81
458.377	458.81
458.598	485.81
458.818	536.81
459.038	615.81
459.258	629.81
459.478	530.81
459.698	510.81
459.918	529.81
460.138	537.81
460.358	501.81
460.578	548.81
460.798	547.81
461.018	535.81
461.238	521.81
461.458	529.81
461.678	512.81
461.898	546.81
462.118	539.81
462.338	584.81
462.558	554.81
462.777	573.81
462.997	618.81
463.217	634.81
463.437	633.81
463.657	599.81
463.876	590.81
464.096	589.81
464.316	575.81
464.536	604.81
464.755	583.81
464.975	587.81
465.195	598.81
465.414	672.81
465.634	600.81
465.854	554.81
466.073	536.81
466.293	525.81
466.512	494.81
466.732	474.81
466.951	492.81
467.171	500.81
467.391	489.81
467.61	477.81
467.829	487.81
468.049	490.81
468.268	489.81
468.488	469.81
468.707	468.81
468.927	467.81
469.146	471.81
469.365	503.81
469.585	486.81
469.804	497.81
470.023	470.81
470.243	501.81
470.462	507.81
470.681	513.81
470.901	510.81
471.12	485.81
471.339	505.81
471.558	484.81
471.777	474.81
471.997	456.81
472.216	471.81
472.435	474.81
472.654	501.81
472.873	461.81
473.092	473.81
473.311	464.81
473.53	480.81
473.749	514.81
473.968	512.81
474.187	610.81
474.406	624.81
474.625	537.81
474.844	490.81
475.063	474.81
475.282	481.81
475.501	503.81
475.72	510.81
475.939	475.81
476.158	499.81
476.377	481.81
476.596	476.81
476.814	478.81
477.033	518.81
477.252	522.81
477.471	508.81
477.69	525.81
477.908	499.81
478.127	525.81
478.346	554.81
478.564	536.81
478.783	564.81
479.002	569.81
479.22	580.81
479.439	586.81
479.658	578.81
479.876	604.81
480.095	588.81
480.313	645.81
480.532	607.81
480.751	638.81
480.969	601.81
481.188	616.81
481.406	608.81
481.624	582.81
481.843	573.81
482.061	579.81
482.28	578.81
482.498	562.81
482.717	565.81
482.935	570.81
483.153	545.81
483.372	555.81
483.59	562.81
483.808	563.81
484.027	579.81
484.245	565.81
484.463	580.81
484.681	578.81
484.9	560.81
485.118	568.81
485.336	539.81
485.554	566.81
485.772	613.81
485.99	576.81
486.209	601.81
486.427	570.81
486.645	609.81
486.863	613.81
487.081	607.81
487.299	607.81
487.517	596.81
487.735	566.81
487.953	624.81
488.171	624.81
488.389	588.81
488.607	604.81
488.825	603.81
489.043	586.81
489.261	596.81
489.479	578.81
489.696	612.81
489.914	605.81
490.132	638.81
490.35	628.81
490.568	644.81
490.786	605.81
491.003	641.81
491.221	645.81
491.439	662.81
491.657	665.81
491.874	649.81
492.092	657.81
492.31	668.81
492.527	658.81
492.745	645.81
492.963	696.81
493.18	680.81
493.398	673.81
493.615	688.81
493.833	729.81
494.05	712.81
494.268	691.81
494.485	694.81
494.703	714.81
494.92	721.81
495.138	696.81
495.355	690.81
495.573	711.81
495.79	695.81
496.008	678.81
496.225	688.81
496.442	688.81
496.66	691.81
496.877	722.81
497.094	722.81
497.312	723.81
497.529	743.81
497.746	730.81
497.963	777.81
498.181	778.81
498.398	803.81
498.615	797.81
498.832	830.81
499.049	870.81
499.267	920.81
499.484	972.81
499.701	992.81
499.918	1036.81
500.135	1114.81
500.352	1191.81
500.569	1215.81
500.786	1224.81
501.003	1182.81
501.22	1113.81
501.437	1045.81
501.654	989.81
501.871	1020.81
