Data from 1985.PennyLincolnUp.Lamp.En5.5.200Scan.071819.P1_HRD10591_17-02-12-970.txt Node
Date: Thu Jul 18 17:02:12 EDT 2019
User: cochatt
Spectrometer: HR+D1059
Trigger mode: 1
Integration Time (sec): 1.000000E-1
Scans to average: 1
Electric dark correction enabled: true
Nonlinearity correction enabled: false
Boxcar width: 0
XAxis mode: Wavelengths
Number of Pixels in Spectrum: 2048
>>>>>Begin Spectral Data<<<<<
223.165	-17.81
223.4	-17.81
223.635	-17.81
223.869	-18.81
224.104	-24.81
224.338	-10.81
224.573	4.19
224.808	0.19
225.042	-12.81
225.277	-14.81
225.511	-5.81
225.746	-3.81
225.98	3.19
226.215	11.19
226.449	17.19
226.683	9.19
226.918	36.19
227.152	28.19
227.387	36.19
227.621	36.19
227.856	53.19
228.09	40.19
228.324	34.19
228.559	56.19
228.793	61.19
229.027	93.19
229.262	101.19
229.496	116.19
229.73	134.19
229.964	125.19
230.199	130.19
230.433	122.19
230.667	99.19
230.901	125.19
231.136	104.19
231.37	110.19
231.604	122.19
231.838	113.19
232.072	119.19
232.306	109.19
232.541	114.19
232.775	101.19
233.009	107.19
233.243	104.19
233.477	120.19
233.711	104.19
233.945	113.19
234.179	104.19
234.413	114.19
234.647	109.19
234.881	124.19
235.115	121.19
235.349	99.19
235.583	124.19
235.817	124.19
236.051	121.19
236.285	108.19
236.519	124.19
236.753	128.19
236.987	151.19
237.221	168.19
237.455	212.19
237.689	153.19
237.922	140.19
238.156	129.19
238.39	118.19
238.624	117.19
238.858	123.19
239.091	115.19
239.325	114.19
239.559	140.19
239.793	127.19
240.027	126.19
240.26	139.19
240.494	141.19
240.728	160.19
240.961	143.19
241.195	136.19
241.429	138.19
241.662	145.19
241.896	130.19
242.13	128.19
242.363	128.19
242.597	141.19
242.83	128.19
243.064	136.19
243.298	138.19
243.531	139.19
243.765	139.19
243.998	137.19
244.232	151.19
244.465	124.19
244.699	147.19
244.932	148.19
245.166	140.19
245.399	134.19
245.633	159.19
245.866	136.19
246.099	164.19
246.333	148.19
246.566	128.19
246.8	134.19
247.033	145.19
247.266	130.19
247.5	151.19
247.733	151.19
247.966	163.19
248.2	168.19
248.433	164.19
248.666	176.19
248.899	173.19
249.133	185.19
249.366	190.19
249.599	202.19
249.832	171.19
250.066	161.19
250.299	167.19
250.532	180.19
250.765	181.19
250.998	195.19
251.231	202.19
251.465	208.19
251.698	199.19
251.931	200.19
252.164	195.19
252.397	182.19
252.63	194.19
252.863	187.19
253.096	209.19
253.329	206.19
253.562	209.19
253.795	204.19
254.028	204.19
254.261	204.19
254.494	219.19
254.727	249.19
254.96	260.19
255.193	255.19
255.426	233.19
255.659	221.19
255.892	211.19
256.124	201.19
256.357	195.19
256.59	189.19
256.823	212.19
257.056	208.19
257.289	204.19
257.521	200.19
257.754	195.19
257.987	203.19
258.22	203.19
258.452	201.19
258.685	201.19
258.918	198.19
259.151	214.19
259.383	199.19
259.616	209.19
259.849	224.19
260.081	240.19
260.314	263.19
260.547	280.19
260.779	228.19
261.012	231.19
261.244	219.19
261.477	215.19
261.71	229.19
261.942	230.19
262.175	233.19
262.407	222.19
262.64	242.19
262.872	229.19
263.105	226.19
263.337	245.19
263.57	222.19
263.802	233.19
264.035	220.19
264.267	212.19
264.499	207.19
264.732	226.19
264.964	224.19
265.197	220.19
265.429	208.19
265.661	217.19
265.894	216.19
266.126	221.19
266.358	213.19
266.591	218.19
266.823	228.19
267.055	232.19
267.287	223.19
267.52	232.19
267.752	218.19
267.984	225.19
268.216	225.19
268.448	236.19
268.681	248.19
268.913	258.19
269.145	271.19
269.377	293.19
269.609	271.19
269.841	271.19
270.073	262.19
270.306	299.19
270.538	298.19
270.77	332.19
271.002	314.19
271.234	297.19
271.466	286.19
271.698	302.19
271.93	304.19
272.162	300.19
272.394	323.19
272.626	284.19
272.858	286.19
273.09	277.19
273.322	280.19
273.553	269.19
273.785	278.19
274.017	276.19
274.249	281.19
274.481	271.19
274.713	273.19
274.945	256.19
275.176	260.19
275.408	267.19
275.64	279.19
275.872	270.19
276.104	285.19
276.335	269.19
276.567	283.19
276.799	304.19
277.031	298.19
277.262	332.19
277.494	317.19
277.726	313.19
277.957	304.19
278.189	286.19
278.421	270.19
278.652	294.19
278.884	279.19
279.115	290.19
279.347	282.19
279.579	290.19
279.81	278.19
280.042	297.19
280.273	264.19
280.505	276.19
280.736	278.19
280.968	282.19
281.199	285.19
281.431	283.19
281.662	284.19
281.894	314.19
282.125	298.19
282.356	310.19
282.588	322.19
282.819	340.19
283.051	295.19
283.282	298.19
283.513	304.19
283.745	298.19
283.976	288.19
284.207	298.19
284.439	284.19
284.67	296.19
284.901	312.19
285.132	303.19
285.364	288.19
285.595	297.19
285.826	304.19
286.057	314.19
286.288	302.19
286.52	291.19
286.751	298.19
286.982	318.19
287.213	320.19
287.444	319.19
287.675	325.19
287.906	315.19
288.138	308.19
288.369	330.19
288.6	319.19
288.831	323.19
289.062	317.19
289.293	333.19
289.524	313.19
289.755	306.19
289.986	325.19
290.217	306.19
290.448	310.19
290.679	295.19
290.91	334.19
291.141	324.19
291.371	302.19
291.602	316.19
291.833	304.19
292.064	327.19
292.295	322.19
292.526	310.19
292.757	324.19
292.987	317.19
293.218	316.19
293.449	316.19
293.68	317.19
293.91	293.19
294.141	308.19
294.372	324.19
294.603	328.19
294.833	322.19
295.064	307.19
295.295	296.19
295.525	306.19
295.756	325.19
295.987	324.19
296.217	329.19
296.448	346.19
296.679	334.19
296.909	330.19
297.14	325.19
297.37	323.19
297.601	320.19
297.831	344.19
298.062	342.19
298.292	340.19
298.523	342.19
298.753	348.19
298.984	330.19
299.214	324.19
299.445	323.19
299.675	357.19
299.905	345.19
300.136	347.19
300.366	353.19
300.597	349.19
300.827	354.19
301.057	360.19
301.288	369.19
301.518	364.19
301.748	370.19
301.979	362.19
302.209	354.19
302.439	355.19
302.669	357.19
302.9	358.19
303.13	330.19
303.36	361.19
303.59	366.19
303.82	363.19
304.051	372.19
304.281	366.19
304.511	374.19
304.741	374.19
304.971	369.19
305.201	358.19
305.431	364.19
305.661	349.19
305.891	366.19
306.121	361.19
306.352	361.19
306.582	372.19
306.812	375.19
307.042	362.19
307.272	348.19
307.502	360.19
307.731	363.19
307.961	358.19
308.191	347.19
308.421	360.19
308.651	361.19
308.881	372.19
309.111	382.19
309.341	370.19
309.571	382.19
309.8	382.19
310.03	382.19
310.26	395.19
310.49	391.19
310.72	399.19
310.949	411.19
311.179	427.19
311.409	394.19
311.639	386.19
311.868	405.19
312.098	381.19
312.328	396.19
312.557	425.19
312.787	440.19
313.017	452.19
313.246	423.19
313.476	394.19
313.706	389.19
313.935	409.19
314.165	459.19
314.394	438.19
314.624	434.19
314.853	413.19
315.083	421.19
315.312	413.19
315.542	393.19
315.771	425.19
316.001	397.19
316.23	374.19
316.46	395.19
316.689	410.19
316.919	418.19
317.148	428.19
317.377	409.19
317.607	396.19
317.836	404.19
318.065	402.19
318.295	407.19
318.524	403.19
318.753	412.19
318.983	401.19
319.212	419.19
319.441	394.19
319.67	422.19
319.9	428.19
320.129	408.19
320.358	424.19
320.587	416.19
320.816	424.19
321.046	406.19
321.275	439.19
321.504	409.19
321.733	416.19
321.962	413.19
322.191	445.19
322.42	456.19
322.649	452.19
322.878	454.19
323.108	490.19
323.337	471.19
323.566	504.19
323.795	519.19
324.024	568.19
324.253	674.19
324.482	932.19
324.71	1368.19
324.939	1914.19
325.168	1628.19
325.397	856.19
325.626	648.19
325.855	570.19
326.084	524.19
326.313	506.19
326.542	535.19
326.77	541.19
326.999	635.19
327.228	853.19
327.457	1220.19
327.686	1469.19
327.914	984.19
328.143	688.19
328.372	600.19
328.6	586.19
328.829	560.19
329.058	567.19
329.287	564.19
329.515	535.19
329.744	501.19
329.972	507.19
330.201	523.19
330.43	531.19
330.658	541.19
330.887	592.19
331.115	586.19
331.344	521.19
331.572	525.19
331.801	523.19
332.03	511.19
332.258	488.19
332.486	495.19
332.715	470.19
332.943	508.19
333.172	514.19
333.4	488.19
333.629	504.19
333.857	508.19
334.085	495.19
334.314	540.19
334.542	541.19
334.771	506.19
334.999	503.19
335.227	523.19
335.455	512.19
335.684	481.19
335.912	500.19
336.14	477.19
336.369	507.19
336.597	519.19
336.825	492.19
337.053	497.19
337.281	472.19
337.51	434.19
337.738	487.19
337.966	475.19
338.194	472.19
338.422	468.19
338.65	474.19
338.878	482.19
339.106	467.19
339.334	500.19
339.562	473.19
339.79	457.19
340.018	461.19
340.246	451.19
340.474	458.19
340.702	460.19
340.93	468.19
341.158	453.19
341.386	423.19
341.614	454.19
341.842	456.19
342.07	442.19
342.298	450.19
342.526	429.19
342.754	443.19
342.981	456.19
343.209	453.19
343.437	466.19
343.665	477.19
343.893	505.19
344.12	494.19
344.348	514.19
344.576	489.19
344.804	473.19
345.031	467.19
345.259	483.19
345.487	463.19
345.714	469.19
345.942	418.19
346.17	446.19
346.397	448.19
346.625	453.19
346.853	449.19
347.08	445.19
347.308	469.19
347.535	470.19
347.763	448.19
347.99	442.19
348.218	458.19
348.445	456.19
348.673	427.19
348.9	452.19
349.128	449.19
349.355	438.19
349.583	441.19
349.81	436.19
350.037	424.19
350.265	421.19
350.492	437.19
350.72	447.19
350.947	431.19
351.174	428.19
351.402	454.19
351.629	423.19
351.856	436.19
352.083	458.19
352.311	450.19
352.538	473.19
352.765	451.19
352.992	445.19
353.22	422.19
353.447	420.19
353.674	442.19
353.901	416.19
354.128	427.19
354.355	404.19
354.583	421.19
354.81	410.19
355.037	416.19
355.264	416.19
355.491	413.19
355.718	407.19
355.945	426.19
356.172	415.19
356.399	406.19
356.626	405.19
356.853	406.19
357.08	409.19
357.307	425.19
357.534	407.19
357.761	404.19
357.988	407.19
358.215	410.19
358.441	412.19
358.668	420.19
358.895	410.19
359.122	421.19
359.349	405.19
359.576	440.19
359.802	452.19
360.029	461.19
360.256	479.19
360.483	466.19
360.709	444.19
360.936	437.19
361.163	440.19
361.39	437.19
361.616	430.19
361.843	421.19
362.07	423.19
362.296	428.19
362.523	426.19
362.749	430.19
362.976	409.19
363.203	413.19
363.429	413.19
363.656	434.19
363.882	412.19
364.109	420.19
364.335	418.19
364.562	424.19
364.788	414.19
365.015	416.19
365.241	402.19
365.468	410.19
365.694	426.19
365.92	433.19
366.147	424.19
366.373	442.19
366.599	409.19
366.826	403.19
367.052	417.19
367.278	396.19
367.505	429.19
367.731	398.19
367.957	408.19
368.184	408.19
368.41	425.19
368.636	427.19
368.862	446.19
369.089	422.19
369.315	427.19
369.541	406.19
369.767	435.19
369.993	396.19
370.219	430.19
370.445	402.19
370.672	418.19
370.898	433.19
371.124	418.19
371.35	402.19
371.576	435.19
371.802	409.19
372.028	425.19
372.254	409.19
372.48	441.19
372.706	435.19
372.932	399.19
373.158	440.19
373.384	413.19
373.61	415.19
373.835	421.19
374.061	435.19
374.287	444.19
374.513	430.19
374.739	427.19
374.965	429.19
375.191	432.19
375.416	437.19
375.642	420.19
375.868	419.19
376.094	430.19
376.319	427.19
376.545	421.19
376.771	418.19
376.997	408.19
377.222	416.19
377.448	421.19
377.674	428.19
377.899	409.19
378.125	400.19
378.35	395.19
378.576	406.19
378.802	423.19
379.027	400.19
379.253	414.19
379.478	408.19
379.704	402.19
379.929	416.19
380.155	416.19
380.38	430.19
380.606	422.19
380.831	427.19
381.057	397.19
381.282	412.19
381.507	416.19
381.733	419.19
381.958	436.19
382.184	419.19
382.409	423.19
382.634	412.19
382.86	418.19
383.085	428.19
383.31	442.19
383.535	432.19
383.761	443.19
383.986	442.19
384.211	417.19
384.436	436.19
384.662	435.19
384.887	426.19
385.112	450.19
385.337	452.19
385.562	473.19
385.787	457.19
386.013	474.19
386.238	462.19
386.463	456.19
386.688	480.19
386.913	465.19
387.138	445.19
387.363	457.19
387.588	446.19
387.813	468.19
388.038	454.19
388.263	475.19
388.488	450.19
388.713	487.19
388.938	478.19
389.163	452.19
389.387	454.19
389.612	483.19
389.837	441.19
390.062	458.19
390.287	470.19
390.512	451.19
390.736	468.19
390.961	455.19
391.186	468.19
391.411	460.19
391.636	485.19
391.86	478.19
392.085	501.19
392.31	483.19
392.534	500.19
392.759	480.19
392.984	486.19
393.208	481.19
393.433	475.19
393.658	468.19
393.882	472.19
394.107	451.19
394.331	465.19
394.556	482.19
394.78	476.19
395.005	482.19
395.229	478.19
395.454	468.19
395.678	498.19
395.903	500.19
396.127	499.19
396.352	495.19
396.576	492.19
396.801	497.19
397.025	481.19
397.249	496.19
397.474	506.19
397.698	499.19
397.922	519.19
398.147	534.19
398.371	536.19
398.595	541.19
398.82	526.19
399.044	560.19
399.268	582.19
399.492	625.19
399.717	666.19
399.941	706.19
400.165	688.19
400.389	680.19
400.613	618.19
400.837	565.19
401.062	564.19
401.286	549.19
401.51	539.19
401.734	522.19
401.958	548.19
402.182	572.19
402.406	572.19
402.63	574.19
402.854	576.19
403.078	571.19
403.302	564.19
403.526	558.19
403.75	588.19
403.974	590.19
404.198	571.19
404.422	588.19
404.645	578.19
404.869	568.19
405.093	585.19
405.317	604.19
405.541	645.19
405.765	576.19
405.988	580.19
406.212	601.19
406.436	617.19
406.66	629.19
406.883	611.19
407.107	638.19
407.331	664.19
407.555	736.19
407.778	725.19
408.002	658.19
408.226	628.19
408.449	608.19
408.673	606.19
408.896	609.19
409.12	655.19
409.344	614.19
409.567	578.19
409.791	582.19
410.014	554.19
410.238	572.19
410.461	540.19
410.685	549.19
410.908	556.19
411.132	602.19
411.355	611.19
411.578	605.19
411.802	560.19
412.025	532.19
412.249	539.19
412.472	552.19
412.695	550.19
412.919	531.19
413.142	510.19
413.365	517.19
413.589	545.19
413.812	524.19
414.035	508.19
414.258	507.19
414.482	522.19
414.705	535.19
414.928	522.19
415.151	499.19
415.374	514.19
415.597	525.19
415.821	514.19
416.044	541.19
416.267	501.19
416.49	482.19
416.713	526.19
416.936	520.19
417.159	528.19
417.382	513.19
417.605	506.19
417.828	522.19
418.051	540.19
418.274	523.19
418.497	512.19
418.72	513.19
418.943	498.19
419.166	557.19
419.389	565.19
419.611	552.19
419.834	550.19
420.057	558.19
420.28	544.19
420.503	524.19
420.726	530.19
420.948	552.19
421.171	591.19
421.394	605.19
421.617	556.19
421.839	536.19
422.062	524.19
422.285	549.19
422.507	594.19
422.73	662.19
422.953	646.19
423.175	570.19
423.398	557.19
423.621	554.19
423.843	580.19
424.066	576.19
424.288	588.19
424.511	582.19
424.733	641.19
424.956	706.19
425.178	668.19
425.401	622.19
425.623	700.19
425.846	603.19
426.068	567.19
426.291	537.19
426.513	559.19
426.735	542.19
426.958	576.19
427.18	674.19
427.402	774.19
427.625	871.19
427.847	729.19
428.069	623.19
428.292	566.19
428.514	554.19
428.736	538.19
428.958	518.19
429.181	509.19
429.403	486.19
429.625	520.19
429.847	541.19
430.069	582.19
430.292	589.19
430.514	525.19
430.736	501.19
430.958	512.19
431.18	504.19
431.402	490.19
431.624	494.19
431.846	516.19
432.068	485.19
432.29	496.19
432.512	491.19
432.734	516.19
432.956	491.19
433.178	509.19
433.4	506.19
433.622	505.19
433.844	497.19
434.066	494.19
434.287	480.19
434.509	515.19
434.731	518.19
434.953	520.19
435.175	527.19
435.397	564.19
435.618	582.19
435.84	583.19
436.062	670.19
436.284	712.19
436.505	587.19
436.727	544.19
436.949	523.19
437.17	508.19
437.392	519.19
437.614	533.19
437.835	545.19
438.057	637.19
438.278	742.19
438.5	712.19
438.721	782.19
438.943	714.19
439.165	585.19
439.386	552.19
439.608	552.19
439.829	552.19
440.05	589.19
440.272	613.19
440.493	577.19
440.715	526.19
440.936	534.19
441.158	520.19
441.379	527.19
441.6	524.19
441.822	554.19
442.043	592.19
442.264	672.19
442.486	715.19
442.707	601.19
442.928	570.19
443.149	585.19
443.371	578.19
443.592	646.19
443.813	736.19
444.034	773.19
444.255	644.19
444.476	622.19
444.698	598.19
444.919	589.19
445.14	693.19
445.361	644.19
445.582	624.19
445.803	638.19
446.024	763.19
446.245	735.19
446.466	690.19
446.687	612.19
446.908	560.19
447.129	506.19
447.35	512.19
447.571	514.19
447.792	487.19
448.013	512.19
448.234	533.19
448.455	581.19
448.675	644.19
448.896	786.19
449.117	624.19
449.338	605.19
449.559	702.19
449.779	809.19
450	653.19
450.221	551.19
450.442	504.19
450.662	493.19
450.883	488.19
451.104	515.19
451.324	508.19
451.545	464.19
451.766	463.19
451.986	450.19
452.207	454.19
452.428	447.19
452.648	457.19
452.869	466.19
453.089	505.19
453.31	473.19
453.53	473.19
453.751	455.19
453.971	467.19
454.192	493.19
454.412	454.19
454.633	438.19
454.853	428.19
455.073	446.19
455.294	478.19
455.514	529.19
455.734	517.19
455.955	481.19
456.175	455.19
456.395	453.19
456.616	441.19
456.836	438.19
457.056	437.19
457.276	415.19
457.497	437.19
457.717	439.19
457.937	455.19
458.157	450.19
458.377	443.19
458.598	507.19
458.818	538.19
459.038	588.19
459.258	624.19
459.478	530.19
459.698	496.19
459.918	516.19
460.138	513.19
460.358	515.19
460.578	507.19
460.798	543.19
461.018	526.19
461.238	546.19
461.458	534.19
461.678	524.19
461.898	538.19
462.118	545.19
462.338	564.19
462.558	584.19
462.777	568.19
462.997	581.19
463.217	599.19
463.437	593.19
463.657	568.19
463.876	558.19
464.096	591.19
464.316	570.19
464.536	578.19
464.755	570.19
464.975	560.19
465.195	577.19
465.414	658.19
465.634	604.19
465.854	533.19
466.073	496.19
466.293	484.19
466.512	506.19
466.732	495.19
466.951	485.19
467.171	462.19
467.391	486.19
467.61	483.19
467.829	476.19
468.049	496.19
468.268	473.19
468.488	452.19
468.707	469.19
468.927	474.19
469.146	444.19
469.365	466.19
469.585	466.19
469.804	474.19
470.023	484.19
470.243	487.19
470.462	495.19
470.681	502.19
470.901	496.19
471.12	514.19
471.339	477.19
471.558	511.19
471.777	487.19
471.997	468.19
472.216	470.19
472.435	470.19
472.654	470.19
472.873	466.19
473.092	470.19
473.311	454.19
473.53	476.19
473.749	469.19
473.968	508.19
474.187	606.19
474.406	613.19
474.625	531.19
474.844	500.19
475.063	495.19
475.282	504.19
475.501	489.19
475.72	484.19
475.939	507.19
476.158	488.19
476.377	501.19
476.596	524.19
476.814	490.19
477.033	500.19
477.252	519.19
477.471	508.19
477.69	516.19
477.908	527.19
478.127	504.19
478.346	505.19
478.564	547.19
478.783	557.19
479.002	554.19
479.22	554.19
479.439	580.19
479.658	587.19
479.876	584.19
480.095	586.19
480.313	605.19
480.532	604.19
480.751	570.19
480.969	581.19
481.188	596.19
481.406	579.19
481.624	574.19
481.843	577.19
482.061	564.19
482.28	548.19
482.498	548.19
482.717	546.19
482.935	552.19
483.153	561.19
483.372	540.19
483.59	566.19
483.808	562.19
484.027	563.19
484.245	553.19
484.463	574.19
484.681	563.19
484.9	558.19
485.118	586.19
485.336	571.19
485.554	580.19
485.772	564.19
485.99	558.19
486.209	566.19
486.427	582.19
486.645	591.19
486.863	594.19
487.081	587.19
487.299	606.19
487.517	592.19
487.735	594.19
487.953	596.19
488.171	623.19
488.389	594.19
488.607	594.19
488.825	575.19
489.043	584.19
489.261	560.19
489.479	589.19
489.696	590.19
489.914	579.19
490.132	589.19
490.35	610.19
490.568	597.19
490.786	616.19
491.003	620.19
491.221	613.19
491.439	659.19
491.657	632.19
491.874	640.19
492.092	665.19
492.31	652.19
492.527	652.19
492.745	657.19
492.963	653.19
493.18	653.19
493.398	667.19
493.615	674.19
493.833	678.19
494.05	675.19
494.268	674.19
494.485	678.19
494.703	681.19
494.92	675.19
495.138	677.19
495.355	697.19
495.573	698.19
495.79	668.19
496.008	709.19
496.225	711.19
496.442	686.19
496.66	687.19
496.877	695.19
497.094	702.19
497.312	707.19
497.529	734.19
497.746	735.19
497.963	728.19
498.181	785.19
498.398	770.19
498.615	786.19
498.832	852.19
499.049	868.19
499.267	889.19
499.484	946.19
499.701	968.19
499.918	1024.19
500.135	1107.19
500.352	1178.19
500.569	1170.19
500.786	1180.19
501.003	1191.19
501.22	1104.19
501.437	1072.19
501.654	1015.19
501.871	950.19
