Data from 1985.PennyLincolnUp.Lamp.En5.5.200Scan.071819.P1_HRD10591_17-01-18-969.txt Node
Date: Thu Jul 18 17:01:18 EDT 2019
User: cochatt
Spectrometer: HR+D1059
Trigger mode: 1
Integration Time (sec): 1.000000E-1
Scans to average: 1
Electric dark correction enabled: true
Nonlinearity correction enabled: false
Boxcar width: 0
XAxis mode: Wavelengths
Number of Pixels in Spectrum: 2048
>>>>>Begin Spectral Data<<<<<
223.165	-13
223.4	-13
223.635	-13
223.869	-20
224.104	-5
224.338	-19
224.573	-22
224.808	-3
225.042	-11
225.277	-9
225.511	-6
225.746	19
225.98	17
226.215	7
226.449	4
226.683	24
226.918	11
227.152	26
227.387	54
227.621	52
227.856	45
228.09	45
228.324	48
228.559	58
228.793	56
229.027	94
229.262	93
229.496	102
229.73	103
229.964	110
230.199	101
230.433	96
230.667	107
230.901	108
231.136	118
231.37	115
231.604	111
231.838	111
232.072	95
232.306	100
232.541	95
232.775	113
233.009	99
233.243	100
233.477	109
233.711	110
233.945	102
234.179	114
234.413	115
234.647	103
234.881	130
235.115	123
235.349	115
235.583	110
235.817	110
236.051	121
236.285	128
236.519	114
236.753	128
236.987	124
237.221	153
237.455	172
237.689	154
237.922	141
238.156	127
238.39	111
238.624	126
238.858	111
239.091	125
239.325	120
239.559	121
239.793	125
240.027	134
240.26	139
240.494	130
240.728	141
240.961	140
241.195	126
241.429	129
241.662	138
241.896	115
242.13	122
242.363	137
242.597	147
242.83	135
243.064	133
243.298	128
243.531	129
243.765	120
243.998	138
244.232	125
244.465	133
244.699	139
244.932	141
245.166	133
245.399	153
245.633	136
245.866	141
246.099	142
246.333	138
246.566	144
246.8	131
247.033	147
247.266	155
247.5	141
247.733	150
247.966	146
248.2	148
248.433	153
248.666	146
248.899	149
249.133	166
249.366	179
249.599	161
249.832	166
250.066	159
250.299	154
250.532	161
250.765	173
250.998	175
251.231	178
251.465	189
251.698	182
251.931	171
252.164	169
252.397	193
252.63	172
252.863	190
253.096	191
253.329	205
253.562	206
253.795	213
254.028	181
254.261	183
254.494	192
254.727	197
254.96	218
255.193	212
255.426	210
255.659	197
255.892	197
256.124	195
256.357	180
256.59	193
256.823	184
257.056	197
257.289	180
257.521	194
257.754	188
257.987	193
258.22	183
258.452	178
258.685	185
258.918	186
259.151	204
259.383	218
259.616	204
259.849	200
260.081	206
260.314	220
260.547	227
260.779	211
261.012	204
261.244	202
261.477	216
261.71	211
261.942	206
262.175	200
262.407	218
262.64	206
262.872	197
263.105	202
263.337	201
263.57	222
263.802	195
264.035	183
264.267	203
264.499	187
264.732	201
264.964	230
265.197	212
265.429	198
265.661	188
265.894	208
266.126	208
266.358	208
266.591	214
266.823	204
267.055	217
267.287	211
267.52	232
267.752	215
267.984	227
268.216	227
268.448	219
268.681	231
268.913	240
269.145	239
269.377	263
269.609	258
269.841	234
270.073	251
270.306	282
270.538	263
270.77	290
271.002	261
271.234	243
271.466	275
271.698	265
271.93	280
272.162	269
272.394	294
272.626	263
272.858	269
273.09	260
273.322	254
273.553	232
273.785	241
274.017	241
274.249	250
274.481	265
274.713	255
274.945	280
275.176	275
275.408	246
275.64	271
275.872	250
276.104	277
276.335	265
276.567	269
276.799	261
277.031	290
277.262	278
277.494	285
277.726	264
277.957	270
278.189	268
278.421	274
278.652	257
278.884	268
279.115	254
279.347	264
279.579	274
279.81	251
280.042	243
280.273	254
280.505	269
280.736	269
280.968	256
281.199	267
281.431	271
281.662	282
281.894	282
282.125	283
282.356	285
282.588	290
282.819	291
283.051	285
283.282	254
283.513	275
283.745	275
283.976	276
284.207	294
284.439	295
284.67	290
284.901	285
285.132	295
285.364	287
285.595	275
285.826	276
286.057	282
286.288	291
286.52	297
286.751	286
286.982	293
287.213	282
287.444	284
287.675	298
287.906	315
288.138	309
288.369	298
288.6	313
288.831	299
289.062	306
289.293	300
289.524	302
289.755	284
289.986	284
290.217	285
290.448	311
290.679	302
290.91	293
291.141	288
291.371	319
291.602	295
291.833	286
292.064	313
292.295	312
292.526	306
292.757	305
292.987	299
293.218	312
293.449	307
293.68	318
293.91	291
294.141	294
294.372	310
294.603	312
294.833	310
295.064	306
295.295	319
295.525	321
295.756	306
295.987	299
296.217	317
296.448	329
296.679	329
296.909	300
297.14	310
297.37	313
297.601	309
297.831	316
298.062	306
298.292	310
298.523	295
298.753	323
298.984	322
299.214	317
299.445	319
299.675	325
299.905	326
300.136	323
300.366	317
300.597	336
300.827	321
301.057	322
301.288	335
301.518	343
301.748	354
301.979	350
302.209	357
302.439	365
302.669	347
302.9	341
303.13	326
303.36	355
303.59	335
303.82	347
304.051	326
304.281	347
304.511	358
304.741	346
304.971	339
305.201	348
305.431	343
305.661	328
305.891	325
306.121	350
306.352	342
306.582	333
306.812	333
307.042	337
307.272	324
307.502	337
307.731	349
307.961	333
308.191	347
308.421	351
308.651	353
308.881	358
309.111	341
309.341	343
309.571	353
309.8	361
310.03	371
310.26	379
310.49	362
310.72	377
310.949	350
311.179	383
311.409	382
311.639	345
311.868	373
312.098	377
312.328	369
312.557	365
312.787	401
313.017	362
313.246	381
313.476	375
313.706	382
313.935	390
314.165	387
314.394	400
314.624	356
314.853	364
315.083	377
315.312	377
315.542	404
315.771	391
316.001	376
316.23	361
316.46	385
316.689	372
316.919	375
317.148	383
317.377	393
317.607	371
317.836	391
318.065	392
318.295	373
318.524	378
318.753	396
318.983	399
319.212	375
319.441	375
319.67	376
319.9	372
320.129	381
320.358	362
320.587	363
320.816	378
321.046	405
321.275	373
321.504	378
321.733	389
321.962	395
322.191	390
322.42	407
322.649	420
322.878	385
323.108	406
323.337	408
323.566	445
323.795	452
324.024	444
324.253	531
324.482	677
324.71	937
324.939	1315
325.168	1114
325.397	664
325.626	501
325.855	471
326.084	456
326.313	462
326.542	447
326.77	461
326.999	518
327.228	645
327.457	871
327.686	1035
327.914	717
328.143	531
328.372	505
328.6	475
328.829	471
329.058	484
329.287	493
329.515	463
329.744	470
329.972	449
330.201	430
330.43	463
330.658	482
330.887	502
331.115	471
331.344	444
331.572	445
331.801	475
332.03	466
332.258	449
332.486	422
332.715	451
332.943	455
333.172	468
333.4	478
333.629	477
333.857	494
334.085	474
334.314	478
334.542	473
334.771	463
334.999	480
335.227	468
335.455	462
335.684	469
335.912	471
336.14	483
336.369	463
336.597	451
336.825	444
337.053	469
337.281	452
337.51	445
337.738	453
337.966	437
338.194	437
338.422	439
338.65	420
338.878	445
339.106	453
339.334	415
339.562	403
339.79	453
340.018	422
340.246	413
340.474	419
340.702	430
340.93	435
341.158	426
341.386	423
341.614	433
341.842	425
342.07	411
342.298	438
342.526	430
342.754	407
342.981	409
343.209	412
343.437	437
343.665	453
343.893	474
344.12	474
344.348	460
344.576	443
344.804	453
345.031	454
345.259	413
345.487	421
345.714	442
345.942	417
346.17	434
346.397	397
346.625	415
346.853	408
347.08	424
347.308	379
347.535	442
347.763	402
347.99	409
348.218	425
348.445	409
348.673	416
348.9	391
349.128	389
349.355	412
349.583	407
349.81	402
350.037	389
350.265	391
350.492	410
350.72	387
350.947	394
351.174	397
351.402	415
351.629	410
351.856	405
352.083	399
352.311	417
352.538	400
352.765	418
352.992	382
353.22	415
353.447	415
353.674	398
353.901	383
354.128	387
354.355	394
354.583	384
354.81	387
355.037	381
355.264	383
355.491	382
355.718	397
355.945	405
356.172	400
356.399	399
356.626	391
356.853	388
357.08	386
357.307	380
357.534	378
357.761	377
357.988	388
358.215	403
358.441	396
358.668	391
358.895	398
359.122	389
359.349	394
359.576	409
359.802	407
360.029	423
360.256	441
360.483	414
360.709	419
360.936	415
361.163	410
361.39	403
361.616	397
361.843	398
362.07	393
362.296	385
362.523	400
362.749	405
362.976	404
363.203	391
363.429	389
363.656	381
363.882	395
364.109	387
364.335	390
364.562	398
364.788	396
365.015	387
365.241	398
365.468	390
365.694	391
365.92	376
366.147	379
366.373	396
366.599	416
366.826	381
367.052	375
367.278	397
367.505	379
367.731	388
367.957	371
368.184	387
368.41	400
368.636	396
368.862	397
369.089	407
369.315	391
369.541	391
369.767	406
369.993	389
370.219	399
370.445	366
370.672	424
370.898	395
371.124	382
371.35	399
371.576	403
371.802	391
372.028	409
372.254	401
372.48	407
372.706	395
372.932	411
373.158	416
373.384	417
373.61	425
373.835	398
374.061	401
374.287	405
374.513	389
374.739	413
374.965	417
375.191	435
375.416	392
375.642	404
375.868	389
376.094	410
376.319	405
376.545	387
376.771	385
376.997	386
377.222	388
377.448	415
377.674	404
377.899	399
378.125	403
378.35	390
378.576	406
378.802	402
379.027	389
379.253	389
379.478	389
379.704	393
379.929	384
380.155	399
380.38	404
380.606	399
380.831	405
381.057	407
381.282	391
381.507	407
381.733	388
381.958	402
382.184	419
382.409	375
382.634	400
382.86	413
383.085	403
383.31	415
383.535	420
383.761	413
383.986	414
384.211	413
384.436	444
384.662	427
384.887	447
385.112	424
385.337	453
385.562	458
385.787	457
386.013	456
386.238	460
386.463	445
386.688	444
386.913	447
387.138	457
387.363	422
387.588	451
387.813	453
388.038	455
388.263	453
388.488	446
388.713	450
388.938	441
389.163	438
389.387	453
389.612	428
389.837	422
390.062	443
390.287	433
390.512	428
390.736	448
390.961	439
391.186	446
391.411	445
391.636	462
391.86	458
392.085	463
392.31	478
392.534	457
392.759	449
392.984	466
393.208	453
393.433	458
393.658	474
393.882	456
394.107	441
394.331	442
394.556	441
394.78	461
395.005	446
395.229	459
395.454	442
395.678	462
395.903	489
396.127	481
396.352	490
396.576	477
396.801	461
397.025	466
397.249	451
397.474	468
397.698	478
397.922	487
398.147	501
398.371	510
398.595	513
398.82	514
399.044	536
399.268	554
399.492	607
399.717	613
399.941	671
400.165	655
400.389	649
400.613	595
400.837	565
401.062	526
401.286	494
401.51	521
401.734	507
401.958	493
402.182	521
402.406	528
402.63	526
402.854	526
403.078	521
403.302	540
403.526	552
403.75	535
403.974	550
404.198	551
404.422	538
404.645	551
404.869	548
405.093	566
405.317	569
405.541	576
405.765	564
405.988	542
406.212	561
406.436	579
406.66	561
406.883	557
407.107	605
407.331	633
407.555	673
407.778	666
408.002	626
408.226	578
408.449	572
408.673	572
408.896	600
409.12	621
409.344	553
409.567	539
409.791	553
410.014	547
410.238	537
410.461	521
410.685	532
410.908	545
411.132	555
411.355	582
411.578	562
411.802	526
412.025	538
412.249	493
412.472	545
412.695	524
412.919	509
413.142	520
413.365	513
413.589	525
413.812	507
414.035	469
414.258	485
414.482	502
414.705	507
414.928	506
415.151	500
415.374	517
415.597	493
415.821	493
416.044	508
416.267	493
416.49	480
416.713	484
416.936	493
417.159	470
417.382	494
417.605	475
417.828	498
418.051	497
418.274	502
418.497	490
418.72	485
418.943	508
419.166	513
419.389	541
419.611	524
419.834	520
420.057	537
420.28	517
420.503	504
420.726	515
420.948	505
421.171	517
421.394	539
421.617	526
421.839	509
422.062	510
422.285	512
422.507	539
422.73	620
422.953	593
423.175	538
423.398	517
423.621	517
423.843	543
424.066	527
424.288	521
424.511	530
424.733	586
424.956	626
425.178	630
425.401	629
425.623	633
425.846	557
426.068	524
426.291	522
426.513	515
426.735	525
426.958	557
427.18	599
427.402	729
427.625	745
427.847	650
428.069	546
428.292	522
428.514	501
428.736	492
428.958	476
429.181	471
429.403	482
429.625	487
429.847	504
430.069	573
430.292	556
430.514	508
430.736	459
430.958	479
431.18	444
431.402	453
431.624	462
431.846	448
432.068	483
432.29	476
432.512	452
432.734	474
432.956	459
433.178	478
433.4	472
433.622	450
433.844	462
434.066	482
434.287	478
434.509	469
434.731	481
434.953	477
435.175	506
435.397	519
435.618	513
435.84	546
436.062	617
436.284	652
436.505	561
436.727	498
436.949	476
437.17	472
437.392	485
437.614	485
437.835	520
438.057	561
438.278	632
438.5	620
438.721	683
438.943	655
439.165	560
439.386	497
439.608	517
439.829	501
440.05	524
440.272	542
440.493	519
440.715	482
440.936	522
441.158	471
441.379	484
441.6	488
441.822	520
442.043	561
442.264	592
442.486	631
442.707	547
442.928	511
443.149	527
443.371	517
443.592	578
443.813	646
444.034	682
444.255	585
444.476	559
444.698	557
444.919	551
445.14	662
445.361	595
445.582	557
445.803	585
446.024	659
446.245	637
446.466	590
446.687	526
446.908	494
447.129	490
447.35	476
447.571	478
447.792	462
448.013	465
448.234	473
448.455	503
448.675	603
448.896	682
449.117	582
449.338	554
449.559	647
449.779	719
450	587
450.221	486
450.442	453
450.662	445
450.883	437
451.104	447
451.324	438
451.545	431
451.766	414
451.986	423
452.207	415
452.428	419
452.648	430
452.869	424
453.089	423
453.31	429
453.53	433
453.751	418
453.971	432
454.192	428
454.412	425
454.633	417
454.853	417
455.073	422
455.294	427
455.514	498
455.734	473
455.955	415
456.175	397
456.395	408
456.616	412
456.836	399
457.056	411
457.276	396
457.497	415
457.717	415
457.937	391
458.157	422
458.377	430
458.598	428
458.818	462
459.038	510
459.258	531
459.478	506
459.698	465
459.918	477
460.138	475
460.358	488
460.578	497
460.798	487
461.018	502
461.238	493
461.458	515
461.678	478
461.898	492
462.118	524
462.338	521
462.558	541
462.777	533
462.997	587
463.217	573
463.437	596
463.657	557
463.876	537
464.096	555
464.316	534
464.536	550
464.755	556
464.975	534
465.195	549
465.414	555
465.634	509
465.854	478
466.073	491
466.293	477
466.512	453
466.732	442
466.951	465
467.171	449
467.391	450
467.61	475
467.829	455
468.049	442
468.268	441
468.488	454
468.707	426
468.927	441
469.146	428
469.365	419
469.585	446
469.804	443
470.023	446
470.243	461
470.462	452
470.681	483
470.901	476
471.12	436
471.339	462
471.558	448
471.777	432
471.997	436
472.216	439
472.435	437
472.654	411
472.873	441
473.092	434
473.311	439
473.53	435
473.749	453
473.968	470
474.187	527
474.406	528
474.625	479
474.844	441
475.063	429
475.282	450
475.501	430
475.72	463
475.939	462
476.158	473
476.377	463
476.596	458
476.814	469
477.033	471
477.252	473
477.471	473
477.69	501
477.908	484
478.127	476
478.346	520
478.564	519
478.783	497
479.002	503
479.22	522
479.439	542
479.658	532
479.876	539
480.095	530
480.313	566
480.532	578
480.751	570
480.969	557
481.188	549
481.406	538
481.624	541
481.843	523
482.061	503
482.28	517
482.498	510
482.717	520
482.935	516
483.153	514
483.372	513
483.59	538
483.808	534
484.027	514
484.245	528
484.463	529
484.681	531
484.9	530
485.118	519
485.336	573
485.554	532
485.772	524
485.99	526
486.209	531
486.427	532
486.645	548
486.863	564
487.081	549
487.299	537
487.517	566
487.735	563
487.953	534
488.171	553
488.389	555
488.607	539
488.825	551
489.043	555
489.261	580
489.479	571
489.696	553
489.914	561
490.132	548
490.35	590
490.568	558
490.786	589
491.003	601
491.221	595
491.439	597
491.657	590
491.874	600
492.092	588
492.31	591
492.527	585
492.745	614
492.963	609
493.18	625
493.398	612
493.615	600
493.833	627
494.05	613
494.268	637
494.485	635
494.703	610
494.92	632
495.138	650
495.355	625
495.573	643
495.79	652
496.008	637
496.225	613
496.442	607
496.66	644
496.877	611
497.094	625
497.312	650
497.529	667
497.746	694
497.963	683
498.181	723
498.398	731
498.615	746
498.832	760
499.049	791
499.267	821
499.484	917
499.701	915
499.918	986
500.135	1047
500.352	1138
500.569	1157
500.786	1153
501.003	1100
501.22	1061
501.437	976
501.654	935
501.871	868
502.088	852
502.305	809
502.522	785
502.739	767
502.956	712
503.172	713
503.389	693
503.606	704
503.823	686
504.04	682
504.256	685
504.473	690
504.69	673
504.907	669
505.123	637
505.34	650
505.557	645
505.773	623
505.99	613
506.207	605
506.423	602
506.64	590
506.856	574
507.073	575
507.289	605
507.506	599
507.722	598
507.939	600
508.155	573
508.372	562
508.588	550
508.805	580
509.021	572
509.238	550
509.454	566
509.67	569
509.887	580
510.103	570
510.319	546
510.536	603
510.752	877
510.968	736
511.184	567
511.401	539
511.617	547
511.833	536
512.049	523
512.265	545
512.481	531
512.698	501
512.914	541
513.13	520
513.346	552
513.562	508
513.778	502
513.994	532
514.21	543
514.426	575
514.642	570
514.858	551
515.074	594
515.29	648
515.506	868
515.721	765
515.937	612
516.153	583
516.369	567
516.585	557
516.801	559
517.016	583
517.232	577
517.448	612
517.664	620
517.879	610
518.095	607
518.311	602
518.527	603
518.742	581
518.958	564
519.173	583
519.389	547
519.605	520
519.82	527
520.036	539
520.251	555
520.467	575
520.682	560
520.898	546
521.113	545
521.329	556
521.544	589
521.76	705
521.975	1013
522.19	1048
522.406	655
522.621	554
522.836	510
523.052	520
523.267	500
523.482	484
523.698	482
523.913	499
524.128	476
524.343	470
524.559	460
524.774	462
524.989	465
525.204	489
525.419	471
525.634	467
525.849	432
526.064	462
526.28	469
526.495	469
526.71	468
526.925	446
527.14	443
527.355	471
527.57	435
527.785	478
527.999	445
528.214	456
528.429	441
528.644	448
528.859	447
529.074	452
529.289	462
529.503	494
529.718	478
529.933	454
530.148	463
530.363	462
530.577	433
530.792	442
531.007	441
531.221	454
531.436	447
531.651	441
531.865	443
532.08	458
532.295	423
532.509	441
532.724	448
532.938	422
533.153	449
533.367	443
533.582	430
533.796	433
534.011	446
534.225	423
534.44	435
534.654	417
534.868	415
535.083	465
535.297	429
535.511	451
535.726	438
535.94	420
536.154	438
536.369	441
536.583	435
536.797	412
537.011	409
537.225	430
537.44	414
537.654	401
537.868	407
538.082	413
538.296	436
538.51	441
538.724	427
538.938	438
539.153	425
539.367	427
539.581	444
539.795	409
540.009	409
540.222	421
540.436	424
540.65	395
540.864	423
541.078	415
541.292	400
541.506	415
541.72	419
541.934	433
542.147	409
542.361	393
542.575	406
542.789	410
543.002	419
543.216	425
543.43	421
543.644	423
543.857	417
544.071	420
544.285	412
544.498	408
544.712	417
544.925	413
545.139	429
545.352	416
545.566	408
545.779	417
545.993	425
546.206	414
546.42	412
546.633	409
546.847	428
547.06	428
547.274	413
547.487	394
547.7	412
547.914	433
548.127	405
548.34	413
548.554	418
548.767	402
548.98	390
549.193	401
549.407	406
549.62	430
549.833	394
550.046	433
550.259	447
550.473	421
550.686	414
550.899	407
551.112	418
551.325	400
551.538	397
551.751	390
551.964	404
552.177	407
552.39	412
552.603	406
552.816	437
553.029	422
553.242	431
553.455	414
553.667	446
553.88	437
554.093	436
554.306	422
554.519	449
554.732	421
554.944	402
555.157	413
555.37	401
555.583	415
555.795	382
556.008	384
556.221	390
556.433	364
556.646	377
556.859	385
557.071	386
557.284	364
557.496	381
557.709	369
557.921	364
558.134	359
558.346	362
558.559	378
558.771	364
558.984	357
559.196	373
559.409	376
559.621	369
559.833	371
560.046	353
560.258	361
560.47	360
560.683	377
560.895	358
561.107	355
561.32	358
561.532	342
561.744	355
561.956	342
562.168	346
562.381	373
562.593	359
562.805	367
563.017	365
563.229	366
563.441	355
563.653	346
