Data from 1985.PennyLincolnUp.Lamp.En5.5.200Scan.071819.P1_HRD10591_17-01-39-969.txt Node
Date: Thu Jul 18 17:01:39 EDT 2019
User: cochatt
Spectrometer: HR+D1059
Trigger mode: 1
Integration Time (sec): 1.000000E-1
Scans to average: 1
Electric dark correction enabled: true
Nonlinearity correction enabled: false
Boxcar width: 0
XAxis mode: Wavelengths
Number of Pixels in Spectrum: 2048
>>>>>Begin Spectral Data<<<<<
223.165	-10.12
223.4	-10.12
223.635	-10.12
223.869	-11.12
224.104	-10.12
224.338	-22.12
224.573	-17.12
224.808	-20.12
225.042	2.88
225.277	-8.12
225.511	-13.12
225.746	3.88
225.98	-3.12
226.215	3.88
226.449	29.88
226.683	14.88
226.918	27.88
227.152	31.88
227.387	37.88
227.621	30.88
227.856	34.88
228.09	41.88
228.324	50.88
228.559	57.88
228.793	59.88
229.027	77.88
229.262	102.88
229.496	116.88
229.73	130.88
229.964	121.88
230.199	135.88
230.433	109.88
230.667	108.88
230.901	103.88
231.136	109.88
231.37	111.88
231.604	109.88
231.838	115.88
232.072	100.88
232.306	114.88
232.541	107.88
232.775	124.88
233.009	107.88
233.243	101.88
233.477	98.88
233.711	128.88
233.945	119.88
234.179	115.88
234.413	119.88
234.647	114.88
234.881	122.88
235.115	112.88
235.349	125.88
235.583	118.88
235.817	123.88
236.051	119.88
236.285	100.88
236.519	116.88
236.753	120.88
236.987	143.88
237.221	166.88
237.455	219.88
237.689	145.88
237.922	128.88
238.156	127.88
238.39	125.88
238.624	122.88
238.858	130.88
239.091	125.88
239.325	126.88
239.559	123.88
239.793	116.88
240.027	130.88
240.26	136.88
240.494	149.88
240.728	142.88
240.961	148.88
241.195	149.88
241.429	136.88
241.662	124.88
241.896	127.88
242.13	130.88
242.363	133.88
242.597	137.88
242.83	137.88
243.064	130.88
243.298	136.88
243.531	137.88
243.765	147.88
243.998	134.88
244.232	164.88
244.465	145.88
244.699	150.88
244.932	145.88
245.166	135.88
245.399	148.88
245.633	147.88
245.866	142.88
246.099	148.88
246.333	143.88
246.566	147.88
246.8	150.88
247.033	162.88
247.266	157.88
247.5	151.88
247.733	156.88
247.966	167.88
248.2	165.88
248.433	163.88
248.666	155.88
248.899	177.88
249.133	176.88
249.366	190.88
249.599	191.88
249.832	171.88
250.066	186.88
250.299	172.88
250.532	173.88
250.765	196.88
250.998	203.88
251.231	212.88
251.465	205.88
251.698	203.88
251.931	184.88
252.164	189.88
252.397	197.88
252.63	196.88
252.863	189.88
253.096	194.88
253.329	202.88
253.562	223.88
253.795	212.88
254.028	198.88
254.261	198.88
254.494	227.88
254.727	234.88
254.96	245.88
255.193	248.88
255.426	222.88
255.659	215.88
255.892	228.88
256.124	202.88
256.357	213.88
256.59	193.88
256.823	205.88
257.056	190.88
257.289	204.88
257.521	202.88
257.754	200.88
257.987	215.88
258.22	211.88
258.452	204.88
258.685	199.88
258.918	211.88
259.151	222.88
259.383	214.88
259.616	222.88
259.849	212.88
260.081	228.88
260.314	234.88
260.547	238.88
260.779	227.88
261.012	220.88
261.244	226.88
261.477	221.88
261.71	212.88
261.942	203.88
262.175	207.88
262.407	223.88
262.64	203.88
262.872	205.88
263.105	211.88
263.337	221.88
263.57	224.88
263.802	216.88
264.035	204.88
264.267	223.88
264.499	220.88
264.732	212.88
264.964	204.88
265.197	224.88
265.429	222.88
265.661	221.88
265.894	208.88
266.126	226.88
266.358	226.88
266.591	230.88
266.823	234.88
267.055	243.88
267.287	238.88
267.52	232.88
267.752	225.88
267.984	232.88
268.216	245.88
268.448	240.88
268.681	231.88
268.913	262.88
269.145	277.88
269.377	249.88
269.609	269.88
269.841	259.88
270.073	266.88
270.306	283.88
270.538	309.88
270.77	308.88
271.002	296.88
271.234	296.88
271.466	287.88
271.698	311.88
271.93	290.88
272.162	312.88
272.394	285.88
272.626	295.88
272.858	289.88
273.09	273.88
273.322	269.88
273.553	263.88
273.785	276.88
274.017	269.88
274.249	276.88
274.481	249.88
274.713	266.88
274.945	271.88
275.176	260.88
275.408	258.88
275.64	272.88
275.872	261.88
276.104	252.88
276.335	276.88
276.567	261.88
276.799	290.88
277.031	308.88
277.262	320.88
277.494	292.88
277.726	298.88
277.957	307.88
278.189	288.88
278.421	294.88
278.652	272.88
278.884	283.88
279.115	263.88
279.347	280.88
279.579	286.88
279.81	266.88
280.042	274.88
280.273	266.88
280.505	281.88
280.736	272.88
280.968	276.88
281.199	264.88
281.431	275.88
281.662	285.88
281.894	277.88
282.125	285.88
282.356	292.88
282.588	319.88
282.819	305.88
283.051	294.88
283.282	283.88
283.513	300.88
283.745	293.88
283.976	297.88
284.207	299.88
284.439	302.88
284.67	283.88
284.901	295.88
285.132	283.88
285.364	294.88
285.595	287.88
285.826	287.88
286.057	322.88
286.288	302.88
286.52	302.88
286.751	290.88
286.982	303.88
287.213	286.88
287.444	294.88
287.675	292.88
287.906	304.88
288.138	314.88
288.369	317.88
288.6	325.88
288.831	323.88
289.062	314.88
289.293	307.88
289.524	314.88
289.755	319.88
289.986	320.88
290.217	306.88
290.448	295.88
290.679	329.88
290.91	308.88
291.141	284.88
291.371	314.88
291.602	329.88
291.833	323.88
292.064	309.88
292.295	314.88
292.526	310.88
292.757	328.88
292.987	310.88
293.218	295.88
293.449	315.88
293.68	330.88
293.91	322.88
294.141	325.88
294.372	308.88
294.603	317.88
294.833	321.88
295.064	318.88
295.295	319.88
295.525	309.88
295.756	331.88
295.987	322.88
296.217	350.88
296.448	355.88
296.679	346.88
296.909	317.88
297.14	334.88
297.37	338.88
297.601	329.88
297.831	332.88
298.062	326.88
298.292	341.88
298.523	339.88
298.753	342.88
298.984	316.88
299.214	324.88
299.445	335.88
299.675	316.88
299.905	345.88
300.136	336.88
300.366	345.88
300.597	352.88
300.827	350.88
301.057	343.88
301.288	356.88
301.518	354.88
301.748	358.88
301.979	357.88
302.209	363.88
302.439	370.88
302.669	354.88
302.9	340.88
303.13	364.88
303.36	359.88
303.59	366.88
303.82	348.88
304.051	368.88
304.281	361.88
304.511	356.88
304.741	364.88
304.971	357.88
305.201	349.88
305.431	363.88
305.661	358.88
305.891	351.88
306.121	354.88
306.352	356.88
306.582	356.88
306.812	347.88
307.042	335.88
307.272	348.88
307.502	354.88
307.731	366.88
307.961	363.88
308.191	357.88
308.421	346.88
308.651	365.88
308.881	354.88
309.111	362.88
309.341	333.88
309.571	352.88
309.8	377.88
310.03	388.88
310.26	395.88
310.49	400.88
310.72	397.88
310.949	399.88
311.179	394.88
311.409	379.88
311.639	378.88
311.868	379.88
312.098	396.88
312.328	395.88
312.557	406.88
312.787	418.88
313.017	426.88
313.246	411.88
313.476	389.88
313.706	396.88
313.935	406.88
314.165	414.88
314.394	419.88
314.624	414.88
314.853	411.88
315.083	414.88
315.312	398.88
315.542	401.88
315.771	399.88
316.001	397.88
316.23	397.88
316.46	404.88
316.689	414.88
316.919	404.88
317.148	419.88
317.377	415.88
317.607	411.88
317.836	388.88
318.065	384.88
318.295	400.88
318.524	392.88
318.753	400.88
318.983	398.88
319.212	420.88
319.441	408.88
319.67	396.88
319.9	408.88
320.129	405.88
320.358	396.88
320.587	404.88
320.816	410.88
321.046	421.88
321.275	417.88
321.504	419.88
321.733	433.88
321.962	415.88
322.191	416.88
322.42	428.88
322.649	440.88
322.878	456.88
323.108	460.88
323.337	468.88
323.566	469.88
323.795	515.88
324.024	529.88
324.253	617.88
324.482	848.88
324.71	1226.88
324.939	1726.88
325.168	1488.88
325.397	798.88
325.626	593.88
325.855	518.88
326.084	484.88
326.313	473.88
326.542	479.88
326.77	537.88
326.999	599.88
327.228	772.88
327.457	1117.88
327.686	1280.88
327.914	873.88
328.143	622.88
328.372	559.88
328.6	550.88
328.829	523.88
329.058	531.88
329.287	538.88
329.515	501.88
329.744	501.88
329.972	502.88
330.201	500.88
330.43	520.88
330.658	522.88
330.887	546.88
331.115	540.88
331.344	502.88
331.572	490.88
331.801	514.88
332.03	473.88
332.258	494.88
332.486	492.88
332.715	470.88
332.943	496.88
333.172	490.88
333.4	480.88
333.629	520.88
333.857	524.88
334.085	518.88
334.314	496.88
334.542	483.88
334.771	494.88
334.999	486.88
335.227	517.88
335.455	478.88
335.684	487.88
335.912	488.88
336.14	485.88
336.369	460.88
336.597	469.88
336.825	502.88
337.053	482.88
337.281	495.88
337.51	470.88
337.738	452.88
337.966	471.88
338.194	486.88
338.422	467.88
338.65	465.88
338.878	467.88
339.106	461.88
339.334	455.88
339.562	465.88
339.79	469.88
340.018	446.88
340.246	447.88
340.474	454.88
340.702	455.88
340.93	441.88
341.158	466.88
341.386	474.88
341.614	446.88
341.842	435.88
342.07	460.88
342.298	435.88
342.526	429.88
342.754	436.88
342.981	429.88
343.209	454.88
343.437	442.88
343.665	453.88
343.893	480.88
344.12	474.88
344.348	504.88
344.576	484.88
344.804	475.88
345.031	473.88
345.259	453.88
345.487	454.88
345.714	447.88
345.942	441.88
346.17	444.88
346.397	436.88
346.625	419.88
346.853	438.88
347.08	425.88
347.308	447.88
347.535	467.88
347.763	434.88
347.99	446.88
348.218	452.88
348.445	442.88
348.673	429.88
348.9	412.88
349.128	418.88
349.355	400.88
349.583	439.88
349.81	428.88
350.037	416.88
350.265	404.88
350.492	418.88
350.72	403.88
350.947	404.88
351.174	447.88
351.402	437.88
351.629	424.88
351.856	426.88
352.083	418.88
352.311	436.88
352.538	418.88
352.765	435.88
352.992	411.88
353.22	415.88
353.447	412.88
353.674	407.88
353.901	407.88
354.128	414.88
354.355	396.88
354.583	402.88
354.81	427.88
355.037	414.88
355.264	415.88
355.491	411.88
355.718	409.88
355.945	401.88
356.172	416.88
356.399	399.88
356.626	387.88
356.853	415.88
357.08	404.88
357.307	427.88
357.534	406.88
357.761	423.88
357.988	400.88
358.215	421.88
358.441	385.88
358.668	411.88
358.895	412.88
359.122	404.88
359.349	423.88
359.576	424.88
359.802	437.88
360.029	447.88
360.256	471.88
360.483	450.88
360.709	436.88
360.936	424.88
361.163	430.88
361.39	450.88
361.616	429.88
361.843	432.88
362.07	423.88
362.296	424.88
362.523	425.88
362.749	418.88
362.976	424.88
363.203	434.88
363.429	407.88
363.656	426.88
363.882	407.88
364.109	384.88
364.335	413.88
364.562	400.88
364.788	392.88
365.015	413.88
365.241	410.88
365.468	399.88
365.694	428.88
365.92	408.88
366.147	412.88
366.373	408.88
366.599	407.88
366.826	399.88
367.052	408.88
367.278	398.88
367.505	399.88
367.731	391.88
367.957	413.88
368.184	428.88
368.41	412.88
368.636	416.88
368.862	428.88
369.089	424.88
369.315	395.88
369.541	423.88
369.767	400.88
369.993	418.88
370.219	419.88
370.445	422.88
370.672	412.88
370.898	425.88
371.124	412.88
371.35	419.88
371.576	406.88
371.802	423.88
372.028	413.88
372.254	409.88
372.48	417.88
372.706	419.88
372.932	415.88
373.158	407.88
373.384	400.88
373.61	414.88
373.835	419.88
374.061	410.88
374.287	434.88
374.513	426.88
374.739	427.88
374.965	439.88
375.191	432.88
375.416	423.88
375.642	422.88
375.868	416.88
376.094	435.88
376.319	396.88
376.545	404.88
376.771	405.88
376.997	438.88
377.222	413.88
377.448	418.88
377.674	415.88
377.899	398.88
378.125	392.88
378.35	412.88
378.576	404.88
378.802	416.88
379.027	406.88
379.253	412.88
379.478	399.88
379.704	408.88
379.929	413.88
380.155	405.88
380.38	410.88
380.606	396.88
380.831	408.88
381.057	420.88
381.282	403.88
381.507	426.88
381.733	405.88
381.958	410.88
382.184	420.88
382.409	412.88
382.634	408.88
382.86	412.88
383.085	426.88
383.31	438.88
383.535	426.88
383.761	428.88
383.986	433.88
384.211	411.88
384.436	450.88
384.662	442.88
384.887	455.88
385.112	452.88
385.337	432.88
385.562	447.88
385.787	455.88
386.013	460.88
386.238	461.88
386.463	462.88
386.688	474.88
386.913	457.88
387.138	452.88
387.363	453.88
387.588	451.88
387.813	468.88
388.038	468.88
388.263	454.88
388.488	459.88
388.713	458.88
388.938	471.88
389.163	447.88
389.387	466.88
389.612	444.88
389.837	453.88
390.062	455.88
390.287	452.88
390.512	446.88
390.736	460.88
390.961	464.88
391.186	482.88
391.411	450.88
391.636	471.88
391.86	472.88
392.085	473.88
392.31	487.88
392.534	479.88
392.759	466.88
392.984	455.88
393.208	472.88
393.433	436.88
393.658	469.88
393.882	465.88
394.107	461.88
394.331	462.88
394.556	471.88
394.78	465.88
395.005	466.88
395.229	448.88
395.454	472.88
395.678	477.88
395.903	484.88
396.127	510.88
396.352	495.88
396.576	491.88
396.801	482.88
397.025	478.88
397.249	496.88
397.474	483.88
397.698	490.88
397.922	489.88
398.147	511.88
398.371	522.88
398.595	531.88
398.82	524.88
399.044	541.88
399.268	575.88
399.492	634.88
399.717	683.88
399.941	667.88
400.165	671.88
400.389	646.88
400.613	597.88
400.837	542.88
401.062	551.88
401.286	560.88
401.51	525.88
401.734	527.88
401.958	544.88
402.182	550.88
402.406	556.88
402.63	563.88
402.854	554.88
403.078	539.88
403.302	564.88
403.526	574.88
403.75	565.88
403.974	589.88
404.198	570.88
404.422	552.88
404.645	562.88
404.869	572.88
405.093	568.88
405.317	590.88
405.541	569.88
405.765	592.88
405.988	562.88
406.212	552.88
406.436	599.88
406.66	626.88
406.883	626.88
407.107	637.88
407.331	651.88
407.555	702.88
407.778	713.88
408.002	648.88
408.226	634.88
408.449	626.88
408.673	631.88
408.896	606.88
409.12	649.88
409.344	618.88
409.567	587.88
409.791	576.88
410.014	552.88
410.238	541.88
410.461	571.88
410.685	569.88
410.908	562.88
411.132	560.88
411.355	611.88
411.578	583.88
411.802	540.88
412.025	496.88
412.249	534.88
412.472	545.88
412.695	554.88
412.919	540.88
413.142	524.88
413.365	504.88
413.589	519.88
413.812	516.88
414.035	517.88
414.258	503.88
414.482	506.88
414.705	519.88
414.928	528.88
415.151	524.88
415.374	535.88
415.597	527.88
415.821	523.88
416.044	500.88
416.267	510.88
416.49	492.88
416.713	524.88
416.936	507.88
417.159	483.88
417.382	517.88
417.605	522.88
417.828	515.88
418.051	533.88
418.274	517.88
418.497	519.88
418.72	537.88
418.943	522.88
419.166	542.88
419.389	558.88
419.611	538.88
419.834	518.88
420.057	527.88
420.28	491.88
420.503	508.88
420.726	519.88
420.948	534.88
421.171	554.88
421.394	588.88
421.617	531.88
421.839	530.88
422.062	532.88
422.285	521.88
422.507	578.88
422.73	657.88
422.953	623.88
423.175	574.88
423.398	552.88
423.621	568.88
423.843	581.88
424.066	582.88
424.288	555.88
424.511	594.88
424.733	609.88
424.956	668.88
425.178	670.88
425.401	647.88
425.623	669.88
425.846	578.88
426.068	565.88
426.291	552.88
426.513	558.88
426.735	563.88
426.958	604.88
427.18	672.88
427.402	750.88
427.625	820.88
427.847	690.88
428.069	592.88
428.292	550.88
428.514	538.88
428.736	515.88
428.958	518.88
429.181	471.88
429.403	485.88
429.625	503.88
429.847	514.88
430.069	586.88
430.292	582.88
430.514	514.88
430.736	512.88
430.958	496.88
431.18	486.88
431.402	481.88
431.624	462.88
431.846	486.88
432.068	486.88
432.29	495.88
432.512	518.88
432.734	496.88
432.956	498.88
433.178	509.88
433.4	498.88
433.622	503.88
433.844	490.88
434.066	500.88
434.287	498.88
434.509	514.88
434.731	526.88
434.953	524.88
435.175	523.88
435.397	532.88
435.618	538.88
435.84	592.88
436.062	649.88
436.284	714.88
436.505	604.88
436.727	538.88
436.949	511.88
437.17	514.88
437.392	493.88
437.614	506.88
437.835	538.88
438.057	597.88
438.278	719.88
438.5	686.88
438.721	743.88
438.943	734.88
439.165	615.88
439.386	555.88
439.608	545.88
439.829	539.88
440.05	550.88
440.272	596.88
440.493	542.88
440.715	528.88
440.936	504.88
441.158	504.88
441.379	508.88
441.6	536.88
441.822	552.88
442.043	574.88
442.264	650.88
442.486	679.88
442.707	600.88
442.928	567.88
443.149	576.88
443.371	590.88
443.592	632.88
443.813	684.88
444.034	744.88
444.255	650.88
444.476	577.88
444.698	592.88
444.919	565.88
445.14	681.88
445.361	635.88
445.582	597.88
445.803	652.88
446.024	747.88
446.245	715.88
446.466	643.88
446.687	570.88
446.908	542.88
447.129	522.88
447.35	506.88
447.571	499.88
447.792	483.88
448.013	494.88
448.234	507.88
448.455	546.88
448.675	629.88
448.896	734.88
449.117	620.88
449.338	602.88
449.559	681.88
449.779	786.88
450	652.88
450.221	547.88
450.442	503.88
450.662	467.88
450.883	484.88
451.104	500.88
451.324	498.88
451.545	466.88
451.766	457.88
451.986	434.88
452.207	445.88
452.428	452.88
452.648	435.88
452.869	477.88
453.089	461.88
453.31	470.88
453.53	448.88
453.751	440.88
453.971	450.88
454.192	469.88
454.412	448.88
454.633	440.88
454.853	449.88
455.073	458.88
455.294	455.88
455.514	533.88
455.734	509.88
455.955	460.88
456.175	426.88
456.395	420.88
456.616	423.88
456.836	426.88
457.056	418.88
457.276	426.88
457.497	443.88
457.717	425.88
457.937	430.88
458.157	439.88
458.377	448.88
458.598	458.88
458.818	505.88
459.038	560.88
459.258	603.88
459.478	517.88
459.698	482.88
459.918	500.88
460.138	501.88
460.358	502.88
460.578	520.88
460.798	503.88
461.018	539.88
461.238	522.88
461.458	520.88
461.678	506.88
461.898	499.88
462.118	510.88
462.338	532.88
462.558	541.88
462.777	550.88
462.997	575.88
463.217	591.88
463.437	616.88
463.657	557.88
463.876	549.88
464.096	559.88
464.316	560.88
464.536	572.88
464.755	566.88
464.975	570.88
465.195	572.88
465.414	610.88
465.634	566.88
465.854	514.88
466.073	524.88
466.293	482.88
466.512	468.88
466.732	475.88
466.951	461.88
467.171	469.88
467.391	468.88
467.61	492.88
467.829	460.88
468.049	468.88
468.268	440.88
468.488	441.88
468.707	459.88
468.927	462.88
469.146	461.88
469.365	439.88
469.585	450.88
469.804	455.88
470.023	495.88
470.243	483.88
470.462	488.88
470.681	477.88
470.901	486.88
471.12	467.88
471.339	477.88
471.558	479.88
471.777	461.88
471.997	462.88
472.216	484.88
472.435	441.88
472.654	448.88
472.873	467.88
473.092	450.88
473.311	470.88
473.53	480.88
473.749	486.88
473.968	496.88
474.187	569.88
474.406	612.88
474.625	526.88
474.844	477.88
475.063	459.88
475.282	470.88
475.501	464.88
475.72	472.88
475.939	468.88
476.158	472.88
476.377	476.88
476.596	467.88
476.814	483.88
477.033	480.88
477.252	514.88
477.471	485.88
477.69	514.88
477.908	516.88
478.127	519.88
478.346	536.88
478.564	538.88
478.783	535.88
479.002	554.88
479.22	519.88
479.439	555.88
479.658	562.88
479.876	560.88
480.095	562.88
480.313	596.88
480.532	573.88
480.751	580.88
480.969	568.88
481.188	562.88
481.406	570.88
481.624	547.88
481.843	522.88
482.061	559.88
482.28	557.88
482.498	532.88
482.717	552.88
482.935	528.88
483.153	558.88
483.372	523.88
483.59	527.88
483.808	520.88
484.027	533.88
484.245	539.88
484.463	562.88
484.681	550.88
484.9	557.88
485.118	586.88
485.336	555.88
485.554	538.88
485.772	549.88
485.99	558.88
486.209	562.88
486.427	544.88
486.645	578.88
486.863	542.88
487.081	572.88
487.299	591.88
487.517	584.88
487.735	579.88
487.953	586.88
488.171	574.88
488.389	550.88
488.607	601.88
488.825	588.88
489.043	576.88
489.261	570.88
489.479	583.88
489.696	588.88
489.914	590.88
490.132	590.88
490.35	595.88
490.568	597.88
490.786	617.88
491.003	620.88
491.221	628.88
491.439	645.88
491.657	633.88
491.874	647.88
492.092	666.88
492.31	657.88
492.527	651.88
492.745	656.88
492.963	643.88
493.18	624.88
493.398	638.88
493.615	664.88
493.833	657.88
494.05	654.88
494.268	657.88
494.485	668.88
494.703	653.88
494.92	650.88
495.138	661.88
495.355	666.88
495.573	663.88
495.79	679.88
496.008	701.88
496.225	694.88
496.442	684.88
496.66	687.88
496.877	664.88
497.094	677.88
497.312	660.88
497.529	712.88
497.746	720.88
497.963	735.88
498.181	739.88
498.398	765.88
498.615	784.88
498.832	808.88
499.049	841.88
499.267	870.88
499.484	926.88
499.701	944.88
499.918	991.88
500.135	1081.88
500.352	1147.88
500.569	1160.88
500.786	1176.88
501.003	1150.88
501.22	1044.88
501.437	1053.88
501.654	953.88
501.871	933.88
