Data from 1985.PennyLincolnUp.Lamp.En5.5.200Scan.071819.P1_HRD10591_17-02-59-972.txt Node
Date: Thu Jul 18 17:02:59 EDT 2019
User: cochatt
Spectrometer: HR+D1059
Trigger mode: 1
Integration Time (sec): 1.000000E-1
Scans to average: 1
Electric dark correction enabled: true
Nonlinearity correction enabled: false
Boxcar width: 0
XAxis mode: Wavelengths
Number of Pixels in Spectrum: 2048
>>>>>Begin Spectral Data<<<<<
223.165	-21.31
223.4	-21.31
223.635	-21.31
223.869	-16.31
224.104	-6.31
224.338	-24.31
224.573	-19.31
224.808	-7.31
225.042	-16.31
225.277	-5.31
225.511	-9.31
225.746	-0.31
225.98	11.69
226.215	8.69
226.449	27.69
226.683	15.69
226.918	24.69
227.152	37.69
227.387	25.69
227.621	44.69
227.856	43.69
228.09	59.69
228.324	48.69
228.559	54.69
228.793	70.69
229.027	94.69
229.262	108.69
229.496	105.69
229.73	124.69
229.964	142.69
230.199	122.69
230.433	112.69
230.667	95.69
230.901	110.69
231.136	110.69
231.37	109.69
231.604	126.69
231.838	115.69
232.072	102.69
232.306	103.69
232.541	118.69
232.775	125.69
233.009	103.69
233.243	114.69
233.477	116.69
233.711	131.69
233.945	112.69
234.179	124.69
234.413	123.69
234.647	135.69
234.881	124.69
235.115	125.69
235.349	110.69
235.583	131.69
235.817	120.69
236.051	124.69
236.285	133.69
236.519	123.69
236.753	122.69
236.987	143.69
237.221	170.69
237.455	220.69
237.689	176.69
237.922	140.69
238.156	147.69
238.39	112.69
238.624	115.69
238.858	126.69
239.091	116.69
239.325	143.69
239.559	130.69
239.793	135.69
240.027	134.69
240.26	134.69
240.494	157.69
240.728	138.69
240.961	150.69
241.195	132.69
241.429	124.69
241.662	140.69
241.896	136.69
242.13	150.69
242.363	131.69
242.597	142.69
242.83	137.69
243.064	134.69
243.298	136.69
243.531	132.69
243.765	147.69
243.998	134.69
244.232	152.69
244.465	140.69
244.699	142.69
244.932	152.69
245.166	143.69
245.399	150.69
245.633	145.69
245.866	158.69
246.099	152.69
246.333	150.69
246.566	157.69
246.8	149.69
247.033	161.69
247.266	142.69
247.5	144.69
247.733	183.69
247.966	178.69
248.2	186.69
248.433	180.69
248.666	179.69
248.899	175.69
249.133	187.69
249.366	213.69
249.599	184.69
249.832	190.69
250.066	180.69
250.299	194.69
250.532	182.69
250.765	204.69
250.998	226.69
251.231	196.69
251.465	229.69
251.698	202.69
251.931	223.69
252.164	192.69
252.397	196.69
252.63	200.69
252.863	191.69
253.096	216.69
253.329	221.69
253.562	209.69
253.795	211.69
254.028	213.69
254.261	204.69
254.494	219.69
254.727	234.69
254.96	290.69
255.193	256.69
255.426	227.69
255.659	227.69
255.892	223.69
256.124	229.69
256.357	206.69
256.59	223.69
256.823	193.69
257.056	225.69
257.289	196.69
257.521	212.69
257.754	209.69
257.987	211.69
258.22	222.69
258.452	192.69
258.685	207.69
258.918	205.69
259.151	208.69
259.383	221.69
259.616	217.69
259.849	233.69
260.081	244.69
260.314	245.69
260.547	240.69
260.779	246.69
261.012	228.69
261.244	226.69
261.477	231.69
261.71	213.69
261.942	226.69
262.175	244.69
262.407	240.69
262.64	222.69
262.872	207.69
263.105	224.69
263.337	229.69
263.57	208.69
263.802	214.69
264.035	216.69
264.267	232.69
264.499	228.69
264.732	216.69
264.964	225.69
265.197	229.69
265.429	238.69
265.661	208.69
265.894	226.69
266.126	223.69
266.358	220.69
266.591	221.69
266.823	260.69
267.055	231.69
267.287	234.69
267.52	243.69
267.752	254.69
267.984	227.69
268.216	238.69
268.448	234.69
268.681	243.69
268.913	266.69
269.145	278.69
269.377	282.69
269.609	279.69
269.841	290.69
270.073	273.69
270.306	306.69
270.538	318.69
270.77	303.69
271.002	306.69
271.234	312.69
271.466	312.69
271.698	323.69
271.93	302.69
272.162	309.69
272.394	314.69
272.626	315.69
272.858	288.69
273.09	299.69
273.322	279.69
273.553	284.69
273.785	280.69
274.017	263.69
274.249	285.69
274.481	286.69
274.713	276.69
274.945	275.69
275.176	278.69
275.408	272.69
275.64	283.69
275.872	270.69
276.104	279.69
276.335	290.69
276.567	288.69
276.799	306.69
277.031	308.69
277.262	334.69
277.494	328.69
277.726	336.69
277.957	294.69
278.189	293.69
278.421	294.69
278.652	294.69
278.884	298.69
279.115	265.69
279.347	283.69
279.579	290.69
279.81	280.69
280.042	266.69
280.273	270.69
280.505	283.69
280.736	283.69
280.968	285.69
281.199	291.69
281.431	294.69
281.662	296.69
281.894	283.69
282.125	303.69
282.356	308.69
282.588	321.69
282.819	331.69
283.051	318.69
283.282	303.69
283.513	292.69
283.745	306.69
283.976	308.69
284.207	306.69
284.439	303.69
284.67	298.69
284.901	317.69
285.132	314.69
285.364	314.69
285.595	310.69
285.826	320.69
286.057	333.69
286.288	308.69
286.52	304.69
286.751	292.69
286.982	322.69
287.213	318.69
287.444	313.69
287.675	297.69
287.906	318.69
288.138	323.69
288.369	331.69
288.6	316.69
288.831	329.69
289.062	332.69
289.293	323.69
289.524	330.69
289.755	335.69
289.986	321.69
290.217	321.69
290.448	319.69
290.679	332.69
290.91	317.69
291.141	320.69
291.371	310.69
291.602	330.69
291.833	323.69
292.064	308.69
292.295	320.69
292.526	317.69
292.757	326.69
292.987	329.69
293.218	305.69
293.449	307.69
293.68	329.69
293.91	321.69
294.141	324.69
294.372	324.69
294.603	317.69
294.833	344.69
295.064	326.69
295.295	327.69
295.525	326.69
295.756	336.69
295.987	322.69
296.217	365.69
296.448	361.69
296.679	349.69
296.909	340.69
297.14	348.69
297.37	330.69
297.601	335.69
297.831	339.69
298.062	344.69
298.292	349.69
298.523	347.69
298.753	353.69
298.984	356.69
299.214	351.69
299.445	331.69
299.675	329.69
299.905	352.69
300.136	348.69
300.366	347.69
300.597	337.69
300.827	371.69
301.057	369.69
301.288	358.69
301.518	364.69
301.748	382.69
301.979	371.69
302.209	365.69
302.439	374.69
302.669	365.69
302.9	368.69
303.13	365.69
303.36	374.69
303.59	374.69
303.82	376.69
304.051	377.69
304.281	378.69
304.511	363.69
304.741	337.69
304.971	367.69
305.201	393.69
305.431	371.69
305.661	371.69
305.891	357.69
306.121	374.69
306.352	375.69
306.582	366.69
306.812	376.69
307.042	362.69
307.272	384.69
307.502	378.69
307.731	391.69
307.961	363.69
308.191	376.69
308.421	360.69
308.651	364.69
308.881	378.69
309.111	362.69
309.341	386.69
309.571	378.69
309.8	401.69
310.03	399.69
310.26	421.69
310.49	404.69
310.72	408.69
310.949	419.69
311.179	428.69
311.409	417.69
311.639	416.69
311.868	410.69
312.098	428.69
312.328	408.69
312.557	428.69
312.787	443.69
313.017	438.69
313.246	434.69
313.476	430.69
313.706	415.69
313.935	413.69
314.165	411.69
314.394	446.69
314.624	451.69
314.853	420.69
315.083	421.69
315.312	429.69
315.542	428.69
315.771	412.69
316.001	414.69
316.23	416.69
316.46	408.69
316.689	415.69
316.919	407.69
317.148	418.69
317.377	437.69
317.607	442.69
317.836	446.69
318.065	411.69
318.295	406.69
318.524	414.69
318.753	393.69
318.983	413.69
319.212	421.69
319.441	449.69
319.67	433.69
319.9	418.69
320.129	420.69
320.358	426.69
320.587	422.69
320.816	424.69
321.046	423.69
321.275	441.69
321.504	431.69
321.733	424.69
321.962	451.69
322.191	451.69
322.42	461.69
322.649	469.69
322.878	505.69
323.108	487.69
323.337	493.69
323.566	519.69
323.795	541.69
324.024	599.69
324.253	684.69
324.482	979.69
324.71	1444.69
324.939	2072.69
325.168	1761.69
325.397	940.69
325.626	675.69
325.855	577.69
326.084	534.69
326.313	536.69
326.542	548.69
326.77	574.69
326.999	659.69
327.228	852.69
327.457	1297.69
327.686	1529.69
327.914	1025.69
328.143	698.69
328.372	631.69
328.6	622.69
328.829	580.69
329.058	604.69
329.287	614.69
329.515	571.69
329.744	526.69
329.972	528.69
330.201	535.69
330.43	566.69
330.658	591.69
330.887	638.69
331.115	637.69
331.344	557.69
331.572	520.69
331.801	538.69
332.03	546.69
332.258	520.69
332.486	521.69
332.715	522.69
332.943	536.69
333.172	547.69
333.4	522.69
333.629	536.69
333.857	546.69
334.085	538.69
334.314	532.69
334.542	524.69
334.771	558.69
334.999	555.69
335.227	507.69
335.455	558.69
335.684	519.69
335.912	520.69
336.14	504.69
336.369	482.69
336.597	523.69
336.825	519.69
337.053	501.69
337.281	508.69
337.51	488.69
337.738	486.69
337.966	491.69
338.194	488.69
338.422	473.69
338.65	495.69
338.878	470.69
339.106	470.69
339.334	488.69
339.562	463.69
339.79	474.69
340.018	468.69
340.246	459.69
340.474	485.69
340.702	448.69
340.93	470.69
341.158	463.69
341.386	470.69
341.614	458.69
341.842	495.69
342.07	473.69
342.298	448.69
342.526	453.69
342.754	429.69
342.981	462.69
343.209	430.69
343.437	444.69
343.665	474.69
343.893	513.69
344.12	511.69
344.348	521.69
344.576	488.69
344.804	481.69
345.031	472.69
345.259	471.69
345.487	479.69
345.714	472.69
345.942	455.69
346.17	444.69
346.397	450.69
346.625	455.69
346.853	458.69
347.08	440.69
347.308	448.69
347.535	474.69
347.763	456.69
347.99	442.69
348.218	456.69
348.445	469.69
348.673	456.69
348.9	455.69
349.128	471.69
349.355	452.69
349.583	442.69
349.81	436.69
350.037	447.69
350.265	414.69
350.492	442.69
350.72	447.69
350.947	459.69
351.174	433.69
351.402	456.69
351.629	442.69
351.856	466.69
352.083	420.69
352.311	473.69
352.538	466.69
352.765	462.69
352.992	458.69
353.22	428.69
353.447	441.69
353.674	443.69
353.901	436.69
354.128	419.69
354.355	409.69
354.583	414.69
354.81	412.69
355.037	421.69
355.264	418.69
355.491	408.69
355.718	400.69
355.945	422.69
356.172	421.69
356.399	432.69
356.626	406.69
356.853	424.69
357.08	420.69
357.307	409.69
357.534	416.69
357.761	412.69
357.988	425.69
358.215	419.69
358.441	440.69
358.668	416.69
358.895	427.69
359.122	434.69
359.349	428.69
359.576	448.69
359.802	454.69
360.029	478.69
360.256	486.69
360.483	489.69
360.709	469.69
360.936	449.69
361.163	438.69
361.39	429.69
361.616	422.69
361.843	444.69
362.07	431.69
362.296	418.69
362.523	452.69
362.749	445.69
362.976	446.69
363.203	436.69
363.429	418.69
363.656	413.69
363.882	418.69
364.109	434.69
364.335	416.69
364.562	420.69
364.788	429.69
365.015	426.69
365.241	418.69
365.468	418.69
365.694	421.69
365.92	423.69
366.147	430.69
366.373	417.69
366.599	414.69
366.826	427.69
367.052	428.69
367.278	407.69
367.505	417.69
367.731	418.69
367.957	436.69
368.184	424.69
368.41	445.69
368.636	449.69
368.862	432.69
369.089	426.69
369.315	422.69
369.541	416.69
369.767	430.69
369.993	415.69
370.219	418.69
370.445	418.69
370.672	418.69
370.898	432.69
371.124	438.69
371.35	415.69
371.576	430.69
371.802	415.69
372.028	414.69
372.254	423.69
372.48	430.69
372.706	422.69
372.932	436.69
373.158	431.69
373.384	417.69
373.61	441.69
373.835	426.69
374.061	412.69
374.287	425.69
374.513	404.69
374.739	434.69
374.965	439.69
375.191	438.69
375.416	458.69
375.642	418.69
375.868	418.69
376.094	450.69
376.319	428.69
376.545	418.69
376.771	423.69
376.997	439.69
377.222	407.69
377.448	417.69
377.674	398.69
377.899	421.69
378.125	420.69
378.35	430.69
378.576	405.69
378.802	417.69
379.027	430.69
379.253	426.69
379.478	400.69
379.704	436.69
379.929	434.69
380.155	413.69
380.38	405.69
380.606	400.69
380.831	413.69
381.057	440.69
381.282	429.69
381.507	419.69
381.733	402.69
381.958	414.69
382.184	430.69
382.409	450.69
382.634	424.69
382.86	445.69
383.085	418.69
383.31	444.69
383.535	441.69
383.761	431.69
383.986	444.69
384.211	461.69
384.436	446.69
384.662	447.69
384.887	474.69
385.112	458.69
385.337	455.69
385.562	461.69
385.787	465.69
386.013	478.69
386.238	472.69
386.463	475.69
386.688	479.69
386.913	460.69
387.138	452.69
387.363	471.69
387.588	472.69
387.813	463.69
388.038	461.69
388.263	467.69
388.488	464.69
388.713	469.69
388.938	482.69
389.163	474.69
389.387	467.69
389.612	441.69
389.837	468.69
390.062	470.69
390.287	486.69
390.512	440.69
390.736	447.69
390.961	452.69
391.186	467.69
391.411	471.69
391.636	471.69
391.86	480.69
392.085	486.69
392.31	463.69
392.534	472.69
392.759	481.69
392.984	480.69
393.208	459.69
393.433	472.69
393.658	471.69
393.882	469.69
394.107	473.69
394.331	469.69
394.556	469.69
394.78	494.69
395.005	487.69
395.229	453.69
395.454	495.69
395.678	500.69
395.903	532.69
396.127	506.69
396.352	524.69
396.576	493.69
396.801	490.69
397.025	480.69
397.249	492.69
397.474	489.69
397.698	503.69
397.922	514.69
398.147	537.69
398.371	544.69
398.595	507.69
398.82	523.69
399.044	579.69
399.268	604.69
399.492	633.69
399.717	685.69
399.941	712.69
400.165	719.69
400.389	681.69
400.613	632.69
400.837	580.69
401.062	555.69
401.286	551.69
401.51	564.69
401.734	532.69
401.958	546.69
402.182	551.69
402.406	571.69
402.63	565.69
402.854	570.69
403.078	566.69
403.302	579.69
403.526	582.69
403.75	578.69
403.974	606.69
404.198	586.69
404.422	572.69
404.645	581.69
404.869	567.69
405.093	591.69
405.317	639.69
405.541	638.69
405.765	615.69
405.988	591.69
406.212	583.69
406.436	594.69
406.66	646.69
406.883	626.69
407.107	663.69
407.331	692.69
407.555	741.69
407.778	736.69
408.002	660.69
408.226	637.69
408.449	616.69
408.673	614.69
408.896	615.69
409.12	681.69
409.344	643.69
409.567	576.69
409.791	590.69
410.014	573.69
410.238	569.69
410.461	566.69
410.685	548.69
410.908	576.69
411.132	599.69
411.355	642.69
411.578	608.69
411.802	583.69
412.025	547.69
412.249	558.69
412.472	564.69
412.695	593.69
412.919	593.69
413.142	553.69
413.365	548.69
413.589	550.69
413.812	553.69
414.035	544.69
414.258	545.69
414.482	549.69
414.705	532.69
414.928	528.69
415.151	514.69
415.374	521.69
415.597	531.69
415.821	500.69
416.044	521.69
416.267	540.69
416.49	505.69
416.713	506.69
416.936	511.69
417.159	537.69
417.382	538.69
417.605	528.69
417.828	528.69
418.051	549.69
418.274	552.69
418.497	526.69
418.72	558.69
418.943	544.69
419.166	541.69
419.389	575.69
419.611	539.69
419.834	557.69
420.057	568.69
420.28	533.69
420.503	546.69
420.726	538.69
420.948	543.69
421.171	576.69
421.394	619.69
421.617	563.69
421.839	544.69
422.062	553.69
422.285	555.69
422.507	600.69
422.73	678.69
422.953	671.69
423.175	592.69
423.398	572.69
423.621	559.69
423.843	592.69
424.066	576.69
424.288	584.69
424.511	584.69
424.733	634.69
424.956	708.69
425.178	683.69
425.401	679.69
425.623	711.69
425.846	596.69
426.068	584.69
426.291	560.69
426.513	567.69
426.735	578.69
426.958	595.69
427.18	692.69
427.402	831.69
427.625	886.69
427.847	763.69
428.069	658.69
428.292	593.69
428.514	542.69
428.736	515.69
428.958	516.69
429.181	526.69
429.403	534.69
429.625	540.69
429.847	549.69
430.069	606.69
430.292	624.69
430.514	546.69
430.736	513.69
430.958	506.69
431.18	502.69
431.402	492.69
431.624	500.69
431.846	489.69
432.068	502.69
432.29	516.69
432.512	511.69
432.734	534.69
432.956	501.69
433.178	511.69
433.4	500.69
433.622	511.69
433.844	492.69
434.066	503.69
434.287	510.69
434.509	524.69
434.731	550.69
434.953	525.69
435.175	524.69
435.397	571.69
435.618	575.69
435.84	606.69
436.062	680.69
436.284	725.69
436.505	603.69
436.727	563.69
436.949	537.69
437.17	514.69
437.392	495.69
437.614	526.69
437.835	543.69
438.057	658.69
438.278	743.69
438.5	761.69
438.721	787.69
438.943	742.69
439.165	638.69
439.386	552.69
439.608	564.69
439.829	552.69
440.05	600.69
440.272	629.69
440.493	592.69
440.715	539.69
440.936	556.69
441.158	530.69
441.379	533.69
441.6	564.69
441.822	573.69
442.043	609.69
442.264	700.69
442.486	724.69
442.707	607.69
442.928	598.69
443.149	594.69
443.371	588.69
443.592	648.69
443.813	735.69
444.034	793.69
444.255	670.69
444.476	619.69
444.698	596.69
444.919	604.69
445.14	725.69
445.361	662.69
445.582	618.69
445.803	662.69
446.024	737.69
446.245	740.69
446.466	684.69
446.687	603.69
446.908	557.69
447.129	535.69
447.35	536.69
447.571	515.69
447.792	489.69
448.013	500.69
448.234	536.69
448.455	572.69
448.675	658.69
448.896	771.69
449.117	654.69
449.338	627.69
449.559	741.69
449.779	809.69
450	652.69
450.221	550.69
450.442	526.69
450.662	502.69
450.883	523.69
451.104	516.69
451.324	502.69
451.545	474.69
451.766	482.69
451.986	468.69
452.207	452.69
452.428	480.69
452.648	477.69
452.869	470.69
453.089	498.69
453.31	498.69
453.53	473.69
453.751	473.69
453.971	473.69
454.192	469.69
454.412	479.69
454.633	468.69
454.853	445.69
455.073	456.69
455.294	485.69
455.514	544.69
455.734	558.69
455.955	467.69
456.175	446.69
456.395	427.69
456.616	437.69
456.836	446.69
457.056	422.69
457.276	414.69
457.497	432.69
457.717	454.69
457.937	466.69
458.157	468.69
458.377	471.69
458.598	484.69
458.818	551.69
459.038	594.69
459.258	613.69
459.478	541.69
459.698	526.69
459.918	528.69
460.138	504.69
460.358	542.69
460.578	524.69
460.798	539.69
461.018	520.69
461.238	549.69
461.458	541.69
461.678	540.69
461.898	524.69
462.118	527.69
462.338	570.69
462.558	582.69
462.777	557.69
462.997	591.69
463.217	619.69
463.437	613.69
463.657	611.69
463.876	578.69
464.096	590.69
464.316	577.69
464.536	586.69
464.755	586.69
464.975	572.69
465.195	600.69
465.414	670.69
465.634	586.69
465.854	546.69
466.073	522.69
466.293	481.69
466.512	493.69
466.732	476.69
466.951	478.69
467.171	474.69
467.391	478.69
467.61	489.69
467.829	493.69
468.049	502.69
468.268	487.69
468.488	478.69
468.707	471.69
468.927	494.69
469.146	458.69
469.365	475.69
469.585	470.69
469.804	488.69
470.023	485.69
470.243	495.69
470.462	508.69
470.681	536.69
470.901	528.69
471.12	477.69
471.339	499.69
471.558	498.69
471.777	469.69
471.997	500.69
472.216	479.69
472.435	469.69
472.654	499.69
472.873	471.69
473.092	483.69
473.311	478.69
473.53	474.69
473.749	475.69
473.968	521.69
474.187	610.69
474.406	634.69
474.625	548.69
474.844	479.69
475.063	472.69
475.282	476.69
475.501	476.69
475.72	499.69
475.939	484.69
476.158	478.69
476.377	498.69
476.596	503.69
476.814	504.69
477.033	505.69
477.252	518.69
477.471	520.69
477.69	521.69
477.908	518.69
478.127	530.69
478.346	544.69
478.564	570.69
478.783	574.69
479.002	554.69
479.22	568.69
479.439	571.69
479.658	589.69
479.876	603.69
480.095	600.69
480.313	628.69
480.532	610.69
480.751	619.69
480.969	623.69
481.188	613.69
481.406	619.69
481.624	600.69
481.843	579.69
482.061	559.69
482.28	559.69
482.498	550.69
482.717	555.69
482.935	564.69
483.153	550.69
483.372	580.69
483.59	554.69
483.808	583.69
484.027	535.69
484.245	551.69
484.463	570.69
484.681	567.69
484.9	566.69
485.118	560.69
485.336	584.69
485.554	575.69
485.772	574.69
485.99	598.69
486.209	599.69
486.427	579.69
486.645	580.69
486.863	604.69
487.081	585.69
487.299	587.69
487.517	596.69
487.735	598.69
487.953	598.69
488.171	576.69
488.389	589.69
488.607	601.69
488.825	585.69
489.043	585.69
489.261	604.69
489.479	593.69
489.696	595.69
489.914	616.69
490.132	625.69
490.35	607.69
490.568	626.69
490.786	616.69
491.003	647.69
491.221	650.69
491.439	665.69
491.657	651.69
491.874	657.69
492.092	673.69
492.31	685.69
492.527	670.69
492.745	677.69
492.963	663.69
493.18	690.69
493.398	676.69
493.615	711.69
493.833	711.69
494.05	714.69
494.268	681.69
494.485	698.69
494.703	686.69
494.92	685.69
495.138	682.69
495.355	685.69
495.573	673.69
495.79	711.69
496.008	708.69
496.225	715.69
496.442	743.69
496.66	719.69
496.877	700.69
497.094	722.69
497.312	731.69
497.529	714.69
497.746	736.69
497.963	745.69
498.181	815.69
498.398	818.69
498.615	803.69
498.832	881.69
499.049	854.69
499.267	916.69
499.484	942.69
499.701	975.69
499.918	1040.69
500.135	1101.69
500.352	1226.69
500.569	1208.69
500.786	1225.69
501.003	1163.69
501.22	1104.69
501.437	1055.69
501.654	1004.69
501.871	983.69
