Data from 1985.PennyLincolnUp.Lamp.En5.5.200Scan.071819.P1_HRD10591_17-01-47-970.txt Node
Date: Thu Jul 18 17:01:47 EDT 2019
User: cochatt
Spectrometer: HR+D1059
Trigger mode: 1
Integration Time (sec): 1.000000E-1
Scans to average: 1
Electric dark correction enabled: true
Nonlinearity correction enabled: false
Boxcar width: 0
XAxis mode: Wavelengths
Number of Pixels in Spectrum: 2048
>>>>>Begin Spectral Data<<<<<
223.165	-17.5
223.4	-17.5
223.635	-17.5
223.869	-13.5
224.104	-14.5
224.338	-19.5
224.573	-11.5
224.808	-20.5
225.042	-16.5
225.277	-7.5
225.511	-8.5
225.746	-13.5
225.98	21.5
226.215	5.5
226.449	14.5
226.683	27.5
226.918	35.5
227.152	38.5
227.387	28.5
227.621	35.5
227.856	49.5
228.09	39.5
228.324	51.5
228.559	55.5
228.793	62.5
229.027	104.5
229.262	85.5
229.496	121.5
229.73	131.5
229.964	131.5
230.199	127.5
230.433	131.5
230.667	115.5
230.901	113.5
231.136	108.5
231.37	115.5
231.604	111.5
231.838	108.5
232.072	125.5
232.306	112.5
232.541	109.5
232.775	113.5
233.009	108.5
233.243	103.5
233.477	117.5
233.711	129.5
233.945	108.5
234.179	105.5
234.413	117.5
234.647	117.5
234.881	104.5
235.115	118.5
235.349	125.5
235.583	121.5
235.817	111.5
236.051	117.5
236.285	126.5
236.519	123.5
236.753	123.5
236.987	144.5
237.221	181.5
237.455	210.5
237.689	187.5
237.922	142.5
238.156	130.5
238.39	117.5
238.624	132.5
238.858	124.5
239.091	137.5
239.325	133.5
239.559	133.5
239.793	152.5
240.027	124.5
240.26	124.5
240.494	141.5
240.728	150.5
240.961	142.5
241.195	134.5
241.429	138.5
241.662	124.5
241.896	129.5
242.13	126.5
242.363	142.5
242.597	138.5
242.83	120.5
243.064	137.5
243.298	137.5
243.531	140.5
243.765	143.5
243.998	145.5
244.232	147.5
244.465	159.5
244.699	159.5
244.932	154.5
245.166	131.5
245.399	136.5
245.633	140.5
245.866	151.5
246.099	157.5
246.333	142.5
246.566	138.5
246.8	143.5
247.033	147.5
247.266	145.5
247.5	169.5
247.733	169.5
247.966	174.5
248.2	152.5
248.433	168.5
248.666	159.5
248.899	173.5
249.133	174.5
249.366	187.5
249.599	197.5
249.832	187.5
250.066	193.5
250.299	181.5
250.532	183.5
250.765	197.5
250.998	218.5
251.231	202.5
251.465	175.5
251.698	181.5
251.931	186.5
252.164	197.5
252.397	200.5
252.63	200.5
252.863	205.5
253.096	199.5
253.329	204.5
253.562	209.5
253.795	201.5
254.028	218.5
254.261	214.5
254.494	216.5
254.727	247.5
254.96	269.5
255.193	255.5
255.426	234.5
255.659	225.5
255.892	231.5
256.124	209.5
256.357	216.5
256.59	191.5
256.823	209.5
257.056	202.5
257.289	213.5
257.521	199.5
257.754	203.5
257.987	196.5
258.22	208.5
258.452	200.5
258.685	201.5
258.918	206.5
259.151	223.5
259.383	202.5
259.616	213.5
259.849	230.5
260.081	233.5
260.314	232.5
260.547	253.5
260.779	247.5
261.012	226.5
261.244	228.5
261.477	220.5
261.71	219.5
261.942	226.5
262.175	232.5
262.407	229.5
262.64	219.5
262.872	212.5
263.105	224.5
263.337	216.5
263.57	233.5
263.802	213.5
264.035	205.5
264.267	225.5
264.499	226.5
264.732	219.5
264.964	217.5
265.197	227.5
265.429	228.5
265.661	196.5
265.894	241.5
266.126	229.5
266.358	197.5
266.591	222.5
266.823	232.5
267.055	222.5
267.287	255.5
267.52	219.5
267.752	248.5
267.984	214.5
268.216	235.5
268.448	243.5
268.681	237.5
268.913	257.5
269.145	251.5
269.377	272.5
269.609	278.5
269.841	282.5
270.073	279.5
270.306	294.5
270.538	318.5
270.77	305.5
271.002	295.5
271.234	288.5
271.466	309.5
271.698	290.5
271.93	331.5
272.162	321.5
272.394	294.5
272.626	286.5
272.858	279.5
273.09	274.5
273.322	275.5
273.553	262.5
273.785	262.5
274.017	279.5
274.249	271.5
274.481	257.5
274.713	265.5
274.945	268.5
275.176	270.5
275.408	261.5
275.64	276.5
275.872	274.5
276.104	277.5
276.335	275.5
276.567	289.5
276.799	293.5
277.031	296.5
277.262	321.5
277.494	319.5
277.726	301.5
277.957	292.5
278.189	297.5
278.421	280.5
278.652	290.5
278.884	287.5
279.115	277.5
279.347	292.5
279.579	296.5
279.81	284.5
280.042	279.5
280.273	278.5
280.505	266.5
280.736	277.5
280.968	272.5
281.199	287.5
281.431	291.5
281.662	276.5
281.894	291.5
282.125	287.5
282.356	310.5
282.588	316.5
282.819	313.5
283.051	294.5
283.282	288.5
283.513	274.5
283.745	298.5
283.976	301.5
284.207	297.5
284.439	306.5
284.67	298.5
284.901	313.5
285.132	295.5
285.364	317.5
285.595	305.5
285.826	293.5
286.057	330.5
286.288	302.5
286.52	313.5
286.751	305.5
286.982	286.5
287.213	293.5
287.444	303.5
287.675	318.5
287.906	315.5
288.138	320.5
288.369	326.5
288.6	296.5
288.831	325.5
289.062	321.5
289.293	305.5
289.524	310.5
289.755	315.5
289.986	310.5
290.217	325.5
290.448	314.5
290.679	291.5
290.91	309.5
291.141	316.5
291.371	336.5
291.602	309.5
291.833	314.5
292.064	311.5
292.295	311.5
292.526	325.5
292.757	327.5
292.987	314.5
293.218	294.5
293.449	321.5
293.68	318.5
293.91	317.5
294.141	322.5
294.372	309.5
294.603	313.5
294.833	308.5
295.064	326.5
295.295	328.5
295.525	298.5
295.756	336.5
295.987	321.5
296.217	342.5
296.448	333.5
296.679	346.5
296.909	323.5
297.14	330.5
297.37	333.5
297.601	329.5
297.831	339.5
298.062	321.5
298.292	339.5
298.523	343.5
298.753	347.5
298.984	318.5
299.214	338.5
299.445	353.5
299.675	345.5
299.905	332.5
300.136	342.5
300.366	338.5
300.597	342.5
300.827	362.5
301.057	360.5
301.288	375.5
301.518	347.5
301.748	354.5
301.979	350.5
302.209	367.5
302.439	364.5
302.669	357.5
302.9	366.5
303.13	358.5
303.36	364.5
303.59	357.5
303.82	367.5
304.051	372.5
304.281	369.5
304.511	360.5
304.741	360.5
304.971	358.5
305.201	371.5
305.431	348.5
305.661	359.5
305.891	361.5
306.121	355.5
306.352	366.5
306.582	350.5
306.812	366.5
307.042	347.5
307.272	361.5
307.502	346.5
307.731	363.5
307.961	372.5
308.191	361.5
308.421	365.5
308.651	372.5
308.881	365.5
309.111	373.5
309.341	378.5
309.571	389.5
309.8	389.5
310.03	379.5
310.26	398.5
310.49	403.5
310.72	393.5
310.949	408.5
311.179	401.5
311.409	379.5
311.639	410.5
311.868	406.5
312.098	409.5
312.328	409.5
312.557	396.5
312.787	422.5
313.017	426.5
313.246	422.5
313.476	403.5
313.706	392.5
313.935	407.5
314.165	424.5
314.394	423.5
314.624	400.5
314.853	422.5
315.083	419.5
315.312	407.5
315.542	409.5
315.771	406.5
316.001	384.5
316.23	398.5
316.46	413.5
316.689	419.5
316.919	416.5
317.148	395.5
317.377	399.5
317.607	421.5
317.836	422.5
318.065	417.5
318.295	414.5
318.524	385.5
318.753	409.5
318.983	416.5
319.212	412.5
319.441	412.5
319.67	410.5
319.9	397.5
320.129	403.5
320.358	408.5
320.587	399.5
320.816	410.5
321.046	412.5
321.275	407.5
321.504	419.5
321.733	437.5
321.962	445.5
322.191	430.5
322.42	443.5
322.649	447.5
322.878	447.5
323.108	457.5
323.337	486.5
323.566	507.5
323.795	524.5
324.024	547.5
324.253	612.5
324.482	844.5
324.71	1267.5
324.939	1812.5
325.168	1521.5
325.397	845.5
325.626	604.5
325.855	544.5
326.084	517.5
326.313	491.5
326.542	510.5
326.77	535.5
326.999	614.5
327.228	791.5
327.457	1139.5
327.686	1366.5
327.914	937.5
328.143	629.5
328.372	577.5
328.6	554.5
328.829	556.5
329.058	568.5
329.287	543.5
329.515	536.5
329.744	521.5
329.972	489.5
330.201	487.5
330.43	509.5
330.658	552.5
330.887	554.5
331.115	576.5
331.344	513.5
331.572	515.5
331.801	507.5
332.03	526.5
332.258	501.5
332.486	495.5
332.715	511.5
332.943	476.5
333.172	493.5
333.4	504.5
333.629	529.5
333.857	512.5
334.085	513.5
334.314	524.5
334.542	542.5
334.771	510.5
334.999	508.5
335.227	513.5
335.455	505.5
335.684	480.5
335.912	498.5
336.14	501.5
336.369	491.5
336.597	473.5
336.825	479.5
337.053	490.5
337.281	478.5
337.51	474.5
337.738	475.5
337.966	447.5
338.194	463.5
338.422	449.5
338.65	458.5
338.878	470.5
339.106	481.5
339.334	458.5
339.562	477.5
339.79	463.5
340.018	443.5
340.246	463.5
340.474	478.5
340.702	476.5
340.93	459.5
341.158	458.5
341.386	461.5
341.614	468.5
341.842	461.5
342.07	437.5
342.298	446.5
342.526	444.5
342.754	442.5
342.981	446.5
343.209	469.5
343.437	471.5
343.665	459.5
343.893	501.5
344.12	502.5
344.348	491.5
344.576	473.5
344.804	478.5
345.031	468.5
345.259	498.5
345.487	473.5
345.714	459.5
345.942	455.5
346.17	456.5
346.397	435.5
346.625	449.5
346.853	421.5
347.08	436.5
347.308	437.5
347.535	430.5
347.763	455.5
347.99	442.5
348.218	453.5
348.445	454.5
348.673	435.5
348.9	442.5
349.128	422.5
349.355	420.5
349.583	425.5
349.81	417.5
350.037	434.5
350.265	433.5
350.492	418.5
350.72	421.5
350.947	425.5
351.174	443.5
351.402	443.5
351.629	443.5
351.856	458.5
352.083	454.5
352.311	434.5
352.538	427.5
352.765	425.5
352.992	434.5
353.22	429.5
353.447	427.5
353.674	439.5
353.901	403.5
354.128	394.5
354.355	419.5
354.583	434.5
354.81	415.5
355.037	435.5
355.264	401.5
355.491	391.5
355.718	393.5
355.945	413.5
356.172	397.5
356.399	427.5
356.626	413.5
356.853	397.5
357.08	392.5
357.307	433.5
357.534	413.5
357.761	414.5
357.988	412.5
358.215	409.5
358.441	393.5
358.668	388.5
358.895	423.5
359.122	421.5
359.349	413.5
359.576	451.5
359.802	437.5
360.029	449.5
360.256	482.5
360.483	446.5
360.709	439.5
360.936	425.5
361.163	428.5
361.39	443.5
361.616	431.5
361.843	424.5
362.07	427.5
362.296	444.5
362.523	427.5
362.749	435.5
362.976	423.5
363.203	441.5
363.429	395.5
363.656	412.5
363.882	431.5
364.109	418.5
364.335	410.5
364.562	417.5
364.788	405.5
365.015	424.5
365.241	421.5
365.468	421.5
365.694	413.5
365.92	395.5
366.147	406.5
366.373	417.5
366.599	409.5
366.826	431.5
367.052	401.5
367.278	415.5
367.505	422.5
367.731	426.5
367.957	422.5
368.184	413.5
368.41	397.5
368.636	443.5
368.862	404.5
369.089	441.5
369.315	397.5
369.541	418.5
369.767	433.5
369.993	426.5
370.219	426.5
370.445	412.5
370.672	412.5
370.898	405.5
371.124	420.5
371.35	425.5
371.576	425.5
371.802	415.5
372.028	419.5
372.254	413.5
372.48	423.5
372.706	414.5
372.932	428.5
373.158	408.5
373.384	423.5
373.61	434.5
373.835	423.5
374.061	414.5
374.287	427.5
374.513	438.5
374.739	427.5
374.965	430.5
375.191	427.5
375.416	426.5
375.642	423.5
375.868	411.5
376.094	410.5
376.319	404.5
376.545	405.5
376.771	402.5
376.997	405.5
377.222	420.5
377.448	422.5
377.674	390.5
377.899	417.5
378.125	409.5
378.35	411.5
378.576	398.5
378.802	423.5
379.027	434.5
379.253	427.5
379.478	401.5
379.704	433.5
379.929	421.5
380.155	420.5
380.38	425.5
380.606	403.5
380.831	403.5
381.057	422.5
381.282	415.5
381.507	424.5
381.733	408.5
381.958	413.5
382.184	410.5
382.409	437.5
382.634	446.5
382.86	452.5
383.085	434.5
383.31	453.5
383.535	438.5
383.761	430.5
383.986	443.5
384.211	444.5
384.436	442.5
384.662	445.5
384.887	450.5
385.112	467.5
385.337	447.5
385.562	482.5
385.787	459.5
386.013	475.5
386.238	493.5
386.463	459.5
386.688	485.5
386.913	471.5
387.138	445.5
387.363	455.5
387.588	474.5
387.813	469.5
388.038	462.5
388.263	464.5
388.488	465.5
388.713	478.5
388.938	458.5
389.163	441.5
389.387	483.5
389.612	458.5
389.837	444.5
390.062	450.5
390.287	434.5
390.512	467.5
390.736	464.5
390.961	472.5
391.186	461.5
391.411	484.5
391.636	496.5
391.86	490.5
392.085	488.5
392.31	477.5
392.534	489.5
392.759	470.5
392.984	487.5
393.208	475.5
393.433	475.5
393.658	490.5
393.882	473.5
394.107	458.5
394.331	466.5
394.556	481.5
394.78	490.5
395.005	476.5
395.229	472.5
395.454	502.5
395.678	495.5
395.903	515.5
396.127	525.5
396.352	497.5
396.576	502.5
396.801	469.5
397.025	485.5
397.249	502.5
397.474	507.5
397.698	503.5
397.922	508.5
398.147	514.5
398.371	547.5
398.595	531.5
398.82	523.5
399.044	552.5
399.268	579.5
399.492	631.5
399.717	676.5
399.941	705.5
400.165	695.5
400.389	707.5
400.613	601.5
400.837	561.5
401.062	540.5
401.286	548.5
401.51	548.5
401.734	545.5
401.958	558.5
402.182	550.5
402.406	555.5
402.63	574.5
402.854	555.5
403.078	561.5
403.302	539.5
403.526	565.5
403.75	571.5
403.974	580.5
404.198	545.5
404.422	581.5
404.645	584.5
404.869	567.5
405.093	575.5
405.317	606.5
405.541	614.5
405.765	578.5
405.988	580.5
406.212	574.5
406.436	612.5
406.66	612.5
406.883	604.5
407.107	627.5
407.331	655.5
407.555	699.5
407.778	721.5
408.002	669.5
408.226	631.5
408.449	649.5
408.673	601.5
408.896	625.5
409.12	658.5
409.344	642.5
409.567	601.5
409.791	579.5
410.014	550.5
410.238	539.5
410.461	575.5
410.685	556.5
410.908	551.5
411.132	601.5
411.355	629.5
411.578	587.5
411.802	546.5
412.025	571.5
412.249	537.5
412.472	544.5
412.695	551.5
412.919	523.5
413.142	542.5
413.365	534.5
413.589	541.5
413.812	504.5
414.035	526.5
414.258	489.5
414.482	523.5
414.705	525.5
414.928	542.5
415.151	502.5
415.374	533.5
415.597	536.5
415.821	523.5
416.044	505.5
416.267	534.5
416.49	536.5
416.713	521.5
416.936	518.5
417.159	499.5
417.382	548.5
417.605	541.5
417.828	528.5
418.051	542.5
418.274	519.5
418.497	526.5
418.72	508.5
418.943	519.5
419.166	531.5
419.389	553.5
419.611	574.5
419.834	557.5
420.057	545.5
420.28	543.5
420.503	527.5
420.726	504.5
420.948	551.5
421.171	573.5
421.394	593.5
421.617	548.5
421.839	545.5
422.062	541.5
422.285	542.5
422.507	604.5
422.73	690.5
422.953	659.5
423.175	576.5
423.398	572.5
423.621	556.5
423.843	564.5
424.066	600.5
424.288	566.5
424.511	581.5
424.733	622.5
424.956	696.5
425.178	669.5
425.401	659.5
425.623	697.5
425.846	617.5
426.068	571.5
426.291	574.5
426.513	556.5
426.735	579.5
426.958	603.5
427.18	649.5
427.402	790.5
427.625	844.5
427.847	732.5
428.069	638.5
428.292	581.5
428.514	543.5
428.736	514.5
428.958	516.5
429.181	519.5
429.403	518.5
429.625	517.5
429.847	549.5
430.069	590.5
430.292	597.5
430.514	511.5
430.736	521.5
430.958	490.5
431.18	492.5
431.402	481.5
431.624	479.5
431.846	484.5
432.068	489.5
432.29	490.5
432.512	491.5
432.734	509.5
432.956	522.5
433.178	503.5
433.4	527.5
433.622	504.5
433.844	499.5
434.066	483.5
434.287	511.5
434.509	509.5
434.731	504.5
434.953	527.5
435.175	545.5
435.397	590.5
435.618	561.5
435.84	603.5
436.062	655.5
436.284	731.5
436.505	596.5
436.727	553.5
436.949	516.5
437.17	497.5
437.392	518.5
437.614	537.5
437.835	529.5
438.057	636.5
438.278	715.5
438.5	684.5
438.721	769.5
438.943	733.5
439.165	592.5
439.386	571.5
439.608	527.5
439.829	566.5
440.05	583.5
440.272	596.5
440.493	590.5
440.715	537.5
440.936	515.5
441.158	545.5
441.379	524.5
441.6	526.5
441.822	570.5
442.043	590.5
442.264	673.5
442.486	706.5
442.707	608.5
442.928	559.5
443.149	566.5
443.371	575.5
443.592	639.5
443.813	714.5
444.034	772.5
444.255	648.5
444.476	615.5
444.698	589.5
444.919	602.5
445.14	701.5
445.361	620.5
445.582	606.5
445.803	659.5
446.024	733.5
446.245	732.5
446.466	686.5
446.687	585.5
446.908	577.5
447.129	518.5
447.35	510.5
447.571	528.5
447.792	509.5
448.013	515.5
448.234	539.5
448.455	591.5
448.675	670.5
448.896	757.5
449.117	634.5
449.338	611.5
449.559	701.5
449.779	807.5
450	652.5
450.221	549.5
450.442	513.5
450.662	501.5
450.883	499.5
451.104	499.5
451.324	500.5
451.545	493.5
451.766	470.5
451.986	451.5
452.207	456.5
452.428	453.5
452.648	470.5
452.869	469.5
453.089	474.5
453.31	476.5
453.53	475.5
453.751	471.5
453.971	468.5
454.192	465.5
454.412	471.5
454.633	458.5
454.853	461.5
455.073	436.5
455.294	464.5
455.514	531.5
455.734	531.5
455.955	442.5
456.175	437.5
456.395	413.5
456.616	425.5
456.836	437.5
457.056	422.5
457.276	415.5
457.497	425.5
457.717	449.5
457.937	446.5
458.157	440.5
458.377	471.5
458.598	462.5
458.818	525.5
459.038	589.5
459.258	598.5
459.478	519.5
459.698	491.5
459.918	503.5
460.138	484.5
460.358	538.5
460.578	543.5
460.798	513.5
461.018	533.5
461.238	499.5
461.458	527.5
461.678	522.5
461.898	538.5
462.118	523.5
462.338	534.5
462.558	565.5
462.777	557.5
462.997	593.5
463.217	593.5
463.437	626.5
463.657	585.5
463.876	552.5
464.096	585.5
464.316	577.5
464.536	564.5
464.755	569.5
464.975	574.5
465.195	589.5
465.414	635.5
465.634	550.5
465.854	535.5
466.073	511.5
466.293	494.5
466.512	498.5
466.732	497.5
466.951	485.5
467.171	468.5
467.391	474.5
467.61	486.5
467.829	473.5
468.049	471.5
468.268	467.5
468.488	474.5
468.707	463.5
468.927	481.5
469.146	454.5
469.365	454.5
469.585	467.5
469.804	481.5
470.023	494.5
470.243	481.5
470.462	493.5
470.681	490.5
470.901	502.5
471.12	482.5
471.339	491.5
471.558	497.5
471.777	480.5
471.997	461.5
472.216	478.5
472.435	453.5
472.654	476.5
472.873	476.5
473.092	470.5
473.311	470.5
473.53	460.5
473.749	471.5
473.968	493.5
474.187	599.5
474.406	604.5
474.625	517.5
474.844	476.5
475.063	453.5
475.282	474.5
475.501	500.5
475.72	469.5
475.939	475.5
476.158	490.5
476.377	485.5
476.596	486.5
476.814	470.5
477.033	533.5
477.252	504.5
477.471	510.5
477.69	484.5
477.908	501.5
478.127	537.5
478.346	550.5
478.564	544.5
478.783	565.5
479.002	539.5
479.22	529.5
479.439	557.5
479.658	563.5
479.876	567.5
480.095	591.5
480.313	612.5
480.532	637.5
480.751	597.5
480.969	597.5
481.188	578.5
481.406	595.5
481.624	566.5
481.843	563.5
482.061	565.5
482.28	554.5
482.498	535.5
482.717	561.5
482.935	559.5
483.153	550.5
483.372	549.5
483.59	553.5
483.808	551.5
484.027	553.5
484.245	564.5
484.463	553.5
484.681	577.5
484.9	582.5
485.118	581.5
485.336	589.5
485.554	565.5
485.772	573.5
485.99	583.5
486.209	574.5
486.427	568.5
486.645	571.5
486.863	619.5
487.081	600.5
487.299	592.5
487.517	596.5
487.735	580.5
487.953	599.5
488.171	600.5
488.389	589.5
488.607	586.5
488.825	609.5
489.043	605.5
489.261	593.5
489.479	595.5
489.696	605.5
489.914	605.5
490.132	587.5
490.35	582.5
490.568	607.5
490.786	597.5
491.003	637.5
491.221	625.5
491.439	639.5
491.657	653.5
491.874	659.5
492.092	653.5
492.31	656.5
492.527	669.5
492.745	641.5
492.963	678.5
493.18	675.5
493.398	659.5
493.615	705.5
493.833	665.5
494.05	667.5
494.268	689.5
494.485	678.5
494.703	680.5
494.92	701.5
495.138	687.5
495.355	695.5
495.573	665.5
495.79	682.5
496.008	696.5
496.225	689.5
496.442	688.5
496.66	694.5
496.877	684.5
497.094	698.5
497.312	707.5
497.529	728.5
497.746	734.5
497.963	751.5
498.181	762.5
498.398	807.5
498.615	828.5
498.832	827.5
499.049	855.5
499.267	892.5
499.484	934.5
499.701	987.5
499.918	1031.5
500.135	1124.5
500.352	1164.5
500.569	1165.5
500.786	1192.5
501.003	1162.5
501.22	1128.5
501.437	1043.5
501.654	990.5
501.871	974.5
502.088	899.5
502.305	899.5
502.522	853.5
502.739	836.5
502.956	792.5
503.172	781.5
503.389	760.5
503.606	739.5
503.823	715.5
504.04	720.5
504.256	735.5
504.473	728.5
504.69	727.5
504.907	737.5
505.123	684.5
505.34	682.5
505.557	680.5
505.773	651.5
505.99	652.5
506.207	683.5
506.423	677.5
506.64	668.5
506.856	628.5
507.073	673.5
507.289	632.5
507.506	651.5
507.722	652.5
507.939	648.5
508.155	646.5
508.372	621.5
508.588	608.5
508.805	619.5
509.021	618.5
509.238	635.5
509.454	641.5
509.67	641.5
509.887	622.5
510.103	609.5
510.319	606.5
510.536	681.5
510.752	1069.5
510.968	911.5
511.184	622.5
511.401	611.5
511.617	600.5
511.833	587.5
512.049	585.5
512.265	578.5
512.481	552.5
512.698	591.5
512.914	573.5
513.13	571.5
513.346	573.5
513.562	568.5
513.778	569.5
513.994	562.5
514.21	587.5
514.426	649.5
514.642	621.5
514.858	643.5
515.074	667.5
515.29	813.5
515.506	1161.5
515.721	962.5
515.937	705.5
516.153	623.5
516.369	632.5
516.585	633.5
516.801	645.5
517.016	621.5
517.232	648.5
517.448	649.5
517.664	671.5
517.879	660.5
518.095	647.5
518.311	658.5
518.527	621.5
518.742	629.5
518.958	616.5
519.173	630.5
519.389	615.5
519.605	575.5
