Data from 1985.PennyLincolnUp.Lamp.En5.5.200Scan.071819.P1_HRD10591_17-01-54-969.txt Node
Date: Thu Jul 18 17:01:54 EDT 2019
User: cochatt
Spectrometer: HR+D1059
Trigger mode: 1
Integration Time (sec): 1.000000E-1
Scans to average: 1
Electric dark correction enabled: true
Nonlinearity correction enabled: false
Boxcar width: 0
XAxis mode: Wavelengths
Number of Pixels in Spectrum: 2048
>>>>>Begin Spectral Data<<<<<
223.165	-13.94
223.4	-13.94
223.635	-13.94
223.869	-16.94
224.104	-14.94
224.338	-13.94
224.573	-21.94
224.808	-18.94
225.042	-13.94
225.277	-6.94
225.511	-5.94
225.746	8.06
225.98	13.06
226.215	18.06
226.449	7.06
226.683	24.06
226.918	26.06
227.152	31.06
227.387	37.06
227.621	38.06
227.856	43.06
228.09	34.06
228.324	42.06
228.559	62.06
228.793	68.06
229.027	95.06
229.262	91.06
229.496	114.06
229.73	137.06
229.964	138.06
230.199	131.06
230.433	111.06
230.667	108.06
230.901	111.06
231.136	110.06
231.37	114.06
231.604	104.06
231.838	102.06
232.072	105.06
232.306	108.06
232.541	130.06
232.775	107.06
233.009	109.06
233.243	118.06
233.477	100.06
233.711	103.06
233.945	119.06
234.179	108.06
234.413	113.06
234.647	124.06
234.881	121.06
235.115	117.06
235.349	113.06
235.583	134.06
235.817	135.06
236.051	115.06
236.285	117.06
236.519	95.06
236.753	130.06
236.987	144.06
237.221	174.06
237.455	221.06
237.689	177.06
237.922	143.06
238.156	138.06
238.39	137.06
238.624	123.06
238.858	125.06
239.091	111.06
239.325	139.06
239.559	130.06
239.793	126.06
240.027	134.06
240.26	146.06
240.494	139.06
240.728	145.06
240.961	148.06
241.195	143.06
241.429	136.06
241.662	125.06
241.896	139.06
242.13	129.06
242.363	127.06
242.597	140.06
242.83	141.06
243.064	121.06
243.298	139.06
243.531	137.06
243.765	134.06
243.998	147.06
244.232	151.06
244.465	170.06
244.699	141.06
244.932	140.06
245.166	149.06
245.399	153.06
245.633	143.06
245.866	137.06
246.099	147.06
246.333	149.06
246.566	157.06
246.8	157.06
247.033	144.06
247.266	142.06
247.5	155.06
247.733	165.06
247.966	165.06
248.2	179.06
248.433	170.06
248.666	181.06
248.899	177.06
249.133	206.06
249.366	202.06
249.599	193.06
249.832	173.06
250.066	180.06
250.299	173.06
250.532	195.06
250.765	183.06
250.998	188.06
251.231	220.06
251.465	194.06
251.698	190.06
251.931	182.06
252.164	179.06
252.397	190.06
252.63	203.06
252.863	194.06
253.096	213.06
253.329	216.06
253.562	225.06
253.795	219.06
254.028	210.06
254.261	216.06
254.494	226.06
254.727	247.06
254.96	277.06
255.193	246.06
255.426	235.06
255.659	225.06
255.892	206.06
256.124	213.06
256.357	217.06
256.59	220.06
256.823	201.06
257.056	206.06
257.289	215.06
257.521	214.06
257.754	211.06
257.987	198.06
258.22	207.06
258.452	212.06
258.685	183.06
258.918	212.06
259.151	221.06
259.383	233.06
259.616	229.06
259.849	226.06
260.081	233.06
260.314	243.06
260.547	264.06
260.779	239.06
261.012	222.06
261.244	210.06
261.477	217.06
261.71	212.06
261.942	243.06
262.175	224.06
262.407	221.06
262.64	207.06
262.872	226.06
263.105	229.06
263.337	228.06
263.57	216.06
263.802	211.06
264.035	207.06
264.267	222.06
264.499	226.06
264.732	216.06
264.964	216.06
265.197	208.06
265.429	213.06
265.661	226.06
265.894	213.06
266.126	243.06
266.358	233.06
266.591	226.06
266.823	230.06
267.055	246.06
267.287	226.06
267.52	238.06
267.752	239.06
267.984	230.06
268.216	239.06
268.448	221.06
268.681	220.06
268.913	248.06
269.145	267.06
269.377	287.06
269.609	264.06
269.841	260.06
270.073	271.06
270.306	289.06
270.538	310.06
270.77	329.06
271.002	305.06
271.234	291.06
271.466	309.06
271.698	321.06
271.93	302.06
272.162	307.06
272.394	317.06
272.626	302.06
272.858	276.06
273.09	284.06
273.322	278.06
273.553	266.06
273.785	289.06
274.017	254.06
274.249	268.06
274.481	277.06
274.713	277.06
274.945	307.06
275.176	261.06
275.408	273.06
275.64	287.06
275.872	275.06
276.104	263.06
276.335	270.06
276.567	283.06
276.799	313.06
277.031	291.06
277.262	330.06
277.494	332.06
277.726	316.06
277.957	310.06
278.189	310.06
278.421	291.06
278.652	266.06
278.884	291.06
279.115	298.06
279.347	277.06
279.579	296.06
279.81	295.06
280.042	293.06
280.273	287.06
280.505	284.06
280.736	281.06
280.968	281.06
281.199	282.06
281.431	301.06
281.662	289.06
281.894	309.06
282.125	314.06
282.356	318.06
282.588	333.06
282.819	326.06
283.051	286.06
283.282	302.06
283.513	311.06
283.745	307.06
283.976	301.06
284.207	311.06
284.439	289.06
284.67	299.06
284.901	303.06
285.132	298.06
285.364	315.06
285.595	298.06
285.826	311.06
286.057	301.06
286.288	289.06
286.52	303.06
286.751	323.06
286.982	320.06
287.213	286.06
287.444	297.06
287.675	320.06
287.906	329.06
288.138	345.06
288.369	331.06
288.6	334.06
288.831	325.06
289.062	313.06
289.293	314.06
289.524	322.06
289.755	324.06
289.986	303.06
290.217	315.06
290.448	318.06
290.679	323.06
290.91	318.06
291.141	319.06
291.371	315.06
291.602	305.06
291.833	318.06
292.064	324.06
292.295	315.06
292.526	325.06
292.757	302.06
292.987	324.06
293.218	322.06
293.449	331.06
293.68	298.06
293.91	316.06
294.141	315.06
294.372	336.06
294.603	314.06
294.833	329.06
295.064	330.06
295.295	330.06
295.525	331.06
295.756	340.06
295.987	351.06
296.217	350.06
296.448	374.06
296.679	349.06
296.909	328.06
297.14	327.06
297.37	334.06
297.601	326.06
297.831	345.06
298.062	346.06
298.292	332.06
298.523	338.06
298.753	351.06
298.984	358.06
299.214	346.06
299.445	354.06
299.675	346.06
299.905	353.06
300.136	375.06
300.366	369.06
300.597	354.06
300.827	375.06
301.057	355.06
301.288	353.06
301.518	346.06
301.748	361.06
301.979	354.06
302.209	362.06
302.439	359.06
302.669	355.06
302.9	349.06
303.13	358.06
303.36	361.06
303.59	377.06
303.82	397.06
304.051	381.06
304.281	366.06
304.511	366.06
304.741	366.06
304.971	354.06
305.201	369.06
305.431	356.06
305.661	356.06
305.891	374.06
306.121	366.06
306.352	381.06
306.582	364.06
306.812	373.06
307.042	368.06
307.272	375.06
307.502	369.06
307.731	357.06
307.961	374.06
308.191	381.06
308.421	373.06
308.651	388.06
308.881	362.06
309.111	380.06
309.341	389.06
309.571	406.06
309.8	403.06
310.03	403.06
310.26	389.06
310.49	403.06
310.72	418.06
310.949	449.06
311.179	417.06
311.409	415.06
311.639	407.06
311.868	418.06
312.098	407.06
312.328	415.06
312.557	421.06
312.787	438.06
313.017	429.06
313.246	419.06
313.476	414.06
313.706	405.06
313.935	405.06
314.165	426.06
314.394	437.06
314.624	417.06
314.853	412.06
315.083	412.06
315.312	425.06
315.542	416.06
315.771	427.06
316.001	398.06
316.23	411.06
316.46	410.06
316.689	434.06
316.919	414.06
317.148	421.06
317.377	433.06
317.607	410.06
317.836	414.06
318.065	417.06
318.295	428.06
318.524	415.06
318.753	393.06
318.983	403.06
319.212	401.06
319.441	411.06
319.67	422.06
319.9	445.06
320.129	423.06
320.358	410.06
320.587	427.06
320.816	439.06
321.046	436.06
321.275	442.06
321.504	431.06
321.733	417.06
321.962	441.06
322.191	469.06
322.42	460.06
322.649	442.06
322.878	467.06
323.108	472.06
323.337	502.06
323.566	510.06
323.795	534.06
324.024	558.06
324.253	661.06
324.482	897.06
324.71	1326.06
324.939	1883.06
325.168	1627.06
325.397	866.06
325.626	643.06
325.855	544.06
326.084	521.06
326.313	527.06
326.542	514.06
326.77	562.06
326.999	633.06
327.228	825.06
327.457	1157.06
327.686	1448.06
327.914	952.06
328.143	661.06
328.372	607.06
328.6	564.06
328.829	552.06
329.058	583.06
329.287	591.06
329.515	566.06
329.744	524.06
329.972	508.06
330.201	509.06
330.43	524.06
330.658	575.06
330.887	620.06
331.115	604.06
331.344	534.06
331.572	521.06
331.801	513.06
332.03	517.06
332.258	521.06
332.486	503.06
332.715	491.06
332.943	508.06
333.172	522.06
333.4	523.06
333.629	533.06
333.857	514.06
334.085	515.06
334.314	531.06
334.542	505.06
334.771	533.06
334.999	539.06
335.227	539.06
335.455	524.06
335.684	534.06
335.912	530.06
336.14	491.06
336.369	490.06
336.597	513.06
336.825	484.06
337.053	489.06
337.281	496.06
337.51	481.06
337.738	504.06
337.966	477.06
338.194	493.06
338.422	471.06
338.65	481.06
338.878	486.06
339.106	490.06
339.334	485.06
339.562	488.06
339.79	466.06
340.018	469.06
340.246	449.06
340.474	465.06
340.702	448.06
340.93	465.06
341.158	474.06
341.386	481.06
341.614	484.06
341.842	461.06
342.07	484.06
342.298	479.06
342.526	462.06
342.754	445.06
342.981	456.06
343.209	439.06
343.437	466.06
343.665	483.06
343.893	516.06
344.12	521.06
344.348	479.06
344.576	511.06
344.804	477.06
345.031	484.06
345.259	507.06
345.487	469.06
345.714	471.06
345.942	470.06
346.17	456.06
346.397	455.06
346.625	443.06
346.853	459.06
347.08	450.06
347.308	446.06
347.535	457.06
347.763	451.06
347.99	468.06
348.218	450.06
348.445	466.06
348.673	445.06
348.9	446.06
349.128	449.06
349.355	435.06
349.583	428.06
349.81	404.06
350.037	434.06
350.265	419.06
350.492	436.06
350.72	449.06
350.947	448.06
351.174	414.06
351.402	446.06
351.629	439.06
351.856	456.06
352.083	442.06
352.311	450.06
352.538	438.06
352.765	423.06
352.992	434.06
353.22	432.06
353.447	430.06
353.674	437.06
353.901	441.06
354.128	442.06
354.355	409.06
354.583	440.06
354.81	425.06
355.037	415.06
355.264	409.06
355.491	410.06
355.718	419.06
355.945	412.06
356.172	415.06
356.399	420.06
356.626	449.06
356.853	425.06
357.08	419.06
357.307	425.06
357.534	409.06
357.761	439.06
357.988	424.06
358.215	397.06
358.441	402.06
358.668	415.06
358.895	411.06
359.122	425.06
359.349	444.06
359.576	446.06
359.802	462.06
360.029	466.06
360.256	486.06
360.483	487.06
360.709	474.06
360.936	452.06
361.163	442.06
361.39	413.06
361.616	445.06
361.843	447.06
362.07	437.06
362.296	450.06
362.523	445.06
362.749	430.06
362.976	435.06
363.203	415.06
363.429	427.06
363.656	424.06
363.882	422.06
364.109	424.06
364.335	415.06
364.562	407.06
364.788	414.06
365.015	418.06
365.241	435.06
365.468	421.06
365.694	427.06
365.92	417.06
366.147	441.06
366.373	425.06
366.599	411.06
366.826	429.06
367.052	388.06
367.278	413.06
367.505	428.06
367.731	425.06
367.957	421.06
368.184	420.06
368.41	436.06
368.636	447.06
368.862	430.06
369.089	410.06
369.315	405.06
369.541	422.06
369.767	429.06
369.993	422.06
370.219	421.06
370.445	435.06
370.672	407.06
370.898	442.06
371.124	428.06
371.35	435.06
371.576	419.06
371.802	428.06
372.028	434.06
372.254	433.06
372.48	429.06
372.706	441.06
372.932	444.06
373.158	428.06
373.384	403.06
373.61	428.06
373.835	425.06
374.061	427.06
374.287	431.06
374.513	456.06
374.739	443.06
374.965	458.06
375.191	439.06
375.416	458.06
375.642	417.06
375.868	442.06
376.094	430.06
376.319	433.06
376.545	440.06
376.771	426.06
376.997	413.06
377.222	438.06
377.448	428.06
377.674	423.06
377.899	432.06
378.125	420.06
378.35	401.06
378.576	400.06
378.802	413.06
379.027	408.06
379.253	423.06
379.478	433.06
379.704	412.06
379.929	419.06
380.155	413.06
380.38	418.06
380.606	431.06
380.831	417.06
381.057	434.06
381.282	438.06
381.507	410.06
381.733	433.06
381.958	425.06
382.184	436.06
382.409	414.06
382.634	435.06
382.86	425.06
383.085	420.06
383.31	444.06
383.535	419.06
383.761	432.06
383.986	447.06
384.211	451.06
384.436	463.06
384.662	454.06
384.887	472.06
385.112	477.06
385.337	474.06
385.562	466.06
385.787	476.06
386.013	472.06
386.238	480.06
386.463	503.06
386.688	449.06
386.913	469.06
387.138	461.06
387.363	473.06
387.588	477.06
387.813	463.06
388.038	469.06
388.263	487.06
388.488	476.06
388.713	485.06
388.938	493.06
389.163	489.06
389.387	459.06
389.612	460.06
389.837	484.06
390.062	454.06
390.287	461.06
390.512	470.06
390.736	445.06
390.961	474.06
391.186	495.06
391.411	491.06
391.636	492.06
391.86	486.06
392.085	504.06
392.31	503.06
392.534	495.06
392.759	487.06
392.984	465.06
393.208	486.06
393.433	491.06
393.658	497.06
393.882	478.06
394.107	482.06
394.331	469.06
394.556	456.06
394.78	497.06
395.005	482.06
395.229	493.06
395.454	508.06
395.678	492.06
395.903	506.06
396.127	527.06
396.352	529.06
396.576	525.06
396.801	497.06
397.025	490.06
397.249	498.06
397.474	511.06
397.698	513.06
397.922	543.06
398.147	545.06
398.371	556.06
398.595	531.06
398.82	517.06
399.044	545.06
399.268	619.06
399.492	653.06
399.717	684.06
399.941	693.06
400.165	717.06
400.389	719.06
400.613	628.06
400.837	582.06
401.062	566.06
401.286	567.06
401.51	568.06
401.734	553.06
401.958	562.06
402.182	555.06
402.406	566.06
402.63	574.06
402.854	559.06
403.078	576.06
403.302	590.06
403.526	574.06
403.75	570.06
403.974	571.06
404.198	579.06
404.422	587.06
404.645	571.06
404.869	579.06
405.093	599.06
405.317	611.06
405.541	634.06
405.765	587.06
405.988	596.06
406.212	615.06
406.436	643.06
406.66	649.06
406.883	624.06
407.107	654.06
407.331	693.06
407.555	745.06
407.778	757.06
408.002	682.06
408.226	625.06
408.449	628.06
408.673	617.06
408.896	631.06
409.12	661.06
409.344	639.06
409.567	608.06
409.791	606.06
410.014	591.06
410.238	585.06
410.461	548.06
410.685	591.06
410.908	582.06
411.132	594.06
411.355	631.06
411.578	611.06
411.802	575.06
412.025	545.06
412.249	571.06
412.472	546.06
412.695	574.06
412.919	570.06
413.142	538.06
413.365	538.06
413.589	548.06
413.812	524.06
414.035	516.06
414.258	542.06
414.482	514.06
414.705	539.06
414.928	530.06
415.151	537.06
415.374	523.06
415.597	525.06
415.821	499.06
416.044	529.06
416.267	532.06
416.49	536.06
416.713	510.06
416.936	526.06
417.159	536.06
417.382	550.06
417.605	525.06
417.828	531.06
418.051	555.06
418.274	552.06
418.497	561.06
418.72	562.06
418.943	522.06
419.166	553.06
419.389	595.06
419.611	578.06
419.834	569.06
420.057	558.06
420.28	563.06
420.503	558.06
420.726	513.06
420.948	555.06
421.171	585.06
421.394	630.06
421.617	574.06
421.839	532.06
422.062	556.06
422.285	574.06
422.507	623.06
422.73	659.06
422.953	664.06
423.175	629.06
423.398	559.06
423.621	572.06
423.843	586.06
424.066	614.06
424.288	588.06
424.511	600.06
424.733	657.06
424.956	714.06
425.178	684.06
425.401	700.06
425.623	727.06
425.846	605.06
426.068	585.06
426.291	579.06
426.513	572.06
426.735	567.06
426.958	610.06
427.18	662.06
427.402	788.06
427.625	868.06
427.847	737.06
428.069	658.06
428.292	589.06
428.514	554.06
428.736	541.06
428.958	525.06
429.181	519.06
429.403	530.06
429.625	529.06
429.847	565.06
430.069	607.06
430.292	612.06
430.514	535.06
430.736	514.06
430.958	527.06
431.18	506.06
431.402	521.06
431.624	481.06
431.846	497.06
432.068	528.06
432.29	503.06
432.512	493.06
432.734	516.06
432.956	512.06
433.178	517.06
433.4	524.06
433.622	522.06
433.844	511.06
434.066	496.06
434.287	515.06
434.509	534.06
434.731	532.06
434.953	550.06
435.175	566.06
435.397	594.06
435.618	591.06
435.84	567.06
436.062	679.06
436.284	738.06
436.505	593.06
436.727	561.06
436.949	557.06
437.17	526.06
437.392	508.06
437.614	564.06
437.835	550.06
438.057	659.06
438.278	720.06
438.5	697.06
438.721	786.06
438.943	737.06
439.165	589.06
439.386	565.06
439.608	558.06
439.829	556.06
440.05	575.06
440.272	631.06
440.493	596.06
440.715	553.06
440.936	527.06
441.158	531.06
441.379	540.06
441.6	545.06
441.822	579.06
442.043	619.06
442.264	669.06
442.486	705.06
442.707	593.06
442.928	590.06
443.149	587.06
443.371	610.06
443.592	652.06
443.813	744.06
444.034	771.06
444.255	677.06
444.476	605.06
444.698	595.06
444.919	601.06
445.14	706.06
445.361	654.06
445.582	625.06
445.803	677.06
446.024	753.06
446.245	727.06
446.466	671.06
446.687	583.06
446.908	569.06
447.129	526.06
447.35	519.06
447.571	513.06
447.792	515.06
448.013	533.06
448.234	534.06
448.455	551.06
448.675	665.06
448.896	751.06
449.117	671.06
449.338	620.06
449.559	693.06
449.779	797.06
450	654.06
450.221	552.06
450.442	511.06
450.662	500.06
450.883	518.06
451.104	519.06
451.324	513.06
451.545	479.06
451.766	479.06
451.986	470.06
452.207	452.06
452.428	474.06
452.648	471.06
452.869	451.06
453.089	446.06
453.31	485.06
453.53	461.06
453.751	475.06
453.971	485.06
454.192	482.06
454.412	464.06
454.633	466.06
454.853	462.06
455.073	460.06
455.294	475.06
455.514	543.06
455.734	536.06
455.955	469.06
456.175	463.06
456.395	449.06
456.616	450.06
456.836	445.06
457.056	419.06
457.276	447.06
457.497	444.06
457.717	445.06
457.937	437.06
458.157	445.06
458.377	463.06
458.598	485.06
458.818	534.06
459.038	611.06
459.258	623.06
459.478	562.06
459.698	535.06
459.918	524.06
460.138	499.06
460.358	545.06
460.578	535.06
460.798	546.06
461.018	545.06
461.238	538.06
461.458	529.06
461.678	546.06
461.898	528.06
462.118	542.06
462.338	548.06
462.558	559.06
462.777	560.06
462.997	619.06
463.217	637.06
463.437	632.06
463.657	601.06
463.876	597.06
464.096	594.06
464.316	584.06
464.536	595.06
464.755	563.06
464.975	588.06
465.195	588.06
465.414	643.06
465.634	571.06
465.854	540.06
466.073	521.06
466.293	512.06
466.512	513.06
466.732	495.06
466.951	486.06
467.171	483.06
467.391	476.06
467.61	499.06
467.829	509.06
468.049	507.06
468.268	462.06
468.488	494.06
468.707	472.06
468.927	470.06
469.146	460.06
469.365	473.06
469.585	456.06
469.804	490.06
470.023	489.06
470.243	471.06
470.462	505.06
470.681	508.06
470.901	526.06
471.12	494.06
471.339	498.06
471.558	487.06
471.777	489.06
471.997	477.06
472.216	482.06
472.435	475.06
472.654	477.06
472.873	497.06
473.092	464.06
473.311	469.06
473.53	493.06
473.749	468.06
473.968	503.06
474.187	609.06
474.406	612.06
474.625	531.06
474.844	491.06
475.063	485.06
475.282	484.06
475.501	486.06
475.72	498.06
475.939	505.06
476.158	527.06
476.377	484.06
476.596	476.06
476.814	515.06
477.033	530.06
477.252	503.06
477.471	535.06
477.69	522.06
477.908	528.06
478.127	549.06
478.346	547.06
478.564	549.06
478.783	590.06
479.002	582.06
479.22	565.06
479.439	573.06
479.658	596.06
479.876	587.06
480.095	593.06
480.313	604.06
480.532	612.06
480.751	610.06
480.969	596.06
481.188	590.06
481.406	593.06
481.624	570.06
481.843	571.06
482.061	561.06
482.28	558.06
482.498	547.06
482.717	539.06
482.935	577.06
483.153	573.06
483.372	582.06
483.59	564.06
483.808	574.06
484.027	581.06
484.245	585.06
484.463	553.06
484.681	537.06
484.9	573.06
485.118	582.06
485.336	579.06
485.554	566.06
485.772	589.06
485.99	599.06
486.209	571.06
486.427	583.06
486.645	594.06
486.863	615.06
487.081	614.06
487.299	607.06
487.517	587.06
487.735	614.06
487.953	609.06
488.171	599.06
488.389	603.06
488.607	609.06
488.825	611.06
489.043	619.06
489.261	623.06
489.479	604.06
489.696	602.06
489.914	616.06
490.132	631.06
490.35	614.06
490.568	628.06
490.786	632.06
491.003	627.06
491.221	669.06
491.439	663.06
491.657	649.06
491.874	666.06
492.092	665.06
492.31	703.06
492.527	650.06
492.745	657.06
492.963	679.06
493.18	687.06
493.398	707.06
493.615	672.06
493.833	677.06
494.05	684.06
494.268	693.06
494.485	694.06
494.703	692.06
494.92	670.06
495.138	676.06
495.355	699.06
495.573	679.06
495.79	684.06
496.008	731.06
496.225	701.06
496.442	718.06
496.66	706.06
496.877	691.06
497.094	729.06
497.312	718.06
497.529	733.06
497.746	777.06
497.963	777.06
498.181	787.06
498.398	803.06
498.615	819.06
498.832	851.06
499.049	894.06
499.267	927.06
499.484	958.06
499.701	1019.06
499.918	1061.06
500.135	1116.06
500.352	1206.06
500.569	1224.06
500.786	1225.06
501.003	1173.06
501.22	1112.06
501.437	1076.06
501.654	1009.06
501.871	995.06
