Data from 1985.PennyLincolnUp.Lamp.En5.5.200Scan.071819.P1_HRD10591_17-04-10-972.txt Node
Date: Thu Jul 18 17:04:10 EDT 2019
User: cochatt
Spectrometer: HR+D1059
Trigger mode: 1
Integration Time (sec): 1.000000E-1
Scans to average: 1
Electric dark correction enabled: true
Nonlinearity correction enabled: false
Boxcar width: 0
XAxis mode: Wavelengths
Number of Pixels in Spectrum: 2048
>>>>>Begin Spectral Data<<<<<
223.165	-24.38
223.4	-24.38
223.635	-24.38
223.869	-15.38
224.104	-10.38
224.338	-0.38
224.573	-17.38
224.808	-16.38
225.042	-2.38
225.277	-14.38
225.511	-9.38
225.746	-6.38
225.98	3.62
226.215	14.62
226.449	15.62
226.683	32.62
226.918	20.62
227.152	29.62
227.387	21.62
227.621	26.62
227.856	57.62
228.09	54.62
228.324	53.62
228.559	57.62
228.793	70.62
229.027	96.62
229.262	96.62
229.496	107.62
229.73	124.62
229.964	165.62
230.199	114.62
230.433	114.62
230.667	123.62
230.901	111.62
231.136	105.62
231.37	117.62
231.604	114.62
231.838	106.62
232.072	112.62
232.306	119.62
232.541	126.62
232.775	116.62
233.009	118.62
233.243	114.62
233.477	107.62
233.711	109.62
233.945	108.62
234.179	114.62
234.413	111.62
234.647	122.62
234.881	128.62
235.115	115.62
235.349	116.62
235.583	136.62
235.817	139.62
236.051	124.62
236.285	129.62
236.519	115.62
236.753	134.62
236.987	144.62
237.221	169.62
237.455	210.62
237.689	168.62
237.922	129.62
238.156	144.62
238.39	134.62
238.624	114.62
238.858	135.62
239.091	123.62
239.325	123.62
239.559	125.62
239.793	121.62
240.027	132.62
240.26	138.62
240.494	147.62
240.728	150.62
240.961	143.62
241.195	150.62
241.429	138.62
241.662	136.62
241.896	151.62
242.13	139.62
242.363	145.62
242.597	137.62
242.83	119.62
243.064	160.62
243.298	135.62
243.531	153.62
243.765	144.62
243.998	144.62
244.232	158.62
244.465	146.62
244.699	150.62
244.932	156.62
245.166	146.62
245.399	144.62
245.633	150.62
245.866	157.62
246.099	148.62
246.333	148.62
246.566	146.62
246.8	157.62
247.033	148.62
247.266	158.62
247.5	176.62
247.733	168.62
247.966	158.62
248.2	178.62
248.433	179.62
248.666	178.62
248.899	192.62
249.133	198.62
249.366	200.62
249.599	182.62
249.832	194.62
250.066	197.62
250.299	204.62
250.532	210.62
250.765	223.62
250.998	226.62
251.231	224.62
251.465	226.62
251.698	197.62
251.931	214.62
252.164	188.62
252.397	180.62
252.63	207.62
252.863	207.62
253.096	219.62
253.329	217.62
253.562	220.62
253.795	228.62
254.028	223.62
254.261	226.62
254.494	239.62
254.727	273.62
254.96	285.62
255.193	267.62
255.426	248.62
255.659	239.62
255.892	249.62
256.124	266.62
256.357	294.62
256.59	240.62
256.823	235.62
257.056	228.62
257.289	219.62
257.521	218.62
257.754	215.62
257.987	207.62
258.22	220.62
258.452	217.62
258.685	224.62
258.918	210.62
259.151	207.62
259.383	212.62
259.616	247.62
259.849	222.62
260.081	232.62
260.314	255.62
260.547	256.62
260.779	239.62
261.012	248.62
261.244	236.62
261.477	243.62
261.71	235.62
261.942	231.62
262.175	231.62
262.407	243.62
262.64	220.62
262.872	218.62
263.105	227.62
263.337	229.62
263.57	230.62
263.802	226.62
264.035	223.62
264.267	216.62
264.499	215.62
264.732	215.62
264.964	235.62
265.197	216.62
265.429	218.62
265.661	229.62
265.894	244.62
266.126	229.62
266.358	218.62
266.591	241.62
266.823	255.62
267.055	252.62
267.287	244.62
267.52	252.62
267.752	247.62
267.984	255.62
268.216	251.62
268.448	246.62
268.681	271.62
268.913	268.62
269.145	271.62
269.377	282.62
269.609	287.62
269.841	307.62
270.073	299.62
270.306	319.62
270.538	319.62
270.77	328.62
271.002	301.62
271.234	310.62
271.466	305.62
271.698	333.62
271.93	308.62
272.162	328.62
272.394	319.62
272.626	327.62
272.858	309.62
273.09	308.62
273.322	296.62
273.553	279.62
273.785	280.62
274.017	276.62
274.249	279.62
274.481	286.62
274.713	278.62
274.945	288.62
275.176	278.62
275.408	292.62
275.64	287.62
275.872	278.62
276.104	284.62
276.335	302.62
276.567	314.62
276.799	299.62
277.031	343.62
277.262	348.62
277.494	345.62
277.726	337.62
277.957	316.62
278.189	320.62
278.421	301.62
278.652	302.62
278.884	287.62
279.115	303.62
279.347	289.62
279.579	284.62
279.81	288.62
280.042	291.62
280.273	301.62
280.505	286.62
280.736	288.62
280.968	301.62
281.199	308.62
281.431	293.62
281.662	310.62
281.894	291.62
282.125	311.62
282.356	299.62
282.588	335.62
282.819	332.62
283.051	310.62
283.282	298.62
283.513	306.62
283.745	313.62
283.976	327.62
284.207	315.62
284.439	321.62
284.67	324.62
284.901	309.62
285.132	314.62
285.364	320.62
285.595	291.62
285.826	294.62
286.057	306.62
286.288	312.62
286.52	320.62
286.751	308.62
286.982	329.62
287.213	325.62
287.444	319.62
287.675	316.62
287.906	336.62
288.138	352.62
288.369	335.62
288.6	334.62
288.831	316.62
289.062	345.62
289.293	351.62
289.524	328.62
289.755	325.62
289.986	320.62
290.217	316.62
290.448	308.62
290.679	320.62
290.91	315.62
291.141	320.62
291.371	328.62
291.602	333.62
291.833	313.62
292.064	330.62
292.295	329.62
292.526	340.62
292.757	339.62
292.987	338.62
293.218	341.62
293.449	338.62
293.68	322.62
293.91	308.62
294.141	350.62
294.372	332.62
294.603	336.62
294.833	334.62
295.064	332.62
295.295	340.62
295.525	327.62
295.756	319.62
295.987	340.62
296.217	381.62
296.448	379.62
296.679	337.62
296.909	337.62
297.14	332.62
297.37	343.62
297.601	356.62
297.831	339.62
298.062	344.62
298.292	347.62
298.523	355.62
298.753	344.62
298.984	366.62
299.214	347.62
299.445	342.62
299.675	363.62
299.905	358.62
300.136	363.62
300.366	374.62
300.597	364.62
300.827	351.62
301.057	356.62
301.288	379.62
301.518	362.62
301.748	366.62
301.979	364.62
302.209	376.62
302.439	371.62
302.669	364.62
302.9	370.62
303.13	371.62
303.36	365.62
303.59	366.62
303.82	363.62
304.051	370.62
304.281	374.62
304.511	374.62
304.741	379.62
304.971	356.62
305.201	370.62
305.431	379.62
305.661	393.62
305.891	393.62
306.121	407.62
306.352	366.62
306.582	390.62
306.812	383.62
307.042	377.62
307.272	374.62
307.502	390.62
307.731	363.62
307.961	386.62
308.191	363.62
308.421	372.62
308.651	379.62
308.881	377.62
309.111	387.62
309.341	388.62
309.571	397.62
309.8	394.62
310.03	419.62
310.26	412.62
310.49	418.62
310.72	445.62
310.949	461.62
311.179	428.62
311.409	416.62
311.639	402.62
311.868	401.62
312.098	417.62
312.328	420.62
312.557	441.62
312.787	452.62
313.017	436.62
313.246	438.62
313.476	436.62
313.706	424.62
313.935	419.62
314.165	436.62
314.394	441.62
314.624	445.62
314.853	425.62
315.083	434.62
315.312	408.62
315.542	415.62
315.771	422.62
316.001	414.62
316.23	410.62
316.46	398.62
316.689	414.62
316.919	429.62
317.148	441.62
317.377	439.62
317.607	426.62
317.836	432.62
318.065	418.62
318.295	412.62
318.524	440.62
318.753	421.62
318.983	418.62
319.212	433.62
319.441	438.62
319.67	438.62
319.9	422.62
320.129	427.62
320.358	438.62
320.587	436.62
320.816	435.62
321.046	426.62
321.275	462.62
321.504	448.62
321.733	462.62
321.962	449.62
322.191	472.62
322.42	460.62
322.649	475.62
322.878	477.62
323.108	472.62
323.337	508.62
323.566	558.62
323.795	550.62
324.024	604.62
324.253	726.62
324.482	977.62
324.71	1500.62
324.939	2062.62
325.168	1748.62
325.397	946.62
325.626	671.62
325.855	592.62
326.084	533.62
326.313	558.62
326.542	551.62
326.77	572.62
326.999	674.62
327.228	895.62
327.457	1338.62
327.686	1594.62
327.914	1075.62
328.143	735.62
328.372	683.62
328.6	624.62
328.829	596.62
329.058	598.62
329.287	612.62
329.515	594.62
329.744	580.62
329.972	563.62
330.201	630.62
330.43	638.62
330.658	651.62
330.887	654.62
331.115	640.62
331.344	570.62
331.572	552.62
331.801	544.62
332.03	555.62
332.258	530.62
332.486	532.62
332.715	529.62
332.943	509.62
333.172	517.62
333.4	528.62
333.629	555.62
333.857	577.62
334.085	602.62
334.314	657.62
334.542	664.62
334.771	676.62
334.999	608.62
335.227	587.62
335.455	551.62
335.684	529.62
335.912	517.62
336.14	498.62
336.369	502.62
336.597	517.62
336.825	501.62
337.053	516.62
337.281	542.62
337.51	508.62
337.738	515.62
337.966	501.62
338.194	512.62
338.422	487.62
338.65	493.62
338.878	488.62
339.106	489.62
339.334	488.62
339.562	487.62
339.79	464.62
340.018	473.62
340.246	466.62
340.474	485.62
340.702	481.62
340.93	467.62
341.158	486.62
341.386	485.62
341.614	489.62
341.842	488.62
342.07	445.62
342.298	459.62
342.526	461.62
342.754	472.62
342.981	455.62
343.209	451.62
343.437	487.62
343.665	492.62
343.893	514.62
344.12	526.62
344.348	518.62
344.576	479.62
344.804	504.62
345.031	508.62
345.259	509.62
345.487	475.62
345.714	478.62
345.942	470.62
346.17	470.62
346.397	465.62
346.625	448.62
346.853	444.62
347.08	456.62
347.308	462.62
347.535	454.62
347.763	479.62
347.99	492.62
348.218	458.62
348.445	473.62
348.673	475.62
348.9	456.62
349.128	441.62
349.355	457.62
349.583	428.62
349.81	420.62
350.037	431.62
350.265	450.62
350.492	434.62
350.72	443.62
350.947	441.62
351.174	464.62
351.402	464.62
351.629	460.62
351.856	475.62
352.083	455.62
352.311	452.62
352.538	467.62
352.765	470.62
352.992	468.62
353.22	454.62
353.447	459.62
353.674	422.62
353.901	434.62
354.128	431.62
354.355	420.62
354.583	425.62
354.81	420.62
355.037	422.62
355.264	435.62
355.491	408.62
355.718	427.62
355.945	443.62
356.172	414.62
356.399	432.62
356.626	437.62
356.853	451.62
357.08	442.62
357.307	424.62
357.534	428.62
357.761	436.62
357.988	434.62
358.215	439.62
358.441	435.62
358.668	432.62
358.895	425.62
359.122	441.62
359.349	423.62
359.576	450.62
359.802	467.62
360.029	469.62
360.256	460.62
360.483	472.62
360.709	453.62
360.936	458.62
361.163	442.62
361.39	454.62
361.616	468.62
361.843	442.62
362.07	426.62
362.296	416.62
362.523	441.62
362.749	456.62
362.976	444.62
363.203	429.62
363.429	444.62
363.656	442.62
363.882	429.62
364.109	431.62
364.335	421.62
364.562	419.62
364.788	428.62
365.015	446.62
365.241	436.62
365.468	428.62
365.694	441.62
365.92	423.62
366.147	428.62
366.373	434.62
366.599	423.62
366.826	429.62
367.052	433.62
367.278	428.62
367.505	433.62
367.731	434.62
367.957	410.62
368.184	426.62
368.41	437.62
368.636	423.62
368.862	451.62
369.089	462.62
369.315	436.62
369.541	446.62
369.767	420.62
369.993	448.62
370.219	435.62
370.445	431.62
370.672	426.62
370.898	437.62
371.124	408.62
371.35	439.62
371.576	428.62
371.802	429.62
372.028	430.62
372.254	444.62
372.48	425.62
372.706	429.62
372.932	452.62
373.158	455.62
373.384	452.62
373.61	438.62
373.835	449.62
374.061	437.62
374.287	451.62
374.513	448.62
374.739	437.62
374.965	438.62
375.191	448.62
375.416	459.62
375.642	447.62
375.868	461.62
376.094	434.62
376.319	415.62
376.545	430.62
376.771	431.62
376.997	434.62
377.222	410.62
377.448	427.62
377.674	409.62
377.899	429.62
378.125	430.62
378.35	418.62
378.576	411.62
378.802	415.62
379.027	422.62
379.253	400.62
379.478	410.62
379.704	418.62
379.929	438.62
380.155	423.62
380.38	439.62
380.606	427.62
380.831	432.62
381.057	431.62
381.282	414.62
381.507	425.62
381.733	422.62
381.958	426.62
382.184	450.62
382.409	422.62
382.634	442.62
382.86	444.62
383.085	450.62
383.31	439.62
383.535	446.62
383.761	459.62
383.986	458.62
384.211	451.62
384.436	470.62
384.662	472.62
384.887	458.62
385.112	459.62
385.337	474.62
385.562	492.62
385.787	473.62
386.013	480.62
386.238	498.62
386.463	482.62
386.688	494.62
386.913	455.62
387.138	478.62
387.363	489.62
387.588	499.62
387.813	499.62
388.038	474.62
388.263	479.62
388.488	493.62
388.713	477.62
388.938	459.62
389.163	468.62
389.387	481.62
389.612	463.62
389.837	493.62
390.062	472.62
390.287	458.62
390.512	472.62
390.736	467.62
390.961	480.62
391.186	478.62
391.411	492.62
391.636	507.62
391.86	512.62
392.085	496.62
392.31	495.62
392.534	488.62
392.759	476.62
392.984	490.62
393.208	468.62
393.433	490.62
393.658	486.62
393.882	480.62
394.107	491.62
394.331	485.62
394.556	500.62
394.78	494.62
395.005	481.62
395.229	499.62
395.454	490.62
395.678	503.62
395.903	492.62
396.127	530.62
396.352	539.62
396.576	495.62
396.801	493.62
397.025	491.62
397.249	510.62
397.474	514.62
397.698	489.62
397.922	519.62
398.147	546.62
398.371	542.62
398.595	529.62
398.82	548.62
399.044	543.62
399.268	610.62
399.492	677.62
399.717	694.62
399.941	712.62
400.165	700.62
400.389	693.62
400.613	619.62
400.837	592.62
401.062	574.62
401.286	582.62
401.51	548.62
401.734	530.62
401.958	550.62
402.182	563.62
402.406	570.62
402.63	574.62
402.854	572.62
403.078	582.62
403.302	590.62
403.526	583.62
403.75	571.62
403.974	588.62
404.198	576.62
404.422	595.62
404.645	630.62
404.869	605.62
405.093	627.62
405.317	675.62
405.541	706.62
405.765	628.62
405.988	602.62
406.212	628.62
406.436	640.62
406.66	663.62
406.883	640.62
407.107	696.62
407.331	683.62
407.555	746.62
407.778	747.62
408.002	684.62
408.226	637.62
408.449	652.62
408.673	646.62
408.896	672.62
409.12	704.62
409.344	656.62
409.567	600.62
409.791	567.62
410.014	572.62
410.238	554.62
410.461	567.62
410.685	590.62
410.908	616.62
411.132	622.62
411.355	657.62
411.578	629.62
411.802	594.62
412.025	592.62
412.249	574.62
412.472	598.62
412.695	657.62
412.919	657.62
413.142	634.62
413.365	598.62
413.589	566.62
413.812	548.62
414.035	555.62
414.258	545.62
414.482	538.62
414.705	543.62
414.928	543.62
415.151	532.62
415.374	539.62
415.597	548.62
415.821	533.62
416.044	535.62
416.267	528.62
416.49	530.62
416.713	531.62
416.936	542.62
417.159	525.62
417.382	555.62
417.605	565.62
417.828	549.62
418.051	566.62
418.274	557.62
418.497	526.62
418.72	554.62
418.943	553.62
419.166	574.62
419.389	598.62
419.611	576.62
419.834	583.62
420.057	580.62
420.28	587.62
420.503	564.62
420.726	570.62
420.948	592.62
421.171	615.62
421.394	653.62
421.617	579.62
421.839	548.62
422.062	538.62
422.285	551.62
422.507	626.62
422.73	670.62
422.953	645.62
423.175	591.62
423.398	585.62
423.621	601.62
423.843	607.62
424.066	596.62
424.288	592.62
424.511	604.62
424.733	656.62
424.956	718.62
425.178	690.62
425.401	682.62
425.623	722.62
425.846	616.62
426.068	611.62
426.291	585.62
426.513	594.62
426.735	593.62
426.958	629.62
427.18	687.62
427.402	826.62
427.625	916.62
427.847	798.62
428.069	710.62
428.292	626.62
428.514	576.62
428.736	539.62
428.958	535.62
429.181	516.62
429.403	532.62
429.625	511.62
429.847	566.62
430.069	597.62
430.292	603.62
430.514	533.62
430.736	547.62
430.958	528.62
431.18	517.62
431.402	517.62
431.624	508.62
431.846	524.62
432.068	534.62
432.29	512.62
432.512	502.62
432.734	519.62
432.956	525.62
433.178	517.62
433.4	534.62
433.622	532.62
433.844	531.62
434.066	504.62
434.287	522.62
434.509	528.62
434.731	555.62
434.953	558.62
435.175	541.62
435.397	566.62
435.618	566.62
435.84	606.62
436.062	706.62
436.284	747.62
436.505	639.62
436.727	563.62
436.949	576.62
437.17	530.62
437.392	517.62
437.614	525.62
437.835	575.62
438.057	652.62
438.278	730.62
438.5	736.62
438.721	826.62
438.943	794.62
439.165	613.62
439.386	570.62
439.608	602.62
439.829	581.62
440.05	609.62
440.272	644.62
440.493	590.62
440.715	558.62
440.936	555.62
441.158	539.62
441.379	547.62
441.6	552.62
441.822	577.62
442.043	602.62
442.264	682.62
442.486	715.62
442.707	634.62
442.928	615.62
443.149	592.62
443.371	609.62
443.592	663.62
443.813	740.62
444.034	823.62
444.255	674.62
444.476	606.62
444.698	596.62
444.919	635.62
445.14	748.62
445.361	673.62
445.582	617.62
445.803	657.62
446.024	778.62
446.245	766.62
446.466	692.62
446.687	602.62
446.908	564.62
447.129	535.62
447.35	542.62
447.571	523.62
447.792	525.62
448.013	521.62
448.234	548.62
448.455	576.62
448.675	730.62
448.896	802.62
449.117	695.62
449.338	650.62
449.559	728.62
449.779	855.62
450	670.62
450.221	541.62
450.442	529.62
450.662	514.62
450.883	521.62
451.104	532.62
451.324	529.62
451.545	492.62
451.766	504.62
451.986	467.62
452.207	462.62
452.428	462.62
452.648	471.62
452.869	478.62
453.089	456.62
453.31	504.62
453.53	501.62
453.751	480.62
453.971	485.62
454.192	492.62
454.412	491.62
454.633	476.62
454.853	449.62
455.073	454.62
455.294	489.62
455.514	538.62
455.734	533.62
455.955	453.62
456.175	476.62
456.395	458.62
456.616	437.62
456.836	451.62
457.056	466.62
457.276	441.62
457.497	438.62
457.717	432.62
457.937	455.62
458.157	471.62
458.377	447.62
458.598	478.62
458.818	542.62
459.038	620.62
459.258	622.62
459.478	547.62
459.698	527.62
459.918	523.62
460.138	519.62
460.358	522.62
460.578	530.62
460.798	546.62
461.018	536.62
461.238	549.62
461.458	552.62
461.678	533.62
461.898	527.62
462.118	530.62
462.338	542.62
462.558	564.62
462.777	566.62
462.997	593.62
463.217	631.62
463.437	618.62
463.657	587.62
463.876	575.62
464.096	587.62
464.316	586.62
464.536	599.62
464.755	583.62
464.975	602.62
465.195	608.62
465.414	649.62
465.634	602.62
465.854	538.62
466.073	539.62
466.293	530.62
466.512	493.62
466.732	478.62
466.951	473.62
467.171	486.62
467.391	502.62
467.61	500.62
467.829	500.62
468.049	523.62
468.268	514.62
468.488	502.62
468.707	481.62
468.927	470.62
469.146	478.62
469.365	491.62
469.585	471.62
469.804	493.62
470.023	522.62
470.243	487.62
470.462	509.62
470.681	540.62
470.901	525.62
471.12	500.62
471.339	500.62
471.558	485.62
471.777	495.62
471.997	504.62
472.216	522.62
472.435	578.62
472.654	542.62
472.873	491.62
473.092	495.62
473.311	484.62
473.53	485.62
473.749	487.62
473.968	546.62
474.187	638.62
474.406	617.62
474.625	553.62
474.844	504.62
475.063	512.62
475.282	479.62
475.501	480.62
475.72	521.62
475.939	495.62
476.158	522.62
476.377	510.62
476.596	501.62
476.814	516.62
477.033	519.62
477.252	515.62
477.471	531.62
477.69	528.62
477.908	540.62
478.127	543.62
478.346	553.62
478.564	563.62
478.783	576.62
479.002	570.62
479.22	550.62
479.439	593.62
479.658	586.62
479.876	584.62
480.095	606.62
480.313	629.62
480.532	620.62
480.751	630.62
480.969	648.62
481.188	697.62
481.406	770.62
481.624	665.62
481.843	598.62
482.061	614.62
482.28	608.62
482.498	595.62
482.717	582.62
482.935	571.62
483.153	555.62
483.372	565.62
483.59	571.62
483.808	572.62
484.027	576.62
484.245	611.62
484.463	586.62
484.681	592.62
484.9	570.62
485.118	613.62
485.336	591.62
485.554	600.62
485.772	613.62
485.99	576.62
486.209	588.62
486.427	591.62
486.645	596.62
486.863	646.62
487.081	616.62
487.299	615.62
487.517	590.62
487.735	594.62
487.953	611.62
488.171	608.62
488.389	608.62
488.607	601.62
488.825	626.62
489.043	632.62
489.261	615.62
489.479	636.62
489.696	635.62
489.914	616.62
490.132	638.62
490.35	672.62
490.568	662.62
490.786	651.62
491.003	650.62
491.221	671.62
491.439	680.62
491.657	715.62
491.874	698.62
492.092	708.62
492.31	684.62
492.527	711.62
492.745	722.62
492.963	720.62
493.18	719.62
493.398	733.62
493.615	738.62
493.833	728.62
494.05	720.62
494.268	733.62
494.485	743.62
494.703	725.62
494.92	728.62
495.138	744.62
495.355	729.62
495.573	734.62
495.79	734.62
496.008	740.62
496.225	719.62
496.442	746.62
496.66	732.62
496.877	714.62
497.094	746.62
497.312	758.62
497.529	774.62
497.746	783.62
497.963	795.62
498.181	828.62
498.398	826.62
498.615	838.62
498.832	868.62
499.049	885.62
499.267	903.62
499.484	938.62
499.701	1010.62
499.918	1077.62
500.135	1127.62
500.352	1172.62
500.569	1216.62
500.786	1216.62
501.003	1191.62
501.22	1157.62
501.437	1104.62
501.654	1018.62
501.871	984.62
