Data from 1985.PennyLincolnUp.Lamp.En5.5.200Scan.071819.P1_HRD10591_17-01-06-970.txt Node
Date: Thu Jul 18 17:01:06 EDT 2019
User: cochatt
Spectrometer: HR+D1059
Trigger mode: 1
Integration Time (sec): 1.000000E-1
Scans to average: 1
Electric dark correction enabled: true
Nonlinearity correction enabled: false
Boxcar width: 0
XAxis mode: Wavelengths
Number of Pixels in Spectrum: 2048
>>>>>Begin Spectral Data<<<<<
223.165	3.12
223.4	3.12
223.635	3.12
223.869	-15.88
224.104	-10.88
224.338	-18.88
224.573	-16.88
224.808	-3.88
225.042	-13.88
225.277	-7.88
225.511	-15.88
225.746	3.12
225.98	13.12
226.215	20.12
226.449	14.12
226.683	2.12
226.918	14.12
227.152	34.12
227.387	36.12
227.621	44.12
227.856	33.12
228.09	46.12
228.324	51.12
228.559	62.12
228.793	75.12
229.027	94.12
229.262	106.12
229.496	119.12
229.73	142.12
229.964	161.12
230.199	139.12
230.433	115.12
230.667	118.12
230.901	117.12
231.136	125.12
231.37	125.12
231.604	120.12
231.838	125.12
232.072	119.12
232.306	105.12
232.541	119.12
232.775	113.12
233.009	123.12
233.243	131.12
233.477	132.12
233.711	115.12
233.945	117.12
234.179	125.12
234.413	119.12
234.647	127.12
234.881	121.12
235.115	139.12
235.349	124.12
235.583	127.12
235.817	143.12
236.051	135.12
236.285	126.12
236.519	137.12
236.753	136.12
236.987	150.12
237.221	200.12
237.455	224.12
237.689	188.12
237.922	137.12
238.156	148.12
238.39	157.12
238.624	137.12
238.858	127.12
239.091	120.12
239.325	139.12
239.559	143.12
239.793	152.12
240.027	135.12
240.26	153.12
240.494	173.12
240.728	153.12
240.961	156.12
241.195	151.12
241.429	159.12
241.662	142.12
241.896	143.12
242.13	138.12
242.363	151.12
242.597	138.12
242.83	144.12
243.064	156.12
243.298	160.12
243.531	154.12
243.765	160.12
243.998	159.12
244.232	144.12
244.465	150.12
244.699	163.12
244.932	161.12
245.166	169.12
245.399	172.12
245.633	134.12
245.866	163.12
246.099	170.12
246.333	157.12
246.566	172.12
246.8	159.12
247.033	158.12
247.266	183.12
247.5	190.12
247.733	197.12
247.966	186.12
248.2	203.12
248.433	196.12
248.666	197.12
248.899	197.12
249.133	190.12
249.366	209.12
249.599	208.12
249.832	188.12
250.066	199.12
250.299	212.12
250.532	183.12
250.765	207.12
250.998	227.12
251.231	245.12
251.465	222.12
251.698	222.12
251.931	211.12
252.164	223.12
252.397	201.12
252.63	211.12
252.863	231.12
253.096	241.12
253.329	239.12
253.562	213.12
253.795	229.12
254.028	222.12
254.261	222.12
254.494	233.12
254.727	251.12
254.96	273.12
255.193	269.12
255.426	243.12
255.659	238.12
255.892	227.12
256.124	229.12
256.357	229.12
256.59	229.12
256.823	214.12
257.056	227.12
257.289	217.12
257.521	225.12
257.754	221.12
257.987	218.12
258.22	217.12
258.452	229.12
258.685	244.12
258.918	210.12
259.151	234.12
259.383	233.12
259.616	250.12
259.849	212.12
260.081	246.12
260.314	268.12
260.547	277.12
260.779	273.12
261.012	243.12
261.244	246.12
261.477	257.12
261.71	250.12
261.942	253.12
262.175	277.12
262.407	256.12
262.64	241.12
262.872	231.12
263.105	238.12
263.337	242.12
263.57	223.12
263.802	234.12
264.035	236.12
264.267	247.12
264.499	233.12
264.732	225.12
264.964	256.12
265.197	243.12
265.429	253.12
265.661	245.12
265.894	246.12
266.126	244.12
266.358	223.12
266.591	235.12
266.823	242.12
267.055	242.12
267.287	267.12
267.52	232.12
267.752	257.12
267.984	263.12
268.216	251.12
268.448	245.12
268.681	254.12
268.913	285.12
269.145	285.12
269.377	329.12
269.609	309.12
269.841	288.12
270.073	291.12
270.306	305.12
270.538	332.12
270.77	324.12
271.002	299.12
271.234	313.12
271.466	320.12
271.698	351.12
271.93	326.12
272.162	335.12
272.394	327.12
272.626	333.12
272.858	303.12
273.09	291.12
273.322	293.12
273.553	294.12
273.785	292.12
274.017	303.12
274.249	316.12
274.481	317.12
274.713	300.12
274.945	302.12
275.176	305.12
275.408	297.12
275.64	294.12
275.872	303.12
276.104	292.12
276.335	301.12
276.567	285.12
276.799	304.12
277.031	329.12
277.262	357.12
277.494	348.12
277.726	347.12
277.957	337.12
278.189	332.12
278.421	314.12
278.652	315.12
278.884	299.12
279.115	341.12
279.347	387.12
279.579	455.12
279.81	554.12
280.042	515.12
280.273	430.12
280.505	460.12
280.736	419.12
280.968	345.12
281.199	325.12
281.431	305.12
281.662	303.12
281.894	305.12
282.125	303.12
282.356	330.12
282.588	397.12
282.819	366.12
283.051	319.12
283.282	338.12
283.513	339.12
283.745	338.12
283.976	341.12
284.207	334.12
284.439	319.12
284.67	325.12
284.901	341.12
285.132	345.12
285.364	374.12
285.595	362.12
285.826	360.12
286.057	328.12
286.288	324.12
286.52	336.12
286.751	339.12
286.982	327.12
287.213	324.12
287.444	334.12
287.675	328.12
287.906	345.12
288.138	363.12
288.369	374.12
288.6	367.12
288.831	352.12
289.062	340.12
289.293	342.12
289.524	343.12
289.755	327.12
289.986	325.12
290.217	351.12
290.448	343.12
290.679	341.12
290.91	341.12
291.141	348.12
291.371	351.12
291.602	358.12
291.833	360.12
292.064	346.12
292.295	337.12
292.526	350.12
292.757	351.12
292.987	354.12
293.218	335.12
293.449	338.12
293.68	340.12
293.91	343.12
294.141	351.12
294.372	361.12
294.603	367.12
294.833	342.12
295.064	365.12
295.295	349.12
295.525	352.12
295.756	353.12
295.987	356.12
296.217	378.12
296.448	405.12
296.679	360.12
296.909	347.12
297.14	381.12
297.37	367.12
297.601	369.12
297.831	357.12
298.062	353.12
298.292	371.12
298.523	369.12
298.753	358.12
298.984	397.12
299.214	373.12
299.445	380.12
299.675	371.12
299.905	387.12
300.136	357.12
300.366	381.12
300.597	385.12
300.827	382.12
301.057	397.12
301.288	409.12
301.518	381.12
301.748	392.12
301.979	400.12
302.209	388.12
302.439	411.12
302.669	411.12
302.9	376.12
303.13	389.12
303.36	411.12
303.59	387.12
303.82	412.12
304.051	401.12
304.281	392.12
304.511	393.12
304.741	386.12
304.971	391.12
305.201	369.12
305.431	370.12
305.661	398.12
305.891	389.12
306.121	411.12
306.352	406.12
306.582	397.12
306.812	393.12
307.042	429.12
307.272	413.12
307.502	417.12
307.731	427.12
307.961	427.12
308.191	392.12
308.421	417.12
308.651	409.12
308.881	396.12
309.111	407.12
309.341	409.12
309.571	418.12
309.8	448.12
310.03	443.12
310.26	446.12
310.49	427.12
310.72	465.12
310.949	475.12
311.179	473.12
311.409	447.12
311.639	458.12
311.868	435.12
312.098	437.12
312.328	454.12
312.557	477.12
312.787	502.12
313.017	509.12
313.246	472.12
313.476	456.12
313.706	455.12
313.935	461.12
314.165	486.12
314.394	484.12
314.624	465.12
314.853	464.12
315.083	474.12
315.312	457.12
315.542	458.12
315.771	467.12
316.001	461.12
316.23	480.12
316.46	459.12
316.689	449.12
316.919	470.12
317.148	476.12
317.377	469.12
317.607	472.12
317.836	480.12
318.065	487.12
318.295	515.12
318.524	484.12
318.753	462.12
318.983	471.12
319.212	489.12
319.441	497.12
319.67	476.12
319.9	455.12
320.129	446.12
320.358	467.12
320.587	457.12
320.816	477.12
321.046	485.12
321.275	483.12
321.504	479.12
321.733	471.12
321.962	473.12
322.191	502.12
322.42	526.12
322.649	530.12
322.878	545.12
323.108	554.12
323.337	567.12
323.566	618.12
323.795	653.12
324.024	697.12
324.253	863.12
324.482	1268.12
324.71	1986.12
324.939	2928.12
325.168	2428.12
325.397	1210.12
325.626	798.12
325.855	674.12
326.084	621.12
326.313	583.12
326.542	627.12
326.77	659.12
326.999	829.12
327.228	1153.12
327.457	1855.12
327.686	2247.12
327.914	1386.12
328.143	881.12
328.372	763.12
328.6	693.12
328.829	685.12
329.058	681.12
329.287	685.12
329.515	649.12
329.744	593.12
329.972	625.12
330.201	637.12
330.43	710.12
330.658	704.12
330.887	741.12
331.115	722.12
331.344	611.12
331.572	587.12
331.801	603.12
332.03	594.12
332.258	560.12
332.486	545.12
332.715	546.12
332.943	550.12
333.172	577.12
333.4	577.12
333.629	581.12
333.857	622.12
334.085	653.12
334.314	621.12
334.542	646.12
334.771	695.12
334.999	628.12
335.227	597.12
335.455	575.12
335.684	528.12
335.912	553.12
336.14	542.12
336.369	531.12
336.597	570.12
336.825	565.12
337.053	562.12
337.281	567.12
337.51	573.12
337.738	545.12
337.966	559.12
338.194	549.12
338.422	518.12
338.65	539.12
338.878	535.12
339.106	533.12
339.334	523.12
339.562	496.12
339.79	519.12
340.018	513.12
340.246	506.12
340.474	508.12
340.702	541.12
340.93	504.12
341.158	505.12
341.386	519.12
341.614	509.12
341.842	504.12
342.07	521.12
342.298	501.12
342.526	516.12
342.754	518.12
342.981	486.12
343.209	506.12
343.437	516.12
343.665	517.12
343.893	533.12
344.12	554.12
344.348	547.12
344.576	529.12
344.804	547.12
345.031	557.12
345.259	557.12
345.487	545.12
345.714	517.12
345.942	511.12
346.17	515.12
346.397	521.12
346.625	507.12
346.853	505.12
347.08	485.12
347.308	485.12
347.535	483.12
347.763	522.12
347.99	490.12
348.218	523.12
348.445	514.12
348.673	503.12
348.9	491.12
349.128	476.12
349.355	483.12
349.583	473.12
349.81	479.12
350.037	491.12
350.265	481.12
350.492	502.12
350.72	485.12
350.947	501.12
351.174	513.12
351.402	523.12
351.629	506.12
351.856	499.12
352.083	503.12
352.311	505.12
352.538	528.12
352.765	509.12
352.992	525.12
353.22	493.12
353.447	491.12
353.674	471.12
353.901	467.12
354.128	455.12
354.355	447.12
354.583	473.12
354.81	480.12
355.037	447.12
355.264	450.12
355.491	467.12
355.718	467.12
355.945	456.12
356.172	457.12
356.399	470.12
356.626	466.12
356.853	481.12
357.08	445.12
357.307	454.12
357.534	457.12
357.761	475.12
357.988	462.12
358.215	487.12
358.441	489.12
358.668	468.12
358.895	485.12
359.122	487.12
359.349	485.12
359.576	470.12
359.802	525.12
360.029	569.12
360.256	584.12
360.483	529.12
360.709	492.12
360.936	506.12
361.163	513.12
361.39	505.12
361.616	521.12
361.843	486.12
362.07	509.12
362.296	515.12
362.523	498.12
362.749	494.12
362.976	494.12
363.203	464.12
363.429	478.12
363.656	490.12
363.882	496.12
364.109	461.12
364.335	458.12
364.562	460.12
364.788	469.12
365.015	491.12
365.241	480.12
365.468	470.12
365.694	489.12
365.92	476.12
366.147	473.12
366.373	474.12
366.599	489.12
366.826	465.12
367.052	475.12
367.278	473.12
367.505	484.12
367.731	471.12
367.957	479.12
368.184	470.12
368.41	473.12
368.636	496.12
368.862	503.12
369.089	494.12
369.315	478.12
369.541	480.12
369.767	475.12
369.993	481.12
370.219	476.12
370.445	484.12
370.672	491.12
370.898	473.12
371.124	486.12
371.35	485.12
371.576	479.12
371.802	485.12
372.028	457.12
372.254	471.12
372.48	465.12
372.706	478.12
372.932	470.12
373.158	464.12
373.384	481.12
373.61	502.12
373.835	493.12
374.061	490.12
374.287	490.12
374.513	477.12
374.739	482.12
374.965	494.12
375.191	493.12
375.416	496.12
375.642	482.12
375.868	498.12
376.094	477.12
376.319	481.12
376.545	483.12
376.771	479.12
376.997	488.12
377.222	469.12
377.448	464.12
377.674	477.12
377.899	461.12
378.125	483.12
378.35	462.12
378.576	465.12
378.802	443.12
379.027	481.12
379.253	463.12
379.478	478.12
379.704	449.12
379.929	471.12
380.155	464.12
380.38	461.12
380.606	473.12
380.831	483.12
381.057	495.12
381.282	466.12
381.507	471.12
381.733	494.12
381.958	487.12
382.184	498.12
382.409	517.12
382.634	477.12
382.86	483.12
383.085	503.12
383.31	495.12
383.535	525.12
383.761	534.12
383.986	529.12
384.211	539.12
384.436	513.12
384.662	522.12
384.887	551.12
385.112	558.12
385.337	553.12
385.562	543.12
385.787	559.12
386.013	568.12
386.238	587.12
386.463	592.12
386.688	583.12
386.913	543.12
387.138	549.12
387.363	561.12
387.588	545.12
387.813	545.12
388.038	543.12
388.263	546.12
388.488	558.12
388.713	537.12
388.938	551.12
389.163	515.12
389.387	530.12
389.612	519.12
389.837	517.12
390.062	529.12
390.287	525.12
390.512	530.12
390.736	526.12
390.961	526.12
391.186	545.12
391.411	553.12
391.636	547.12
391.86	561.12
392.085	565.12
392.31	561.12
392.534	546.12
392.759	599.12
392.984	606.12
393.208	749.12
393.433	984.12
393.658	1057.12
393.882	655.12
394.107	569.12
394.331	553.12
394.556	578.12
394.78	557.12
395.005	547.12
395.229	531.12
395.454	552.12
395.678	567.12
395.903	579.12
396.127	623.12
396.352	652.12
396.576	639.12
396.801	720.12
397.025	859.12
397.249	738.12
397.474	618.12
397.698	584.12
397.922	597.12
398.147	619.12
398.371	616.12
398.595	601.12
398.82	619.12
399.044	626.12
399.268	646.12
399.492	703.12
399.717	761.12
399.941	783.12
400.165	815.12
400.389	762.12
400.613	724.12
400.837	669.12
401.062	652.12
401.286	628.12
401.51	623.12
401.734	595.12
401.958	607.12
402.182	631.12
402.406	640.12
402.63	634.12
402.854	649.12
403.078	626.12
403.302	629.12
403.526	641.12
403.75	641.12
403.974	646.12
404.198	617.12
404.422	625.12
404.645	656.12
404.869	653.12
405.093	703.12
405.317	693.12
405.541	747.12
405.765	660.12
405.988	649.12
406.212	679.12
406.436	714.12
406.66	720.12
406.883	715.12
407.107	720.12
407.331	785.12
407.555	872.12
407.778	832.12
408.002	770.12
408.226	690.12
408.449	694.12
408.673	697.12
408.896	712.12
409.12	728.12
409.344	727.12
409.567	681.12
409.791	653.12
410.014	657.12
410.238	650.12
410.461	637.12
410.685	631.12
410.908	645.12
411.132	660.12
411.355	738.12
411.578	721.12
411.802	657.12
412.025	617.12
412.249	625.12
412.472	665.12
412.695	639.12
412.919	658.12
413.142	632.12
413.365	590.12
413.589	617.12
413.812	606.12
414.035	613.12
414.258	638.12
414.482	613.12
414.705	601.12
414.928	605.12
415.151	617.12
415.374	595.12
415.597	604.12
415.821	592.12
416.044	595.12
416.267	582.12
416.49	583.12
416.713	578.12
416.936	611.12
417.159	607.12
417.382	596.12
417.605	581.12
417.828	595.12
418.051	617.12
418.274	617.12
418.497	593.12
418.72	602.12
418.943	593.12
419.166	625.12
419.389	642.12
419.611	635.12
419.834	631.12
420.057	613.12
420.28	615.12
420.503	614.12
420.726	587.12
420.948	627.12
421.171	681.12
421.394	678.12
421.617	641.12
421.839	618.12
422.062	605.12
422.285	637.12
422.507	686.12
422.73	834.12
422.953	841.12
423.175	716.12
423.398	630.12
423.621	625.12
423.843	661.12
424.066	640.12
424.288	655.12
424.511	685.12
424.733	719.12
424.956	797.12
425.178	785.12
425.401	773.12
425.623	802.12
425.846	695.12
426.068	659.12
426.291	626.12
426.513	654.12
426.735	655.12
426.958	704.12
427.18	785.12
427.402	911.12
427.625	1025.12
427.847	907.12
428.069	785.12
428.292	665.12
428.514	635.12
428.736	655.12
428.958	605.12
429.181	613.12
429.403	592.12
429.625	597.12
429.847	634.12
430.069	704.12
430.292	732.12
430.514	613.12
430.736	585.12
430.958	579.12
431.18	583.12
431.402	553.12
431.624	555.12
431.846	582.12
432.068	557.12
432.29	580.12
432.512	576.12
432.734	572.12
432.956	572.12
433.178	584.12
433.4	598.12
433.622	589.12
433.844	560.12
434.066	574.12
434.287	577.12
434.509	585.12
434.731	593.12
434.953	613.12
435.175	600.12
435.397	637.12
435.618	624.12
435.84	663.12
436.062	781.12
436.284	849.12
436.505	706.12
436.727	647.12
436.949	618.12
437.17	616.12
437.392	605.12
437.614	614.12
437.835	645.12
438.057	729.12
438.278	848.12
438.5	857.12
438.721	919.12
438.943	893.12
439.165	733.12
439.386	639.12
439.608	653.12
439.829	647.12
440.05	697.12
440.272	731.12
440.493	641.12
440.715	635.12
440.936	613.12
441.158	629.12
441.379	623.12
441.6	629.12
441.822	651.12
442.043	707.12
442.264	790.12
442.486	804.12
442.707	698.12
442.928	649.12
443.149	701.12
443.371	705.12
443.592	729.12
443.813	837.12
444.034	901.12
444.255	743.12
444.476	693.12
444.698	691.12
444.919	681.12
445.14	801.12
445.361	735.12
445.582	729.12
445.803	782.12
446.024	905.12
446.245	868.12
446.466	823.12
446.687	683.12
446.908	655.12
447.129	617.12
447.35	583.12
447.571	593.12
447.792	579.12
448.013	594.12
448.234	616.12
448.455	649.12
448.675	777.12
448.896	887.12
449.117	748.12
449.338	701.12
449.559	825.12
449.779	978.12
450	752.12
450.221	619.12
450.442	613.12
450.662	574.12
450.883	564.12
451.104	592.12
451.324	601.12
451.545	579.12
451.766	546.12
451.986	555.12
452.207	540.12
452.428	553.12
452.648	537.12
452.869	548.12
453.089	530.12
453.31	552.12
453.53	545.12
453.751	553.12
453.971	515.12
454.192	554.12
454.412	556.12
454.633	525.12
454.853	534.12
455.073	530.12
455.294	543.12
455.514	625.12
455.734	619.12
455.955	535.12
456.175	515.12
456.395	497.12
456.616	515.12
456.836	502.12
457.056	501.12
457.276	493.12
457.497	519.12
457.717	507.12
457.937	511.12
458.157	517.12
458.377	515.12
458.598	558.12
458.818	651.12
459.038	722.12
459.258	720.12
459.478	656.12
459.698	623.12
459.918	603.12
460.138	600.12
460.358	615.12
460.578	593.12
460.798	614.12
461.018	609.12
461.238	600.12
461.458	617.12
461.678	607.12
461.898	616.12
462.118	615.12
462.338	622.12
462.558	645.12
462.777	645.12
462.997	672.12
463.217	687.12
463.437	681.12
463.657	698.12
463.876	663.12
464.096	679.12
464.316	654.12
464.536	681.12
464.755	652.12
464.975	667.12
465.195	705.12
465.414	820.12
465.634	717.12
465.854	651.12
466.073	606.12
466.293	611.12
466.512	592.12
466.732	574.12
466.951	544.12
467.171	534.12
467.391	544.12
467.61	566.12
467.829	580.12
468.049	574.12
468.268	585.12
468.488	583.12
468.707	543.12
468.927	527.12
469.146	530.12
469.365	523.12
469.585	555.12
469.804	574.12
470.023	598.12
470.243	559.12
470.462	590.12
470.681	594.12
470.901	569.12
471.12	581.12
471.339	555.12
471.558	558.12
471.777	556.12
471.997	561.12
472.216	560.12
472.435	614.12
472.654	610.12
472.873	571.12
473.092	564.12
473.311	551.12
473.53	579.12
473.749	554.12
473.968	582.12
474.187	691.12
474.406	725.12
474.625	604.12
474.844	575.12
475.063	553.12
475.282	553.12
475.501	561.12
475.72	561.12
475.939	562.12
476.158	580.12
476.377	587.12
476.596	570.12
476.814	581.12
477.033	585.12
477.252	605.12
477.471	607.12
477.69	604.12
477.908	626.12
478.127	628.12
478.346	617.12
478.564	618.12
478.783	634.12
479.002	667.12
479.22	670.12
479.439	689.12
479.658	702.12
479.876	708.12
480.095	711.12
480.313	695.12
480.532	725.12
480.751	716.12
480.969	734.12
481.188	828.12
481.406	850.12
481.624	739.12
481.843	688.12
482.061	671.12
482.28	657.12
482.498	679.12
482.717	657.12
482.935	672.12
483.153	664.12
483.372	637.12
483.59	635.12
483.808	674.12
484.027	667.12
484.245	674.12
484.463	657.12
484.681	686.12
484.9	681.12
485.118	682.12
485.336	706.12
485.554	679.12
485.772	693.12
485.99	685.12
486.209	697.12
486.427	720.12
486.645	745.12
486.863	759.12
487.081	729.12
487.299	739.12
487.517	703.12
487.735	722.12
487.953	722.12
488.171	706.12
488.389	698.12
488.607	698.12
488.825	711.12
489.043	710.12
489.261	731.12
489.479	718.12
489.696	696.12
489.914	716.12
490.132	718.12
490.35	727.12
490.568	723.12
490.786	741.12
491.003	729.12
491.221	763.12
491.439	761.12
491.657	771.12
491.874	751.12
492.092	781.12
492.31	798.12
492.527	765.12
492.745	786.12
492.963	793.12
493.18	810.12
493.398	813.12
493.615	829.12
493.833	802.12
494.05	810.12
494.268	791.12
494.485	807.12
494.703	773.12
494.92	816.12
495.138	826.12
495.355	802.12
495.573	800.12
495.79	835.12
496.008	834.12
496.225	837.12
496.442	839.12
496.66	830.12
496.877	807.12
497.094	846.12
497.312	847.12
497.529	839.12
497.746	850.12
497.963	907.12
498.181	898.12
498.398	936.12
498.615	974.12
498.832	985.12
499.049	1000.12
499.267	1056.12
499.484	1056.12
499.701	1128.12
499.918	1182.12
500.135	1249.12
500.352	1349.12
500.569	1353.12
500.786	1339.12
501.003	1331.12
501.22	1247.12
501.437	1190.12
501.654	1165.12
