Data from 1985.PennyLincolnUp.Lamp.En5.5.200Scan.071819.P1_HRD10591_17-01-46-970.txt Node
Date: Thu Jul 18 17:01:46 EDT 2019
User: cochatt
Spectrometer: HR+D1059
Trigger mode: 1
Integration Time (sec): 1.000000E-1
Scans to average: 1
Electric dark correction enabled: true
Nonlinearity correction enabled: false
Boxcar width: 0
XAxis mode: Wavelengths
Number of Pixels in Spectrum: 2048
>>>>>Begin Spectral Data<<<<<
223.165	-15.44
223.4	-15.44
223.635	-15.44
223.869	-21.44
224.104	-23.44
224.338	-17.44
224.573	-21.44
224.808	-10.44
225.042	-11.44
225.277	5.56
225.511	-12.44
225.746	24.56
225.98	-5.44
226.215	5.56
226.449	29.56
226.683	18.56
226.918	20.56
227.152	34.56
227.387	29.56
227.621	34.56
227.856	48.56
228.09	36.56
228.324	43.56
228.559	59.56
228.793	84.56
229.027	94.56
229.262	102.56
229.496	104.56
229.73	117.56
229.964	140.56
230.199	120.56
230.433	109.56
230.667	114.56
230.901	102.56
231.136	103.56
231.37	108.56
231.604	95.56
231.838	121.56
232.072	121.56
232.306	112.56
232.541	114.56
232.775	113.56
233.009	113.56
233.243	126.56
233.477	138.56
233.711	133.56
233.945	93.56
234.179	116.56
234.413	107.56
234.647	117.56
234.881	113.56
235.115	110.56
235.349	124.56
235.583	128.56
235.817	131.56
236.051	116.56
236.285	120.56
236.519	132.56
236.753	129.56
236.987	140.56
237.221	158.56
237.455	220.56
237.689	178.56
237.922	121.56
238.156	138.56
238.39	125.56
238.624	146.56
238.858	123.56
239.091	122.56
239.325	121.56
239.559	133.56
239.793	128.56
240.027	136.56
240.26	158.56
240.494	152.56
240.728	134.56
240.961	137.56
241.195	149.56
241.429	139.56
241.662	145.56
241.896	131.56
242.13	146.56
242.363	140.56
242.597	128.56
242.83	143.56
243.064	137.56
243.298	128.56
243.531	148.56
243.765	140.56
243.998	154.56
244.232	138.56
244.465	145.56
244.699	146.56
244.932	164.56
245.166	154.56
245.399	148.56
245.633	136.56
245.866	156.56
246.099	150.56
246.333	150.56
246.566	143.56
246.8	134.56
247.033	153.56
247.266	164.56
247.5	144.56
247.733	165.56
247.966	150.56
248.2	175.56
248.433	173.56
248.666	166.56
248.899	184.56
249.133	200.56
249.366	195.56
249.599	187.56
249.832	168.56
250.066	183.56
250.299	178.56
250.532	188.56
250.765	175.56
250.998	205.56
251.231	232.56
251.465	215.56
251.698	205.56
251.931	198.56
252.164	199.56
252.397	169.56
252.63	187.56
252.863	210.56
253.096	220.56
253.329	218.56
253.562	220.56
253.795	216.56
254.028	218.56
254.261	210.56
254.494	218.56
254.727	233.56
254.96	268.56
255.193	248.56
255.426	225.56
255.659	221.56
255.892	212.56
256.124	217.56
256.357	207.56
256.59	210.56
256.823	225.56
257.056	196.56
257.289	202.56
257.521	200.56
257.754	199.56
257.987	209.56
258.22	209.56
258.452	206.56
258.685	205.56
258.918	201.56
259.151	215.56
259.383	212.56
259.616	220.56
259.849	228.56
260.081	217.56
260.314	243.56
260.547	255.56
260.779	261.56
261.012	234.56
261.244	216.56
261.477	230.56
261.71	216.56
261.942	236.56
262.175	226.56
262.407	221.56
262.64	220.56
262.872	226.56
263.105	237.56
263.337	231.56
263.57	213.56
263.802	226.56
264.035	208.56
264.267	210.56
264.499	212.56
264.732	224.56
264.964	220.56
265.197	217.56
265.429	235.56
265.661	214.56
265.894	214.56
266.126	213.56
266.358	232.56
266.591	231.56
266.823	236.56
267.055	240.56
267.287	244.56
267.52	236.56
267.752	229.56
267.984	232.56
268.216	258.56
268.448	259.56
268.681	258.56
268.913	261.56
269.145	276.56
269.377	274.56
269.609	270.56
269.841	270.56
270.073	277.56
270.306	312.56
270.538	323.56
270.77	313.56
271.002	296.56
271.234	291.56
271.466	312.56
271.698	308.56
271.93	321.56
272.162	312.56
272.394	319.56
272.626	296.56
272.858	288.56
273.09	294.56
273.322	280.56
273.553	268.56
273.785	262.56
274.017	275.56
274.249	285.56
274.481	292.56
274.713	269.56
274.945	286.56
275.176	276.56
275.408	266.56
275.64	301.56
275.872	272.56
276.104	288.56
276.335	293.56
276.567	279.56
276.799	298.56
277.031	301.56
277.262	314.56
277.494	340.56
277.726	306.56
277.957	292.56
278.189	279.56
278.421	294.56
278.652	307.56
278.884	293.56
279.115	293.56
279.347	278.56
279.579	281.56
279.81	288.56
280.042	308.56
280.273	280.56
280.505	280.56
280.736	279.56
280.968	277.56
281.199	296.56
281.431	299.56
281.662	268.56
281.894	291.56
282.125	290.56
282.356	313.56
282.588	330.56
282.819	333.56
283.051	316.56
283.282	304.56
283.513	295.56
283.745	296.56
283.976	299.56
284.207	312.56
284.439	297.56
284.67	300.56
284.901	304.56
285.132	310.56
285.364	297.56
285.595	318.56
285.826	318.56
286.057	320.56
286.288	307.56
286.52	305.56
286.751	323.56
286.982	317.56
287.213	323.56
287.444	326.56
287.675	317.56
287.906	301.56
288.138	316.56
288.369	330.56
288.6	316.56
288.831	314.56
289.062	339.56
289.293	319.56
289.524	304.56
289.755	310.56
289.986	311.56
290.217	322.56
290.448	320.56
290.679	326.56
290.91	326.56
291.141	314.56
291.371	309.56
291.602	315.56
291.833	331.56
292.064	333.56
292.295	324.56
292.526	320.56
292.757	318.56
292.987	322.56
293.218	322.56
293.449	311.56
293.68	337.56
293.91	318.56
294.141	347.56
294.372	330.56
294.603	314.56
294.833	346.56
295.064	332.56
295.295	330.56
295.525	340.56
295.756	318.56
295.987	330.56
296.217	350.56
296.448	339.56
296.679	347.56
296.909	346.56
297.14	338.56
297.37	346.56
297.601	342.56
297.831	340.56
298.062	339.56
298.292	330.56
298.523	324.56
298.753	338.56
298.984	350.56
299.214	346.56
299.445	328.56
299.675	339.56
299.905	344.56
300.136	334.56
300.366	312.56
300.597	341.56
300.827	358.56
301.057	339.56
301.288	356.56
301.518	372.56
301.748	373.56
301.979	355.56
302.209	366.56
302.439	377.56
302.669	365.56
302.9	378.56
303.13	355.56
303.36	378.56
303.59	365.56
303.82	365.56
304.051	378.56
304.281	372.56
304.511	348.56
304.741	363.56
304.971	357.56
305.201	377.56
305.431	376.56
305.661	368.56
305.891	345.56
306.121	366.56
306.352	367.56
306.582	370.56
306.812	378.56
307.042	383.56
307.272	362.56
307.502	376.56
307.731	361.56
307.961	380.56
308.191	382.56
308.421	369.56
308.651	363.56
308.881	370.56
309.111	372.56
309.341	384.56
309.571	386.56
309.8	392.56
310.03	396.56
310.26	391.56
310.49	407.56
310.72	404.56
310.949	414.56
311.179	414.56
311.409	416.56
311.639	404.56
311.868	421.56
312.098	408.56
312.328	385.56
312.557	430.56
312.787	420.56
313.017	440.56
313.246	412.56
313.476	427.56
313.706	424.56
313.935	425.56
314.165	438.56
314.394	429.56
314.624	432.56
314.853	414.56
315.083	411.56
315.312	405.56
315.542	404.56
315.771	398.56
316.001	402.56
316.23	403.56
316.46	393.56
316.689	418.56
316.919	410.56
317.148	422.56
317.377	424.56
317.607	420.56
317.836	405.56
318.065	443.56
318.295	438.56
318.524	400.56
318.753	428.56
318.983	414.56
319.212	396.56
319.441	420.56
319.67	419.56
319.9	432.56
320.129	406.56
320.358	417.56
320.587	413.56
320.816	427.56
321.046	421.56
321.275	431.56
321.504	420.56
321.733	434.56
321.962	430.56
322.191	436.56
322.42	450.56
322.649	476.56
322.878	466.56
323.108	480.56
323.337	488.56
323.566	493.56
323.795	543.56
324.024	557.56
324.253	639.56
324.482	890.56
324.71	1332.56
324.939	1860.56
325.168	1615.56
325.397	866.56
325.626	613.56
325.855	543.56
326.084	508.56
326.313	514.56
326.542	530.56
326.77	550.56
326.999	628.56
327.228	830.56
327.457	1206.56
327.686	1420.56
327.914	962.56
328.143	650.56
328.372	615.56
328.6	581.56
328.829	566.56
329.058	568.56
329.287	555.56
329.515	544.56
329.744	519.56
329.972	528.56
330.201	522.56
330.43	534.56
330.658	562.56
330.887	581.56
331.115	598.56
331.344	527.56
331.572	532.56
331.801	530.56
332.03	521.56
332.258	512.56
332.486	498.56
332.715	494.56
332.943	514.56
333.172	530.56
333.4	512.56
333.629	545.56
333.857	543.56
334.085	533.56
334.314	492.56
334.542	512.56
334.771	525.56
334.999	528.56
335.227	501.56
335.455	532.56
335.684	513.56
335.912	499.56
336.14	495.56
336.369	506.56
336.597	499.56
336.825	508.56
337.053	489.56
337.281	482.56
337.51	488.56
337.738	482.56
337.966	490.56
338.194	499.56
338.422	500.56
338.65	482.56
338.878	471.56
339.106	484.56
339.334	454.56
339.562	472.56
339.79	460.56
340.018	456.56
340.246	478.56
340.474	461.56
340.702	478.56
340.93	474.56
341.158	453.56
341.386	488.56
341.614	471.56
341.842	464.56
342.07	463.56
342.298	457.56
342.526	467.56
342.754	442.56
342.981	462.56
343.209	464.56
343.437	475.56
343.665	456.56
343.893	478.56
344.12	482.56
344.348	477.56
344.576	480.56
344.804	512.56
345.031	477.56
345.259	499.56
345.487	496.56
345.714	457.56
345.942	437.56
346.17	454.56
346.397	468.56
346.625	426.56
346.853	442.56
347.08	434.56
347.308	434.56
347.535	448.56
347.763	453.56
347.99	455.56
348.218	454.56
348.445	455.56
348.673	449.56
348.9	455.56
349.128	441.56
349.355	434.56
349.583	420.56
349.81	440.56
350.037	445.56
350.265	427.56
350.492	454.56
350.72	426.56
350.947	449.56
351.174	437.56
351.402	447.56
351.629	425.56
351.856	457.56
352.083	452.56
352.311	446.56
352.538	456.56
352.765	441.56
352.992	451.56
353.22	454.56
353.447	432.56
353.674	446.56
353.901	452.56
354.128	431.56
354.355	425.56
354.583	403.56
354.81	423.56
355.037	418.56
355.264	413.56
355.491	403.56
355.718	421.56
355.945	420.56
356.172	408.56
356.399	422.56
356.626	420.56
356.853	409.56
357.08	408.56
357.307	415.56
357.534	403.56
357.761	434.56
357.988	415.56
358.215	418.56
358.441	416.56
358.668	432.56
358.895	438.56
359.122	402.56
359.349	408.56
359.576	429.56
359.802	463.56
360.029	466.56
360.256	483.56
360.483	443.56
360.709	443.56
360.936	449.56
361.163	448.56
361.39	444.56
361.616	439.56
361.843	441.56
362.07	443.56
362.296	448.56
362.523	425.56
362.749	442.56
362.976	432.56
363.203	425.56
363.429	432.56
363.656	425.56
363.882	432.56
364.109	411.56
364.335	424.56
364.562	425.56
364.788	422.56
365.015	412.56
365.241	436.56
365.468	436.56
365.694	418.56
365.92	423.56
366.147	422.56
366.373	433.56
366.599	421.56
366.826	428.56
367.052	419.56
367.278	413.56
367.505	415.56
367.731	418.56
367.957	420.56
368.184	405.56
368.41	427.56
368.636	446.56
368.862	420.56
369.089	416.56
369.315	422.56
369.541	428.56
369.767	452.56
369.993	433.56
370.219	445.56
370.445	414.56
370.672	414.56
370.898	419.56
371.124	417.56
371.35	419.56
371.576	420.56
371.802	410.56
372.028	405.56
372.254	443.56
372.48	423.56
372.706	440.56
372.932	424.56
373.158	415.56
373.384	428.56
373.61	426.56
373.835	429.56
374.061	432.56
374.287	418.56
374.513	454.56
374.739	447.56
374.965	445.56
375.191	448.56
375.416	442.56
375.642	437.56
375.868	443.56
376.094	430.56
376.319	426.56
376.545	440.56
376.771	431.56
376.997	427.56
377.222	430.56
377.448	426.56
377.674	412.56
377.899	423.56
378.125	409.56
378.35	416.56
378.576	433.56
378.802	418.56
379.027	425.56
379.253	416.56
379.478	405.56
379.704	434.56
379.929	428.56
380.155	418.56
380.38	414.56
380.606	425.56
380.831	433.56
381.057	445.56
381.282	418.56
381.507	439.56
381.733	438.56
381.958	427.56
382.184	442.56
382.409	429.56
382.634	446.56
382.86	456.56
383.085	422.56
383.31	449.56
383.535	449.56
383.761	455.56
383.986	452.56
384.211	455.56
384.436	457.56
384.662	458.56
384.887	467.56
385.112	461.56
385.337	475.56
385.562	452.56
385.787	464.56
386.013	465.56
386.238	470.56
386.463	490.56
386.688	473.56
386.913	469.56
387.138	467.56
387.363	480.56
387.588	465.56
387.813	483.56
388.038	476.56
388.263	446.56
388.488	483.56
388.713	469.56
388.938	460.56
389.163	485.56
389.387	477.56
389.612	498.56
389.837	464.56
390.062	464.56
390.287	455.56
390.512	472.56
390.736	453.56
390.961	476.56
391.186	482.56
391.411	489.56
391.636	479.56
391.86	483.56
392.085	499.56
392.31	494.56
392.534	503.56
392.759	484.56
392.984	486.56
393.208	477.56
393.433	473.56
393.658	510.56
393.882	479.56
394.107	472.56
394.331	455.56
394.556	475.56
394.78	493.56
395.005	476.56
395.229	483.56
395.454	506.56
395.678	511.56
395.903	504.56
396.127	492.56
396.352	514.56
396.576	515.56
396.801	505.56
397.025	467.56
397.249	481.56
397.474	510.56
397.698	502.56
397.922	515.56
398.147	534.56
398.371	525.56
398.595	526.56
398.82	553.56
399.044	572.56
399.268	596.56
399.492	620.56
399.717	677.56
399.941	711.56
400.165	714.56
400.389	666.56
400.613	623.56
400.837	594.56
401.062	560.56
401.286	556.56
401.51	528.56
401.734	568.56
401.958	550.56
402.182	566.56
402.406	576.56
402.63	574.56
402.854	585.56
403.078	553.56
403.302	573.56
403.526	602.56
403.75	607.56
403.974	588.56
404.198	578.56
404.422	601.56
404.645	584.56
404.869	580.56
405.093	619.56
405.317	614.56
405.541	627.56
405.765	598.56
405.988	580.56
406.212	613.56
406.436	620.56
406.66	621.56
406.883	628.56
407.107	658.56
407.331	696.56
407.555	764.56
407.778	753.56
408.002	681.56
408.226	628.56
408.449	633.56
408.673	620.56
408.896	638.56
409.12	677.56
409.344	646.56
409.567	597.56
409.791	570.56
410.014	563.56
410.238	578.56
410.461	568.56
410.685	571.56
410.908	597.56
411.132	595.56
411.355	638.56
411.578	610.56
411.802	575.56
412.025	552.56
412.249	563.56
412.472	568.56
412.695	565.56
412.919	554.56
413.142	570.56
413.365	545.56
413.589	534.56
413.812	544.56
414.035	543.56
414.258	541.56
414.482	524.56
414.705	548.56
414.928	548.56
415.151	549.56
415.374	532.56
415.597	516.56
415.821	530.56
416.044	530.56
416.267	537.56
416.49	537.56
416.713	516.56
416.936	533.56
417.159	510.56
417.382	536.56
417.605	534.56
417.828	565.56
418.051	553.56
418.274	555.56
418.497	542.56
418.72	538.56
418.943	525.56
419.166	568.56
419.389	580.56
419.611	595.56
419.834	567.56
420.057	553.56
420.28	549.56
420.503	540.56
420.726	535.56
420.948	553.56
421.171	608.56
421.394	606.56
421.617	553.56
421.839	536.56
422.062	534.56
422.285	564.56
422.507	619.56
422.73	655.56
422.953	664.56
423.175	583.56
423.398	566.56
423.621	565.56
423.843	592.56
424.066	569.56
424.288	589.56
424.511	604.56
424.733	649.56
424.956	704.56
425.178	705.56
425.401	686.56
425.623	699.56
425.846	602.56
426.068	572.56
426.291	561.56
426.513	571.56
426.735	550.56
426.958	621.56
427.18	681.56
427.402	800.56
427.625	881.56
427.847	736.56
428.069	640.56
428.292	590.56
428.514	559.56
428.736	539.56
428.958	550.56
429.181	519.56
429.403	542.56
429.625	518.56
429.847	533.56
430.069	607.56
430.292	616.56
430.514	517.56
430.736	535.56
430.958	526.56
431.18	522.56
431.402	513.56
431.624	512.56
431.846	488.56
432.068	485.56
432.29	514.56
432.512	538.56
432.734	508.56
432.956	521.56
433.178	534.56
433.4	515.56
433.622	498.56
433.844	517.56
434.066	512.56
434.287	506.56
434.509	514.56
434.731	551.56
434.953	538.56
435.175	539.56
435.397	570.56
435.618	557.56
435.84	595.56
436.062	668.56
436.284	752.56
436.505	590.56
436.727	564.56
436.949	545.56
437.17	530.56
437.392	513.56
437.614	526.56
437.835	560.56
438.057	616.56
438.278	746.56
438.5	737.56
438.721	805.56
438.943	780.56
439.165	602.56
439.386	560.56
439.608	542.56
439.829	552.56
440.05	587.56
440.272	603.56
440.493	579.56
440.715	540.56
440.936	538.56
441.158	530.56
441.379	526.56
441.6	564.56
441.822	584.56
442.043	609.56
442.264	672.56
442.486	722.56
442.707	605.56
442.928	558.56
443.149	601.56
443.371	598.56
443.592	651.56
443.813	742.56
444.034	771.56
444.255	684.56
444.476	598.56
444.698	602.56
444.919	596.56
445.14	715.56
445.361	652.56
445.582	616.56
445.803	670.56
446.024	736.56
446.245	758.56
446.466	668.56
446.687	601.56
446.908	564.56
447.129	536.56
447.35	526.56
447.571	525.56
447.792	501.56
448.013	510.56
448.234	503.56
448.455	564.56
448.675	663.56
448.896	775.56
449.117	657.56
449.338	611.56
449.559	746.56
449.779	816.56
450	648.56
450.221	551.56
450.442	536.56
450.662	490.56
450.883	522.56
451.104	524.56
451.324	497.56
451.545	485.56
451.766	477.56
451.986	478.56
452.207	454.56
452.428	480.56
452.648	457.56
452.869	451.56
453.089	472.56
453.31	488.56
453.53	465.56
453.751	460.56
453.971	474.56
454.192	494.56
454.412	471.56
454.633	448.56
454.853	465.56
455.073	467.56
455.294	483.56
455.514	533.56
455.734	531.56
455.955	461.56
456.175	450.56
456.395	432.56
456.616	425.56
456.836	431.56
457.056	435.56
457.276	437.56
457.497	445.56
457.717	442.56
457.937	453.56
458.157	465.56
458.377	451.56
458.598	502.56
458.818	539.56
459.038	597.56
459.258	626.56
459.478	542.56
459.698	506.56
459.918	519.56
460.138	516.56
460.358	539.56
460.578	536.56
460.798	534.56
461.018	536.56
461.238	538.56
461.458	550.56
461.678	548.56
461.898	546.56
462.118	552.56
462.338	537.56
462.558	564.56
462.777	558.56
462.997	618.56
463.217	610.56
463.437	619.56
463.657	632.56
463.876	610.56
464.096	581.56
464.316	602.56
464.536	594.56
464.755	582.56
464.975	601.56
465.195	595.56
465.414	657.56
465.634	609.56
465.854	542.56
466.073	516.56
466.293	504.56
466.512	488.56
466.732	501.56
466.951	473.56
467.171	492.56
467.391	501.56
467.61	504.56
467.829	513.56
468.049	517.56
468.268	476.56
468.488	476.56
468.707	467.56
468.927	475.56
469.146	480.56
469.365	488.56
469.585	468.56
469.804	494.56
470.023	481.56
470.243	505.56
470.462	508.56
470.681	482.56
470.901	510.56
471.12	487.56
471.339	505.56
471.558	491.56
471.777	475.56
471.997	481.56
472.216	481.56
472.435	485.56
472.654	465.56
472.873	474.56
473.092	472.56
473.311	477.56
473.53	460.56
473.749	482.56
473.968	510.56
474.187	603.56
474.406	622.56
474.625	538.56
474.844	514.56
475.063	472.56
475.282	489.56
475.501	496.56
475.72	502.56
475.939	489.56
476.158	506.56
476.377	483.56
476.596	528.56
476.814	495.56
477.033	531.56
477.252	517.56
477.471	521.56
477.69	525.56
477.908	554.56
478.127	544.56
478.346	536.56
478.564	554.56
478.783	564.56
479.002	574.56
479.22	574.56
479.439	584.56
479.658	582.56
479.876	580.56
480.095	585.56
480.313	634.56
480.532	629.56
480.751	604.56
480.969	579.56
481.188	597.56
481.406	621.56
481.624	597.56
481.843	557.56
482.061	544.56
482.28	542.56
482.498	580.56
482.717	557.56
482.935	572.56
483.153	561.56
483.372	561.56
483.59	552.56
483.808	556.56
484.027	561.56
484.245	558.56
484.463	566.56
484.681	563.56
484.9	575.56
485.118	580.56
485.336	569.56
485.554	562.56
485.772	579.56
485.99	582.56
486.209	582.56
486.427	591.56
486.645	573.56
486.863	601.56
487.081	608.56
487.299	593.56
487.517	594.56
487.735	597.56
487.953	596.56
488.171	573.56
488.389	590.56
488.607	594.56
488.825	605.56
489.043	619.56
489.261	606.56
489.479	605.56
489.696	588.56
489.914	618.56
490.132	622.56
490.35	603.56
490.568	621.56
490.786	621.56
491.003	644.56
491.221	647.56
491.439	650.56
491.657	662.56
491.874	678.56
492.092	646.56
492.31	668.56
492.527	667.56
492.745	663.56
492.963	690.56
493.18	672.56
493.398	705.56
493.615	694.56
493.833	681.56
494.05	705.56
494.268	690.56
494.485	700.56
494.703	684.56
494.92	690.56
495.138	690.56
495.355	665.56
495.573	678.56
495.79	688.56
496.008	720.56
496.225	689.56
496.442	703.56
496.66	722.56
496.877	716.56
497.094	718.56
497.312	730.56
497.529	767.56
497.746	741.56
497.963	793.56
498.181	799.56
498.398	812.56
498.615	817.56
498.832	841.56
499.049	869.56
499.267	924.56
499.484	930.56
499.701	992.56
499.918	1046.56
500.135	1146.56
500.352	1202.56
500.569	1203.56
500.786	1201.56
501.003	1187.56
501.22	1124.56
501.437	1090.56
501.654	992.56
501.871	1001.56
