Data from 1985.PennyLincolnUp.Lamp.En5.5.200Scan.071819.P1_HRD10591_17-02-07-970.txt Node
Date: Thu Jul 18 17:02:07 EDT 2019
User: cochatt
Spectrometer: HR+D1059
Trigger mode: 1
Integration Time (sec): 1.000000E-1
Scans to average: 1
Electric dark correction enabled: true
Nonlinearity correction enabled: false
Boxcar width: 0
XAxis mode: Wavelengths
Number of Pixels in Spectrum: 2048
>>>>>Begin Spectral Data<<<<<
223.165	-13.81
223.4	-13.81
223.635	-13.81
223.869	-27.81
224.104	-16.81
224.338	-20.81
224.573	-4.81
224.808	-19.81
225.042	1.19
225.277	6.19
225.511	-0.81
225.746	9.19
225.98	7.19
226.215	6.19
226.449	14.19
226.683	13.19
226.918	33.19
227.152	14.19
227.387	21.19
227.621	35.19
227.856	48.19
228.09	59.19
228.324	55.19
228.559	57.19
228.793	74.19
229.027	85.19
229.262	92.19
229.496	98.19
229.73	131.19
229.964	147.19
230.199	130.19
230.433	107.19
230.667	103.19
230.901	96.19
231.136	97.19
231.37	107.19
231.604	107.19
231.838	102.19
232.072	123.19
232.306	117.19
232.541	98.19
232.775	113.19
233.009	113.19
233.243	113.19
233.477	122.19
233.711	107.19
233.945	118.19
234.179	106.19
234.413	110.19
234.647	125.19
234.881	109.19
235.115	115.19
235.349	117.19
235.583	118.19
235.817	120.19
236.051	119.19
236.285	133.19
236.519	139.19
236.753	119.19
236.987	124.19
237.221	167.19
237.455	219.19
237.689	188.19
237.922	142.19
238.156	124.19
238.39	131.19
238.624	129.19
238.858	123.19
239.091	115.19
239.325	109.19
239.559	115.19
239.793	135.19
240.027	118.19
240.26	140.19
240.494	162.19
240.728	149.19
240.961	149.19
241.195	129.19
241.429	126.19
241.662	123.19
241.896	133.19
242.13	123.19
242.363	143.19
242.597	134.19
242.83	141.19
243.064	134.19
243.298	133.19
243.531	130.19
243.765	139.19
243.998	142.19
244.232	142.19
244.465	145.19
244.699	147.19
244.932	133.19
245.166	143.19
245.399	167.19
245.633	147.19
245.866	150.19
246.099	133.19
246.333	140.19
246.566	146.19
246.8	163.19
247.033	149.19
247.266	150.19
247.5	174.19
247.733	168.19
247.966	158.19
248.2	169.19
248.433	164.19
248.666	153.19
248.899	179.19
249.133	198.19
249.366	203.19
249.599	189.19
249.832	181.19
250.066	179.19
250.299	181.19
250.532	185.19
250.765	210.19
250.998	208.19
251.231	211.19
251.465	206.19
251.698	174.19
251.931	191.19
252.164	187.19
252.397	191.19
252.63	193.19
252.863	190.19
253.096	228.19
253.329	217.19
253.562	216.19
253.795	220.19
254.028	214.19
254.261	206.19
254.494	229.19
254.727	245.19
254.96	267.19
255.193	244.19
255.426	220.19
255.659	221.19
255.892	227.19
256.124	206.19
256.357	206.19
256.59	211.19
256.823	203.19
257.056	199.19
257.289	200.19
257.521	215.19
257.754	204.19
257.987	201.19
258.22	216.19
258.452	198.19
258.685	205.19
258.918	208.19
259.151	207.19
259.383	203.19
259.616	212.19
259.849	221.19
260.081	238.19
260.314	246.19
260.547	247.19
260.779	228.19
261.012	228.19
261.244	211.19
261.477	219.19
261.71	212.19
261.942	237.19
262.175	241.19
262.407	233.19
262.64	239.19
262.872	214.19
263.105	215.19
263.337	227.19
263.57	223.19
263.802	228.19
264.035	220.19
264.267	227.19
264.499	232.19
264.732	219.19
264.964	204.19
265.197	214.19
265.429	229.19
265.661	218.19
265.894	214.19
266.126	207.19
266.358	217.19
266.591	237.19
266.823	232.19
267.055	226.19
267.287	249.19
267.52	238.19
267.752	230.19
267.984	236.19
268.216	229.19
268.448	251.19
268.681	253.19
268.913	258.19
269.145	267.19
269.377	275.19
269.609	274.19
269.841	283.19
270.073	258.19
270.306	293.19
270.538	308.19
270.77	298.19
271.002	301.19
271.234	297.19
271.466	293.19
271.698	327.19
271.93	307.19
272.162	309.19
272.394	302.19
272.626	301.19
272.858	299.19
273.09	290.19
273.322	284.19
273.553	269.19
273.785	273.19
274.017	275.19
274.249	273.19
274.481	275.19
274.713	275.19
274.945	290.19
275.176	275.19
275.408	282.19
275.64	255.19
275.872	265.19
276.104	279.19
276.335	294.19
276.567	290.19
276.799	290.19
277.031	326.19
277.262	323.19
277.494	357.19
277.726	291.19
277.957	285.19
278.189	275.19
278.421	265.19
278.652	285.19
278.884	289.19
279.115	273.19
279.347	286.19
279.579	273.19
279.81	272.19
280.042	275.19
280.273	276.19
280.505	293.19
280.736	290.19
280.968	293.19
281.199	293.19
281.431	300.19
281.662	293.19
281.894	297.19
282.125	291.19
282.356	305.19
282.588	315.19
282.819	315.19
283.051	328.19
283.282	289.19
283.513	301.19
283.745	281.19
283.976	291.19
284.207	297.19
284.439	303.19
284.67	311.19
284.901	321.19
285.132	289.19
285.364	279.19
285.595	289.19
285.826	297.19
286.057	305.19
286.288	324.19
286.52	305.19
286.751	288.19
286.982	298.19
287.213	318.19
287.444	301.19
287.675	313.19
287.906	328.19
288.138	338.19
288.369	332.19
288.6	324.19
288.831	326.19
289.062	303.19
289.293	318.19
289.524	335.19
289.755	322.19
289.986	323.19
290.217	318.19
290.448	301.19
290.679	323.19
290.91	318.19
291.141	311.19
291.371	321.19
291.602	312.19
291.833	316.19
292.064	319.19
292.295	302.19
292.526	323.19
292.757	318.19
292.987	322.19
293.218	323.19
293.449	340.19
293.68	322.19
293.91	325.19
294.141	315.19
294.372	307.19
294.603	331.19
294.833	324.19
295.064	337.19
295.295	311.19
295.525	333.19
295.756	325.19
295.987	310.19
296.217	359.19
296.448	365.19
296.679	335.19
296.909	348.19
297.14	338.19
297.37	317.19
297.601	353.19
297.831	339.19
298.062	344.19
298.292	358.19
298.523	330.19
298.753	344.19
298.984	346.19
299.214	356.19
299.445	319.19
299.675	339.19
299.905	366.19
300.136	345.19
300.366	349.19
300.597	346.19
300.827	355.19
301.057	361.19
301.288	352.19
301.518	354.19
301.748	361.19
301.979	341.19
302.209	359.19
302.439	371.19
302.669	372.19
302.9	360.19
303.13	357.19
303.36	373.19
303.59	362.19
303.82	364.19
304.051	371.19
304.281	375.19
304.511	359.19
304.741	378.19
304.971	369.19
305.201	357.19
305.431	371.19
305.661	350.19
305.891	357.19
306.121	379.19
306.352	361.19
306.582	346.19
306.812	365.19
307.042	365.19
307.272	358.19
307.502	368.19
307.731	366.19
307.961	366.19
308.191	378.19
308.421	355.19
308.651	384.19
308.881	366.19
309.111	364.19
309.341	370.19
309.571	370.19
309.8	377.19
310.03	374.19
310.26	402.19
310.49	408.19
310.72	422.19
310.949	400.19
311.179	431.19
311.409	405.19
311.639	399.19
311.868	394.19
312.098	423.19
312.328	412.19
312.557	430.19
312.787	438.19
313.017	446.19
313.246	420.19
313.476	418.19
313.706	413.19
313.935	428.19
314.165	425.19
314.394	422.19
314.624	424.19
314.853	436.19
315.083	418.19
315.312	410.19
315.542	406.19
315.771	386.19
316.001	407.19
316.23	399.19
316.46	417.19
316.689	396.19
316.919	390.19
317.148	441.19
317.377	425.19
317.607	415.19
317.836	413.19
318.065	415.19
318.295	417.19
318.524	423.19
318.753	407.19
318.983	425.19
319.212	407.19
319.441	416.19
319.67	425.19
319.9	412.19
320.129	415.19
320.358	404.19
320.587	402.19
320.816	426.19
321.046	408.19
321.275	430.19
321.504	426.19
321.733	413.19
321.962	443.19
322.191	453.19
322.42	466.19
322.649	465.19
322.878	481.19
323.108	470.19
323.337	482.19
323.566	498.19
323.795	531.19
324.024	574.19
324.253	668.19
324.482	893.19
324.71	1333.19
324.939	1900.19
325.168	1655.19
325.397	878.19
325.626	631.19
325.855	564.19
326.084	532.19
326.313	508.19
326.542	509.19
326.77	546.19
326.999	616.19
327.228	814.19
327.457	1219.19
327.686	1464.19
327.914	987.19
328.143	689.19
328.372	613.19
328.6	557.19
328.829	549.19
329.058	570.19
329.287	576.19
329.515	545.19
329.744	523.19
329.972	533.19
330.201	514.19
330.43	521.19
330.658	546.19
330.887	596.19
331.115	603.19
331.344	546.19
331.572	516.19
331.801	526.19
332.03	501.19
332.258	513.19
332.486	512.19
332.715	487.19
332.943	515.19
333.172	499.19
333.4	523.19
333.629	520.19
333.857	520.19
334.085	530.19
334.314	553.19
334.542	514.19
334.771	500.19
334.999	499.19
335.227	521.19
335.455	513.19
335.684	516.19
335.912	497.19
336.14	507.19
336.369	500.19
336.597	500.19
336.825	528.19
337.053	486.19
337.281	500.19
337.51	485.19
337.738	486.19
337.966	466.19
338.194	500.19
338.422	475.19
338.65	477.19
338.878	495.19
339.106	481.19
339.334	468.19
339.562	459.19
339.79	469.19
340.018	468.19
340.246	466.19
340.474	458.19
340.702	466.19
340.93	475.19
341.158	479.19
341.386	463.19
341.614	473.19
341.842	474.19
342.07	450.19
342.298	460.19
342.526	446.19
342.754	443.19
342.981	453.19
343.209	449.19
343.437	460.19
343.665	469.19
343.893	486.19
344.12	499.19
344.348	494.19
344.576	472.19
344.804	470.19
345.031	482.19
345.259	483.19
345.487	473.19
345.714	467.19
345.942	450.19
346.17	463.19
346.397	455.19
346.625	450.19
346.853	455.19
347.08	437.19
347.308	458.19
347.535	462.19
347.763	459.19
347.99	458.19
348.218	454.19
348.445	455.19
348.673	439.19
348.9	435.19
349.128	448.19
349.355	418.19
349.583	423.19
349.81	421.19
350.037	418.19
350.265	418.19
350.492	424.19
350.72	424.19
350.947	429.19
351.174	445.19
351.402	457.19
351.629	476.19
351.856	419.19
352.083	441.19
352.311	447.19
352.538	441.19
352.765	443.19
352.992	442.19
353.22	443.19
353.447	442.19
353.674	432.19
353.901	429.19
354.128	404.19
354.355	426.19
354.583	412.19
354.81	414.19
355.037	412.19
355.264	406.19
355.491	412.19
355.718	412.19
355.945	418.19
356.172	393.19
356.399	406.19
356.626	410.19
356.853	386.19
357.08	405.19
357.307	417.19
357.534	409.19
357.761	414.19
357.988	422.19
358.215	414.19
358.441	402.19
358.668	440.19
358.895	437.19
359.122	421.19
359.349	421.19
359.576	430.19
359.802	449.19
360.029	472.19
360.256	487.19
360.483	474.19
360.709	442.19
360.936	440.19
361.163	427.19
361.39	450.19
361.616	447.19
361.843	421.19
362.07	435.19
362.296	431.19
362.523	441.19
362.749	435.19
362.976	439.19
363.203	429.19
363.429	411.19
363.656	429.19
363.882	429.19
364.109	437.19
364.335	413.19
364.562	430.19
364.788	440.19
365.015	421.19
365.241	416.19
365.468	426.19
365.694	423.19
365.92	429.19
366.147	409.19
366.373	403.19
366.599	419.19
366.826	410.19
367.052	428.19
367.278	426.19
367.505	384.19
367.731	407.19
367.957	407.19
368.184	418.19
368.41	421.19
368.636	447.19
368.862	426.19
369.089	424.19
369.315	433.19
369.541	421.19
369.767	420.19
369.993	429.19
370.219	419.19
370.445	423.19
370.672	419.19
370.898	429.19
371.124	428.19
371.35	419.19
371.576	425.19
371.802	414.19
372.028	409.19
372.254	411.19
372.48	428.19
372.706	435.19
372.932	438.19
373.158	435.19
373.384	414.19
373.61	420.19
373.835	411.19
374.061	442.19
374.287	434.19
374.513	434.19
374.739	422.19
374.965	443.19
375.191	427.19
375.416	446.19
375.642	430.19
375.868	429.19
376.094	403.19
376.319	412.19
376.545	411.19
376.771	428.19
376.997	394.19
377.222	412.19
377.448	435.19
377.674	395.19
377.899	428.19
378.125	437.19
378.35	407.19
378.576	415.19
378.802	429.19
379.027	425.19
379.253	442.19
379.478	423.19
379.704	421.19
379.929	427.19
380.155	427.19
380.38	423.19
380.606	429.19
380.831	417.19
381.057	419.19
381.282	411.19
381.507	412.19
381.733	384.19
381.958	423.19
382.184	443.19
382.409	419.19
382.634	426.19
382.86	414.19
383.085	435.19
383.31	436.19
383.535	440.19
383.761	428.19
383.986	435.19
384.211	439.19
384.436	454.19
384.662	439.19
384.887	462.19
385.112	470.19
385.337	465.19
385.562	458.19
385.787	479.19
386.013	490.19
386.238	473.19
386.463	472.19
386.688	477.19
386.913	461.19
387.138	467.19
387.363	457.19
387.588	464.19
387.813	463.19
388.038	443.19
388.263	465.19
388.488	489.19
388.713	476.19
388.938	457.19
389.163	478.19
389.387	464.19
389.612	458.19
389.837	471.19
390.062	467.19
390.287	462.19
390.512	460.19
390.736	478.19
390.961	476.19
391.186	463.19
391.411	488.19
391.636	492.19
391.86	477.19
392.085	483.19
392.31	491.19
392.534	497.19
392.759	447.19
392.984	498.19
393.208	475.19
393.433	484.19
393.658	474.19
393.882	465.19
394.107	462.19
394.331	475.19
394.556	468.19
394.78	445.19
395.005	474.19
395.229	471.19
395.454	491.19
395.678	505.19
395.903	499.19
396.127	522.19
396.352	528.19
396.576	478.19
396.801	476.19
397.025	482.19
397.249	495.19
397.474	489.19
397.698	511.19
397.922	525.19
398.147	515.19
398.371	522.19
398.595	521.19
398.82	519.19
399.044	565.19
399.268	601.19
399.492	636.19
399.717	641.19
399.941	704.19
400.165	707.19
400.389	690.19
400.613	605.19
400.837	607.19
401.062	565.19
401.286	559.19
401.51	547.19
401.734	539.19
401.958	551.19
402.182	557.19
402.406	556.19
402.63	578.19
402.854	564.19
403.078	563.19
403.302	588.19
403.526	557.19
403.75	569.19
403.974	587.19
404.198	587.19
404.422	561.19
404.645	571.19
404.869	566.19
405.093	591.19
405.317	584.19
405.541	637.19
405.765	599.19
405.988	610.19
406.212	592.19
406.436	617.19
406.66	632.19
406.883	627.19
407.107	626.19
407.331	693.19
407.555	727.19
407.778	732.19
408.002	666.19
408.226	634.19
408.449	621.19
408.673	621.19
408.896	632.19
409.12	641.19
409.344	641.19
409.567	580.19
409.791	566.19
410.014	577.19
410.238	557.19
410.461	553.19
410.685	568.19
410.908	585.19
411.132	591.19
411.355	613.19
411.578	632.19
411.802	564.19
412.025	540.19
412.249	579.19
412.472	558.19
412.695	556.19
412.919	567.19
413.142	545.19
413.365	535.19
413.589	517.19
413.812	557.19
414.035	519.19
414.258	525.19
414.482	514.19
414.705	512.19
414.928	525.19
415.151	547.19
415.374	507.19
415.597	533.19
415.821	540.19
416.044	546.19
416.267	521.19
416.49	506.19
416.713	528.19
416.936	510.19
417.159	516.19
417.382	535.19
417.605	533.19
417.828	539.19
418.051	573.19
418.274	527.19
418.497	533.19
418.72	539.19
418.943	524.19
419.166	533.19
419.389	603.19
419.611	572.19
419.834	553.19
420.057	556.19
420.28	550.19
420.503	517.19
420.726	519.19
420.948	544.19
421.171	599.19
421.394	596.19
421.617	572.19
421.839	530.19
422.062	535.19
422.285	538.19
422.507	599.19
422.73	658.19
422.953	633.19
423.175	579.19
423.398	568.19
423.621	579.19
423.843	604.19
424.066	582.19
424.288	589.19
424.511	591.19
424.733	637.19
424.956	689.19
425.178	670.19
425.401	670.19
425.623	669.19
425.846	576.19
426.068	573.19
426.291	566.19
426.513	549.19
426.735	556.19
426.958	604.19
427.18	673.19
427.402	795.19
427.625	869.19
427.847	740.19
428.069	630.19
428.292	590.19
428.514	549.19
428.736	518.19
428.958	522.19
429.181	530.19
429.403	500.19
429.625	514.19
429.847	545.19
430.069	609.19
430.292	603.19
430.514	539.19
430.736	528.19
430.958	494.19
431.18	508.19
431.402	490.19
431.624	496.19
431.846	493.19
432.068	487.19
432.29	492.19
432.512	498.19
432.734	498.19
432.956	516.19
433.178	509.19
433.4	503.19
433.622	513.19
433.844	517.19
434.066	507.19
434.287	502.19
434.509	487.19
434.731	511.19
434.953	518.19
435.175	561.19
435.397	560.19
435.618	568.19
435.84	586.19
436.062	674.19
436.284	726.19
436.505	602.19
436.727	550.19
436.949	541.19
437.17	509.19
437.392	511.19
437.614	519.19
437.835	550.19
438.057	643.19
438.278	693.19
438.5	718.19
438.721	792.19
438.943	762.19
439.165	611.19
439.386	557.19
439.608	567.19
439.829	554.19
440.05	590.19
440.272	604.19
440.493	565.19
440.715	545.19
440.936	514.19
441.158	519.19
441.379	537.19
441.6	541.19
441.822	570.19
442.043	591.19
442.264	660.19
442.486	697.19
442.707	619.19
442.928	573.19
443.149	590.19
443.371	604.19
443.592	646.19
443.813	729.19
444.034	782.19
444.255	654.19
444.476	591.19
444.698	609.19
444.919	592.19
445.14	722.19
445.361	660.19
445.582	598.19
445.803	652.19
446.024	746.19
446.245	775.19
446.466	673.19
446.687	599.19
446.908	551.19
447.129	535.19
447.35	497.19
447.571	495.19
447.792	495.19
448.013	524.19
448.234	525.19
448.455	571.19
448.675	700.19
448.896	782.19
449.117	674.19
449.338	613.19
449.559	711.19
449.779	812.19
450	657.19
450.221	530.19
450.442	500.19
450.662	489.19
450.883	497.19
451.104	524.19
451.324	502.19
451.545	478.19
451.766	476.19
451.986	462.19
452.207	468.19
452.428	455.19
452.648	478.19
452.869	469.19
453.089	474.19
453.31	482.19
453.53	450.19
453.751	460.19
453.971	463.19
454.192	472.19
454.412	472.19
454.633	476.19
454.853	448.19
455.073	466.19
455.294	458.19
455.514	504.19
455.734	501.19
455.955	460.19
456.175	455.19
456.395	427.19
456.616	452.19
456.836	433.19
457.056	443.19
457.276	419.19
457.497	435.19
457.717	435.19
457.937	435.19
458.157	450.19
458.377	462.19
458.598	466.19
458.818	541.19
459.038	587.19
459.258	618.19
459.478	559.19
459.698	507.19
459.918	514.19
460.138	528.19
460.358	510.19
460.578	540.19
460.798	520.19
461.018	539.19
461.238	512.19
461.458	545.19
461.678	527.19
461.898	526.19
462.118	541.19
462.338	543.19
462.558	561.19
462.777	573.19
462.997	613.19
463.217	609.19
463.437	632.19
463.657	585.19
463.876	594.19
464.096	587.19
464.316	579.19
464.536	593.19
464.755	563.19
464.975	585.19
465.195	591.19
465.414	648.19
465.634	549.19
465.854	541.19
466.073	505.19
466.293	473.19
466.512	483.19
466.732	470.19
466.951	499.19
467.171	473.19
467.391	469.19
467.61	474.19
467.829	498.19
468.049	513.19
468.268	494.19
468.488	465.19
468.707	461.19
468.927	465.19
469.146	433.19
469.365	474.19
469.585	474.19
469.804	474.19
470.023	470.19
470.243	505.19
470.462	475.19
470.681	523.19
470.901	504.19
471.12	482.19
471.339	477.19
471.558	455.19
471.777	483.19
471.997	481.19
472.216	479.19
472.435	475.19
472.654	467.19
472.873	468.19
473.092	457.19
473.311	475.19
473.53	454.19
473.749	473.19
473.968	528.19
474.187	587.19
474.406	613.19
474.625	538.19
474.844	488.19
475.063	474.19
475.282	500.19
475.501	481.19
475.72	484.19
475.939	468.19
476.158	483.19
476.377	507.19
476.596	507.19
476.814	505.19
477.033	507.19
477.252	502.19
477.471	513.19
477.69	525.19
477.908	528.19
478.127	551.19
478.346	539.19
478.564	547.19
478.783	548.19
479.002	570.19
479.22	558.19
479.439	584.19
479.658	578.19
479.876	591.19
480.095	587.19
480.313	631.19
480.532	615.19
480.751	593.19
480.969	618.19
481.188	574.19
481.406	575.19
481.624	586.19
481.843	587.19
482.061	567.19
482.28	570.19
482.498	563.19
482.717	541.19
482.935	552.19
483.153	552.19
483.372	542.19
483.59	556.19
483.808	531.19
484.027	542.19
484.245	564.19
484.463	558.19
484.681	564.19
484.9	585.19
485.118	566.19
485.336	551.19
485.554	545.19
485.772	554.19
485.99	574.19
486.209	572.19
486.427	551.19
486.645	584.19
486.863	581.19
487.081	615.19
487.299	610.19
487.517	599.19
487.735	577.19
487.953	599.19
488.171	575.19
488.389	598.19
488.607	599.19
488.825	588.19
489.043	580.19
489.261	597.19
489.479	606.19
489.696	607.19
489.914	573.19
490.132	630.19
490.35	612.19
490.568	600.19
490.786	625.19
491.003	629.19
491.221	624.19
491.439	660.19
491.657	659.19
491.874	678.19
492.092	676.19
492.31	674.19
492.527	645.19
492.745	687.19
492.963	653.19
493.18	673.19
493.398	678.19
493.615	685.19
493.833	674.19
494.05	682.19
494.268	676.19
494.485	663.19
494.703	662.19
494.92	692.19
495.138	655.19
495.355	702.19
495.573	703.19
495.79	709.19
496.008	711.19
496.225	689.19
496.442	701.19
496.66	701.19
496.877	715.19
497.094	713.19
497.312	714.19
497.529	721.19
497.746	741.19
497.963	735.19
498.181	767.19
498.398	790.19
498.615	813.19
498.832	852.19
499.049	845.19
499.267	899.19
499.484	934.19
499.701	1022.19
499.918	1048.19
500.135	1093.19
500.352	1168.19
500.569	1186.19
500.786	1205.19
501.003	1170.19
501.22	1105.19
501.437	1041.19
501.654	982.19
501.871	951.19
