Data from 1985.PennyLincolnUp.Lamp.En5.5.200Scan.071819.P1_HRD10591_17-02-47-970.txt Node
Date: Thu Jul 18 17:02:47 EDT 2019
User: cochatt
Spectrometer: HR+D1059
Trigger mode: 1
Integration Time (sec): 1.000000E-1
Scans to average: 1
Electric dark correction enabled: true
Nonlinearity correction enabled: false
Boxcar width: 0
XAxis mode: Wavelengths
Number of Pixels in Spectrum: 2048
>>>>>Begin Spectral Data<<<<<
223.165	-18.81
223.4	-18.81
223.635	-18.81
223.869	-10.81
224.104	-19.81
224.338	-15.81
224.573	-17.81
224.808	-14.81
225.042	-10.81
225.277	1.19
225.511	0.19
225.746	8.19
225.98	17.19
226.215	14.19
226.449	16.19
226.683	19.19
226.918	16.19
227.152	16.19
227.387	31.19
227.621	44.19
227.856	39.19
228.09	60.19
228.324	52.19
228.559	63.19
228.793	47.19
229.027	99.19
229.262	105.19
229.496	113.19
229.73	130.19
229.964	152.19
230.199	132.19
230.433	122.19
230.667	99.19
230.901	122.19
231.136	111.19
231.37	113.19
231.604	106.19
231.838	115.19
232.072	119.19
232.306	120.19
232.541	118.19
232.775	114.19
233.009	117.19
233.243	118.19
233.477	124.19
233.711	112.19
233.945	114.19
234.179	125.19
234.413	111.19
234.647	130.19
234.881	128.19
235.115	127.19
235.349	127.19
235.583	125.19
235.817	122.19
236.051	130.19
236.285	134.19
236.519	112.19
236.753	131.19
236.987	144.19
237.221	180.19
237.455	222.19
237.689	189.19
237.922	142.19
238.156	144.19
238.39	128.19
238.624	128.19
238.858	128.19
239.091	127.19
239.325	126.19
239.559	129.19
239.793	135.19
240.027	139.19
240.26	145.19
240.494	160.19
240.728	140.19
240.961	157.19
241.195	146.19
241.429	146.19
241.662	141.19
241.896	141.19
242.13	124.19
242.363	137.19
242.597	130.19
242.83	137.19
243.064	145.19
243.298	146.19
243.531	141.19
243.765	146.19
243.998	157.19
244.232	142.19
244.465	141.19
244.699	146.19
244.932	161.19
245.166	141.19
245.399	147.19
245.633	145.19
245.866	166.19
246.099	144.19
246.333	160.19
246.566	156.19
246.8	156.19
247.033	157.19
247.266	159.19
247.5	179.19
247.733	175.19
247.966	167.19
248.2	166.19
248.433	166.19
248.666	187.19
248.899	197.19
249.133	190.19
249.366	197.19
249.599	189.19
249.832	181.19
250.066	181.19
250.299	194.19
250.532	181.19
250.765	211.19
250.998	229.19
251.231	221.19
251.465	203.19
251.698	196.19
251.931	197.19
252.164	196.19
252.397	196.19
252.63	212.19
252.863	185.19
253.096	210.19
253.329	222.19
253.562	228.19
253.795	224.19
254.028	221.19
254.261	220.19
254.494	220.19
254.727	262.19
254.96	284.19
255.193	272.19
255.426	245.19
255.659	218.19
255.892	220.19
256.124	228.19
256.357	217.19
256.59	221.19
256.823	201.19
257.056	201.19
257.289	220.19
257.521	214.19
257.754	233.19
257.987	217.19
258.22	222.19
258.452	200.19
258.685	219.19
258.918	216.19
259.151	208.19
259.383	233.19
259.616	222.19
259.849	229.19
260.081	233.19
260.314	258.19
260.547	242.19
260.779	242.19
261.012	237.19
261.244	223.19
261.477	230.19
261.71	231.19
261.942	245.19
262.175	250.19
262.407	222.19
262.64	220.19
262.872	231.19
263.105	223.19
263.337	229.19
263.57	232.19
263.802	224.19
264.035	230.19
264.267	233.19
264.499	237.19
264.732	235.19
264.964	213.19
265.197	212.19
265.429	221.19
265.661	237.19
265.894	208.19
266.126	237.19
266.358	239.19
266.591	222.19
266.823	239.19
267.055	226.19
267.287	245.19
267.52	232.19
267.752	233.19
267.984	244.19
268.216	250.19
268.448	249.19
268.681	263.19
268.913	270.19
269.145	290.19
269.377	312.19
269.609	277.19
269.841	290.19
270.073	288.19
270.306	300.19
270.538	343.19
270.77	320.19
271.002	305.19
271.234	301.19
271.466	327.19
271.698	318.19
271.93	335.19
272.162	319.19
272.394	330.19
272.626	308.19
272.858	306.19
273.09	281.19
273.322	279.19
273.553	296.19
273.785	274.19
274.017	292.19
274.249	278.19
274.481	279.19
274.713	278.19
274.945	286.19
275.176	280.19
275.408	276.19
275.64	282.19
275.872	288.19
276.104	281.19
276.335	266.19
276.567	282.19
276.799	312.19
277.031	322.19
277.262	337.19
277.494	326.19
277.726	310.19
277.957	290.19
278.189	304.19
278.421	273.19
278.652	302.19
278.884	294.19
279.115	281.19
279.347	308.19
279.579	283.19
279.81	300.19
280.042	293.19
280.273	292.19
280.505	297.19
280.736	295.19
280.968	286.19
281.199	316.19
281.431	292.19
281.662	283.19
281.894	296.19
282.125	310.19
282.356	333.19
282.588	335.19
282.819	330.19
283.051	312.19
283.282	310.19
283.513	305.19
283.745	285.19
283.976	308.19
284.207	310.19
284.439	293.19
284.67	309.19
284.901	309.19
285.132	306.19
285.364	303.19
285.595	313.19
285.826	294.19
286.057	311.19
286.288	305.19
286.52	299.19
286.751	316.19
286.982	318.19
287.213	316.19
287.444	312.19
287.675	315.19
287.906	340.19
288.138	345.19
288.369	340.19
288.6	332.19
288.831	345.19
289.062	334.19
289.293	316.19
289.524	320.19
289.755	336.19
289.986	330.19
290.217	319.19
290.448	330.19
290.679	313.19
290.91	331.19
291.141	331.19
291.371	325.19
291.602	306.19
291.833	325.19
292.064	310.19
292.295	331.19
292.526	329.19
292.757	328.19
292.987	314.19
293.218	330.19
293.449	334.19
293.68	333.19
293.91	325.19
294.141	333.19
294.372	325.19
294.603	322.19
294.833	342.19
295.064	338.19
295.295	332.19
295.525	316.19
295.756	326.19
295.987	348.19
296.217	368.19
296.448	376.19
296.679	357.19
296.909	330.19
297.14	351.19
297.37	334.19
297.601	326.19
297.831	339.19
298.062	354.19
298.292	343.19
298.523	335.19
298.753	350.19
298.984	350.19
299.214	358.19
299.445	326.19
299.675	358.19
299.905	354.19
300.136	330.19
300.366	329.19
300.597	360.19
300.827	350.19
301.057	369.19
301.288	369.19
301.518	388.19
301.748	364.19
301.979	383.19
302.209	378.19
302.439	379.19
302.669	371.19
302.9	385.19
303.13	376.19
303.36	380.19
303.59	374.19
303.82	401.19
304.051	380.19
304.281	362.19
304.511	384.19
304.741	374.19
304.971	381.19
305.201	376.19
305.431	372.19
305.661	365.19
305.891	374.19
306.121	357.19
306.352	367.19
306.582	394.19
306.812	380.19
307.042	373.19
307.272	374.19
307.502	380.19
307.731	373.19
307.961	366.19
308.191	386.19
308.421	363.19
308.651	368.19
308.881	379.19
309.111	382.19
309.341	395.19
309.571	399.19
309.8	434.19
310.03	406.19
310.26	414.19
310.49	424.19
310.72	410.19
310.949	415.19
311.179	433.19
311.409	433.19
311.639	402.19
311.868	413.19
312.098	431.19
312.328	438.19
312.557	452.19
312.787	445.19
313.017	449.19
313.246	416.19
313.476	426.19
313.706	421.19
313.935	447.19
314.165	458.19
314.394	423.19
314.624	442.19
314.853	431.19
315.083	425.19
315.312	418.19
315.542	425.19
315.771	402.19
316.001	419.19
316.23	410.19
316.46	410.19
316.689	409.19
316.919	423.19
317.148	454.19
317.377	445.19
317.607	428.19
317.836	433.19
318.065	423.19
318.295	426.19
318.524	449.19
318.753	417.19
318.983	433.19
319.212	425.19
319.441	422.19
319.67	413.19
319.9	426.19
320.129	447.19
320.358	423.19
320.587	452.19
320.816	431.19
321.046	449.19
321.275	447.19
321.504	449.19
321.733	444.19
321.962	462.19
322.191	476.19
322.42	460.19
322.649	477.19
322.878	491.19
323.108	493.19
323.337	507.19
323.566	543.19
323.795	552.19
324.024	584.19
324.253	705.19
324.482	980.19
324.71	1466.19
324.939	2024.19
325.168	1698.19
325.397	911.19
325.626	664.19
325.855	593.19
326.084	557.19
326.313	534.19
326.542	530.19
326.77	568.19
326.999	690.19
327.228	875.19
327.457	1302.19
327.686	1574.19
327.914	1020.19
328.143	702.19
328.372	639.19
328.6	608.19
328.829	615.19
329.058	578.19
329.287	612.19
329.515	597.19
329.744	540.19
329.972	536.19
330.201	556.19
330.43	550.19
330.658	566.19
330.887	644.19
331.115	629.19
331.344	560.19
331.572	533.19
331.801	534.19
332.03	566.19
332.258	540.19
332.486	511.19
332.715	507.19
332.943	520.19
333.172	544.19
333.4	540.19
333.629	552.19
333.857	538.19
334.085	570.19
334.314	540.19
334.542	572.19
334.771	558.19
334.999	541.19
335.227	552.19
335.455	526.19
335.684	515.19
335.912	495.19
336.14	485.19
336.369	506.19
336.597	505.19
336.825	486.19
337.053	529.19
337.281	491.19
337.51	496.19
337.738	507.19
337.966	504.19
338.194	489.19
338.422	486.19
338.65	477.19
338.878	488.19
339.106	468.19
339.334	490.19
339.562	483.19
339.79	480.19
340.018	483.19
340.246	460.19
340.474	470.19
340.702	485.19
340.93	467.19
341.158	472.19
341.386	468.19
341.614	470.19
341.842	467.19
342.07	445.19
342.298	476.19
342.526	472.19
342.754	462.19
342.981	456.19
343.209	490.19
343.437	464.19
343.665	480.19
343.893	500.19
344.12	526.19
344.348	491.19
344.576	519.19
344.804	495.19
345.031	490.19
345.259	519.19
345.487	493.19
345.714	482.19
345.942	488.19
346.17	473.19
346.397	457.19
346.625	469.19
346.853	441.19
347.08	452.19
347.308	486.19
347.535	459.19
347.763	477.19
347.99	460.19
348.218	485.19
348.445	476.19
348.673	469.19
348.9	443.19
349.128	422.19
349.355	452.19
349.583	436.19
349.81	442.19
350.037	434.19
350.265	438.19
350.492	453.19
350.72	457.19
350.947	466.19
351.174	447.19
351.402	473.19
351.629	460.19
351.856	448.19
352.083	456.19
352.311	452.19
352.538	472.19
352.765	456.19
352.992	473.19
353.22	460.19
353.447	435.19
353.674	448.19
353.901	416.19
354.128	433.19
354.355	413.19
354.583	418.19
354.81	417.19
355.037	442.19
355.264	424.19
355.491	433.19
355.718	425.19
355.945	440.19
356.172	399.19
356.399	407.19
356.626	415.19
356.853	428.19
357.08	406.19
357.307	428.19
357.534	429.19
357.761	425.19
357.988	426.19
358.215	420.19
358.441	422.19
358.668	398.19
358.895	432.19
359.122	431.19
359.349	437.19
359.576	461.19
359.802	466.19
360.029	500.19
360.256	504.19
360.483	504.19
360.709	453.19
360.936	454.19
361.163	451.19
361.39	464.19
361.616	469.19
361.843	455.19
362.07	440.19
362.296	452.19
362.523	443.19
362.749	446.19
362.976	440.19
363.203	445.19
363.429	430.19
363.656	438.19
363.882	425.19
364.109	422.19
364.335	417.19
364.562	425.19
364.788	443.19
365.015	432.19
365.241	411.19
365.468	436.19
365.694	433.19
365.92	426.19
366.147	426.19
366.373	439.19
366.599	424.19
366.826	432.19
367.052	409.19
367.278	426.19
367.505	420.19
367.731	432.19
367.957	447.19
368.184	442.19
368.41	436.19
368.636	432.19
368.862	433.19
369.089	453.19
369.315	430.19
369.541	410.19
369.767	425.19
369.993	408.19
370.219	430.19
370.445	436.19
370.672	424.19
370.898	430.19
371.124	445.19
371.35	446.19
371.576	423.19
371.802	425.19
372.028	425.19
372.254	441.19
372.48	425.19
372.706	446.19
372.932	424.19
373.158	424.19
373.384	437.19
373.61	433.19
373.835	431.19
374.061	448.19
374.287	413.19
374.513	442.19
374.739	426.19
374.965	430.19
375.191	430.19
375.416	444.19
375.642	444.19
375.868	417.19
376.094	439.19
376.319	440.19
376.545	422.19
376.771	409.19
376.997	438.19
377.222	424.19
377.448	418.19
377.674	438.19
377.899	438.19
378.125	432.19
378.35	417.19
378.576	428.19
378.802	433.19
379.027	434.19
379.253	441.19
379.478	440.19
379.704	431.19
379.929	420.19
380.155	454.19
380.38	440.19
380.606	417.19
380.831	415.19
381.057	421.19
381.282	417.19
381.507	424.19
381.733	425.19
381.958	448.19
382.184	431.19
382.409	457.19
382.634	442.19
382.86	430.19
383.085	460.19
383.31	419.19
383.535	437.19
383.761	468.19
383.986	446.19
384.211	472.19
384.436	452.19
384.662	474.19
384.887	443.19
385.112	454.19
385.337	466.19
385.562	472.19
385.787	457.19
386.013	482.19
386.238	494.19
386.463	480.19
386.688	481.19
386.913	487.19
387.138	471.19
387.363	475.19
387.588	479.19
387.813	477.19
388.038	469.19
388.263	492.19
388.488	486.19
388.713	490.19
388.938	475.19
389.163	469.19
389.387	472.19
389.612	454.19
389.837	450.19
390.062	468.19
390.287	476.19
390.512	493.19
390.736	443.19
390.961	493.19
391.186	465.19
391.411	480.19
391.636	488.19
391.86	511.19
392.085	536.19
392.31	518.19
392.534	487.19
392.759	503.19
392.984	500.19
393.208	510.19
393.433	489.19
393.658	495.19
393.882	511.19
394.107	474.19
394.331	491.19
394.556	502.19
394.78	487.19
395.005	520.19
395.229	494.19
395.454	520.19
395.678	518.19
395.903	529.19
396.127	497.19
396.352	500.19
396.576	500.19
396.801	500.19
397.025	496.19
397.249	504.19
397.474	505.19
397.698	516.19
397.922	517.19
398.147	557.19
398.371	565.19
398.595	545.19
398.82	538.19
399.044	566.19
399.268	597.19
399.492	645.19
399.717	722.19
399.941	734.19
400.165	703.19
400.389	688.19
400.613	636.19
400.837	614.19
401.062	589.19
401.286	545.19
401.51	572.19
401.734	556.19
401.958	542.19
402.182	593.19
402.406	586.19
402.63	565.19
402.854	584.19
403.078	570.19
403.302	576.19
403.526	586.19
403.75	584.19
403.974	591.19
404.198	602.19
404.422	600.19
404.645	593.19
404.869	596.19
405.093	646.19
405.317	625.19
405.541	656.19
405.765	616.19
405.988	619.19
406.212	586.19
406.436	621.19
406.66	642.19
406.883	606.19
407.107	668.19
407.331	718.19
407.555	758.19
407.778	733.19
408.002	706.19
408.226	655.19
408.449	613.19
408.673	605.19
408.896	633.19
409.12	674.19
409.344	648.19
409.567	614.19
409.791	574.19
410.014	604.19
410.238	580.19
410.461	545.19
410.685	570.19
410.908	585.19
411.132	615.19
411.355	642.19
411.578	618.19
411.802	569.19
412.025	563.19
412.249	560.19
412.472	566.19
412.695	602.19
412.919	601.19
413.142	548.19
413.365	565.19
413.589	548.19
413.812	559.19
414.035	536.19
414.258	525.19
414.482	554.19
414.705	540.19
414.928	537.19
415.151	541.19
415.374	536.19
415.597	533.19
415.821	523.19
416.044	507.19
416.267	527.19
416.49	544.19
416.713	521.19
416.936	534.19
417.159	527.19
417.382	551.19
417.605	538.19
417.828	555.19
418.051	564.19
418.274	536.19
418.497	544.19
418.72	530.19
418.943	520.19
419.166	567.19
419.389	578.19
419.611	588.19
419.834	567.19
420.057	562.19
420.28	565.19
420.503	554.19
420.726	544.19
420.948	561.19
421.171	601.19
421.394	644.19
421.617	566.19
421.839	543.19
422.062	560.19
422.285	553.19
422.507	627.19
422.73	676.19
422.953	660.19
423.175	595.19
423.398	556.19
423.621	588.19
423.843	593.19
424.066	613.19
424.288	626.19
424.511	621.19
424.733	654.19
424.956	709.19
425.178	704.19
425.401	706.19
425.623	716.19
425.846	630.19
426.068	587.19
426.291	583.19
426.513	594.19
426.735	558.19
426.958	615.19
427.18	693.19
427.402	831.19
427.625	895.19
427.847	770.19
428.069	672.19
428.292	592.19
428.514	570.19
428.736	549.19
428.958	537.19
429.181	537.19
429.403	538.19
429.625	535.19
429.847	568.19
430.069	618.19
430.292	618.19
430.514	541.19
430.736	528.19
430.958	514.19
431.18	527.19
431.402	516.19
431.624	491.19
431.846	489.19
432.068	506.19
432.29	515.19
432.512	493.19
432.734	511.19
432.956	520.19
433.178	529.19
433.4	520.19
433.622	510.19
433.844	503.19
434.066	504.19
434.287	514.19
434.509	529.19
434.731	542.19
434.953	561.19
435.175	564.19
435.397	589.19
435.618	577.19
435.84	597.19
436.062	690.19
436.284	714.19
436.505	633.19
436.727	581.19
436.949	570.19
437.17	534.19
437.392	511.19
437.614	540.19
437.835	584.19
438.057	654.19
438.278	731.19
438.5	734.19
438.721	811.19
438.943	801.19
439.165	630.19
439.386	593.19
439.608	580.19
439.829	572.19
440.05	592.19
440.272	637.19
440.493	598.19
440.715	548.19
440.936	551.19
441.158	544.19
441.379	545.19
441.6	565.19
441.822	579.19
442.043	630.19
442.264	672.19
442.486	713.19
442.707	643.19
442.928	595.19
443.149	598.19
443.371	639.19
443.592	670.19
443.813	761.19
444.034	800.19
444.255	695.19
444.476	624.19
444.698	611.19
444.919	619.19
445.14	722.19
445.361	664.19
445.582	629.19
445.803	677.19
446.024	781.19
446.245	786.19
446.466	687.19
446.687	613.19
446.908	548.19
447.129	557.19
447.35	540.19
447.571	545.19
447.792	531.19
448.013	520.19
448.234	550.19
448.455	580.19
448.675	671.19
448.896	802.19
449.117	695.19
449.338	648.19
449.559	744.19
449.779	841.19
450	662.19
450.221	572.19
450.442	534.19
450.662	523.19
450.883	515.19
451.104	536.19
451.324	520.19
451.545	505.19
451.766	492.19
451.986	470.19
452.207	474.19
452.428	478.19
452.648	478.19
452.869	476.19
453.089	477.19
453.31	476.19
453.53	488.19
453.751	471.19
453.971	461.19
454.192	496.19
454.412	482.19
454.633	465.19
454.853	469.19
455.073	464.19
455.294	501.19
455.514	546.19
455.734	546.19
455.955	460.19
456.175	472.19
456.395	430.19
456.616	430.19
456.836	455.19
457.056	446.19
457.276	448.19
457.497	450.19
457.717	431.19
457.937	453.19
458.157	467.19
458.377	497.19
458.598	495.19
458.818	548.19
459.038	636.19
459.258	643.19
459.478	563.19
459.698	518.19
459.918	538.19
460.138	527.19
460.358	536.19
460.578	556.19
460.798	534.19
461.018	539.19
461.238	537.19
461.458	537.19
461.678	536.19
461.898	535.19
462.118	552.19
462.338	576.19
462.558	590.19
462.777	589.19
462.997	612.19
463.217	635.19
463.437	638.19
463.657	597.19
463.876	581.19
464.096	566.19
464.316	597.19
464.536	586.19
464.755	582.19
464.975	602.19
465.195	648.19
465.414	684.19
465.634	612.19
465.854	526.19
466.073	536.19
466.293	524.19
466.512	496.19
466.732	501.19
466.951	502.19
467.171	480.19
467.391	502.19
467.61	488.19
467.829	505.19
468.049	476.19
468.268	480.19
468.488	479.19
468.707	476.19
468.927	485.19
469.146	455.19
469.365	478.19
469.585	485.19
469.804	486.19
470.023	511.19
470.243	520.19
470.462	522.19
470.681	533.19
470.901	537.19
471.12	513.19
471.339	492.19
471.558	508.19
471.777	500.19
471.997	490.19
472.216	484.19
472.435	488.19
472.654	469.19
472.873	470.19
473.092	491.19
473.311	478.19
473.53	497.19
473.749	500.19
473.968	530.19
474.187	636.19
474.406	644.19
474.625	553.19
474.844	500.19
475.063	507.19
475.282	473.19
475.501	484.19
475.72	512.19
475.939	501.19
476.158	502.19
476.377	525.19
476.596	491.19
476.814	528.19
477.033	522.19
477.252	530.19
477.471	521.19
477.69	523.19
477.908	542.19
478.127	534.19
478.346	545.19
478.564	518.19
478.783	564.19
479.002	580.19
479.22	588.19
479.439	592.19
479.658	601.19
479.876	610.19
480.095	601.19
480.313	625.19
480.532	622.19
480.751	639.19
480.969	617.19
481.188	656.19
481.406	641.19
481.624	605.19
481.843	593.19
482.061	568.19
482.28	588.19
482.498	580.19
482.717	559.19
482.935	569.19
483.153	550.19
483.372	553.19
483.59	572.19
483.808	557.19
484.027	582.19
484.245	582.19
484.463	556.19
484.681	576.19
484.9	586.19
485.118	582.19
485.336	560.19
485.554	561.19
485.772	588.19
485.99	607.19
486.209	599.19
486.427	572.19
486.645	609.19
486.863	601.19
487.081	637.19
487.299	611.19
487.517	600.19
487.735	589.19
487.953	606.19
488.171	613.19
488.389	596.19
488.607	590.19
488.825	603.19
489.043	606.19
489.261	628.19
489.479	618.19
489.696	599.19
489.914	642.19
490.132	628.19
490.35	638.19
490.568	624.19
490.786	661.19
491.003	660.19
491.221	663.19
491.439	662.19
491.657	653.19
491.874	675.19
492.092	680.19
492.31	679.19
492.527	683.19
492.745	701.19
492.963	669.19
493.18	674.19
493.398	674.19
493.615	695.19
493.833	705.19
494.05	680.19
494.268	700.19
494.485	702.19
494.703	676.19
494.92	710.19
495.138	718.19
495.355	707.19
495.573	712.19
495.79	710.19
496.008	719.19
496.225	716.19
496.442	694.19
496.66	730.19
496.877	743.19
497.094	717.19
497.312	724.19
497.529	760.19
497.746	762.19
497.963	797.19
498.181	799.19
498.398	815.19
498.615	831.19
498.832	855.19
499.049	877.19
499.267	932.19
499.484	950.19
499.701	984.19
499.918	1087.19
500.135	1120.19
500.352	1212.19
500.569	1227.19
500.786	1241.19
501.003	1208.19
501.22	1153.19
501.437	1056.19
501.654	1033.19
501.871	984.19
