Data from 1985.PennyLincolnUp.Lamp.En5.5.200Scan.071819.P1_HRD10591_17-02-08-970.txt Node
Date: Thu Jul 18 17:02:08 EDT 2019
User: cochatt
Spectrometer: HR+D1059
Trigger mode: 1
Integration Time (sec): 1.000000E-1
Scans to average: 1
Electric dark correction enabled: true
Nonlinearity correction enabled: false
Boxcar width: 0
XAxis mode: Wavelengths
Number of Pixels in Spectrum: 2048
>>>>>Begin Spectral Data<<<<<
223.165	-15
223.4	-15
223.635	-15
223.869	-11
224.104	-17
224.338	-17
224.573	-2
224.808	-18
225.042	-14
225.277	-6
225.511	-2
225.746	-13
225.98	6
226.215	13
226.449	26
226.683	15
226.918	24
227.152	31
227.387	44
227.621	38
227.856	46
228.09	35
228.324	59
228.559	64
228.793	75
229.027	108
229.262	106
229.496	107
229.73	120
229.964	151
230.199	123
230.433	124
230.667	130
230.901	109
231.136	96
231.37	108
231.604	116
231.838	126
232.072	105
232.306	108
232.541	112
232.775	135
233.009	111
233.243	121
233.477	123
233.711	108
233.945	127
234.179	119
234.413	116
234.647	126
234.881	134
235.115	120
235.349	105
235.583	106
235.817	120
236.051	117
236.285	136
236.519	118
236.753	128
236.987	150
237.221	191
237.455	228
237.689	172
237.922	142
238.156	136
238.39	136
238.624	128
238.858	127
239.091	120
239.325	126
239.559	134
239.793	143
240.027	144
240.26	139
240.494	142
240.728	157
240.961	152
241.195	155
241.429	137
241.662	131
241.896	135
242.13	144
242.363	143
242.597	131
242.83	137
243.064	125
243.298	127
243.531	141
243.765	149
243.998	137
244.232	170
244.465	157
244.699	149
244.932	162
245.166	152
245.399	148
245.633	132
245.866	168
246.099	151
246.333	159
246.566	140
246.8	153
247.033	159
247.266	163
247.5	171
247.733	170
247.966	176
248.2	167
248.433	184
248.666	166
248.899	191
249.133	189
249.366	195
249.599	208
249.832	204
250.066	169
250.299	175
250.532	179
250.765	204
250.998	220
251.231	222
251.465	206
251.698	222
251.931	210
252.164	216
252.397	193
252.63	210
252.863	199
253.096	205
253.329	220
253.562	219
253.795	203
254.028	231
254.261	231
254.494	226
254.727	266
254.96	280
255.193	274
255.426	238
255.659	234
255.892	227
256.124	218
256.357	213
256.59	223
256.823	219
257.056	222
257.289	220
257.521	208
257.754	209
257.987	209
258.22	205
258.452	204
258.685	230
258.918	235
259.151	219
259.383	224
259.616	218
259.849	240
260.081	234
260.314	255
260.547	266
260.779	253
261.012	239
261.244	234
261.477	228
261.71	234
261.942	237
262.175	247
262.407	241
262.64	230
262.872	225
263.105	209
263.337	219
263.57	232
263.802	228
264.035	232
264.267	232
264.499	234
264.732	259
264.964	220
265.197	230
265.429	221
265.661	228
265.894	239
266.126	237
266.358	216
266.591	240
266.823	232
267.055	245
267.287	255
267.52	241
267.752	243
267.984	238
268.216	233
268.448	228
268.681	273
268.913	265
269.145	285
269.377	272
269.609	285
269.841	279
270.073	277
270.306	293
270.538	317
270.77	314
271.002	319
271.234	307
271.466	312
271.698	323
271.93	342
272.162	329
272.394	328
272.626	318
272.858	299
273.09	291
273.322	280
273.553	301
273.785	282
274.017	283
274.249	296
274.481	301
274.713	282
274.945	273
275.176	288
275.408	259
275.64	269
275.872	273
276.104	280
276.335	285
276.567	288
276.799	312
277.031	329
277.262	338
277.494	339
277.726	320
277.957	302
278.189	296
278.421	285
278.652	271
278.884	291
279.115	278
279.347	286
279.579	289
279.81	298
280.042	305
280.273	297
280.505	285
280.736	281
280.968	285
281.199	293
281.431	298
281.662	285
281.894	295
282.125	301
282.356	311
282.588	327
282.819	333
283.051	299
283.282	301
283.513	302
283.745	301
283.976	299
284.207	307
284.439	295
284.67	302
284.901	294
285.132	309
285.364	319
285.595	310
285.826	298
286.057	311
286.288	325
286.52	309
286.751	315
286.982	296
287.213	299
287.444	305
287.675	315
287.906	338
288.138	333
288.369	325
288.6	336
288.831	346
289.062	337
289.293	338
289.524	329
289.755	314
289.986	334
290.217	320
290.448	337
290.679	348
290.91	311
291.141	304
291.371	321
291.602	332
291.833	341
292.064	327
292.295	318
292.526	302
292.757	318
292.987	317
293.218	329
293.449	332
293.68	336
293.91	337
294.141	328
294.372	337
294.603	325
294.833	331
295.064	331
295.295	353
295.525	332
295.756	346
295.987	335
296.217	363
296.448	369
296.679	330
296.909	342
297.14	328
297.37	357
297.601	336
297.831	336
298.062	334
298.292	351
298.523	360
298.753	343
298.984	349
299.214	353
299.445	356
299.675	355
299.905	352
300.136	350
300.366	351
300.597	365
300.827	366
301.057	376
301.288	371
301.518	359
301.748	357
301.979	396
302.209	387
302.439	376
302.669	378
302.9	367
303.13	358
303.36	355
303.59	380
303.82	378
304.051	379
304.281	372
304.511	369
304.741	371
304.971	387
305.201	383
305.431	373
305.661	379
305.891	361
306.121	391
306.352	373
306.582	390
306.812	360
307.042	376
307.272	383
307.502	379
307.731	375
307.961	382
308.191	387
308.421	375
308.651	371
308.881	373
309.111	369
309.341	393
309.571	408
309.8	389
310.03	402
310.26	401
310.49	405
310.72	429
310.949	438
311.179	443
311.409	407
311.639	389
311.868	419
312.098	430
312.328	403
312.557	460
312.787	464
313.017	464
313.246	430
313.476	420
313.706	430
313.935	433
314.165	442
314.394	439
314.624	453
314.853	412
315.083	435
315.312	420
315.542	409
315.771	412
316.001	431
316.23	407
316.46	409
316.689	395
316.919	423
317.148	446
317.377	441
317.607	436
317.836	440
318.065	402
318.295	406
318.524	419
318.753	427
318.983	432
319.212	423
319.441	426
319.67	425
319.9	421
320.129	419
320.358	420
320.587	425
320.816	442
321.046	416
321.275	430
321.504	455
321.733	444
321.962	453
322.191	464
322.42	477
322.649	463
322.878	480
323.108	493
323.337	525
323.566	532
323.795	557
324.024	590
324.253	689
324.482	923
324.71	1401
324.939	1955
325.168	1654
325.397	887
325.626	668
325.855	587
326.084	540
326.313	529
326.542	526
326.77	558
326.999	660
327.228	870
327.457	1252
327.686	1487
327.914	995
328.143	704
328.372	617
328.6	605
328.829	571
329.058	594
329.287	602
329.515	564
329.744	528
329.972	527
330.201	556
330.43	556
330.658	587
330.887	601
331.115	618
331.344	547
331.572	521
331.801	519
332.03	519
332.258	496
332.486	523
332.715	492
332.943	492
333.172	532
333.4	529
333.629	519
333.857	552
334.085	534
334.314	536
334.542	532
334.771	535
334.999	511
335.227	523
335.455	538
335.684	521
335.912	517
336.14	516
336.369	491
336.597	502
336.825	519
337.053	500
337.281	500
337.51	514
337.738	516
337.966	491
338.194	505
338.422	506
338.65	505
338.878	484
339.106	479
339.334	468
339.562	459
339.79	457
340.018	484
340.246	479
340.474	473
340.702	507
340.93	465
341.158	449
341.386	466
341.614	491
341.842	465
342.07	485
342.298	476
342.526	479
342.754	462
342.981	453
343.209	441
343.437	476
343.665	479
343.893	496
344.12	511
344.348	507
344.576	499
344.804	487
345.031	489
345.259	515
345.487	475
345.714	484
345.942	459
346.17	469
346.397	456
346.625	468
346.853	430
347.08	459
347.308	478
347.535	485
347.763	481
347.99	451
348.218	447
348.445	464
348.673	457
348.9	478
349.128	449
349.355	451
349.583	438
349.81	443
350.037	447
350.265	426
350.492	435
350.72	433
350.947	441
351.174	453
351.402	472
351.629	439
351.856	457
352.083	440
352.311	461
352.538	454
352.765	467
352.992	455
353.22	449
353.447	456
353.674	447
353.901	429
354.128	440
354.355	423
354.583	432
354.81	414
355.037	423
355.264	436
355.491	431
355.718	438
355.945	419
356.172	435
356.399	409
356.626	400
356.853	420
357.08	415
357.307	419
357.534	425
357.761	406
357.988	433
358.215	417
358.441	407
358.668	437
358.895	435
359.122	448
359.349	440
359.576	439
359.802	454
360.029	475
360.256	504
360.483	475
360.709	449
360.936	440
361.163	448
361.39	433
361.616	459
361.843	439
362.07	439
362.296	440
362.523	455
362.749	448
362.976	446
363.203	428
363.429	416
363.656	431
363.882	438
364.109	445
364.335	405
364.562	428
364.788	416
365.015	422
365.241	446
365.468	424
365.694	443
365.92	429
366.147	419
366.373	423
366.599	422
366.826	415
367.052	425
367.278	422
367.505	436
367.731	417
367.957	411
368.184	435
368.41	445
368.636	439
368.862	433
369.089	447
369.315	428
369.541	441
369.767	421
369.993	449
370.219	429
370.445	437
370.672	424
370.898	422
371.124	436
371.35	435
371.576	448
371.802	428
372.028	423
372.254	441
372.48	432
372.706	452
372.932	435
373.158	429
373.384	450
373.61	439
373.835	428
374.061	435
374.287	441
374.513	430
374.739	427
374.965	443
375.191	456
375.416	450
375.642	448
375.868	453
376.094	439
376.319	442
376.545	446
376.771	429
376.997	415
377.222	415
377.448	443
377.674	423
377.899	433
378.125	435
378.35	426
378.576	426
378.802	431
379.027	438
379.253	415
379.478	413
379.704	416
379.929	432
380.155	428
380.38	435
380.606	439
380.831	423
381.057	427
381.282	410
381.507	390
381.733	441
381.958	437
382.184	448
382.409	453
382.634	444
382.86	436
383.085	436
383.31	444
383.535	456
383.761	440
383.986	448
384.211	454
384.436	461
384.662	468
384.887	474
385.112	464
385.337	466
385.562	474
385.787	477
386.013	483
386.238	483
386.463	501
386.688	478
386.913	489
387.138	463
387.363	485
387.588	471
387.813	489
388.038	465
388.263	470
388.488	471
388.713	484
388.938	466
389.163	492
389.387	469
389.612	449
389.837	463
390.062	468
390.287	464
390.512	471
390.736	464
390.961	474
391.186	473
391.411	483
391.636	513
391.86	487
392.085	489
392.31	494
392.534	512
392.759	499
392.984	500
393.208	488
393.433	494
393.658	479
393.882	492
394.107	495
394.331	504
394.556	457
394.78	483
395.005	467
395.229	492
395.454	485
395.678	492
395.903	518
396.127	560
396.352	520
396.576	524
396.801	503
397.025	491
397.249	493
397.474	508
397.698	491
397.922	526
398.147	530
398.371	544
398.595	553
398.82	563
399.044	587
399.268	609
399.492	633
399.717	704
399.941	721
400.165	702
400.389	691
400.613	623
400.837	587
401.062	598
401.286	574
401.51	547
401.734	550
401.958	566
402.182	556
402.406	588
402.63	608
402.854	582
403.078	575
403.302	589
403.526	599
403.75	589
403.974	581
404.198	583
404.422	593
404.645	581
404.869	587
405.093	629
405.317	621
405.541	636
405.765	620
405.988	579
406.212	620
406.436	631
406.66	639
406.883	628
407.107	654
407.331	724
407.555	765
407.778	750
408.002	703
408.226	641
408.449	642
408.673	625
408.896	643
409.12	683
409.344	663
409.567	598
409.791	590
410.014	582
410.238	584
410.461	583
410.685	587
410.908	596
411.132	609
411.355	640
411.578	622
411.802	563
412.025	551
412.249	577
412.472	565
412.695	560
412.919	535
413.142	555
413.365	545
413.589	562
413.812	565
414.035	558
414.258	544
414.482	544
414.705	549
414.928	528
415.151	540
415.374	541
415.597	541
415.821	540
416.044	541
416.267	532
416.49	550
416.713	546
416.936	530
417.159	510
417.382	544
417.605	549
417.828	549
418.051	572
418.274	557
418.497	527
418.72	545
418.943	513
419.166	545
419.389	584
419.611	575
419.834	584
420.057	540
420.28	543
420.503	548
420.726	549
420.948	556
421.171	612
421.394	636
421.617	551
421.839	545
422.062	552
422.285	548
422.507	639
422.73	678
422.953	647
423.175	598
423.398	573
423.621	590
423.843	603
424.066	577
424.288	588
424.511	613
424.733	680
424.956	731
425.178	677
425.401	703
425.623	712
425.846	638
426.068	584
426.291	575
426.513	576
426.735	583
426.958	631
427.18	683
427.402	825
427.625	915
427.847	750
428.069	648
428.292	601
428.514	564
428.736	529
428.958	523
429.181	523
429.403	524
429.625	523
429.847	585
430.069	627
430.292	621
430.514	559
430.736	544
430.958	518
431.18	505
431.402	518
431.624	500
431.846	507
432.068	501
432.29	526
432.512	505
432.734	518
432.956	503
433.178	531
433.4	503
433.622	487
433.844	539
434.066	519
434.287	504
434.509	541
434.731	538
434.953	557
435.175	553
435.397	577
435.618	584
435.84	617
436.062	709
436.284	734
436.505	629
436.727	592
436.949	544
437.17	542
437.392	539
437.614	544
437.835	569
438.057	655
438.278	765
438.5	750
438.721	835
438.943	765
439.165	639
439.386	588
439.608	557
439.829	588
440.05	583
440.272	637
440.493	595
440.715	563
440.936	551
441.158	557
441.379	530
441.6	585
441.822	579
442.043	636
442.264	683
442.486	732
442.707	634
442.928	593
443.149	596
443.371	607
443.592	665
443.813	752
444.034	799
444.255	657
444.476	636
444.698	614
444.919	618
445.14	726
445.361	670
445.582	613
445.803	667
446.024	743
446.245	760
446.466	686
446.687	614
446.908	555
447.129	532
447.35	522
447.571	517
447.792	527
448.013	535
448.234	557
448.455	591
448.675	726
448.896	823
449.117	669
449.338	649
449.559	739
449.779	853
450	677
450.221	566
450.442	525
450.662	502
450.883	522
451.104	534
451.324	505
451.545	496
451.766	476
451.986	465
452.207	455
452.428	463
452.648	479
452.869	470
453.089	488
453.31	496
453.53	470
453.751	482
453.971	478
454.192	502
454.412	482
454.633	495
454.853	473
455.073	461
455.294	470
455.514	547
455.734	516
455.955	465
456.175	462
456.395	441
456.616	441
456.836	455
457.056	451
457.276	455
457.497	463
457.717	454
457.937	479
458.157	461
458.377	459
458.598	481
458.818	518
459.038	633
459.258	613
459.478	559
459.698	505
459.918	524
460.138	522
460.358	541
460.578	533
460.798	538
461.018	555
461.238	548
461.458	558
461.678	506
461.898	545
462.118	564
462.338	581
462.558	584
462.777	592
462.997	617
463.217	617
463.437	612
463.657	598
463.876	570
464.096	557
464.316	589
464.536	609
464.755	590
464.975	592
465.195	595
465.414	668
465.634	581
465.854	541
466.073	515
466.293	509
466.512	497
466.732	482
466.951	502
467.171	497
467.391	483
467.61	490
467.829	507
468.049	503
468.268	491
468.488	482
468.707	470
468.927	471
469.146	470
469.365	482
469.585	472
469.804	492
470.023	483
470.243	485
470.462	502
470.681	526
470.901	520
471.12	486
471.339	505
471.558	499
471.777	520
471.997	480
472.216	485
472.435	482
472.654	479
472.873	469
473.092	483
473.311	476
473.53	464
473.749	487
473.968	538
474.187	615
474.406	629
474.625	544
474.844	511
475.063	504
475.282	503
475.501	487
475.72	485
475.939	493
476.158	532
476.377	521
476.596	524
476.814	535
477.033	517
477.252	506
477.471	509
477.69	523
477.908	536
478.127	548
478.346	535
478.564	554
478.783	552
479.002	551
479.22	589
479.439	590
479.658	590
479.876	589
480.095	587
480.313	639
480.532	630
480.751	629
480.969	589
481.188	622
481.406	612
481.624	576
481.843	573
482.061	584
482.28	568
482.498	568
482.717	556
482.935	573
483.153	576
483.372	563
483.59	557
483.808	556
484.027	571
484.245	559
484.463	575
484.681	571
484.9	593
485.118	576
485.336	596
485.554	584
485.772	592
485.99	599
486.209	573
486.427	590
486.645	590
486.863	633
487.081	601
487.299	611
487.517	603
487.735	615
487.953	596
488.171	619
488.389	599
488.607	618
488.825	599
489.043	611
489.261	599
489.479	600
489.696	629
489.914	637
490.132	638
490.35	639
490.568	605
490.786	633
491.003	641
491.221	638
491.439	646
491.657	674
491.874	675
492.092	672
492.31	672
492.527	660
492.745	653
492.963	658
493.18	685
493.398	678
493.615	702
493.833	717
494.05	736
494.268	691
494.485	685
494.703	681
494.92	686
495.138	696
495.355	681
495.573	694
495.79	713
496.008	703
496.225	703
496.442	715
496.66	719
496.877	721
497.094	736
497.312	750
497.529	739
497.746	751
497.963	762
498.181	800
498.398	796
498.615	831
498.832	884
499.049	894
499.267	931
499.484	977
499.701	1002
499.918	1067
500.135	1130
500.352	1182
500.569	1242
500.786	1229
501.003	1189
501.22	1145
501.437	1065
501.654	1026
501.871	982
502.088	970
502.305	873
502.522	875
502.739	840
502.956	809
503.172	775
503.389	772
503.606	778
503.823	772
504.04	731
504.256	742
504.473	739
504.69	730
504.907	740
505.123	716
505.34	685
505.557	709
505.773	705
505.99	701
506.207	702
506.423	696
506.64	684
506.856	675
507.073	695
507.289	657
507.506	672
507.722	677
507.939	675
508.155	687
508.372	636
508.588	633
508.805	639
509.021	651
509.238	676
509.454	635
509.67	637
509.887	649
510.103	636
510.319	645
510.536	726
510.752	1166
510.968	966
511.184	645
511.401	610
511.617	619
511.833	607
512.049	591
512.265	591
512.481	596
512.698	588
512.914	605
513.13	597
513.346	600
513.562	593
513.778	598
513.994	606
514.21	609
514.426	622
514.642	659
514.858	683
515.074	730
515.29	833
515.506	1235
515.721	1023
515.937	727
516.153	669
516.369	637
516.585	653
516.801	637
517.016	668
517.232	679
517.448	676
517.664	676
517.879	684
518.095	673
518.311	661
518.527	647
518.742	628
518.958	641
519.173	644
519.389	639
519.605	647
519.82	614
520.036	611
520.251	623
520.467	638
520.682	639
520.898	680
521.113	679
521.329	704
521.544	753
521.76	942
521.975	1540
522.19	1579
522.406	862
522.621	675
522.836	636
523.052	595
523.267	557
523.482	553
523.698	555
523.913	556
524.128	563
524.343	535
524.559	533
524.774	517
524.989	517
525.204	535
525.419	541
525.634	516
525.849	504
526.064	521
526.28	523
526.495	499
526.71	509
526.925	497
527.14	503
527.355	507
527.57	518
527.785	507
527.999	481
528.214	518
528.429	486
528.644	494
528.859	481
529.074	507
529.289	517
529.503	584
529.718	570
529.933	529
530.148	526
530.363	493
530.577	487
530.792	467
531.007	480
531.221	522
531.436	491
531.651	490
531.865	480
532.08	493
532.295	471
532.509	484
532.724	478
532.938	490
533.153	475
533.367	475
533.582	479
533.796	471
534.011	477
534.225	478
534.44	458
534.654	505
534.868	470
535.083	478
535.297	477
535.511	486
535.726	496
535.94	478
536.154	485
536.369	464
536.583	468
536.797	471
537.011	449
537.225	457
537.44	444
537.654	466
537.868	473
538.082	475
538.296	459
538.51	455
538.724	447
538.938	459
539.153	445
539.367	474
539.581	487
539.795	449
540.009	444
540.222	463
540.436	469
540.65	465
540.864	469
541.078	478
541.292	483
541.506	464
541.72	425
541.934	453
542.147	471
542.361	454
542.575	445
542.789	439
543.002	441
543.216	468
543.43	461
543.644	464
543.857	432
544.071	439
544.285	448
544.498	448
544.712	461
544.925	471
545.139	448
545.352	434
545.566	432
545.779	445
545.993	436
546.206	439
546.42	461
546.633	433
546.847	445
547.06	446
547.274	441
547.487	430
547.7	432
547.914	437
548.127	405
548.34	436
548.554	434
548.767	441
548.98	434
549.193	455
549.407	464
549.62	453
549.833	435
550.046	444
550.259	451
550.473	416
550.686	432
550.899	431
551.112	436
551.325	457
551.538	443
551.751	434
551.964	436
552.177	411
552.39	417
552.603	435
552.816	427
553.029	425
553.242	449
553.455	463
553.667	484
553.88	480
554.093	461
554.306	483
554.519	452
554.732	448
554.944	436
555.157	422
555.37	425
555.583	438
555.795	413
556.008	414
556.221	408
556.433	403
556.646	397
556.859	404
557.071	385
557.284	384
557.496	384
557.709	393
557.921	388
558.134	391
558.346	406
558.559	398
558.771	387
558.984	391
559.196	403
559.409	406
559.621	399
559.833	384
560.046	358
560.258	382
560.47	379
560.683	389
560.895	380
561.107	392
561.32	377
561.532	393
561.744	375
561.956	390
562.168	408
562.381	393
562.593	384
562.805	394
563.017	400
563.229	384
563.441	382
