Data from 1985.PennyLincolnUp.Lamp.En5.5.200Scan.071819.P1_HRD10591_17-03-46-970.txt Node
Date: Thu Jul 18 17:03:46 EDT 2019
User: cochatt
Spectrometer: HR+D1059
Trigger mode: 1
Integration Time (sec): 1.000000E-1
Scans to average: 1
Electric dark correction enabled: true
Nonlinearity correction enabled: false
Boxcar width: 0
XAxis mode: Wavelengths
Number of Pixels in Spectrum: 2048
>>>>>Begin Spectral Data<<<<<
223.165	-23.88
223.4	-23.88
223.635	-23.88
223.869	-10.88
224.104	-12.88
224.338	-9.88
224.573	-16.88
224.808	-20.88
225.042	-13.88
225.277	-11.88
225.511	4.12
225.746	12.12
225.98	-2.88
226.215	-0.88
226.449	36.12
226.683	12.12
226.918	33.12
227.152	27.12
227.387	51.12
227.621	47.12
227.856	34.12
228.09	43.12
228.324	55.12
228.559	43.12
228.793	73.12
229.027	111.12
229.262	117.12
229.496	105.12
229.73	131.12
229.964	145.12
230.199	136.12
230.433	118.12
230.667	89.12
230.901	115.12
231.136	112.12
231.37	121.12
231.604	123.12
231.838	121.12
232.072	109.12
232.306	108.12
232.541	113.12
232.775	117.12
233.009	114.12
233.243	125.12
233.477	117.12
233.711	116.12
233.945	116.12
234.179	127.12
234.413	118.12
234.647	119.12
234.881	123.12
235.115	101.12
235.349	115.12
235.583	121.12
235.817	121.12
236.051	128.12
236.285	121.12
236.519	123.12
236.753	119.12
236.987	154.12
237.221	168.12
237.455	216.12
237.689	182.12
237.922	140.12
238.156	141.12
238.39	134.12
238.624	118.12
238.858	133.12
239.091	125.12
239.325	123.12
239.559	130.12
239.793	116.12
240.027	144.12
240.26	157.12
240.494	158.12
240.728	163.12
240.961	151.12
241.195	150.12
241.429	139.12
241.662	158.12
241.896	142.12
242.13	116.12
242.363	140.12
242.597	143.12
242.83	147.12
243.064	154.12
243.298	139.12
243.531	157.12
243.765	145.12
243.998	145.12
244.232	150.12
244.465	143.12
244.699	146.12
244.932	154.12
245.166	133.12
245.399	153.12
245.633	153.12
245.866	145.12
246.099	167.12
246.333	161.12
246.566	148.12
246.8	146.12
247.033	161.12
247.266	168.12
247.5	166.12
247.733	165.12
247.966	182.12
248.2	178.12
248.433	180.12
248.666	177.12
248.899	183.12
249.133	190.12
249.366	214.12
249.599	209.12
249.832	189.12
250.066	190.12
250.299	177.12
250.532	205.12
250.765	219.12
250.998	221.12
251.231	228.12
251.465	212.12
251.698	200.12
251.931	209.12
252.164	202.12
252.397	200.12
252.63	221.12
252.863	217.12
253.096	232.12
253.329	213.12
253.562	246.12
253.795	230.12
254.028	224.12
254.261	229.12
254.494	235.12
254.727	259.12
254.96	273.12
255.193	286.12
255.426	263.12
255.659	239.12
255.892	254.12
256.124	257.12
256.357	243.12
256.59	245.12
256.823	220.12
257.056	227.12
257.289	210.12
257.521	213.12
257.754	202.12
257.987	221.12
258.22	215.12
258.452	224.12
258.685	220.12
258.918	223.12
259.151	225.12
259.383	221.12
259.616	250.12
259.849	240.12
260.081	243.12
260.314	262.12
260.547	250.12
260.779	250.12
261.012	232.12
261.244	218.12
261.477	227.12
261.71	223.12
261.942	241.12
262.175	249.12
262.407	236.12
262.64	233.12
262.872	220.12
263.105	215.12
263.337	221.12
263.57	212.12
263.802	231.12
264.035	233.12
264.267	214.12
264.499	255.12
264.732	217.12
264.964	226.12
265.197	246.12
265.429	251.12
265.661	239.12
265.894	225.12
266.126	228.12
266.358	253.12
266.591	231.12
266.823	242.12
267.055	265.12
267.287	245.12
267.52	243.12
267.752	227.12
267.984	250.12
268.216	247.12
268.448	246.12
268.681	253.12
268.913	244.12
269.145	274.12
269.377	309.12
269.609	277.12
269.841	296.12
270.073	289.12
270.306	313.12
270.538	334.12
270.77	333.12
271.002	330.12
271.234	309.12
271.466	307.12
271.698	318.12
271.93	327.12
272.162	334.12
272.394	325.12
272.626	315.12
272.858	295.12
273.09	301.12
273.322	305.12
273.553	285.12
273.785	286.12
274.017	293.12
274.249	286.12
274.481	297.12
274.713	292.12
274.945	305.12
275.176	301.12
275.408	286.12
275.64	283.12
275.872	294.12
276.104	271.12
276.335	278.12
276.567	284.12
276.799	315.12
277.031	319.12
277.262	345.12
277.494	352.12
277.726	315.12
277.957	302.12
278.189	293.12
278.421	287.12
278.652	297.12
278.884	285.12
279.115	289.12
279.347	293.12
279.579	291.12
279.81	302.12
280.042	297.12
280.273	294.12
280.505	284.12
280.736	300.12
280.968	293.12
281.199	316.12
281.431	289.12
281.662	293.12
281.894	293.12
282.125	300.12
282.356	318.12
282.588	310.12
282.819	352.12
283.051	321.12
283.282	301.12
283.513	303.12
283.745	301.12
283.976	307.12
284.207	332.12
284.439	318.12
284.67	320.12
284.901	320.12
285.132	331.12
285.364	310.12
285.595	313.12
285.826	305.12
286.057	302.12
286.288	315.12
286.52	322.12
286.751	311.12
286.982	320.12
287.213	314.12
287.444	330.12
287.675	326.12
287.906	338.12
288.138	341.12
288.369	343.12
288.6	346.12
288.831	327.12
289.062	318.12
289.293	317.12
289.524	329.12
289.755	324.12
289.986	340.12
290.217	314.12
290.448	342.12
290.679	333.12
290.91	339.12
291.141	332.12
291.371	334.12
291.602	322.12
291.833	336.12
292.064	335.12
292.295	329.12
292.526	333.12
292.757	332.12
292.987	343.12
293.218	321.12
293.449	329.12
293.68	340.12
293.91	339.12
294.141	346.12
294.372	336.12
294.603	323.12
294.833	318.12
295.064	339.12
295.295	328.12
295.525	347.12
295.756	339.12
295.987	336.12
296.217	358.12
296.448	378.12
296.679	355.12
296.909	325.12
297.14	344.12
297.37	325.12
297.601	346.12
297.831	355.12
298.062	337.12
298.292	357.12
298.523	346.12
298.753	355.12
298.984	351.12
299.214	361.12
299.445	369.12
299.675	355.12
299.905	377.12
300.136	345.12
300.366	359.12
300.597	348.12
300.827	353.12
301.057	337.12
301.288	373.12
301.518	371.12
301.748	378.12
301.979	388.12
302.209	390.12
302.439	397.12
302.669	372.12
302.9	386.12
303.13	392.12
303.36	384.12
303.59	397.12
303.82	390.12
304.051	379.12
304.281	389.12
304.511	389.12
304.741	385.12
304.971	389.12
305.201	378.12
305.431	380.12
305.661	365.12
305.891	377.12
306.121	373.12
306.352	382.12
306.582	396.12
306.812	374.12
307.042	392.12
307.272	379.12
307.502	390.12
307.731	386.12
307.961	380.12
308.191	385.12
308.421	389.12
308.651	369.12
308.881	393.12
309.111	414.12
309.341	376.12
309.571	407.12
309.8	407.12
310.03	420.12
310.26	425.12
310.49	429.12
310.72	424.12
310.949	443.12
311.179	437.12
311.409	430.12
311.639	421.12
311.868	424.12
312.098	436.12
312.328	449.12
312.557	463.12
312.787	445.12
313.017	453.12
313.246	437.12
313.476	434.12
313.706	452.12
313.935	422.12
314.165	442.12
314.394	453.12
314.624	436.12
314.853	438.12
315.083	435.12
315.312	432.12
315.542	413.12
315.771	426.12
316.001	429.12
316.23	424.12
316.46	437.12
316.689	435.12
316.919	445.12
317.148	445.12
317.377	442.12
317.607	429.12
317.836	441.12
318.065	433.12
318.295	443.12
318.524	427.12
318.753	440.12
318.983	439.12
319.212	452.12
319.441	426.12
319.67	438.12
319.9	416.12
320.129	429.12
320.358	425.12
320.587	449.12
320.816	443.12
321.046	454.12
321.275	462.12
321.504	468.12
321.733	469.12
321.962	458.12
322.191	475.12
322.42	471.12
322.649	512.12
322.878	478.12
323.108	503.12
323.337	532.12
323.566	553.12
323.795	586.12
324.024	629.12
324.253	729.12
324.482	1018.12
324.71	1512.12
324.939	2143.12
325.168	1815.12
325.397	979.12
325.626	699.12
325.855	620.12
326.084	550.12
326.313	562.12
326.542	565.12
326.77	597.12
326.999	694.12
327.228	897.12
327.457	1335.12
327.686	1625.12
327.914	1073.12
328.143	730.12
328.372	677.12
328.6	629.12
328.829	592.12
329.058	621.12
329.287	643.12
329.515	594.12
329.744	565.12
329.972	577.12
330.201	609.12
330.43	631.12
330.658	649.12
330.887	688.12
331.115	638.12
331.344	588.12
331.572	559.12
331.801	559.12
332.03	555.12
332.258	548.12
332.486	548.12
332.715	529.12
332.943	552.12
333.172	539.12
333.4	557.12
333.629	551.12
333.857	567.12
334.085	570.12
334.314	604.12
334.542	633.12
334.771	643.12
334.999	592.12
335.227	580.12
335.455	557.12
335.684	552.12
335.912	510.12
336.14	517.12
336.369	535.12
336.597	535.12
336.825	516.12
337.053	499.12
337.281	525.12
337.51	499.12
337.738	502.12
337.966	511.12
338.194	521.12
338.422	504.12
338.65	490.12
338.878	504.12
339.106	495.12
339.334	493.12
339.562	481.12
339.79	486.12
340.018	478.12
340.246	481.12
340.474	487.12
340.702	470.12
340.93	485.12
341.158	497.12
341.386	478.12
341.614	493.12
341.842	478.12
342.07	500.12
342.298	474.12
342.526	469.12
342.754	478.12
342.981	482.12
343.209	470.12
343.437	516.12
343.665	495.12
343.893	521.12
344.12	505.12
344.348	527.12
344.576	502.12
344.804	493.12
345.031	516.12
345.259	506.12
345.487	504.12
345.714	467.12
345.942	479.12
346.17	456.12
346.397	457.12
346.625	486.12
346.853	459.12
347.08	445.12
347.308	454.12
347.535	471.12
347.763	469.12
347.99	465.12
348.218	476.12
348.445	473.12
348.673	485.12
348.9	475.12
349.128	441.12
349.355	439.12
349.583	462.12
349.81	442.12
350.037	448.12
350.265	476.12
350.492	474.12
350.72	462.12
350.947	443.12
351.174	454.12
351.402	479.12
351.629	469.12
351.856	452.12
352.083	479.12
352.311	466.12
352.538	475.12
352.765	457.12
352.992	467.12
353.22	469.12
353.447	456.12
353.674	467.12
353.901	434.12
354.128	435.12
354.355	438.12
354.583	425.12
354.81	435.12
355.037	451.12
355.264	442.12
355.491	423.12
355.718	437.12
355.945	421.12
356.172	435.12
356.399	433.12
356.626	418.12
356.853	419.12
357.08	436.12
357.307	441.12
357.534	413.12
357.761	423.12
357.988	433.12
358.215	435.12
358.441	434.12
358.668	435.12
358.895	438.12
359.122	447.12
359.349	454.12
359.576	464.12
359.802	472.12
360.029	481.12
360.256	513.12
360.483	496.12
360.709	468.12
360.936	475.12
361.163	471.12
361.39	461.12
361.616	459.12
361.843	474.12
362.07	459.12
362.296	470.12
362.523	462.12
362.749	450.12
362.976	438.12
363.203	440.12
363.429	447.12
363.656	451.12
363.882	453.12
364.109	436.12
364.335	438.12
364.562	454.12
364.788	444.12
365.015	446.12
365.241	419.12
365.468	434.12
365.694	424.12
365.92	442.12
366.147	437.12
366.373	452.12
366.599	444.12
366.826	438.12
367.052	434.12
367.278	433.12
367.505	428.12
367.731	430.12
367.957	457.12
368.184	451.12
368.41	442.12
368.636	443.12
368.862	462.12
369.089	431.12
369.315	441.12
369.541	438.12
369.767	429.12
369.993	442.12
370.219	427.12
370.445	462.12
370.672	439.12
370.898	430.12
371.124	447.12
371.35	455.12
371.576	464.12
371.802	439.12
372.028	444.12
372.254	438.12
372.48	439.12
372.706	444.12
372.932	443.12
373.158	427.12
373.384	459.12
373.61	446.12
373.835	468.12
374.061	439.12
374.287	447.12
374.513	433.12
374.739	461.12
374.965	436.12
375.191	461.12
375.416	455.12
375.642	461.12
375.868	449.12
376.094	428.12
376.319	437.12
376.545	428.12
376.771	436.12
376.997	440.12
377.222	430.12
377.448	413.12
377.674	445.12
377.899	430.12
378.125	420.12
378.35	450.12
378.576	415.12
378.802	425.12
379.027	435.12
379.253	428.12
379.478	430.12
379.704	447.12
379.929	413.12
380.155	437.12
380.38	433.12
380.606	438.12
380.831	444.12
381.057	433.12
381.282	413.12
381.507	431.12
381.733	427.12
381.958	457.12
382.184	451.12
382.409	455.12
382.634	441.12
382.86	453.12
383.085	455.12
383.31	463.12
383.535	470.12
383.761	461.12
383.986	464.12
384.211	447.12
384.436	457.12
384.662	466.12
384.887	473.12
385.112	473.12
385.337	482.12
385.562	484.12
385.787	478.12
386.013	492.12
386.238	508.12
386.463	497.12
386.688	500.12
386.913	483.12
387.138	484.12
387.363	471.12
387.588	459.12
387.813	461.12
388.038	462.12
388.263	484.12
388.488	470.12
388.713	487.12
388.938	474.12
389.163	469.12
389.387	469.12
389.612	493.12
389.837	486.12
390.062	467.12
390.287	458.12
390.512	478.12
390.736	488.12
390.961	475.12
391.186	502.12
391.411	497.12
391.636	476.12
391.86	485.12
392.085	502.12
392.31	486.12
392.534	531.12
392.759	500.12
392.984	486.12
393.208	490.12
393.433	485.12
393.658	506.12
393.882	498.12
394.107	495.12
394.331	502.12
394.556	490.12
394.78	484.12
395.005	494.12
395.229	490.12
395.454	497.12
395.678	506.12
395.903	506.12
396.127	546.12
396.352	552.12
396.576	501.12
396.801	483.12
397.025	492.12
397.249	520.12
397.474	533.12
397.698	518.12
397.922	507.12
398.147	531.12
398.371	548.12
398.595	567.12
398.82	593.12
399.044	598.12
399.268	619.12
399.492	662.12
399.717	687.12
399.941	719.12
400.165	703.12
400.389	695.12
400.613	652.12
400.837	605.12
401.062	574.12
401.286	573.12
401.51	558.12
401.734	558.12
401.958	571.12
402.182	561.12
402.406	583.12
402.63	598.12
402.854	565.12
403.078	552.12
403.302	593.12
403.526	592.12
403.75	597.12
403.974	618.12
404.198	583.12
404.422	595.12
404.645	616.12
404.869	615.12
405.093	631.12
405.317	674.12
405.541	702.12
405.765	638.12
405.988	614.12
406.212	615.12
406.436	658.12
406.66	655.12
406.883	644.12
407.107	656.12
407.331	717.12
407.555	746.12
407.778	784.12
408.002	720.12
408.226	657.12
408.449	668.12
408.673	629.12
408.896	652.12
409.12	703.12
409.344	673.12
409.567	610.12
409.791	586.12
410.014	572.12
410.238	603.12
410.461	596.12
410.685	577.12
410.908	578.12
411.132	634.12
411.355	642.12
411.578	642.12
411.802	603.12
412.025	602.12
412.249	600.12
412.472	622.12
412.695	655.12
412.919	650.12
413.142	590.12
413.365	572.12
413.589	538.12
413.812	581.12
414.035	578.12
414.258	567.12
414.482	561.12
414.705	550.12
414.928	569.12
415.151	559.12
415.374	550.12
415.597	568.12
415.821	542.12
416.044	565.12
416.267	564.12
416.49	550.12
416.713	522.12
416.936	547.12
417.159	533.12
417.382	556.12
417.605	574.12
417.828	550.12
418.051	586.12
418.274	589.12
418.497	546.12
418.72	571.12
418.943	561.12
419.166	556.12
419.389	598.12
419.611	582.12
419.834	589.12
420.057	594.12
420.28	575.12
420.503	580.12
420.726	583.12
420.948	584.12
421.171	629.12
421.394	631.12
421.617	597.12
421.839	553.12
422.062	576.12
422.285	589.12
422.507	638.12
422.73	691.12
422.953	683.12
423.175	602.12
423.398	595.12
423.621	595.12
423.843	615.12
424.066	635.12
424.288	609.12
424.511	647.12
424.733	668.12
424.956	755.12
425.178	701.12
425.401	711.12
425.623	718.12
425.846	615.12
426.068	580.12
426.291	575.12
426.513	591.12
426.735	596.12
426.958	645.12
427.18	708.12
427.402	829.12
427.625	918.12
427.847	813.12
428.069	680.12
428.292	612.12
428.514	591.12
428.736	547.12
428.958	567.12
429.181	535.12
429.403	539.12
429.625	541.12
429.847	569.12
430.069	625.12
430.292	605.12
430.514	549.12
430.736	567.12
430.958	540.12
431.18	531.12
431.402	520.12
431.624	508.12
431.846	517.12
432.068	525.12
432.29	518.12
432.512	513.12
432.734	525.12
432.956	519.12
433.178	520.12
433.4	534.12
433.622	531.12
433.844	512.12
434.066	513.12
434.287	515.12
434.509	549.12
434.731	538.12
434.953	542.12
435.175	573.12
435.397	565.12
435.618	591.12
435.84	631.12
436.062	702.12
436.284	791.12
436.505	653.12
436.727	587.12
436.949	547.12
437.17	538.12
437.392	546.12
437.614	562.12
437.835	601.12
438.057	674.12
438.278	762.12
438.5	753.12
438.721	827.12
438.943	771.12
439.165	643.12
439.386	598.12
439.608	581.12
439.829	584.12
440.05	628.12
440.272	650.12
440.493	577.12
440.715	575.12
440.936	542.12
441.158	550.12
441.379	532.12
441.6	585.12
441.822	571.12
442.043	627.12
442.264	708.12
442.486	734.12
442.707	620.12
442.928	600.12
443.149	613.12
443.371	638.12
443.592	676.12
443.813	747.12
444.034	817.12
444.255	698.12
444.476	638.12
444.698	613.12
444.919	645.12
445.14	743.12
445.361	657.12
445.582	643.12
445.803	697.12
446.024	777.12
446.245	790.12
446.466	719.12
446.687	610.12
446.908	575.12
447.129	561.12
447.35	555.12
447.571	543.12
447.792	518.12
448.013	518.12
448.234	535.12
448.455	588.12
448.675	700.12
448.896	811.12
449.117	693.12
449.338	654.12
449.559	769.12
449.779	847.12
450	681.12
450.221	577.12
450.442	511.12
450.662	513.12
450.883	506.12
451.104	548.12
451.324	532.12
451.545	497.12
451.766	490.12
451.986	473.12
452.207	486.12
452.428	468.12
452.648	483.12
452.869	487.12
453.089	497.12
453.31	509.12
453.53	486.12
453.751	475.12
453.971	463.12
454.192	490.12
454.412	494.12
454.633	486.12
454.853	466.12
455.073	477.12
455.294	511.12
455.514	582.12
455.734	544.12
455.955	460.12
456.175	445.12
456.395	473.12
456.616	458.12
456.836	464.12
457.056	443.12
457.276	431.12
457.497	461.12
457.717	470.12
457.937	467.12
458.157	480.12
458.377	458.12
458.598	484.12
458.818	552.12
459.038	629.12
459.258	652.12
459.478	564.12
459.698	537.12
459.918	545.12
460.138	553.12
460.358	561.12
460.578	561.12
460.798	547.12
461.018	564.12
461.238	543.12
461.458	548.12
461.678	532.12
461.898	562.12
462.118	554.12
462.338	600.12
462.558	586.12
462.777	565.12
462.997	617.12
463.217	641.12
463.437	626.12
463.657	591.12
463.876	597.12
464.096	598.12
464.316	593.12
464.536	626.12
464.755	591.12
464.975	580.12
465.195	617.12
465.414	661.12
465.634	605.12
465.854	554.12
466.073	526.12
466.293	516.12
466.512	502.12
466.732	527.12
466.951	503.12
467.171	468.12
467.391	510.12
467.61	508.12
467.829	513.12
468.049	500.12
468.268	523.12
468.488	504.12
468.707	500.12
468.927	487.12
469.146	495.12
469.365	490.12
469.585	478.12
469.804	506.12
470.023	517.12
470.243	525.12
470.462	521.12
470.681	543.12
470.901	550.12
471.12	515.12
471.339	500.12
471.558	513.12
471.777	508.12
471.997	493.12
472.216	515.12
472.435	522.12
472.654	521.12
472.873	490.12
473.092	483.12
473.311	503.12
473.53	507.12
473.749	516.12
473.968	544.12
474.187	636.12
474.406	653.12
474.625	561.12
474.844	519.12
475.063	494.12
475.282	505.12
475.501	481.12
475.72	491.12
475.939	508.12
476.158	525.12
476.377	500.12
476.596	518.12
476.814	517.12
477.033	563.12
477.252	521.12
477.471	537.12
477.69	565.12
477.908	561.12
478.127	549.12
478.346	545.12
478.564	590.12
478.783	576.12
479.002	592.12
479.22	608.12
479.439	594.12
479.658	609.12
479.876	611.12
480.095	619.12
480.313	645.12
480.532	639.12
480.751	618.12
480.969	645.12
481.188	655.12
481.406	726.12
481.624	652.12
481.843	607.12
482.061	600.12
482.28	579.12
482.498	591.12
482.717	595.12
482.935	568.12
483.153	563.12
483.372	577.12
483.59	579.12
483.808	566.12
484.027	590.12
484.245	588.12
484.463	589.12
484.681	585.12
484.9	577.12
485.118	598.12
485.336	617.12
485.554	593.12
485.772	605.12
485.99	617.12
486.209	607.12
486.427	622.12
486.645	601.12
486.863	634.12
487.081	613.12
487.299	633.12
487.517	611.12
487.735	625.12
487.953	627.12
488.171	613.12
488.389	611.12
488.607	616.12
488.825	607.12
489.043	627.12
489.261	633.12
489.479	628.12
489.696	618.12
489.914	656.12
490.132	641.12
490.35	659.12
490.568	641.12
490.786	659.12
491.003	649.12
491.221	681.12
491.439	691.12
491.657	710.12
491.874	735.12
492.092	729.12
492.31	716.12
492.527	708.12
492.745	724.12
492.963	729.12
493.18	725.12
493.398	729.12
493.615	723.12
493.833	739.12
494.05	731.12
494.268	722.12
494.485	727.12
494.703	716.12
494.92	727.12
495.138	735.12
495.355	739.12
495.573	707.12
495.79	726.12
496.008	729.12
496.225	735.12
496.442	743.12
496.66	747.12
496.877	739.12
497.094	741.12
497.312	748.12
497.529	753.12
497.746	794.12
497.963	814.12
498.181	836.12
498.398	846.12
498.615	869.12
498.832	885.12
499.049	917.12
499.267	930.12
499.484	969.12
499.701	994.12
499.918	1054.12
500.135	1167.12
500.352	1217.12
500.569	1276.12
500.786	1276.12
501.003	1217.12
501.22	1182.12
501.437	1075.12
501.654	1025.12
