Data from 1985.PennyLincolnUp.Lamp.En5.5.200Scan.071819.P1_HRD10591_17-03-28-971.txt Node
Date: Thu Jul 18 17:03:28 EDT 2019
User: cochatt
Spectrometer: HR+D1059
Trigger mode: 1
Integration Time (sec): 1.000000E-1
Scans to average: 1
Electric dark correction enabled: true
Nonlinearity correction enabled: false
Boxcar width: 0
XAxis mode: Wavelengths
Number of Pixels in Spectrum: 2048
>>>>>Begin Spectral Data<<<<<
223.165	-13.31
223.4	-13.31
223.635	-13.31
223.869	-13.31
224.104	-20.31
224.338	6.69
224.573	-15.31
224.808	-25.31
225.042	-7.31
225.277	-11.31
225.511	-3.31
225.746	-11.31
225.98	6.69
226.215	6.69
226.449	0.69
226.683	36.69
226.918	29.69
227.152	33.69
227.387	30.69
227.621	30.69
227.856	45.69
228.09	45.69
228.324	63.69
228.559	41.69
228.793	44.69
229.027	73.69
229.262	92.69
229.496	95.69
229.73	117.69
229.964	149.69
230.199	132.69
230.433	97.69
230.667	107.69
230.901	109.69
231.136	108.69
231.37	104.69
231.604	113.69
231.838	117.69
232.072	111.69
232.306	112.69
232.541	109.69
232.775	107.69
233.009	109.69
233.243	120.69
233.477	111.69
233.711	119.69
233.945	117.69
234.179	111.69
234.413	105.69
234.647	127.69
234.881	125.69
235.115	117.69
235.349	120.69
235.583	111.69
235.817	114.69
236.051	108.69
236.285	125.69
236.519	117.69
236.753	129.69
236.987	140.69
237.221	184.69
237.455	223.69
237.689	183.69
237.922	150.69
238.156	121.69
238.39	133.69
238.624	123.69
238.858	119.69
239.091	121.69
239.325	116.69
239.559	122.69
239.793	121.69
240.027	133.69
240.26	127.69
240.494	147.69
240.728	154.69
240.961	150.69
241.195	139.69
241.429	129.69
241.662	139.69
241.896	124.69
242.13	129.69
242.363	129.69
242.597	130.69
242.83	141.69
243.064	143.69
243.298	131.69
243.531	131.69
243.765	130.69
243.998	141.69
244.232	142.69
244.465	147.69
244.699	131.69
244.932	160.69
245.166	142.69
245.399	156.69
245.633	144.69
245.866	149.69
246.099	154.69
246.333	155.69
246.566	157.69
246.8	151.69
247.033	146.69
247.266	167.69
247.5	162.69
247.733	175.69
247.966	159.69
248.2	161.69
248.433	179.69
248.666	168.69
248.899	183.69
249.133	192.69
249.366	188.69
249.599	195.69
249.832	179.69
250.066	195.69
250.299	165.69
250.532	216.69
250.765	192.69
250.998	205.69
251.231	228.69
251.465	217.69
251.698	206.69
251.931	191.69
252.164	207.69
252.397	206.69
252.63	196.69
252.863	215.69
253.096	241.69
253.329	222.69
253.562	229.69
253.795	206.69
254.028	207.69
254.261	216.69
254.494	212.69
254.727	255.69
254.96	255.69
255.193	258.69
255.426	247.69
255.659	224.69
255.892	239.69
256.124	227.69
256.357	233.69
256.59	220.69
256.823	221.69
257.056	204.69
257.289	220.69
257.521	221.69
257.754	207.69
257.987	199.69
258.22	214.69
258.452	195.69
258.685	213.69
258.918	213.69
259.151	204.69
259.383	218.69
259.616	209.69
259.849	243.69
260.081	227.69
260.314	253.69
260.547	259.69
260.779	245.69
261.012	241.69
261.244	238.69
261.477	231.69
261.71	231.69
261.942	213.69
262.175	243.69
262.407	225.69
262.64	223.69
262.872	240.69
263.105	227.69
263.337	233.69
263.57	218.69
263.802	203.69
264.035	225.69
264.267	226.69
264.499	212.69
264.732	227.69
264.964	212.69
265.197	219.69
265.429	211.69
265.661	230.69
265.894	228.69
266.126	224.69
266.358	245.69
266.591	226.69
266.823	234.69
267.055	229.69
267.287	253.69
267.52	236.69
267.752	260.69
267.984	241.69
268.216	240.69
268.448	249.69
268.681	269.69
268.913	243.69
269.145	282.69
269.377	275.69
269.609	300.69
269.841	293.69
270.073	267.69
270.306	299.69
270.538	314.69
270.77	347.69
271.002	301.69
271.234	305.69
271.466	316.69
271.698	311.69
271.93	317.69
272.162	324.69
272.394	326.69
272.626	297.69
272.858	288.69
273.09	289.69
273.322	289.69
273.553	279.69
273.785	281.69
274.017	290.69
274.249	278.69
274.481	269.69
274.713	267.69
274.945	267.69
275.176	269.69
275.408	285.69
275.64	276.69
275.872	281.69
276.104	287.69
276.335	296.69
276.567	279.69
276.799	282.69
277.031	308.69
277.262	326.69
277.494	343.69
277.726	313.69
277.957	309.69
278.189	289.69
278.421	285.69
278.652	282.69
278.884	298.69
279.115	292.69
279.347	286.69
279.579	282.69
279.81	292.69
280.042	276.69
280.273	283.69
280.505	285.69
280.736	280.69
280.968	279.69
281.199	308.69
281.431	299.69
281.662	279.69
281.894	306.69
282.125	296.69
282.356	300.69
282.588	327.69
282.819	318.69
283.051	295.69
283.282	298.69
283.513	299.69
283.745	307.69
283.976	303.69
284.207	311.69
284.439	315.69
284.67	295.69
284.901	301.69
285.132	308.69
285.364	297.69
285.595	321.69
285.826	299.69
286.057	311.69
286.288	287.69
286.52	309.69
286.751	305.69
286.982	305.69
287.213	317.69
287.444	319.69
287.675	314.69
287.906	314.69
288.138	338.69
288.369	331.69
288.6	322.69
288.831	309.69
289.062	322.69
289.293	313.69
289.524	300.69
289.755	309.69
289.986	331.69
290.217	314.69
290.448	318.69
290.679	328.69
290.91	321.69
291.141	339.69
291.371	315.69
291.602	327.69
291.833	325.69
292.064	303.69
292.295	327.69
292.526	323.69
292.757	324.69
292.987	309.69
293.218	328.69
293.449	321.69
293.68	326.69
293.91	322.69
294.141	327.69
294.372	312.69
294.603	324.69
294.833	350.69
295.064	319.69
295.295	324.69
295.525	319.69
295.756	338.69
295.987	316.69
296.217	340.69
296.448	381.69
296.679	342.69
296.909	333.69
297.14	337.69
297.37	338.69
297.601	347.69
297.831	355.69
298.062	330.69
298.292	330.69
298.523	352.69
298.753	346.69
298.984	356.69
299.214	356.69
299.445	351.69
299.675	345.69
299.905	356.69
300.136	360.69
300.366	365.69
300.597	349.69
300.827	345.69
301.057	340.69
301.288	370.69
301.518	367.69
301.748	369.69
301.979	364.69
302.209	342.69
302.439	351.69
302.669	377.69
302.9	367.69
303.13	372.69
303.36	360.69
303.59	364.69
303.82	377.69
304.051	385.69
304.281	375.69
304.511	356.69
304.741	343.69
304.971	344.69
305.201	359.69
305.431	360.69
305.661	372.69
305.891	353.69
306.121	360.69
306.352	379.69
306.582	356.69
306.812	357.69
307.042	375.69
307.272	392.69
307.502	360.69
307.731	371.69
307.961	379.69
308.191	382.69
308.421	379.69
308.651	385.69
308.881	352.69
309.111	377.69
309.341	371.69
309.571	381.69
309.8	408.69
310.03	380.69
310.26	402.69
310.49	406.69
310.72	425.69
310.949	434.69
311.179	415.69
311.409	395.69
311.639	398.69
311.868	417.69
312.098	412.69
312.328	403.69
312.557	444.69
312.787	455.69
313.017	449.69
313.246	440.69
313.476	411.69
313.706	392.69
313.935	412.69
314.165	435.69
314.394	420.69
314.624	439.69
314.853	440.69
315.083	412.69
315.312	422.69
315.542	415.69
315.771	411.69
316.001	398.69
316.23	385.69
316.46	398.69
316.689	408.69
316.919	424.69
317.148	411.69
317.377	420.69
317.607	419.69
317.836	403.69
318.065	417.69
318.295	433.69
318.524	435.69
318.753	419.69
318.983	395.69
319.212	429.69
319.441	450.69
319.67	434.69
319.9	419.69
320.129	417.69
320.358	404.69
320.587	417.69
320.816	426.69
321.046	457.69
321.275	436.69
321.504	429.69
321.733	432.69
321.962	441.69
322.191	452.69
322.42	453.69
322.649	462.69
322.878	463.69
323.108	464.69
323.337	514.69
323.566	550.69
323.795	536.69
324.024	582.69
324.253	701.69
324.482	963.69
324.71	1449.69
324.939	2085.69
325.168	1760.69
325.397	945.69
325.626	659.69
325.855	568.69
326.084	540.69
326.313	529.69
326.542	540.69
326.77	574.69
326.999	664.69
327.228	871.69
327.457	1302.69
327.686	1556.69
327.914	1044.69
328.143	707.69
328.372	645.69
328.6	610.69
328.829	581.69
329.058	608.69
329.287	609.69
329.515	564.69
329.744	553.69
329.972	523.69
330.201	558.69
330.43	588.69
330.658	599.69
330.887	641.69
331.115	618.69
331.344	546.69
331.572	532.69
331.801	529.69
332.03	521.69
332.258	523.69
332.486	522.69
332.715	507.69
332.943	534.69
333.172	499.69
333.4	532.69
333.629	530.69
333.857	532.69
334.085	577.69
334.314	575.69
334.542	595.69
334.771	599.69
334.999	538.69
335.227	536.69
335.455	528.69
335.684	496.69
335.912	523.69
336.14	485.69
336.369	489.69
336.597	491.69
336.825	518.69
337.053	517.69
337.281	503.69
337.51	501.69
337.738	500.69
337.966	486.69
338.194	474.69
338.422	491.69
338.65	484.69
338.878	475.69
339.106	493.69
339.334	483.69
339.562	473.69
339.79	469.69
340.018	475.69
340.246	475.69
340.474	463.69
340.702	484.69
340.93	468.69
341.158	467.69
341.386	470.69
341.614	468.69
341.842	481.69
342.07	465.69
342.298	467.69
342.526	446.69
342.754	440.69
342.981	458.69
343.209	452.69
343.437	466.69
343.665	463.69
343.893	495.69
344.12	492.69
344.348	506.69
344.576	497.69
344.804	482.69
345.031	477.69
345.259	494.69
345.487	477.69
345.714	473.69
345.942	473.69
346.17	465.69
346.397	454.69
346.625	436.69
346.853	445.69
347.08	448.69
347.308	456.69
347.535	457.69
347.763	464.69
347.99	467.69
348.218	454.69
348.445	468.69
348.673	473.69
348.9	450.69
349.128	455.69
349.355	434.69
349.583	435.69
349.81	433.69
350.037	441.69
350.265	432.69
350.492	439.69
350.72	429.69
350.947	458.69
351.174	436.69
351.402	464.69
351.629	448.69
351.856	432.69
352.083	428.69
352.311	461.69
352.538	470.69
352.765	467.69
352.992	456.69
353.22	441.69
353.447	412.69
353.674	433.69
353.901	439.69
354.128	421.69
354.355	435.69
354.583	433.69
354.81	415.69
355.037	415.69
355.264	427.69
355.491	400.69
355.718	433.69
355.945	419.69
356.172	434.69
356.399	430.69
356.626	398.69
356.853	409.69
357.08	407.69
357.307	399.69
357.534	431.69
357.761	397.69
357.988	423.69
358.215	418.69
358.441	403.69
358.668	412.69
358.895	408.69
359.122	419.69
359.349	439.69
359.576	446.69
359.802	448.69
360.029	483.69
360.256	477.69
360.483	470.69
360.709	440.69
360.936	463.69
361.163	441.69
361.39	450.69
361.616	462.69
361.843	431.69
362.07	436.69
362.296	454.69
362.523	437.69
362.749	437.69
362.976	440.69
363.203	426.69
363.429	429.69
363.656	447.69
363.882	417.69
364.109	422.69
364.335	432.69
364.562	415.69
364.788	421.69
365.015	411.69
365.241	427.69
365.468	433.69
365.694	421.69
365.92	437.69
366.147	429.69
366.373	426.69
366.599	418.69
366.826	418.69
367.052	427.69
367.278	415.69
367.505	403.69
367.731	420.69
367.957	435.69
368.184	417.69
368.41	425.69
368.636	449.69
368.862	433.69
369.089	432.69
369.315	433.69
369.541	416.69
369.767	429.69
369.993	412.69
370.219	415.69
370.445	422.69
370.672	413.69
370.898	427.69
371.124	415.69
371.35	408.69
371.576	429.69
371.802	415.69
372.028	419.69
372.254	412.69
372.48	429.69
372.706	436.69
372.932	453.69
373.158	433.69
373.384	429.69
373.61	431.69
373.835	427.69
374.061	419.69
374.287	420.69
374.513	438.69
374.739	447.69
374.965	449.69
375.191	407.69
375.416	431.69
375.642	448.69
375.868	431.69
376.094	439.69
376.319	424.69
376.545	435.69
376.771	433.69
376.997	439.69
377.222	418.69
377.448	399.69
377.674	432.69
377.899	414.69
378.125	398.69
378.35	415.69
378.576	425.69
378.802	428.69
379.027	427.69
379.253	417.69
379.478	422.69
379.704	419.69
379.929	405.69
380.155	414.69
380.38	421.69
380.606	416.69
380.831	409.69
381.057	415.69
381.282	418.69
381.507	405.69
381.733	423.69
381.958	385.69
382.184	431.69
382.409	429.69
382.634	431.69
382.86	443.69
383.085	440.69
383.31	438.69
383.535	437.69
383.761	437.69
383.986	449.69
384.211	447.69
384.436	435.69
384.662	437.69
384.887	453.69
385.112	471.69
385.337	435.69
385.562	477.69
385.787	451.69
386.013	486.69
386.238	483.69
386.463	479.69
386.688	459.69
386.913	470.69
387.138	465.69
387.363	472.69
387.588	459.69
387.813	458.69
388.038	452.69
388.263	460.69
388.488	453.69
388.713	473.69
388.938	467.69
389.163	477.69
389.387	486.69
389.612	459.69
389.837	472.69
390.062	457.69
390.287	474.69
390.512	452.69
390.736	458.69
390.961	462.69
391.186	466.69
391.411	491.69
391.636	482.69
391.86	488.69
392.085	488.69
392.31	476.69
392.534	489.69
392.759	484.69
392.984	467.69
393.208	473.69
393.433	477.69
393.658	479.69
393.882	477.69
394.107	475.69
394.331	480.69
394.556	477.69
394.78	493.69
395.005	487.69
395.229	485.69
395.454	485.69
395.678	490.69
395.903	504.69
396.127	513.69
396.352	528.69
396.576	504.69
396.801	485.69
397.025	485.69
397.249	471.69
397.474	504.69
397.698	492.69
397.922	515.69
398.147	516.69
398.371	555.69
398.595	544.69
398.82	546.69
399.044	559.69
399.268	570.69
399.492	626.69
399.717	684.69
399.941	699.69
400.165	703.69
400.389	675.69
400.613	635.69
400.837	594.69
401.062	571.69
401.286	549.69
401.51	562.69
401.734	519.69
401.958	554.69
402.182	552.69
402.406	572.69
402.63	563.69
402.854	563.69
403.078	553.69
403.302	578.69
403.526	596.69
403.75	577.69
403.974	583.69
404.198	591.69
404.422	591.69
404.645	600.69
404.869	594.69
405.093	625.69
405.317	630.69
405.541	663.69
405.765	637.69
405.988	599.69
406.212	615.69
406.436	605.69
406.66	632.69
406.883	639.69
407.107	646.69
407.331	680.69
407.555	769.69
407.778	742.69
408.002	679.69
408.226	624.69
408.449	627.69
408.673	599.69
408.896	653.69
409.12	668.69
409.344	634.69
409.567	567.69
409.791	580.69
410.014	564.69
410.238	546.69
410.461	562.69
410.685	549.69
410.908	576.69
411.132	603.69
411.355	656.69
411.578	585.69
411.802	559.69
412.025	573.69
412.249	585.69
412.472	578.69
412.695	623.69
412.919	602.69
413.142	569.69
413.365	557.69
413.589	560.69
413.812	548.69
414.035	533.69
414.258	532.69
414.482	535.69
414.705	521.69
414.928	533.69
415.151	531.69
415.374	521.69
415.597	530.69
415.821	535.69
416.044	517.69
416.267	525.69
416.49	525.69
416.713	523.69
416.936	497.69
417.159	529.69
417.382	531.69
417.605	520.69
417.828	555.69
418.051	535.69
418.274	558.69
418.497	520.69
418.72	522.69
418.943	547.69
419.166	552.69
419.389	571.69
419.611	551.69
419.834	541.69
420.057	585.69
420.28	559.69
420.503	561.69
420.726	557.69
420.948	541.69
421.171	596.69
421.394	609.69
421.617	557.69
421.839	547.69
422.062	543.69
422.285	557.69
422.507	591.69
422.73	661.69
422.953	652.69
423.175	584.69
423.398	583.69
423.621	579.69
423.843	580.69
424.066	607.69
424.288	566.69
424.511	612.69
424.733	671.69
424.956	748.69
425.178	697.69
425.401	685.69
425.623	675.69
425.846	599.69
426.068	565.69
426.291	559.69
426.513	553.69
426.735	561.69
426.958	619.69
427.18	682.69
427.402	816.69
427.625	899.69
427.847	747.69
428.069	676.69
428.292	603.69
428.514	563.69
428.736	574.69
428.958	535.69
429.181	506.69
429.403	533.69
429.625	536.69
429.847	542.69
430.069	625.69
430.292	628.69
430.514	545.69
430.736	535.69
430.958	526.69
431.18	520.69
431.402	504.69
431.624	486.69
431.846	490.69
432.068	476.69
432.29	473.69
432.512	516.69
432.734	519.69
432.956	496.69
433.178	506.69
433.4	505.69
433.622	500.69
433.844	511.69
434.066	480.69
434.287	516.69
434.509	517.69
434.731	526.69
434.953	526.69
435.175	550.69
435.397	579.69
435.618	571.69
435.84	596.69
436.062	692.69
436.284	769.69
436.505	607.69
436.727	565.69
436.949	551.69
437.17	533.69
437.392	518.69
437.614	538.69
437.835	552.69
438.057	639.69
438.278	747.69
438.5	715.69
438.721	819.69
438.943	756.69
439.165	623.69
439.386	561.69
439.608	562.69
439.829	547.69
440.05	601.69
440.272	635.69
440.493	593.69
440.715	553.69
440.936	544.69
441.158	550.69
441.379	543.69
441.6	581.69
441.822	556.69
442.043	597.69
442.264	667.69
442.486	696.69
442.707	605.69
442.928	578.69
443.149	603.69
443.371	607.69
443.592	628.69
443.813	744.69
444.034	789.69
444.255	673.69
444.476	615.69
444.698	628.69
444.919	621.69
445.14	736.69
445.361	651.69
445.582	634.69
445.803	680.69
446.024	742.69
446.245	764.69
446.466	685.69
446.687	589.69
446.908	567.69
447.129	523.69
447.35	503.69
447.571	508.69
447.792	482.69
448.013	505.69
448.234	548.69
448.455	579.69
448.675	685.69
448.896	783.69
449.117	671.69
449.338	625.69
449.559	754.69
449.779	819.69
450	659.69
450.221	552.69
450.442	539.69
450.662	525.69
450.883	515.69
451.104	507.69
451.324	516.69
451.545	503.69
451.766	495.69
451.986	464.69
452.207	460.69
452.428	451.69
452.648	441.69
452.869	489.69
453.089	483.69
453.31	503.69
453.53	480.69
453.751	473.69
453.971	456.69
454.192	479.69
454.412	472.69
454.633	445.69
454.853	480.69
455.073	459.69
455.294	491.69
455.514	538.69
455.734	537.69
455.955	467.69
456.175	439.69
456.395	422.69
456.616	440.69
456.836	441.69
457.056	429.69
457.276	427.69
457.497	433.69
457.717	441.69
457.937	453.69
458.157	463.69
458.377	464.69
458.598	479.69
458.818	535.69
459.038	595.69
459.258	620.69
459.478	560.69
459.698	513.69
459.918	515.69
460.138	519.69
460.358	506.69
460.578	517.69
460.798	553.69
461.018	553.69
461.238	551.69
461.458	536.69
461.678	536.69
461.898	543.69
462.118	547.69
462.338	554.69
462.558	542.69
462.777	562.69
462.997	595.69
463.217	604.69
463.437	641.69
463.657	589.69
463.876	593.69
464.096	586.69
464.316	561.69
464.536	597.69
464.755	577.69
464.975	584.69
465.195	605.69
465.414	651.69
465.634	582.69
465.854	515.69
466.073	503.69
466.293	513.69
466.512	488.69
466.732	472.69
466.951	492.69
467.171	488.69
467.391	495.69
467.61	490.69
467.829	488.69
468.049	484.69
468.268	487.69
468.488	493.69
468.707	453.69
468.927	460.69
469.146	465.69
469.365	479.69
469.585	489.69
469.804	510.69
470.023	507.69
470.243	496.69
470.462	488.69
470.681	513.69
470.901	494.69
471.12	488.69
471.339	502.69
471.558	488.69
471.777	477.69
471.997	471.69
472.216	487.69
472.435	505.69
472.654	499.69
472.873	490.69
473.092	475.69
473.311	467.69
473.53	488.69
473.749	491.69
473.968	539.69
474.187	624.69
474.406	628.69
474.625	560.69
474.844	495.69
475.063	475.69
475.282	487.69
475.501	482.69
475.72	492.69
475.939	478.69
476.158	488.69
476.377	500.69
476.596	484.69
476.814	515.69
477.033	509.69
477.252	519.69
477.471	522.69
477.69	548.69
477.908	523.69
478.127	511.69
478.346	532.69
478.564	569.69
478.783	537.69
479.002	572.69
479.22	571.69
479.439	585.69
479.658	589.69
479.876	566.69
480.095	607.69
480.313	624.69
480.532	613.69
480.751	612.69
480.969	601.69
481.188	659.69
481.406	669.69
481.624	611.69
481.843	584.69
482.061	588.69
482.28	572.69
482.498	548.69
482.717	548.69
482.935	555.69
483.153	548.69
483.372	568.69
483.59	567.69
483.808	568.69
484.027	565.69
484.245	601.69
484.463	577.69
484.681	575.69
484.9	574.69
485.118	587.69
485.336	569.69
485.554	592.69
485.772	593.69
485.99	561.69
486.209	586.69
486.427	577.69
486.645	564.69
486.863	609.69
487.081	589.69
487.299	600.69
487.517	610.69
487.735	604.69
487.953	607.69
488.171	585.69
488.389	594.69
488.607	613.69
488.825	612.69
489.043	606.69
489.261	612.69
489.479	612.69
489.696	634.69
489.914	609.69
490.132	609.69
490.35	626.69
490.568	645.69
490.786	646.69
491.003	648.69
491.221	656.69
491.439	680.69
491.657	676.69
491.874	699.69
492.092	679.69
492.31	680.69
492.527	678.69
492.745	700.69
492.963	690.69
493.18	698.69
493.398	705.69
493.615	708.69
493.833	727.69
494.05	704.69
494.268	719.69
494.485	723.69
494.703	712.69
494.92	692.69
495.138	703.69
495.355	727.69
495.573	692.69
495.79	730.69
496.008	761.69
496.225	741.69
496.442	712.69
496.66	731.69
496.877	691.69
497.094	705.69
497.312	726.69
497.529	725.69
497.746	744.69
497.963	781.69
498.181	780.69
498.398	821.69
498.615	824.69
498.832	835.69
499.049	908.69
499.267	901.69
499.484	919.69
499.701	988.69
499.918	1055.69
500.135	1116.69
500.352	1171.69
500.569	1228.69
500.786	1243.69
501.003	1205.69
501.22	1151.69
501.437	1059.69
501.654	1021.69
501.871	972.69
