Data from 1985.PennyLincolnUp.Lamp.En5.5.200Scan.071819.P1_HRD10591_17-01-40-970.txt Node
Date: Thu Jul 18 17:01:40 EDT 2019
User: cochatt
Spectrometer: HR+D1059
Trigger mode: 1
Integration Time (sec): 1.000000E-1
Scans to average: 1
Electric dark correction enabled: true
Nonlinearity correction enabled: false
Boxcar width: 0
XAxis mode: Wavelengths
Number of Pixels in Spectrum: 2048
>>>>>Begin Spectral Data<<<<<
223.165	-11.19
223.4	-11.19
223.635	-11.19
223.869	-20.19
224.104	-12.19
224.338	-4.19
224.573	-3.19
224.808	-11.19
225.042	-12.19
225.277	-14.19
225.511	0.81
225.746	6.81
225.98	-3.19
226.215	3.81
226.449	22.81
226.683	23.81
226.918	11.81
227.152	21.81
227.387	25.81
227.621	25.81
227.856	29.81
228.09	41.81
228.324	38.81
228.559	59.81
228.793	66.81
229.027	89.81
229.262	95.81
229.496	106.81
229.73	109.81
229.964	125.81
230.199	110.81
230.433	102.81
230.667	115.81
230.901	107.81
231.136	97.81
231.37	104.81
231.604	108.81
231.838	102.81
232.072	123.81
232.306	126.81
232.541	118.81
232.775	112.81
233.009	105.81
233.243	114.81
233.477	102.81
233.711	114.81
233.945	125.81
234.179	120.81
234.413	115.81
234.647	121.81
234.881	122.81
235.115	115.81
235.349	118.81
235.583	132.81
235.817	111.81
236.051	121.81
236.285	121.81
236.519	108.81
236.753	119.81
236.987	122.81
237.221	160.81
237.455	184.81
237.689	160.81
237.922	132.81
238.156	145.81
238.39	129.81
238.624	119.81
238.858	116.81
239.091	130.81
239.325	122.81
239.559	117.81
239.793	114.81
240.027	107.81
240.26	130.81
240.494	128.81
240.728	139.81
240.961	128.81
241.195	134.81
241.429	125.81
241.662	118.81
241.896	114.81
242.13	114.81
242.363	131.81
242.597	123.81
242.83	120.81
243.064	130.81
243.298	141.81
243.531	138.81
243.765	136.81
243.998	136.81
244.232	144.81
244.465	136.81
244.699	124.81
244.932	147.81
245.166	134.81
245.399	133.81
245.633	145.81
245.866	138.81
246.099	155.81
246.333	136.81
246.566	146.81
246.8	130.81
247.033	136.81
247.266	143.81
247.5	150.81
247.733	157.81
247.966	160.81
248.2	166.81
248.433	149.81
248.666	165.81
248.899	166.81
249.133	170.81
249.366	185.81
249.599	165.81
249.832	154.81
250.066	155.81
250.299	156.81
250.532	163.81
250.765	176.81
250.998	194.81
251.231	201.81
251.465	200.81
251.698	171.81
251.931	201.81
252.164	198.81
252.397	193.81
252.63	184.81
252.863	188.81
253.096	173.81
253.329	185.81
253.562	203.81
253.795	198.81
254.028	187.81
254.261	212.81
254.494	199.81
254.727	218.81
254.96	225.81
255.193	211.81
255.426	214.81
255.659	203.81
255.892	204.81
256.124	204.81
256.357	194.81
256.59	183.81
256.823	199.81
257.056	173.81
257.289	192.81
257.521	198.81
257.754	193.81
257.987	194.81
258.22	203.81
258.452	176.81
258.685	198.81
258.918	184.81
259.151	185.81
259.383	208.81
259.616	206.81
259.849	203.81
260.081	209.81
260.314	230.81
260.547	254.81
260.779	247.81
261.012	212.81
261.244	211.81
261.477	214.81
261.71	216.81
261.942	209.81
262.175	217.81
262.407	202.81
262.64	213.81
262.872	200.81
263.105	186.81
263.337	205.81
263.57	211.81
263.802	191.81
264.035	217.81
264.267	209.81
264.499	212.81
264.732	211.81
264.964	210.81
265.197	204.81
265.429	218.81
265.661	204.81
265.894	218.81
266.126	206.81
266.358	209.81
266.591	214.81
266.823	205.81
267.055	222.81
267.287	218.81
267.52	214.81
267.752	205.81
267.984	220.81
268.216	231.81
268.448	229.81
268.681	230.81
268.913	236.81
269.145	227.81
269.377	250.81
269.609	268.81
269.841	265.81
270.073	260.81
270.306	264.81
270.538	279.81
270.77	289.81
271.002	292.81
271.234	278.81
271.466	281.81
271.698	293.81
271.93	278.81
272.162	290.81
272.394	300.81
272.626	286.81
272.858	277.81
273.09	270.81
273.322	244.81
273.553	256.81
273.785	261.81
274.017	255.81
274.249	242.81
274.481	248.81
274.713	253.81
274.945	263.81
275.176	268.81
275.408	270.81
275.64	269.81
275.872	255.81
276.104	258.81
276.335	268.81
276.567	269.81
276.799	267.81
277.031	291.81
277.262	289.81
277.494	298.81
277.726	276.81
277.957	278.81
278.189	256.81
278.421	260.81
278.652	263.81
278.884	266.81
279.115	259.81
279.347	262.81
279.579	275.81
279.81	263.81
280.042	253.81
280.273	266.81
280.505	275.81
280.736	290.81
280.968	266.81
281.199	261.81
281.431	281.81
281.662	281.81
281.894	269.81
282.125	283.81
282.356	270.81
282.588	306.81
282.819	301.81
283.051	273.81
283.282	290.81
283.513	277.81
283.745	275.81
283.976	272.81
284.207	266.81
284.439	284.81
284.67	286.81
284.901	281.81
285.132	266.81
285.364	285.81
285.595	293.81
285.826	280.81
286.057	300.81
286.288	272.81
286.52	277.81
286.751	273.81
286.982	300.81
287.213	287.81
287.444	278.81
287.675	298.81
287.906	306.81
288.138	309.81
288.369	326.81
288.6	315.81
288.831	323.81
289.062	290.81
289.293	304.81
289.524	309.81
289.755	294.81
289.986	299.81
290.217	311.81
290.448	292.81
290.679	298.81
290.91	275.81
291.141	309.81
291.371	306.81
291.602	292.81
291.833	300.81
292.064	296.81
292.295	279.81
292.526	284.81
292.757	294.81
292.987	298.81
293.218	300.81
293.449	306.81
293.68	304.81
293.91	304.81
294.141	299.81
294.372	301.81
294.603	316.81
294.833	307.81
295.064	308.81
295.295	315.81
295.525	323.81
295.756	307.81
295.987	313.81
296.217	330.81
296.448	339.81
296.679	314.81
296.909	322.81
297.14	332.81
297.37	321.81
297.601	322.81
297.831	312.81
298.062	315.81
298.292	319.81
298.523	336.81
298.753	323.81
298.984	316.81
299.214	329.81
299.445	312.81
299.675	316.81
299.905	326.81
300.136	332.81
300.366	317.81
300.597	327.81
300.827	323.81
301.057	336.81
301.288	355.81
301.518	334.81
301.748	346.81
301.979	343.81
302.209	322.81
302.439	331.81
302.669	340.81
302.9	340.81
303.13	346.81
303.36	354.81
303.59	346.81
303.82	346.81
304.051	362.81
304.281	332.81
304.511	327.81
304.741	338.81
304.971	336.81
305.201	356.81
305.431	336.81
305.661	330.81
305.891	349.81
306.121	333.81
306.352	329.81
306.582	344.81
306.812	347.81
307.042	351.81
307.272	365.81
307.502	344.81
307.731	344.81
307.961	350.81
308.191	352.81
308.421	335.81
308.651	339.81
308.881	348.81
309.111	350.81
309.341	340.81
309.571	370.81
309.8	378.81
310.03	359.81
310.26	361.81
310.49	391.81
310.72	386.81
310.949	394.81
311.179	394.81
311.409	378.81
311.639	378.81
311.868	368.81
312.098	369.81
312.328	379.81
312.557	412.81
312.787	385.81
313.017	398.81
313.246	370.81
313.476	368.81
313.706	394.81
313.935	391.81
314.165	391.81
314.394	404.81
314.624	376.81
314.853	392.81
315.083	394.81
315.312	367.81
315.542	376.81
315.771	381.81
316.001	396.81
316.23	370.81
316.46	392.81
316.689	384.81
316.919	390.81
317.148	398.81
317.377	379.81
317.607	371.81
317.836	389.81
318.065	376.81
318.295	373.81
318.524	384.81
318.753	384.81
318.983	376.81
319.212	399.81
319.441	390.81
319.67	402.81
319.9	385.81
320.129	379.81
320.358	355.81
320.587	371.81
320.816	402.81
321.046	391.81
321.275	402.81
321.504	396.81
321.733	406.81
321.962	410.81
322.191	410.81
322.42	434.81
322.649	418.81
322.878	438.81
323.108	437.81
323.337	436.81
323.566	450.81
323.795	473.81
324.024	506.81
324.253	621.81
324.482	774.81
324.71	1137.81
324.939	1657.81
325.168	1354.81
325.397	758.81
325.626	570.81
325.855	490.81
326.084	475.81
326.313	477.81
326.542	458.81
326.77	486.81
326.999	571.81
327.228	736.81
327.457	1068.81
327.686	1222.81
327.914	844.81
328.143	598.81
328.372	546.81
328.6	513.81
328.829	521.81
329.058	528.81
329.287	525.81
329.515	496.81
329.744	481.81
329.972	461.81
330.201	454.81
330.43	467.81
330.658	526.81
330.887	532.81
331.115	530.81
331.344	503.81
331.572	464.81
331.801	466.81
332.03	472.81
332.258	478.81
332.486	452.81
332.715	445.81
332.943	442.81
333.172	465.81
333.4	481.81
333.629	482.81
333.857	486.81
334.085	475.81
334.314	465.81
334.542	477.81
334.771	461.81
334.999	493.81
335.227	458.81
335.455	478.81
335.684	450.81
335.912	470.81
336.14	457.81
336.369	458.81
336.597	456.81
336.825	465.81
337.053	466.81
337.281	458.81
337.51	446.81
337.738	455.81
337.966	461.81
338.194	441.81
338.422	459.81
338.65	433.81
338.878	442.81
339.106	437.81
339.334	428.81
339.562	430.81
339.79	433.81
340.018	443.81
340.246	451.81
340.474	445.81
340.702	436.81
340.93	416.81
341.158	427.81
341.386	432.81
341.614	427.81
341.842	435.81
342.07	405.81
342.298	426.81
342.526	426.81
342.754	412.81
342.981	416.81
343.209	444.81
343.437	429.81
343.665	430.81
343.893	453.81
344.12	460.81
344.348	454.81
344.576	449.81
344.804	447.81
345.031	446.81
345.259	459.81
345.487	454.81
345.714	425.81
345.942	438.81
346.17	416.81
346.397	416.81
346.625	427.81
346.853	400.81
347.08	412.81
347.308	402.81
347.535	420.81
347.763	411.81
347.99	428.81
348.218	414.81
348.445	430.81
348.673	418.81
348.9	404.81
349.128	415.81
349.355	390.81
349.583	381.81
349.81	406.81
350.037	412.81
350.265	409.81
350.492	396.81
350.72	410.81
350.947	401.81
351.174	423.81
351.402	432.81
351.629	407.81
351.856	424.81
352.083	403.81
352.311	422.81
352.538	406.81
352.765	396.81
352.992	406.81
353.22	422.81
353.447	392.81
353.674	434.81
353.901	370.81
354.128	399.81
354.355	408.81
354.583	391.81
354.81	386.81
355.037	389.81
355.264	382.81
355.491	392.81
355.718	387.81
355.945	399.81
356.172	383.81
356.399	387.81
356.626	397.81
356.853	382.81
357.08	363.81
357.307	365.81
357.534	384.81
357.761	376.81
357.988	401.81
358.215	382.81
358.441	403.81
358.668	379.81
358.895	385.81
359.122	388.81
359.349	403.81
359.576	381.81
359.802	442.81
360.029	440.81
360.256	451.81
360.483	432.81
360.709	404.81
360.936	384.81
361.163	397.81
361.39	418.81
361.616	397.81
361.843	406.81
362.07	407.81
362.296	416.81
362.523	403.81
362.749	406.81
362.976	379.81
363.203	396.81
363.429	389.81
363.656	405.81
363.882	395.81
364.109	403.81
364.335	381.81
364.562	385.81
364.788	366.81
365.015	386.81
365.241	376.81
365.468	404.81
365.694	396.81
365.92	379.81
366.147	384.81
366.373	408.81
366.599	396.81
366.826	384.81
367.052	383.81
367.278	391.81
367.505	406.81
367.731	386.81
367.957	388.81
368.184	388.81
368.41	389.81
368.636	405.81
368.862	422.81
369.089	385.81
369.315	391.81
369.541	392.81
369.767	399.81
369.993	390.81
370.219	412.81
370.445	384.81
370.672	401.81
370.898	383.81
371.124	396.81
371.35	396.81
371.576	391.81
371.802	404.81
372.028	399.81
372.254	409.81
372.48	412.81
372.706	414.81
372.932	402.81
373.158	404.81
373.384	410.81
373.61	398.81
373.835	403.81
374.061	394.81
374.287	378.81
374.513	402.81
374.739	391.81
374.965	416.81
375.191	418.81
375.416	416.81
375.642	409.81
375.868	386.81
376.094	390.81
376.319	390.81
376.545	402.81
376.771	388.81
376.997	398.81
377.222	404.81
377.448	398.81
377.674	393.81
377.899	397.81
378.125	390.81
378.35	390.81
378.576	391.81
378.802	384.81
379.027	382.81
379.253	402.81
379.478	386.81
379.704	376.81
379.929	408.81
380.155	410.81
380.38	389.81
380.606	396.81
380.831	404.81
381.057	405.81
381.282	382.81
381.507	385.81
381.733	409.81
381.958	394.81
382.184	403.81
382.409	410.81
382.634	411.81
382.86	404.81
383.085	418.81
383.31	406.81
383.535	406.81
383.761	408.81
383.986	413.81
384.211	434.81
384.436	444.81
384.662	405.81
384.887	430.81
385.112	420.81
385.337	429.81
385.562	419.81
385.787	429.81
386.013	450.81
386.238	463.81
386.463	450.81
386.688	439.81
386.913	444.81
387.138	423.81
387.363	442.81
387.588	438.81
387.813	425.81
388.038	447.81
388.263	458.81
388.488	441.81
388.713	448.81
388.938	434.81
389.163	451.81
389.387	434.81
389.612	422.81
389.837	420.81
390.062	433.81
390.287	417.81
390.512	442.81
390.736	436.81
390.961	461.81
391.186	438.81
391.411	435.81
391.636	425.81
391.86	455.81
392.085	453.81
392.31	441.81
392.534	454.81
392.759	452.81
392.984	441.81
393.208	470.81
393.433	457.81
393.658	451.81
393.882	457.81
394.107	429.81
394.331	445.81
394.556	436.81
394.78	439.81
395.005	423.81
395.229	440.81
395.454	468.81
395.678	493.81
395.903	470.81
396.127	477.81
396.352	478.81
396.576	457.81
396.801	457.81
397.025	450.81
397.249	456.81
397.474	449.81
397.698	468.81
397.922	471.81
398.147	488.81
398.371	515.81
398.595	497.81
398.82	518.81
399.044	514.81
399.268	539.81
399.492	582.81
399.717	634.81
399.941	638.81
400.165	633.81
400.389	644.81
400.613	581.81
400.837	543.81
401.062	521.81
401.286	525.81
401.51	519.81
401.734	520.81
401.958	499.81
402.182	529.81
402.406	521.81
402.63	516.81
402.854	514.81
403.078	514.81
403.302	533.81
403.526	550.81
403.75	554.81
403.974	532.81
404.198	527.81
404.422	545.81
404.645	550.81
404.869	536.81
405.093	539.81
405.317	539.81
405.541	578.81
405.765	562.81
405.988	542.81
406.212	574.81
406.436	566.81
406.66	596.81
406.883	554.81
407.107	584.81
407.331	646.81
407.555	678.81
407.778	678.81
408.002	643.81
408.226	569.81
408.449	570.81
408.673	596.81
408.896	576.81
409.12	624.81
409.344	598.81
409.567	538.81
409.791	539.81
410.014	527.81
410.238	518.81
410.461	540.81
410.685	499.81
410.908	540.81
411.132	566.81
411.355	584.81
411.578	552.81
411.802	536.81
412.025	523.81
412.249	523.81
412.472	523.81
412.695	544.81
412.919	522.81
413.142	507.81
413.365	494.81
413.589	492.81
413.812	481.81
414.035	478.81
414.258	473.81
414.482	481.81
414.705	506.81
414.928	498.81
415.151	500.81
415.374	480.81
415.597	489.81
415.821	509.81
416.044	501.81
416.267	477.81
416.49	484.81
416.713	475.81
416.936	478.81
417.159	473.81
417.382	473.81
417.605	519.81
417.828	492.81
418.051	510.81
418.274	503.81
418.497	482.81
418.72	492.81
418.943	481.81
419.166	519.81
419.389	533.81
419.611	554.81
419.834	525.81
420.057	520.81
420.28	480.81
420.503	507.81
420.726	497.81
420.948	521.81
421.171	546.81
421.394	564.81
421.617	518.81
421.839	500.81
422.062	505.81
422.285	500.81
422.507	562.81
422.73	609.81
422.953	598.81
423.175	535.81
423.398	509.81
423.621	518.81
423.843	545.81
424.066	563.81
424.288	536.81
424.511	540.81
424.733	606.81
424.956	626.81
425.178	615.81
425.401	610.81
425.623	652.81
425.846	551.81
426.068	525.81
426.291	519.81
426.513	514.81
426.735	561.81
426.958	564.81
427.18	617.81
427.402	712.81
427.625	790.81
427.847	670.81
428.069	578.81
428.292	518.81
428.514	493.81
428.736	498.81
428.958	484.81
429.181	474.81
429.403	478.81
429.625	484.81
429.847	520.81
430.069	557.81
430.292	554.81
430.514	492.81
430.736	489.81
430.958	472.81
431.18	475.81
431.402	481.81
431.624	447.81
431.846	468.81
432.068	468.81
432.29	462.81
432.512	469.81
432.734	462.81
432.956	461.81
433.178	474.81
433.4	459.81
433.622	462.81
433.844	475.81
434.066	473.81
434.287	462.81
434.509	474.81
434.731	490.81
434.953	493.81
435.175	503.81
435.397	539.81
435.618	524.81
435.84	572.81
436.062	623.81
436.284	669.81
436.505	556.81
436.727	535.81
436.949	504.81
437.17	486.81
437.392	485.81
437.614	495.81
437.835	502.81
438.057	583.81
438.278	631.81
438.5	651.81
438.721	708.81
438.943	689.81
439.165	586.81
439.386	499.81
439.608	518.81
439.829	517.81
440.05	545.81
440.272	561.81
440.493	544.81
440.715	522.81
440.936	483.81
441.158	511.81
441.379	503.81
441.6	517.81
441.822	527.81
442.043	551.81
442.264	621.81
442.486	636.81
442.707	567.81
442.928	516.81
443.149	541.81
443.371	573.81
443.592	584.81
443.813	659.81
444.034	680.81
444.255	624.81
444.476	583.81
444.698	552.81
444.919	566.81
445.14	681.81
445.361	598.81
445.582	554.81
445.803	597.81
446.024	682.81
446.245	684.81
446.466	624.81
446.687	552.81
446.908	513.81
447.129	470.81
447.35	475.81
447.571	477.81
447.792	472.81
448.013	470.81
448.234	467.81
448.455	552.81
448.675	628.81
448.896	708.81
449.117	600.81
449.338	572.81
449.559	670.81
449.779	717.81
450	602.81
450.221	484.81
450.442	468.81
450.662	479.81
450.883	473.81
451.104	486.81
451.324	448.81
451.545	454.81
451.766	435.81
451.986	418.81
452.207	426.81
452.428	436.81
452.648	438.81
452.869	432.81
453.089	423.81
453.31	450.81
453.53	422.81
453.751	428.81
453.971	416.81
454.192	416.81
454.412	435.81
454.633	427.81
454.853	414.81
455.073	440.81
455.294	447.81
455.514	518.81
455.734	488.81
455.955	434.81
456.175	434.81
456.395	407.81
456.616	388.81
456.836	404.81
457.056	417.81
457.276	408.81
457.497	406.81
457.717	416.81
457.937	417.81
458.157	408.81
458.377	425.81
458.598	423.81
458.818	453.81
459.038	545.81
459.258	583.81
459.478	516.81
459.698	482.81
459.918	476.81
460.138	475.81
460.358	486.81
460.578	492.81
460.798	484.81
461.018	489.81
461.238	491.81
461.458	490.81
461.678	502.81
461.898	506.81
462.118	505.81
462.338	502.81
462.558	530.81
462.777	535.81
462.997	539.81
463.217	566.81
463.437	561.81
463.657	558.81
463.876	551.81
464.096	556.81
464.316	551.81
464.536	537.81
464.755	545.81
464.975	535.81
465.195	562.81
465.414	600.81
465.634	545.81
465.854	477.81
466.073	464.81
466.293	480.81
466.512	470.81
466.732	435.81
466.951	438.81
467.171	458.81
467.391	475.81
467.61	446.81
467.829	454.81
468.049	459.81
468.268	453.81
468.488	449.81
468.707	436.81
468.927	437.81
469.146	420.81
469.365	435.81
469.585	433.81
469.804	429.81
470.023	486.81
470.243	458.81
470.462	486.81
470.681	470.81
470.901	473.81
471.12	448.81
471.339	442.81
471.558	459.81
471.777	464.81
471.997	438.81
472.216	437.81
472.435	437.81
472.654	425.81
472.873	427.81
473.092	434.81
473.311	452.81
473.53	440.81
473.749	444.81
473.968	471.81
474.187	571.81
474.406	566.81
474.625	486.81
474.844	439.81
475.063	443.81
475.282	457.81
475.501	462.81
475.72	457.81
475.939	451.81
476.158	460.81
476.377	444.81
476.596	451.81
476.814	472.81
477.033	461.81
477.252	475.81
477.471	488.81
477.69	478.81
477.908	490.81
478.127	486.81
478.346	505.81
478.564	510.81
478.783	499.81
479.002	525.81
479.22	527.81
479.439	541.81
479.658	524.81
479.876	570.81
480.095	559.81
480.313	609.81
480.532	574.81
480.751	541.81
480.969	547.81
481.188	579.81
481.406	545.81
481.624	544.81
481.843	529.81
482.061	506.81
482.28	530.81
482.498	499.81
482.717	499.81
482.935	514.81
483.153	519.81
483.372	515.81
483.59	520.81
483.808	488.81
484.027	517.81
484.245	527.81
484.463	526.81
484.681	533.81
484.9	499.81
485.118	534.81
485.336	549.81
485.554	554.81
485.772	551.81
485.99	554.81
486.209	525.81
486.427	536.81
486.645	513.81
486.863	543.81
487.081	561.81
487.299	532.81
487.517	546.81
487.735	536.81
487.953	531.81
488.171	538.81
488.389	532.81
488.607	574.81
488.825	542.81
489.043	536.81
489.261	553.81
489.479	561.81
489.696	563.81
489.914	562.81
490.132	563.81
490.35	565.81
490.568	580.81
490.786	573.81
491.003	595.81
491.221	578.81
491.439	580.81
491.657	598.81
491.874	634.81
492.092	616.81
492.31	615.81
492.527	599.81
492.745	624.81
492.963	622.81
493.18	631.81
493.398	642.81
493.615	632.81
493.833	639.81
494.05	628.81
494.268	628.81
494.485	639.81
494.703	610.81
494.92	636.81
495.138	641.81
495.355	627.81
495.573	632.81
495.79	633.81
496.008	638.81
496.225	624.81
496.442	627.81
496.66	649.81
496.877	668.81
497.094	655.81
497.312	688.81
497.529	658.81
497.746	672.81
497.963	702.81
498.181	741.81
498.398	741.81
498.615	755.81
498.832	766.81
499.049	779.81
499.267	838.81
499.484	866.81
499.701	899.81
499.918	952.81
500.135	1024.81
500.352	1087.81
500.569	1129.81
500.786	1096.81
501.003	1094.81
501.22	1028.81
501.437	984.81
501.654	900.81
501.871	898.81
