Data from 1985.PennyLincolnUp.Lamp.En5.5.200Scan.071819.P1_HRD10591_17-02-22-970.txt Node
Date: Thu Jul 18 17:02:22 EDT 2019
User: cochatt
Spectrometer: HR+D1059
Trigger mode: 1
Integration Time (sec): 1.000000E-1
Scans to average: 1
Electric dark correction enabled: true
Nonlinearity correction enabled: false
Boxcar width: 0
XAxis mode: Wavelengths
Number of Pixels in Spectrum: 2048
>>>>>Begin Spectral Data<<<<<
223.165	-14.88
223.4	-14.88
223.635	-14.88
223.869	-7.88
224.104	-13.88
224.338	-7.88
224.573	-23.88
224.808	-13.88
225.042	-8.88
225.277	-3.88
225.511	-13.88
225.746	-0.88
225.98	2.12
226.215	21.12
226.449	14.12
226.683	21.12
226.918	37.12
227.152	14.12
227.387	43.12
227.621	52.12
227.856	54.12
228.09	42.12
228.324	55.12
228.559	54.12
228.793	57.12
229.027	83.12
229.262	110.12
229.496	110.12
229.73	119.12
229.964	160.12
230.199	129.12
230.433	110.12
230.667	122.12
230.901	118.12
231.136	120.12
231.37	115.12
231.604	124.12
231.838	110.12
232.072	106.12
232.306	106.12
232.541	101.12
232.775	122.12
233.009	116.12
233.243	104.12
233.477	114.12
233.711	112.12
233.945	113.12
234.179	126.12
234.413	120.12
234.647	126.12
234.881	114.12
235.115	117.12
235.349	111.12
235.583	113.12
235.817	120.12
236.051	112.12
236.285	112.12
236.519	119.12
236.753	140.12
236.987	150.12
237.221	181.12
237.455	203.12
237.689	174.12
237.922	138.12
238.156	132.12
238.39	118.12
238.624	120.12
238.858	128.12
239.091	123.12
239.325	130.12
239.559	132.12
239.793	134.12
240.027	137.12
240.26	140.12
240.494	150.12
240.728	141.12
240.961	152.12
241.195	130.12
241.429	130.12
241.662	151.12
241.896	137.12
242.13	134.12
242.363	140.12
242.597	145.12
242.83	154.12
243.064	142.12
243.298	143.12
243.531	145.12
243.765	150.12
243.998	146.12
244.232	137.12
244.465	136.12
244.699	141.12
244.932	160.12
245.166	158.12
245.399	140.12
245.633	158.12
245.866	145.12
246.099	165.12
246.333	165.12
246.566	149.12
246.8	145.12
247.033	167.12
247.266	172.12
247.5	177.12
247.733	162.12
247.966	169.12
248.2	167.12
248.433	169.12
248.666	173.12
248.899	188.12
249.133	203.12
249.366	194.12
249.599	196.12
249.832	186.12
250.066	184.12
250.299	165.12
250.532	175.12
250.765	183.12
250.998	226.12
251.231	214.12
251.465	210.12
251.698	180.12
251.931	200.12
252.164	194.12
252.397	182.12
252.63	206.12
252.863	200.12
253.096	217.12
253.329	220.12
253.562	225.12
253.795	222.12
254.028	208.12
254.261	201.12
254.494	231.12
254.727	249.12
254.96	276.12
255.193	246.12
255.426	230.12
255.659	235.12
255.892	215.12
256.124	192.12
256.357	218.12
256.59	201.12
256.823	195.12
257.056	213.12
257.289	206.12
257.521	221.12
257.754	227.12
257.987	203.12
258.22	221.12
258.452	201.12
258.685	204.12
258.918	187.12
259.151	193.12
259.383	223.12
259.616	218.12
259.849	225.12
260.081	238.12
260.314	269.12
260.547	237.12
260.779	242.12
261.012	241.12
261.244	225.12
261.477	245.12
261.71	237.12
261.942	235.12
262.175	254.12
262.407	222.12
262.64	228.12
262.872	221.12
263.105	210.12
263.337	224.12
263.57	222.12
263.802	221.12
264.035	220.12
264.267	221.12
264.499	228.12
264.732	221.12
264.964	230.12
265.197	217.12
265.429	222.12
265.661	230.12
265.894	229.12
266.126	195.12
266.358	221.12
266.591	229.12
266.823	237.12
267.055	229.12
267.287	240.12
267.52	234.12
267.752	242.12
267.984	228.12
268.216	242.12
268.448	264.12
268.681	237.12
268.913	253.12
269.145	290.12
269.377	281.12
269.609	281.12
269.841	268.12
270.073	279.12
270.306	308.12
270.538	326.12
270.77	317.12
271.002	296.12
271.234	290.12
271.466	308.12
271.698	300.12
271.93	322.12
272.162	324.12
272.394	312.12
272.626	319.12
272.858	296.12
273.09	276.12
273.322	269.12
273.553	270.12
273.785	278.12
274.017	273.12
274.249	264.12
274.481	287.12
274.713	283.12
274.945	286.12
275.176	281.12
275.408	289.12
275.64	285.12
275.872	278.12
276.104	279.12
276.335	275.12
276.567	287.12
276.799	308.12
277.031	333.12
277.262	347.12
277.494	331.12
277.726	310.12
277.957	288.12
278.189	298.12
278.421	296.12
278.652	284.12
278.884	296.12
279.115	282.12
279.347	289.12
279.579	298.12
279.81	277.12
280.042	293.12
280.273	293.12
280.505	292.12
280.736	299.12
280.968	288.12
281.199	300.12
281.431	281.12
281.662	280.12
281.894	280.12
282.125	289.12
282.356	312.12
282.588	345.12
282.819	326.12
283.051	306.12
283.282	298.12
283.513	299.12
283.745	314.12
283.976	304.12
284.207	293.12
284.439	295.12
284.67	318.12
284.901	313.12
285.132	292.12
285.364	318.12
285.595	296.12
285.826	314.12
286.057	328.12
286.288	305.12
286.52	311.12
286.751	315.12
286.982	323.12
287.213	320.12
287.444	334.12
287.675	305.12
287.906	312.12
288.138	331.12
288.369	334.12
288.6	336.12
288.831	323.12
289.062	326.12
289.293	319.12
289.524	320.12
289.755	320.12
289.986	311.12
290.217	325.12
290.448	318.12
290.679	328.12
290.91	319.12
291.141	321.12
291.371	318.12
291.602	327.12
291.833	302.12
292.064	319.12
292.295	324.12
292.526	324.12
292.757	340.12
292.987	337.12
293.218	306.12
293.449	324.12
293.68	327.12
293.91	305.12
294.141	330.12
294.372	324.12
294.603	325.12
294.833	320.12
295.064	325.12
295.295	332.12
295.525	331.12
295.756	339.12
295.987	327.12
296.217	341.12
296.448	368.12
296.679	342.12
296.909	345.12
297.14	320.12
297.37	350.12
297.601	343.12
297.831	360.12
298.062	344.12
298.292	318.12
298.523	337.12
298.753	345.12
298.984	342.12
299.214	354.12
299.445	346.12
299.675	348.12
299.905	369.12
300.136	344.12
300.366	342.12
300.597	356.12
300.827	357.12
301.057	350.12
301.288	340.12
301.518	359.12
301.748	358.12
301.979	370.12
302.209	386.12
302.439	366.12
302.669	358.12
302.9	361.12
303.13	347.12
303.36	354.12
303.59	361.12
303.82	377.12
304.051	370.12
304.281	382.12
304.511	378.12
304.741	381.12
304.971	390.12
305.201	359.12
305.431	367.12
305.661	366.12
305.891	363.12
306.121	367.12
306.352	376.12
306.582	370.12
306.812	365.12
307.042	385.12
307.272	362.12
307.502	357.12
307.731	370.12
307.961	381.12
308.191	377.12
308.421	350.12
308.651	378.12
308.881	358.12
309.111	369.12
309.341	374.12
309.571	402.12
309.8	402.12
310.03	398.12
310.26	401.12
310.49	397.12
310.72	396.12
310.949	414.12
311.179	441.12
311.409	420.12
311.639	417.12
311.868	417.12
312.098	415.12
312.328	389.12
312.557	436.12
312.787	440.12
313.017	436.12
313.246	430.12
313.476	398.12
313.706	416.12
313.935	405.12
314.165	430.12
314.394	410.12
314.624	439.12
314.853	436.12
315.083	409.12
315.312	414.12
315.542	420.12
315.771	397.12
316.001	407.12
316.23	426.12
316.46	395.12
316.689	423.12
316.919	394.12
317.148	420.12
317.377	433.12
317.607	402.12
317.836	438.12
318.065	403.12
318.295	420.12
318.524	403.12
318.753	408.12
318.983	417.12
319.212	413.12
319.441	415.12
319.67	450.12
319.9	425.12
320.129	396.12
320.358	425.12
320.587	427.12
320.816	436.12
321.046	441.12
321.275	430.12
321.504	428.12
321.733	445.12
321.962	443.12
322.191	456.12
322.42	475.12
322.649	476.12
322.878	451.12
323.108	491.12
323.337	516.12
323.566	513.12
323.795	542.12
324.024	575.12
324.253	676.12
324.482	928.12
324.71	1406.12
324.939	1991.12
325.168	1684.12
325.397	912.12
325.626	643.12
325.855	568.12
326.084	520.12
326.313	512.12
326.542	538.12
326.77	563.12
326.999	626.12
327.228	872.12
327.457	1250.12
327.686	1528.12
327.914	972.12
328.143	690.12
328.372	614.12
328.6	572.12
328.829	565.12
329.058	576.12
329.287	588.12
329.515	544.12
329.744	532.12
329.972	511.12
330.201	510.12
330.43	536.12
330.658	573.12
330.887	596.12
331.115	617.12
331.344	558.12
331.572	523.12
331.801	510.12
332.03	526.12
332.258	509.12
332.486	502.12
332.715	507.12
332.943	505.12
333.172	521.12
333.4	495.12
333.629	525.12
333.857	540.12
334.085	524.12
334.314	520.12
334.542	550.12
334.771	534.12
334.999	534.12
335.227	538.12
335.455	511.12
335.684	508.12
335.912	514.12
336.14	505.12
336.369	512.12
336.597	504.12
336.825	508.12
337.053	497.12
337.281	475.12
337.51	499.12
337.738	484.12
337.966	490.12
338.194	496.12
338.422	511.12
338.65	510.12
338.878	490.12
339.106	489.12
339.334	480.12
339.562	481.12
339.79	462.12
340.018	449.12
340.246	446.12
340.474	466.12
340.702	450.12
340.93	450.12
341.158	485.12
341.386	470.12
341.614	473.12
341.842	451.12
342.07	465.12
342.298	464.12
342.526	472.12
342.754	438.12
342.981	442.12
343.209	462.12
343.437	464.12
343.665	457.12
343.893	480.12
344.12	506.12
344.348	489.12
344.576	504.12
344.804	473.12
345.031	482.12
345.259	495.12
345.487	487.12
345.714	469.12
345.942	475.12
346.17	460.12
346.397	464.12
346.625	436.12
346.853	444.12
347.08	437.12
347.308	453.12
347.535	452.12
347.763	455.12
347.99	457.12
348.218	448.12
348.445	441.12
348.673	448.12
348.9	445.12
349.128	437.12
349.355	436.12
349.583	440.12
349.81	440.12
350.037	433.12
350.265	440.12
350.492	414.12
350.72	417.12
350.947	431.12
351.174	460.12
351.402	469.12
351.629	444.12
351.856	434.12
352.083	440.12
352.311	459.12
352.538	450.12
352.765	469.12
352.992	457.12
353.22	430.12
353.447	440.12
353.674	442.12
353.901	409.12
354.128	416.12
354.355	415.12
354.583	438.12
354.81	426.12
355.037	414.12
355.264	399.12
355.491	414.12
355.718	424.12
355.945	416.12
356.172	430.12
356.399	415.12
356.626	414.12
356.853	433.12
357.08	411.12
357.307	418.12
357.534	432.12
357.761	427.12
357.988	412.12
358.215	416.12
358.441	416.12
358.668	420.12
358.895	423.12
359.122	410.12
359.349	431.12
359.576	430.12
359.802	455.12
360.029	470.12
360.256	467.12
360.483	460.12
360.709	439.12
360.936	430.12
361.163	434.12
361.39	437.12
361.616	458.12
361.843	433.12
362.07	432.12
362.296	437.12
362.523	456.12
362.749	428.12
362.976	417.12
363.203	427.12
363.429	425.12
363.656	421.12
363.882	428.12
364.109	416.12
364.335	432.12
364.562	437.12
364.788	423.12
365.015	416.12
365.241	436.12
365.468	437.12
365.694	407.12
365.92	409.12
366.147	418.12
366.373	425.12
366.599	433.12
366.826	406.12
367.052	412.12
367.278	433.12
367.505	414.12
367.731	418.12
367.957	422.12
368.184	425.12
368.41	430.12
368.636	436.12
368.862	424.12
369.089	424.12
369.315	414.12
369.541	427.12
369.767	396.12
369.993	427.12
370.219	422.12
370.445	422.12
370.672	414.12
370.898	428.12
371.124	412.12
371.35	427.12
371.576	423.12
371.802	410.12
372.028	416.12
372.254	423.12
372.48	424.12
372.706	434.12
372.932	432.12
373.158	423.12
373.384	420.12
373.61	401.12
373.835	420.12
374.061	424.12
374.287	429.12
374.513	437.12
374.739	439.12
374.965	452.12
375.191	439.12
375.416	437.12
375.642	445.12
375.868	442.12
376.094	421.12
376.319	408.12
376.545	448.12
376.771	425.12
376.997	408.12
377.222	407.12
377.448	430.12
377.674	421.12
377.899	421.12
378.125	426.12
378.35	401.12
378.576	424.12
378.802	430.12
379.027	420.12
379.253	414.12
379.478	412.12
379.704	426.12
379.929	408.12
380.155	424.12
380.38	424.12
380.606	427.12
380.831	427.12
381.057	436.12
381.282	438.12
381.507	436.12
381.733	419.12
381.958	428.12
382.184	416.12
382.409	441.12
382.634	444.12
382.86	429.12
383.085	450.12
383.31	447.12
383.535	444.12
383.761	442.12
383.986	423.12
384.211	442.12
384.436	436.12
384.662	449.12
384.887	453.12
385.112	470.12
385.337	453.12
385.562	465.12
385.787	461.12
386.013	482.12
386.238	470.12
386.463	489.12
386.688	487.12
386.913	464.12
387.138	471.12
387.363	465.12
387.588	475.12
387.813	463.12
388.038	468.12
388.263	471.12
388.488	469.12
388.713	447.12
388.938	455.12
389.163	460.12
389.387	481.12
389.612	464.12
389.837	479.12
390.062	462.12
390.287	464.12
390.512	460.12
390.736	448.12
390.961	462.12
391.186	479.12
391.411	476.12
391.636	499.12
391.86	496.12
392.085	475.12
392.31	500.12
392.534	488.12
392.759	504.12
392.984	497.12
393.208	492.12
393.433	473.12
393.658	472.12
393.882	461.12
394.107	467.12
394.331	504.12
394.556	474.12
394.78	479.12
395.005	472.12
395.229	495.12
395.454	495.12
395.678	516.12
395.903	520.12
396.127	514.12
396.352	515.12
396.576	507.12
396.801	478.12
397.025	478.12
397.249	488.12
397.474	494.12
397.698	513.12
397.922	520.12
398.147	553.12
398.371	549.12
398.595	535.12
398.82	528.12
399.044	563.12
399.268	587.12
399.492	622.12
399.717	667.12
399.941	716.12
400.165	719.12
400.389	674.12
400.613	620.12
400.837	609.12
401.062	555.12
401.286	559.12
401.51	558.12
401.734	540.12
401.958	560.12
402.182	546.12
402.406	574.12
402.63	564.12
402.854	553.12
403.078	560.12
403.302	578.12
403.526	586.12
403.75	599.12
403.974	564.12
404.198	582.12
404.422	591.12
404.645	577.12
404.869	590.12
405.093	583.12
405.317	618.12
405.541	646.12
405.765	613.12
405.988	571.12
406.212	601.12
406.436	622.12
406.66	630.12
406.883	607.12
407.107	634.12
407.331	700.12
407.555	736.12
407.778	727.12
408.002	696.12
408.226	633.12
408.449	628.12
408.673	619.12
408.896	636.12
409.12	668.12
409.344	657.12
409.567	583.12
409.791	594.12
410.014	558.12
410.238	556.12
410.461	564.12
410.685	563.12
410.908	573.12
411.132	602.12
411.355	621.12
411.578	622.12
411.802	548.12
412.025	542.12
412.249	567.12
412.472	548.12
412.695	574.12
412.919	564.12
413.142	566.12
413.365	537.12
413.589	540.12
413.812	528.12
414.035	544.12
414.258	547.12
414.482	508.12
414.705	539.12
414.928	516.12
415.151	540.12
415.374	535.12
415.597	531.12
415.821	508.12
416.044	525.12
416.267	548.12
416.49	516.12
416.713	526.12
416.936	508.12
417.159	530.12
417.382	524.12
417.605	528.12
417.828	530.12
418.051	545.12
418.274	540.12
418.497	528.12
418.72	529.12
418.943	528.12
419.166	549.12
419.389	580.12
419.611	559.12
419.834	546.12
420.057	558.12
420.28	544.12
420.503	539.12
420.726	530.12
420.948	539.12
421.171	599.12
421.394	595.12
421.617	551.12
421.839	568.12
422.062	561.12
422.285	566.12
422.507	599.12
422.73	670.12
422.953	640.12
423.175	569.12
423.398	564.12
423.621	539.12
423.843	577.12
424.066	591.12
424.288	550.12
424.511	576.12
424.733	650.12
424.956	722.12
425.178	688.12
425.401	648.12
425.623	714.12
425.846	605.12
426.068	593.12
426.291	559.12
426.513	575.12
426.735	558.12
426.958	607.12
427.18	682.12
427.402	820.12
427.625	859.12
427.847	737.12
428.069	622.12
428.292	558.12
428.514	557.12
428.736	530.12
428.958	513.12
429.181	525.12
429.403	544.12
429.625	508.12
429.847	534.12
430.069	612.12
430.292	590.12
430.514	534.12
430.736	538.12
430.958	504.12
431.18	508.12
431.402	499.12
431.624	480.12
431.846	489.12
432.068	512.12
432.29	507.12
432.512	497.12
432.734	509.12
432.956	486.12
433.178	510.12
433.4	492.12
433.622	492.12
433.844	502.12
434.066	504.12
434.287	500.12
434.509	507.12
434.731	517.12
434.953	531.12
435.175	568.12
435.397	544.12
435.618	558.12
435.84	615.12
436.062	700.12
436.284	748.12
436.505	644.12
436.727	569.12
436.949	552.12
437.17	520.12
437.392	517.12
437.614	528.12
437.835	562.12
438.057	633.12
438.278	752.12
438.5	720.12
438.721	788.12
438.943	763.12
439.165	624.12
439.386	556.12
439.608	568.12
439.829	574.12
440.05	587.12
440.272	617.12
440.493	561.12
440.715	534.12
440.936	536.12
441.158	517.12
441.379	545.12
441.6	550.12
441.822	577.12
442.043	615.12
442.264	674.12
442.486	725.12
442.707	632.12
442.928	579.12
443.149	601.12
443.371	628.12
443.592	641.12
443.813	712.12
444.034	765.12
444.255	678.12
444.476	608.12
444.698	597.12
444.919	601.12
445.14	728.12
445.361	655.12
445.582	631.12
445.803	651.12
446.024	752.12
446.245	772.12
446.466	673.12
446.687	576.12
446.908	570.12
447.129	548.12
447.35	501.12
447.571	526.12
447.792	496.12
448.013	522.12
448.234	527.12
448.455	573.12
448.675	648.12
448.896	762.12
449.117	645.12
449.338	610.12
449.559	727.12
449.779	793.12
450	636.12
450.221	538.12
450.442	504.12
450.662	487.12
450.883	520.12
451.104	542.12
451.324	529.12
451.545	484.12
451.766	480.12
451.986	462.12
452.207	449.12
452.428	467.12
452.648	479.12
452.869	449.12
453.089	491.12
453.31	495.12
453.53	497.12
453.751	460.12
453.971	474.12
454.192	478.12
454.412	481.12
454.633	464.12
454.853	439.12
455.073	468.12
455.294	481.12
455.514	524.12
455.734	543.12
455.955	473.12
456.175	440.12
456.395	461.12
456.616	452.12
456.836	450.12
457.056	448.12
457.276	429.12
457.497	447.12
457.717	436.12
457.937	440.12
458.157	447.12
458.377	456.12
458.598	473.12
458.818	515.12
459.038	603.12
459.258	621.12
459.478	535.12
459.698	504.12
459.918	507.12
460.138	512.12
460.358	516.12
460.578	536.12
460.798	553.12
461.018	538.12
461.238	531.12
461.458	539.12
461.678	520.12
461.898	522.12
462.118	506.12
462.338	547.12
462.558	567.12
462.777	578.12
462.997	594.12
463.217	631.12
463.437	627.12
463.657	569.12
463.876	573.12
464.096	570.12
464.316	574.12
464.536	580.12
464.755	607.12
464.975	587.12
465.195	600.12
465.414	657.12
465.634	596.12
465.854	549.12
466.073	550.12
466.293	498.12
466.512	485.12
466.732	484.12
466.951	495.12
467.171	496.12
467.391	512.12
467.61	487.12
467.829	484.12
468.049	464.12
468.268	469.12
468.488	462.12
468.707	473.12
468.927	446.12
469.146	487.12
469.365	481.12
469.585	471.12
469.804	486.12
470.023	516.12
470.243	480.12
470.462	493.12
470.681	516.12
470.901	505.12
471.12	490.12
471.339	485.12
471.558	484.12
471.777	487.12
471.997	485.12
472.216	472.12
472.435	488.12
472.654	468.12
472.873	478.12
473.092	481.12
473.311	477.12
473.53	465.12
473.749	500.12
473.968	532.12
474.187	591.12
474.406	612.12
474.625	511.12
474.844	446.12
475.063	476.12
475.282	464.12
475.501	476.12
475.72	489.12
475.939	481.12
476.158	486.12
476.377	514.12
476.596	483.12
476.814	500.12
477.033	522.12
477.252	519.12
477.471	508.12
477.69	524.12
477.908	531.12
478.127	538.12
478.346	538.12
478.564	512.12
478.783	547.12
479.002	555.12
479.22	572.12
479.439	574.12
479.658	589.12
479.876	606.12
480.095	601.12
480.313	620.12
480.532	610.12
480.751	605.12
480.969	600.12
481.188	626.12
481.406	599.12
481.624	586.12
481.843	566.12
482.061	570.12
482.28	557.12
482.498	542.12
482.717	563.12
482.935	559.12
483.153	554.12
483.372	548.12
483.59	541.12
483.808	560.12
484.027	552.12
484.245	564.12
484.463	559.12
484.681	593.12
484.9	536.12
485.118	558.12
485.336	577.12
485.554	591.12
485.772	580.12
485.99	561.12
486.209	585.12
486.427	567.12
486.645	597.12
486.863	601.12
487.081	600.12
487.299	607.12
487.517	606.12
487.735	584.12
487.953	610.12
488.171	577.12
488.389	606.12
488.607	584.12
488.825	590.12
489.043	609.12
489.261	603.12
489.479	592.12
489.696	606.12
489.914	608.12
490.132	617.12
490.35	617.12
490.568	601.12
490.786	613.12
491.003	628.12
491.221	654.12
491.439	660.12
491.657	640.12
491.874	645.12
492.092	662.12
492.31	639.12
492.527	661.12
492.745	654.12
492.963	668.12
493.18	677.12
493.398	694.12
493.615	682.12
493.833	676.12
494.05	678.12
494.268	697.12
494.485	678.12
494.703	694.12
494.92	700.12
495.138	676.12
495.355	692.12
495.573	705.12
495.79	702.12
496.008	706.12
496.225	676.12
496.442	698.12
496.66	708.12
496.877	680.12
497.094	714.12
497.312	718.12
497.529	730.12
497.746	731.12
497.963	753.12
498.181	760.12
498.398	797.12
498.615	804.12
498.832	837.12
499.049	879.12
499.267	898.12
499.484	916.12
499.701	970.12
499.918	1050.12
500.135	1117.12
500.352	1182.12
500.569	1232.12
500.786	1220.12
501.003	1185.12
501.22	1141.12
501.437	1052.12
501.654	1013.12
501.871	990.12
