Data from 1985.PennyLincolnUp.Lamp.En5.5.200Scan.071819.P1_HRD10591_17-01-37-970.txt Node
Date: Thu Jul 18 17:01:37 EDT 2019
User: cochatt
Spectrometer: HR+D1059
Trigger mode: 1
Integration Time (sec): 1.000000E-1
Scans to average: 1
Electric dark correction enabled: true
Nonlinearity correction enabled: false
Boxcar width: 0
XAxis mode: Wavelengths
Number of Pixels in Spectrum: 2048
>>>>>Begin Spectral Data<<<<<
223.165	-17.44
223.4	-17.44
223.635	-17.44
223.869	-13.44
224.104	-11.44
224.338	-11.44
224.573	-18.44
224.808	-11.44
225.042	-12.44
225.277	-4.44
225.511	1.56
225.746	7.56
225.98	8.56
226.215	-2.44
226.449	17.56
226.683	13.56
226.918	21.56
227.152	32.56
227.387	34.56
227.621	33.56
227.856	33.56
228.09	39.56
228.324	58.56
228.559	63.56
228.793	67.56
229.027	96.56
229.262	107.56
229.496	97.56
229.73	114.56
229.964	130.56
230.199	112.56
230.433	102.56
230.667	105.56
230.901	107.56
231.136	107.56
231.37	113.56
231.604	110.56
231.838	101.56
232.072	113.56
232.306	109.56
232.541	108.56
232.775	118.56
233.009	101.56
233.243	114.56
233.477	102.56
233.711	117.56
233.945	99.56
234.179	107.56
234.413	120.56
234.647	100.56
234.881	114.56
235.115	112.56
235.349	116.56
235.583	114.56
235.817	114.56
236.051	122.56
236.285	102.56
236.519	117.56
236.753	128.56
236.987	140.56
237.221	148.56
237.455	188.56
237.689	167.56
237.922	133.56
238.156	136.56
238.39	128.56
238.624	130.56
238.858	135.56
239.091	108.56
239.325	121.56
239.559	124.56
239.793	113.56
240.027	128.56
240.26	135.56
240.494	163.56
240.728	138.56
240.961	147.56
241.195	144.56
241.429	138.56
241.662	134.56
241.896	140.56
242.13	129.56
242.363	132.56
242.597	131.56
242.83	149.56
243.064	121.56
243.298	127.56
243.531	134.56
243.765	137.56
243.998	138.56
244.232	146.56
244.465	140.56
244.699	145.56
244.932	150.56
245.166	146.56
245.399	152.56
245.633	142.56
245.866	148.56
246.099	141.56
246.333	128.56
246.566	125.56
246.8	151.56
247.033	146.56
247.266	134.56
247.5	160.56
247.733	147.56
247.966	156.56
248.2	168.56
248.433	162.56
248.666	169.56
248.899	176.56
249.133	185.56
249.366	180.56
249.599	176.56
249.832	167.56
250.066	182.56
250.299	163.56
250.532	169.56
250.765	187.56
250.998	210.56
251.231	195.56
251.465	169.56
251.698	174.56
251.931	197.56
252.164	187.56
252.397	194.56
252.63	190.56
252.863	179.56
253.096	200.56
253.329	208.56
253.562	206.56
253.795	197.56
254.028	188.56
254.261	210.56
254.494	196.56
254.727	236.56
254.96	239.56
255.193	235.56
255.426	225.56
255.659	213.56
255.892	212.56
256.124	203.56
256.357	201.56
256.59	186.56
256.823	186.56
257.056	197.56
257.289	196.56
257.521	213.56
257.754	210.56
257.987	208.56
258.22	216.56
258.452	187.56
258.685	210.56
258.918	209.56
259.151	198.56
259.383	216.56
259.616	208.56
259.849	209.56
260.081	219.56
260.314	242.56
260.547	246.56
260.779	243.56
261.012	214.56
261.244	211.56
261.477	206.56
261.71	222.56
261.942	213.56
262.175	222.56
262.407	216.56
262.64	195.56
262.872	221.56
263.105	194.56
263.337	202.56
263.57	220.56
263.802	213.56
264.035	216.56
264.267	212.56
264.499	203.56
264.732	205.56
264.964	213.56
265.197	202.56
265.429	204.56
265.661	219.56
265.894	218.56
266.126	224.56
266.358	206.56
266.591	215.56
266.823	227.56
267.055	219.56
267.287	214.56
267.52	224.56
267.752	244.56
267.984	219.56
268.216	234.56
268.448	232.56
268.681	228.56
268.913	246.56
269.145	257.56
269.377	258.56
269.609	243.56
269.841	236.56
270.073	266.56
270.306	288.56
270.538	296.56
270.77	283.56
271.002	285.56
271.234	289.56
271.466	278.56
271.698	274.56
271.93	282.56
272.162	292.56
272.394	295.56
272.626	267.56
272.858	266.56
273.09	254.56
273.322	268.56
273.553	257.56
273.785	252.56
274.017	252.56
274.249	262.56
274.481	263.56
274.713	277.56
274.945	270.56
275.176	260.56
275.408	279.56
275.64	259.56
275.872	272.56
276.104	295.56
276.335	284.56
276.567	272.56
276.799	287.56
277.031	301.56
277.262	312.56
277.494	290.56
277.726	289.56
277.957	295.56
278.189	276.56
278.421	273.56
278.652	270.56
278.884	264.56
279.115	246.56
279.347	262.56
279.579	271.56
279.81	258.56
280.042	264.56
280.273	278.56
280.505	278.56
280.736	267.56
280.968	274.56
281.199	251.56
281.431	267.56
281.662	273.56
281.894	269.56
282.125	267.56
282.356	260.56
282.588	301.56
282.819	300.56
283.051	285.56
283.282	288.56
283.513	280.56
283.745	287.56
283.976	278.56
284.207	267.56
284.439	290.56
284.67	293.56
284.901	302.56
285.132	298.56
285.364	280.56
285.595	289.56
285.826	286.56
286.057	302.56
286.288	313.56
286.52	284.56
286.751	281.56
286.982	287.56
287.213	309.56
287.444	300.56
287.675	298.56
287.906	286.56
288.138	292.56
288.369	314.56
288.6	314.56
288.831	315.56
289.062	302.56
289.293	298.56
289.524	302.56
289.755	306.56
289.986	310.56
290.217	309.56
290.448	313.56
290.679	319.56
290.91	277.56
291.141	302.56
291.371	287.56
291.602	292.56
291.833	294.56
292.064	294.56
292.295	298.56
292.526	306.56
292.757	298.56
292.987	307.56
293.218	290.56
293.449	312.56
293.68	301.56
293.91	314.56
294.141	329.56
294.372	297.56
294.603	301.56
294.833	301.56
295.064	310.56
295.295	299.56
295.525	314.56
295.756	304.56
295.987	336.56
296.217	331.56
296.448	340.56
296.679	334.56
296.909	321.56
297.14	310.56
297.37	324.56
297.601	317.56
297.831	312.56
298.062	329.56
298.292	349.56
298.523	328.56
298.753	329.56
298.984	320.56
299.214	322.56
299.445	319.56
299.675	313.56
299.905	331.56
300.136	319.56
300.366	331.56
300.597	331.56
300.827	351.56
301.057	342.56
301.288	347.56
301.518	345.56
301.748	330.56
301.979	362.56
302.209	340.56
302.439	368.56
302.669	357.56
302.9	343.56
303.13	334.56
303.36	345.56
303.59	346.56
303.82	353.56
304.051	331.56
304.281	356.56
304.511	357.56
304.741	344.56
304.971	339.56
305.201	343.56
305.431	326.56
305.661	333.56
305.891	345.56
306.121	348.56
306.352	341.56
306.582	342.56
306.812	341.56
307.042	341.56
307.272	347.56
307.502	332.56
307.731	362.56
307.961	356.56
308.191	349.56
308.421	364.56
308.651	359.56
308.881	352.56
309.111	376.56
309.341	365.56
309.571	369.56
309.8	370.56
310.03	378.56
310.26	391.56
310.49	370.56
310.72	379.56
310.949	381.56
311.179	392.56
311.409	388.56
311.639	388.56
311.868	387.56
312.098	377.56
312.328	398.56
312.557	413.56
312.787	408.56
313.017	398.56
313.246	393.56
313.476	384.56
313.706	384.56
313.935	377.56
314.165	380.56
314.394	382.56
314.624	409.56
314.853	398.56
315.083	392.56
315.312	381.56
315.542	383.56
315.771	395.56
316.001	372.56
316.23	386.56
316.46	384.56
316.689	371.56
316.919	390.56
317.148	398.56
317.377	394.56
317.607	396.56
317.836	388.56
318.065	380.56
318.295	374.56
318.524	407.56
318.753	396.56
318.983	384.56
319.212	380.56
319.441	395.56
319.67	413.56
319.9	411.56
320.129	380.56
320.358	398.56
320.587	392.56
320.816	398.56
321.046	395.56
321.275	402.56
321.504	390.56
321.733	417.56
321.962	419.56
322.191	404.56
322.42	428.56
322.649	429.56
322.878	453.56
323.108	454.56
323.337	441.56
323.566	456.56
323.795	514.56
324.024	518.56
324.253	592.56
324.482	793.56
324.71	1178.56
324.939	1632.56
325.168	1408.56
325.397	787.56
325.626	576.56
325.855	479.56
326.084	462.56
326.313	476.56
326.542	484.56
326.77	526.56
326.999	581.56
327.228	743.56
327.457	1064.56
327.686	1218.56
327.914	889.56
328.143	624.56
328.372	550.56
328.6	530.56
328.829	522.56
329.058	516.56
329.287	546.56
329.515	500.56
329.744	489.56
329.972	465.56
330.201	475.56
330.43	493.56
330.658	500.56
330.887	560.56
331.115	546.56
331.344	494.56
331.572	485.56
331.801	470.56
332.03	460.56
332.258	461.56
332.486	476.56
332.715	462.56
332.943	476.56
333.172	510.56
333.4	470.56
333.629	470.56
333.857	510.56
334.085	518.56
334.314	484.56
334.542	491.56
334.771	506.56
334.999	499.56
335.227	490.56
335.455	464.56
335.684	474.56
335.912	463.56
336.14	474.56
336.369	469.56
336.597	442.56
336.825	471.56
337.053	463.56
337.281	454.56
337.51	467.56
337.738	464.56
337.966	474.56
338.194	448.56
338.422	468.56
338.65	461.56
338.878	459.56
339.106	431.56
339.334	445.56
339.562	432.56
339.79	437.56
340.018	444.56
340.246	454.56
340.474	438.56
340.702	439.56
340.93	454.56
341.158	451.56
341.386	441.56
341.614	451.56
341.842	434.56
342.07	463.56
342.298	439.56
342.526	423.56
342.754	437.56
342.981	454.56
343.209	418.56
343.437	439.56
343.665	430.56
343.893	468.56
344.12	485.56
344.348	475.56
344.576	455.56
344.804	426.56
345.031	440.56
345.259	444.56
345.487	451.56
345.714	456.56
345.942	422.56
346.17	416.56
346.397	421.56
346.625	421.56
346.853	420.56
347.08	405.56
347.308	435.56
347.535	428.56
347.763	439.56
347.99	423.56
348.218	432.56
348.445	423.56
348.673	426.56
348.9	423.56
349.128	421.56
349.355	407.56
349.583	417.56
349.81	398.56
350.037	404.56
350.265	400.56
350.492	412.56
350.72	404.56
350.947	411.56
351.174	399.56
351.402	422.56
351.629	419.56
351.856	430.56
352.083	420.56
352.311	427.56
352.538	417.56
352.765	423.56
352.992	399.56
353.22	437.56
353.447	404.56
353.674	424.56
353.901	414.56
354.128	386.56
354.355	405.56
354.583	402.56
354.81	402.56
355.037	387.56
355.264	400.56
355.491	399.56
355.718	386.56
355.945	386.56
356.172	401.56
356.399	400.56
356.626	373.56
356.853	399.56
357.08	398.56
357.307	392.56
357.534	396.56
357.761	404.56
357.988	389.56
358.215	390.56
358.441	395.56
358.668	399.56
358.895	396.56
359.122	377.56
359.349	398.56
359.576	411.56
359.802	442.56
360.029	446.56
360.256	463.56
360.483	429.56
360.709	437.56
360.936	418.56
361.163	427.56
361.39	438.56
361.616	430.56
361.843	416.56
362.07	414.56
362.296	407.56
362.523	409.56
362.749	402.56
362.976	408.56
363.203	418.56
363.429	410.56
363.656	428.56
363.882	405.56
364.109	406.56
364.335	402.56
364.562	405.56
364.788	396.56
365.015	402.56
365.241	408.56
365.468	411.56
365.694	410.56
365.92	408.56
366.147	403.56
366.373	430.56
366.599	387.56
366.826	410.56
367.052	394.56
367.278	375.56
367.505	395.56
367.731	406.56
367.957	380.56
368.184	390.56
368.41	387.56
368.636	397.56
368.862	397.56
369.089	394.56
369.315	386.56
369.541	395.56
369.767	410.56
369.993	386.56
370.219	402.56
370.445	412.56
370.672	406.56
370.898	395.56
371.124	394.56
371.35	423.56
371.576	404.56
371.802	385.56
372.028	400.56
372.254	405.56
372.48	405.56
372.706	381.56
372.932	421.56
373.158	401.56
373.384	403.56
373.61	420.56
373.835	409.56
374.061	428.56
374.287	415.56
374.513	398.56
374.739	419.56
374.965	416.56
375.191	396.56
375.416	428.56
375.642	430.56
375.868	419.56
376.094	412.56
376.319	396.56
376.545	414.56
376.771	412.56
376.997	402.56
377.222	384.56
377.448	405.56
377.674	402.56
377.899	408.56
378.125	393.56
378.35	393.56
378.576	391.56
378.802	379.56
379.027	382.56
379.253	396.56
379.478	389.56
379.704	412.56
379.929	411.56
380.155	408.56
380.38	417.56
380.606	405.56
380.831	417.56
381.057	419.56
381.282	396.56
381.507	400.56
381.733	417.56
381.958	416.56
382.184	424.56
382.409	396.56
382.634	416.56
382.86	436.56
383.085	423.56
383.31	437.56
383.535	422.56
383.761	424.56
383.986	417.56
384.211	423.56
384.436	428.56
384.662	419.56
384.887	444.56
385.112	435.56
385.337	435.56
385.562	446.56
385.787	420.56
386.013	457.56
386.238	457.56
386.463	458.56
386.688	457.56
386.913	439.56
387.138	436.56
387.363	433.56
387.588	418.56
387.813	455.56
388.038	446.56
388.263	445.56
388.488	470.56
388.713	458.56
388.938	450.56
389.163	436.56
389.387	446.56
389.612	454.56
389.837	448.56
390.062	441.56
390.287	443.56
390.512	452.56
390.736	465.56
390.961	440.56
391.186	471.56
391.411	469.56
391.636	485.56
391.86	484.56
392.085	463.56
392.31	466.56
392.534	474.56
392.759	469.56
392.984	464.56
393.208	471.56
393.433	443.56
393.658	447.56
393.882	443.56
394.107	437.56
394.331	448.56
394.556	466.56
394.78	463.56
395.005	473.56
395.229	470.56
395.454	472.56
395.678	488.56
395.903	475.56
396.127	480.56
396.352	497.56
396.576	485.56
396.801	450.56
397.025	465.56
397.249	465.56
397.474	470.56
397.698	467.56
397.922	478.56
398.147	498.56
398.371	508.56
398.595	521.56
398.82	493.56
399.044	543.56
399.268	560.56
399.492	597.56
399.717	644.56
399.941	672.56
400.165	668.56
400.389	636.56
400.613	580.56
400.837	544.56
401.062	524.56
401.286	507.56
401.51	502.56
401.734	522.56
401.958	527.56
402.182	530.56
402.406	552.56
402.63	530.56
402.854	532.56
403.078	545.56
403.302	558.56
403.526	571.56
403.75	549.56
403.974	534.56
404.198	543.56
404.422	566.56
404.645	578.56
404.869	554.56
405.093	557.56
405.317	564.56
405.541	606.56
405.765	570.56
405.988	539.56
406.212	558.56
406.436	580.56
406.66	591.56
406.883	573.56
407.107	609.56
407.331	645.56
407.555	722.56
407.778	690.56
408.002	641.56
408.226	603.56
408.449	598.56
408.673	596.56
408.896	615.56
409.12	619.56
409.344	614.56
409.567	542.56
409.791	537.56
410.014	530.56
410.238	560.56
410.461	540.56
410.685	539.56
410.908	571.56
411.132	581.56
411.355	600.56
411.578	548.56
411.802	528.56
412.025	538.56
412.249	529.56
412.472	532.56
412.695	528.56
412.919	537.56
413.142	502.56
413.365	517.56
413.589	492.56
413.812	483.56
414.035	497.56
414.258	512.56
414.482	517.56
414.705	503.56
414.928	512.56
415.151	511.56
415.374	513.56
415.597	497.56
415.821	485.56
416.044	496.56
416.267	504.56
416.49	505.56
416.713	493.56
416.936	504.56
417.159	500.56
417.382	489.56
417.605	496.56
417.828	523.56
418.051	522.56
418.274	496.56
418.497	497.56
418.72	498.56
418.943	512.56
419.166	523.56
419.389	534.56
419.611	517.56
419.834	537.56
420.057	512.56
420.28	500.56
420.503	489.56
420.726	482.56
420.948	497.56
421.171	545.56
421.394	584.56
421.617	541.56
421.839	516.56
422.062	502.56
422.285	532.56
422.507	561.56
422.73	627.56
422.953	617.56
423.175	518.56
423.398	537.56
423.621	555.56
423.843	547.56
424.066	577.56
424.288	555.56
424.511	560.56
424.733	605.56
424.956	649.56
425.178	640.56
425.401	644.56
425.623	626.56
425.846	571.56
426.068	534.56
426.291	532.56
426.513	501.56
426.735	527.56
426.958	548.56
427.18	615.56
427.402	761.56
427.625	823.56
427.847	685.56
428.069	586.56
428.292	542.56
428.514	514.56
428.736	493.56
428.958	485.56
429.181	493.56
429.403	497.56
429.625	490.56
429.847	541.56
430.069	541.56
430.292	585.56
430.514	500.56
430.736	497.56
430.958	478.56
431.18	474.56
431.402	458.56
431.624	459.56
431.846	468.56
432.068	479.56
432.29	487.56
432.512	475.56
432.734	485.56
432.956	471.56
433.178	480.56
433.4	474.56
433.622	481.56
433.844	470.56
434.066	463.56
434.287	495.56
434.509	491.56
434.731	484.56
434.953	493.56
435.175	507.56
435.397	554.56
435.618	553.56
435.84	547.56
436.062	645.56
436.284	692.56
436.505	576.56
436.727	520.56
436.949	498.56
437.17	498.56
437.392	504.56
437.614	498.56
437.835	529.56
438.057	594.56
438.278	697.56
438.5	669.56
438.721	724.56
438.943	702.56
439.165	588.56
439.386	520.56
439.608	537.56
439.829	520.56
440.05	566.56
440.272	584.56
440.493	546.56
440.715	526.56
440.936	520.56
441.158	499.56
441.379	504.56
441.6	533.56
441.822	548.56
442.043	575.56
442.264	626.56
442.486	651.56
442.707	598.56
442.928	538.56
443.149	565.56
443.371	564.56
443.592	611.56
443.813	681.56
444.034	720.56
444.255	621.56
444.476	574.56
444.698	577.56
444.919	592.56
445.14	681.56
445.361	596.56
445.582	585.56
445.803	596.56
446.024	675.56
446.245	698.56
446.466	637.56
446.687	570.56
446.908	542.56
447.129	521.56
447.35	486.56
447.571	489.56
447.792	485.56
448.013	477.56
448.234	493.56
448.455	532.56
448.675	636.56
448.896	718.56
449.117	627.56
449.338	584.56
449.559	668.56
449.779	756.56
450	612.56
450.221	518.56
450.442	483.56
450.662	475.56
450.883	475.56
451.104	470.56
451.324	456.56
451.545	463.56
451.766	432.56
451.986	450.56
452.207	448.56
452.428	450.56
452.648	426.56
452.869	423.56
453.089	434.56
453.31	434.56
453.53	440.56
453.751	438.56
453.971	441.56
454.192	434.56
454.412	443.56
454.633	450.56
454.853	424.56
455.073	449.56
455.294	446.56
455.514	485.56
455.734	504.56
455.955	426.56
456.175	422.56
456.395	421.56
456.616	416.56
456.836	438.56
457.056	416.56
457.276	427.56
457.497	453.56
457.717	426.56
457.937	438.56
458.157	417.56
458.377	448.56
458.598	450.56
458.818	493.56
459.038	561.56
459.258	572.56
459.478	515.56
459.698	488.56
459.918	504.56
460.138	477.56
460.358	506.56
460.578	488.56
460.798	542.56
461.018	516.56
461.238	493.56
461.458	497.56
461.678	510.56
461.898	518.56
462.118	500.56
462.338	531.56
462.558	537.56
462.777	537.56
462.997	577.56
463.217	583.56
463.437	603.56
463.657	581.56
463.876	545.56
464.096	548.56
464.316	522.56
464.536	568.56
464.755	547.56
464.975	537.56
465.195	556.56
465.414	598.56
465.634	552.56
465.854	500.56
466.073	494.56
466.293	488.56
466.512	464.56
466.732	477.56
466.951	468.56
467.171	451.56
467.391	454.56
467.61	476.56
467.829	477.56
468.049	459.56
468.268	446.56
468.488	438.56
468.707	458.56
468.927	423.56
469.146	436.56
469.365	434.56
469.585	466.56
469.804	463.56
470.023	459.56
470.243	473.56
470.462	495.56
470.681	474.56
470.901	476.56
471.12	481.56
471.339	454.56
471.558	461.56
471.777	455.56
471.997	468.56
472.216	474.56
472.435	462.56
472.654	448.56
472.873	449.56
473.092	470.56
473.311	443.56
473.53	460.56
473.749	467.56
473.968	498.56
474.187	551.56
474.406	560.56
474.625	483.56
474.844	453.56
475.063	467.56
475.282	457.56
475.501	446.56
475.72	460.56
475.939	458.56
476.158	467.56
476.377	476.56
476.596	448.56
476.814	462.56
477.033	486.56
477.252	474.56
477.471	475.56
477.69	494.56
477.908	518.56
478.127	493.56
478.346	519.56
478.564	520.56
478.783	525.56
479.002	525.56
479.22	548.56
479.439	538.56
479.658	545.56
479.876	553.56
480.095	561.56
480.313	582.56
480.532	585.56
480.751	569.56
480.969	555.56
481.188	549.56
481.406	539.56
481.624	544.56
481.843	542.56
482.061	533.56
482.28	535.56
482.498	517.56
482.717	518.56
482.935	508.56
483.153	525.56
483.372	538.56
483.59	531.56
483.808	530.56
484.027	514.56
484.245	527.56
484.463	512.56
484.681	534.56
484.9	523.56
485.118	552.56
485.336	527.56
485.554	572.56
485.772	530.56
485.99	536.56
486.209	567.56
486.427	547.56
486.645	562.56
486.863	588.56
487.081	562.56
487.299	571.56
487.517	548.56
487.735	538.56
487.953	570.56
488.171	540.56
488.389	551.56
488.607	555.56
488.825	560.56
489.043	570.56
489.261	566.56
489.479	567.56
489.696	572.56
489.914	590.56
490.132	566.56
490.35	584.56
490.568	617.56
490.786	604.56
491.003	612.56
491.221	583.56
491.439	633.56
491.657	606.56
491.874	638.56
492.092	632.56
492.31	611.56
492.527	634.56
492.745	610.56
492.963	624.56
493.18	638.56
493.398	641.56
493.615	644.56
493.833	645.56
494.05	630.56
494.268	629.56
494.485	644.56
494.703	666.56
494.92	663.56
495.138	652.56
495.355	665.56
495.573	674.56
495.79	656.56
496.008	677.56
496.225	662.56
496.442	645.56
496.66	659.56
496.877	692.56
497.094	665.56
497.312	683.56
497.529	671.56
497.746	698.56
497.963	708.56
498.181	732.56
498.398	768.56
498.615	772.56
498.832	810.56
499.049	804.56
499.267	834.56
499.484	905.56
499.701	927.56
499.918	988.56
500.135	1054.56
500.352	1129.56
500.569	1161.56
500.786	1137.56
501.003	1114.56
501.22	1060.56
501.437	1025.56
501.654	924.56
501.871	924.56
