Data from 1985.PennyLincolnUp.Lamp.En5.5.200Scan.071819.P1_HRD10591_17-03-40-970.txt Node
Date: Thu Jul 18 17:03:40 EDT 2019
User: cochatt
Spectrometer: HR+D1059
Trigger mode: 1
Integration Time (sec): 1.000000E-1
Scans to average: 1
Electric dark correction enabled: true
Nonlinearity correction enabled: false
Boxcar width: 0
XAxis mode: Wavelengths
Number of Pixels in Spectrum: 2048
>>>>>Begin Spectral Data<<<<<
223.165	6.31
223.4	6.31
223.635	6.31
223.869	-19.69
224.104	-20.69
224.338	-11.69
224.573	-18.69
224.808	-22.69
225.042	-12.69
225.277	-5.69
225.511	-7.69
225.746	15.31
225.98	-3.69
226.215	18.31
226.449	26.31
226.683	21.31
226.918	17.31
227.152	18.31
227.387	28.31
227.621	42.31
227.856	36.31
228.09	51.31
228.324	49.31
228.559	45.31
228.793	78.31
229.027	94.31
229.262	98.31
229.496	104.31
229.73	121.31
229.964	153.31
230.199	130.31
230.433	128.31
230.667	121.31
230.901	118.31
231.136	104.31
231.37	110.31
231.604	109.31
231.838	106.31
232.072	103.31
232.306	112.31
232.541	99.31
232.775	125.31
233.009	119.31
233.243	121.31
233.477	115.31
233.711	111.31
233.945	125.31
234.179	122.31
234.413	109.31
234.647	110.31
234.881	117.31
235.115	113.31
235.349	113.31
235.583	135.31
235.817	135.31
236.051	132.31
236.285	123.31
236.519	124.31
236.753	127.31
236.987	150.31
237.221	172.31
237.455	219.31
237.689	179.31
237.922	132.31
238.156	129.31
238.39	126.31
238.624	130.31
238.858	113.31
239.091	120.31
239.325	129.31
239.559	117.31
239.793	129.31
240.027	135.31
240.26	146.31
240.494	158.31
240.728	137.31
240.961	141.31
241.195	135.31
241.429	148.31
241.662	123.31
241.896	137.31
242.13	136.31
242.363	148.31
242.597	135.31
242.83	142.31
243.064	143.31
243.298	135.31
243.531	143.31
243.765	150.31
243.998	132.31
244.232	151.31
244.465	139.31
244.699	153.31
244.932	126.31
245.166	147.31
245.399	153.31
245.633	144.31
245.866	161.31
246.099	151.31
246.333	134.31
246.566	159.31
246.8	150.31
247.033	151.31
247.266	168.31
247.5	152.31
247.733	169.31
247.966	159.31
248.2	162.31
248.433	163.31
248.666	181.31
248.899	169.31
249.133	200.31
249.366	191.31
249.599	178.31
249.832	185.31
250.066	174.31
250.299	174.31
250.532	188.31
250.765	202.31
250.998	225.31
251.231	226.31
251.465	209.31
251.698	206.31
251.931	179.31
252.164	194.31
252.397	186.31
252.63	191.31
252.863	209.31
253.096	206.31
253.329	214.31
253.562	218.31
253.795	214.31
254.028	222.31
254.261	220.31
254.494	197.31
254.727	226.31
254.96	268.31
255.193	253.31
255.426	233.31
255.659	235.31
255.892	230.31
256.124	226.31
256.357	261.31
256.59	230.31
256.823	200.31
257.056	228.31
257.289	203.31
257.521	193.31
257.754	205.31
257.987	190.31
258.22	207.31
258.452	202.31
258.685	203.31
258.918	206.31
259.151	220.31
259.383	206.31
259.616	212.31
259.849	210.31
260.081	219.31
260.314	262.31
260.547	261.31
260.779	244.31
261.012	237.31
261.244	212.31
261.477	223.31
261.71	225.31
261.942	234.31
262.175	228.31
262.407	224.31
262.64	213.31
262.872	223.31
263.105	221.31
263.337	226.31
263.57	214.31
263.802	227.31
264.035	213.31
264.267	237.31
264.499	205.31
264.732	204.31
264.964	215.31
265.197	237.31
265.429	223.31
265.661	229.31
265.894	222.31
266.126	223.31
266.358	233.31
266.591	221.31
266.823	227.31
267.055	225.31
267.287	231.31
267.52	223.31
267.752	236.31
267.984	245.31
268.216	233.31
268.448	234.31
268.681	244.31
268.913	243.31
269.145	267.31
269.377	266.31
269.609	269.31
269.841	260.31
270.073	268.31
270.306	284.31
270.538	315.31
270.77	295.31
271.002	296.31
271.234	291.31
271.466	327.31
271.698	315.31
271.93	319.31
272.162	294.31
272.394	309.31
272.626	293.31
272.858	295.31
273.09	280.31
273.322	275.31
273.553	266.31
273.785	279.31
274.017	264.31
274.249	269.31
274.481	276.31
274.713	270.31
274.945	281.31
275.176	277.31
275.408	295.31
275.64	282.31
275.872	256.31
276.104	278.31
276.335	284.31
276.567	287.31
276.799	292.31
277.031	321.31
277.262	327.31
277.494	319.31
277.726	315.31
277.957	300.31
278.189	298.31
278.421	291.31
278.652	282.31
278.884	263.31
279.115	269.31
279.347	287.31
279.579	286.31
279.81	270.31
280.042	265.31
280.273	291.31
280.505	281.31
280.736	277.31
280.968	273.31
281.199	288.31
281.431	286.31
281.662	286.31
281.894	281.31
282.125	276.31
282.356	321.31
282.588	329.31
282.819	342.31
283.051	294.31
283.282	289.31
283.513	301.31
283.745	285.31
283.976	297.31
284.207	302.31
284.439	311.31
284.67	299.31
284.901	312.31
285.132	306.31
285.364	319.31
285.595	299.31
285.826	299.31
286.057	293.31
286.288	324.31
286.52	298.31
286.751	291.31
286.982	305.31
287.213	326.31
287.444	300.31
287.675	337.31
287.906	328.31
288.138	323.31
288.369	326.31
288.6	319.31
288.831	318.31
289.062	330.31
289.293	331.31
289.524	314.31
289.755	317.31
289.986	328.31
290.217	325.31
290.448	311.31
290.679	320.31
290.91	310.31
291.141	311.31
291.371	323.31
291.602	327.31
291.833	312.31
292.064	310.31
292.295	305.31
292.526	318.31
292.757	308.31
292.987	319.31
293.218	328.31
293.449	315.31
293.68	326.31
293.91	331.31
294.141	337.31
294.372	325.31
294.603	325.31
294.833	326.31
295.064	330.31
295.295	321.31
295.525	326.31
295.756	348.31
295.987	340.31
296.217	346.31
296.448	370.31
296.679	338.31
296.909	329.31
297.14	327.31
297.37	345.31
297.601	320.31
297.831	343.31
298.062	329.31
298.292	327.31
298.523	327.31
298.753	353.31
298.984	339.31
299.214	342.31
299.445	329.31
299.675	366.31
299.905	331.31
300.136	363.31
300.366	332.31
300.597	343.31
300.827	364.31
301.057	369.31
301.288	357.31
301.518	365.31
301.748	378.31
301.979	350.31
302.209	375.31
302.439	353.31
302.669	353.31
302.9	354.31
303.13	360.31
303.36	349.31
303.59	373.31
303.82	362.31
304.051	358.31
304.281	365.31
304.511	355.31
304.741	362.31
304.971	365.31
305.201	346.31
305.431	359.31
305.661	349.31
305.891	353.31
306.121	374.31
306.352	377.31
306.582	367.31
306.812	380.31
307.042	368.31
307.272	362.31
307.502	367.31
307.731	371.31
307.961	359.31
308.191	359.31
308.421	360.31
308.651	361.31
308.881	362.31
309.111	359.31
309.341	381.31
309.571	377.31
309.8	375.31
310.03	399.31
310.26	404.31
310.49	396.31
310.72	409.31
310.949	420.31
311.179	418.31
311.409	417.31
311.639	412.31
311.868	394.31
312.098	387.31
312.328	413.31
312.557	423.31
312.787	422.31
313.017	430.31
313.246	430.31
313.476	401.31
313.706	415.31
313.935	400.31
314.165	423.31
314.394	419.31
314.624	421.31
314.853	426.31
315.083	411.31
315.312	397.31
315.542	393.31
315.771	398.31
316.001	400.31
316.23	397.31
316.46	398.31
316.689	400.31
316.919	399.31
317.148	387.31
317.377	433.31
317.607	433.31
317.836	409.31
318.065	408.31
318.295	400.31
318.524	411.31
318.753	399.31
318.983	421.31
319.212	396.31
319.441	430.31
319.67	435.31
319.9	411.31
320.129	422.31
320.358	417.31
320.587	422.31
320.816	428.31
321.046	450.31
321.275	426.31
321.504	418.31
321.733	425.31
321.962	441.31
322.191	469.31
322.42	470.31
322.649	467.31
322.878	476.31
323.108	453.31
323.337	492.31
323.566	503.31
323.795	515.31
324.024	564.31
324.253	661.31
324.482	931.31
324.71	1358.31
324.939	1919.31
325.168	1646.31
325.397	859.31
325.626	639.31
325.855	565.31
326.084	523.31
326.313	526.31
326.542	532.31
326.77	567.31
326.999	639.31
327.228	842.31
327.457	1247.31
327.686	1442.31
327.914	981.31
328.143	704.31
328.372	648.31
328.6	594.31
328.829	571.31
329.058	579.31
329.287	611.31
329.515	558.31
329.744	541.31
329.972	538.31
330.201	558.31
330.43	577.31
330.658	615.31
330.887	611.31
331.115	600.31
331.344	540.31
331.572	520.31
331.801	549.31
332.03	538.31
332.258	500.31
332.486	489.31
332.715	488.31
332.943	515.31
333.172	515.31
333.4	527.31
333.629	534.31
333.857	538.31
334.085	553.31
334.314	565.31
334.542	581.31
334.771	622.31
334.999	556.31
335.227	553.31
335.455	502.31
335.684	513.31
335.912	498.31
336.14	492.31
336.369	494.31
336.597	486.31
336.825	501.31
337.053	490.31
337.281	464.31
337.51	486.31
337.738	492.31
337.966	474.31
338.194	468.31
338.422	468.31
338.65	471.31
338.878	457.31
339.106	461.31
339.334	472.31
339.562	464.31
339.79	455.31
340.018	465.31
340.246	467.31
340.474	444.31
340.702	457.31
340.93	456.31
341.158	454.31
341.386	457.31
341.614	483.31
341.842	447.31
342.07	458.31
342.298	444.31
342.526	459.31
342.754	453.31
342.981	456.31
343.209	454.31
343.437	456.31
343.665	457.31
343.893	478.31
344.12	512.31
344.348	467.31
344.576	468.31
344.804	497.31
345.031	471.31
345.259	477.31
345.487	472.31
345.714	444.31
345.942	459.31
346.17	449.31
346.397	454.31
346.625	435.31
346.853	441.31
347.08	439.31
347.308	431.31
347.535	456.31
347.763	453.31
347.99	451.31
348.218	435.31
348.445	461.31
348.673	450.31
348.9	440.31
349.128	435.31
349.355	433.31
349.583	419.31
349.81	424.31
350.037	427.31
350.265	432.31
350.492	459.31
350.72	434.31
350.947	439.31
351.174	441.31
351.402	445.31
351.629	429.31
351.856	461.31
352.083	444.31
352.311	456.31
352.538	447.31
352.765	456.31
352.992	454.31
353.22	445.31
353.447	433.31
353.674	418.31
353.901	433.31
354.128	425.31
354.355	392.31
354.583	420.31
354.81	426.31
355.037	403.31
355.264	421.31
355.491	415.31
355.718	402.31
355.945	395.31
356.172	409.31
356.399	427.31
356.626	409.31
356.853	410.31
357.08	407.31
357.307	409.31
357.534	418.31
357.761	409.31
357.988	422.31
358.215	419.31
358.441	428.31
358.668	413.31
358.895	417.31
359.122	433.31
359.349	407.31
359.576	417.31
359.802	455.31
360.029	468.31
360.256	497.31
360.483	461.31
360.709	439.31
360.936	421.31
361.163	430.31
361.39	424.31
361.616	426.31
361.843	425.31
362.07	456.31
362.296	442.31
362.523	418.31
362.749	448.31
362.976	419.31
363.203	441.31
363.429	417.31
363.656	411.31
363.882	414.31
364.109	400.31
364.335	408.31
364.562	425.31
364.788	430.31
365.015	396.31
365.241	413.31
365.468	426.31
365.694	407.31
365.92	410.31
366.147	440.31
366.373	412.31
366.599	418.31
366.826	405.31
367.052	413.31
367.278	407.31
367.505	410.31
367.731	420.31
367.957	414.31
368.184	434.31
368.41	429.31
368.636	443.31
368.862	415.31
369.089	417.31
369.315	407.31
369.541	412.31
369.767	403.31
369.993	412.31
370.219	421.31
370.445	404.31
370.672	434.31
370.898	410.31
371.124	409.31
371.35	430.31
371.576	415.31
371.802	405.31
372.028	435.31
372.254	429.31
372.48	409.31
372.706	438.31
372.932	418.31
373.158	411.31
373.384	416.31
373.61	426.31
373.835	394.31
374.061	419.31
374.287	398.31
374.513	416.31
374.739	431.31
374.965	428.31
375.191	449.31
375.416	437.31
375.642	419.31
375.868	422.31
376.094	415.31
376.319	416.31
376.545	411.31
376.771	429.31
376.997	417.31
377.222	410.31
377.448	406.31
377.674	438.31
377.899	427.31
378.125	398.31
378.35	393.31
378.576	405.31
378.802	415.31
379.027	406.31
379.253	395.31
379.478	403.31
379.704	407.31
379.929	418.31
380.155	416.31
380.38	397.31
380.606	417.31
380.831	401.31
381.057	417.31
381.282	405.31
381.507	404.31
381.733	406.31
381.958	442.31
382.184	415.31
382.409	427.31
382.634	422.31
382.86	439.31
383.085	419.31
383.31	412.31
383.535	434.31
383.761	446.31
383.986	442.31
384.211	442.31
384.436	437.31
384.662	453.31
384.887	465.31
385.112	462.31
385.337	452.31
385.562	456.31
385.787	460.31
386.013	459.31
386.238	479.31
386.463	463.31
386.688	464.31
386.913	441.31
387.138	451.31
387.363	472.31
387.588	469.31
387.813	464.31
388.038	448.31
388.263	461.31
388.488	460.31
388.713	446.31
388.938	450.31
389.163	452.31
389.387	453.31
389.612	431.31
389.837	447.31
390.062	453.31
390.287	472.31
390.512	446.31
390.736	472.31
390.961	456.31
391.186	462.31
391.411	449.31
391.636	488.31
391.86	478.31
392.085	487.31
392.31	484.31
392.534	482.31
392.759	484.31
392.984	470.31
393.208	473.31
393.433	469.31
393.658	472.31
393.882	474.31
394.107	463.31
394.331	467.31
394.556	483.31
394.78	478.31
395.005	484.31
395.229	462.31
395.454	469.31
395.678	487.31
395.903	502.31
396.127	518.31
396.352	479.31
396.576	474.31
396.801	483.31
397.025	496.31
397.249	499.31
397.474	483.31
397.698	490.31
397.922	514.31
398.147	517.31
398.371	522.31
398.595	501.31
398.82	522.31
399.044	569.31
399.268	566.31
399.492	603.31
399.717	676.31
399.941	691.31
400.165	670.31
400.389	680.31
400.613	608.31
400.837	572.31
401.062	557.31
401.286	538.31
401.51	551.31
401.734	523.31
401.958	565.31
402.182	535.31
402.406	545.31
402.63	564.31
402.854	580.31
403.078	549.31
403.302	558.31
403.526	552.31
403.75	587.31
403.974	563.31
404.198	587.31
404.422	581.31
404.645	567.31
404.869	575.31
405.093	630.31
405.317	673.31
405.541	670.31
405.765	606.31
405.988	588.31
406.212	598.31
406.436	609.31
406.66	634.31
406.883	615.31
407.107	630.31
407.331	681.31
407.555	713.31
407.778	741.31
408.002	665.31
408.226	593.31
408.449	598.31
408.673	585.31
408.896	651.31
409.12	653.31
409.344	627.31
409.567	595.31
409.791	560.31
410.014	584.31
410.238	566.31
410.461	559.31
410.685	574.31
410.908	562.31
411.132	607.31
411.355	635.31
411.578	619.31
411.802	546.31
412.025	551.31
412.249	556.31
412.472	558.31
412.695	613.31
412.919	584.31
413.142	564.31
413.365	542.31
413.589	508.31
413.812	518.31
414.035	526.31
414.258	537.31
414.482	527.31
414.705	515.31
414.928	523.31
415.151	519.31
415.374	540.31
415.597	509.31
415.821	515.31
416.044	522.31
416.267	521.31
416.49	512.31
416.713	516.31
416.936	519.31
417.159	526.31
417.382	509.31
417.605	515.31
417.828	534.31
418.051	539.31
418.274	535.31
418.497	503.31
418.72	518.31
418.943	518.31
419.166	559.31
419.389	566.31
419.611	559.31
419.834	556.31
420.057	541.31
420.28	571.31
420.503	552.31
420.726	555.31
420.948	546.31
421.171	584.31
421.394	595.31
421.617	573.31
421.839	542.31
422.062	525.31
422.285	546.31
422.507	627.31
422.73	652.31
422.953	627.31
423.175	568.31
423.398	590.31
423.621	553.31
423.843	555.31
424.066	589.31
424.288	585.31
424.511	603.31
424.733	627.31
424.956	697.31
425.178	672.31
425.401	632.31
425.623	689.31
425.846	593.31
426.068	583.31
426.291	545.31
426.513	537.31
426.735	545.31
426.958	599.31
427.18	662.31
427.402	795.31
427.625	851.31
427.847	739.31
428.069	666.31
428.292	584.31
428.514	539.31
428.736	521.31
428.958	517.31
429.181	506.31
429.403	534.31
429.625	530.31
429.847	546.31
430.069	599.31
430.292	603.31
430.514	534.31
430.736	502.31
430.958	495.31
431.18	507.31
431.402	497.31
431.624	465.31
431.846	472.31
432.068	487.31
432.29	480.31
432.512	490.31
432.734	498.31
432.956	499.31
433.178	498.31
433.4	492.31
433.622	491.31
433.844	509.31
434.066	517.31
434.287	480.31
434.509	510.31
434.731	517.31
434.953	511.31
435.175	541.31
435.397	537.31
435.618	581.31
435.84	614.31
436.062	660.31
436.284	719.31
436.505	585.31
436.727	553.31
436.949	515.31
437.17	537.31
437.392	526.31
437.614	520.31
437.835	541.31
438.057	634.31
438.278	736.31
438.5	713.31
438.721	780.31
438.943	735.31
439.165	592.31
439.386	579.31
439.608	541.31
439.829	559.31
440.05	578.31
440.272	606.31
440.493	535.31
440.715	525.31
440.936	520.31
441.158	537.31
441.379	526.31
441.6	537.31
441.822	569.31
442.043	607.31
442.264	687.31
442.486	704.31
442.707	598.31
442.928	553.31
443.149	571.31
443.371	609.31
443.592	637.31
443.813	699.31
444.034	754.31
444.255	649.31
444.476	596.31
444.698	580.31
444.919	586.31
445.14	723.31
445.361	671.31
445.582	602.31
445.803	665.31
446.024	727.31
446.245	729.31
446.466	673.31
446.687	565.31
446.908	534.31
447.129	502.31
447.35	492.31
447.571	499.31
447.792	507.31
448.013	511.31
448.234	516.31
448.455	558.31
448.675	654.31
448.896	779.31
449.117	631.31
449.338	606.31
449.559	707.31
449.779	801.31
450	642.31
450.221	533.31
450.442	515.31
450.662	497.31
450.883	488.31
451.104	501.31
451.324	514.31
451.545	472.31
451.766	462.31
451.986	450.31
452.207	463.31
452.428	472.31
452.648	455.31
452.869	449.31
453.089	472.31
453.31	471.31
453.53	468.31
453.751	473.31
453.971	460.31
454.192	470.31
454.412	461.31
454.633	450.31
454.853	441.31
455.073	437.31
455.294	472.31
455.514	527.31
455.734	533.31
455.955	447.31
456.175	429.31
456.395	421.31
456.616	403.31
456.836	449.31
457.056	429.31
457.276	428.31
457.497	445.31
457.717	435.31
457.937	426.31
458.157	443.31
458.377	460.31
458.598	478.31
458.818	519.31
459.038	587.31
459.258	605.31
459.478	537.31
459.698	507.31
459.918	503.31
460.138	515.31
460.358	508.31
460.578	545.31
460.798	525.31
461.018	532.31
461.238	510.31
461.458	526.31
461.678	521.31
461.898	516.31
462.118	542.31
462.338	540.31
462.558	545.31
462.777	564.31
462.997	588.31
463.217	589.31
463.437	603.31
463.657	592.31
463.876	579.31
464.096	584.31
464.316	577.31
464.536	557.31
464.755	558.31
464.975	574.31
465.195	585.31
465.414	636.31
465.634	585.31
465.854	513.31
466.073	492.31
466.293	469.31
466.512	485.31
466.732	482.31
466.951	477.31
467.171	485.31
467.391	470.31
467.61	480.31
467.829	482.31
468.049	484.31
468.268	499.31
468.488	469.31
468.707	474.31
468.927	464.31
469.146	447.31
469.365	451.31
469.585	469.31
469.804	498.31
470.023	478.31
470.243	461.31
470.462	487.31
470.681	495.31
470.901	515.31
471.12	490.31
471.339	495.31
471.558	486.31
471.777	484.31
471.997	474.31
472.216	482.31
472.435	499.31
472.654	507.31
472.873	477.31
473.092	481.31
473.311	473.31
473.53	478.31
473.749	467.31
473.968	510.31
474.187	586.31
474.406	616.31
474.625	531.31
474.844	500.31
475.063	478.31
475.282	497.31
475.501	492.31
475.72	491.31
475.939	485.31
476.158	499.31
476.377	495.31
476.596	475.31
476.814	513.31
477.033	509.31
477.252	517.31
477.471	505.31
477.69	515.31
477.908	540.31
478.127	528.31
478.346	530.31
478.564	535.31
478.783	553.31
479.002	523.31
479.22	566.31
479.439	549.31
479.658	569.31
479.876	581.31
480.095	594.31
480.313	615.31
480.532	630.31
480.751	613.31
480.969	598.31
481.188	657.31
481.406	653.31
481.624	626.31
481.843	582.31
482.061	580.31
482.28	579.31
482.498	570.31
482.717	539.31
482.935	564.31
483.153	531.31
483.372	543.31
483.59	550.31
483.808	548.31
484.027	544.31
484.245	561.31
484.463	556.31
484.681	551.31
484.9	545.31
485.118	580.31
485.336	561.31
485.554	569.31
485.772	586.31
485.99	583.31
486.209	563.31
486.427	555.31
486.645	590.31
486.863	618.31
487.081	583.31
487.299	597.31
487.517	588.31
487.735	586.31
487.953	597.31
488.171	609.31
488.389	579.31
488.607	606.31
488.825	610.31
489.043	592.31
489.261	568.31
489.479	595.31
489.696	603.31
489.914	598.31
490.132	607.31
490.35	638.31
490.568	583.31
490.786	642.31
491.003	634.31
491.221	650.31
491.439	653.31
491.657	650.31
491.874	643.31
492.092	676.31
492.31	688.31
492.527	685.31
492.745	676.31
492.963	682.31
493.18	695.31
493.398	717.31
493.615	693.31
493.833	683.31
494.05	709.31
494.268	684.31
494.485	677.31
494.703	706.31
494.92	700.31
495.138	714.31
495.355	693.31
495.573	689.31
495.79	676.31
496.008	704.31
496.225	694.31
496.442	704.31
496.66	701.31
496.877	700.31
497.094	715.31
497.312	720.31
497.529	746.31
497.746	747.31
497.963	737.31
498.181	790.31
498.398	790.31
498.615	796.31
498.832	836.31
499.049	861.31
499.267	878.31
499.484	905.31
499.701	980.31
499.918	998.31
500.135	1102.31
500.352	1155.31
500.569	1154.31
500.786	1173.31
501.003	1149.31
501.22	1131.31
501.437	1028.31
501.654	1010.31
501.871	972.31
