Data from 1985.PennyLincolnUp.Lamp.En5.5.200Scan.071819.P1_HRD10591_17-02-42-970.txt Node
Date: Thu Jul 18 17:02:42 EDT 2019
User: cochatt
Spectrometer: HR+D1059
Trigger mode: 1
Integration Time (sec): 1.000000E-1
Scans to average: 1
Electric dark correction enabled: true
Nonlinearity correction enabled: false
Boxcar width: 0
XAxis mode: Wavelengths
Number of Pixels in Spectrum: 2048
>>>>>Begin Spectral Data<<<<<
223.165	-14.31
223.4	-14.31
223.635	-14.31
223.869	-27.31
224.104	-14.31
224.338	-17.31
224.573	-19.31
224.808	-6.31
225.042	-14.31
225.277	-11.31
225.511	0.69
225.746	4.69
225.98	5.69
226.215	20.69
226.449	23.69
226.683	28.69
226.918	11.69
227.152	28.69
227.387	38.69
227.621	24.69
227.856	43.69
228.09	38.69
228.324	60.69
228.559	62.69
228.793	66.69
229.027	89.69
229.262	100.69
229.496	98.69
229.73	130.69
229.964	149.69
230.199	117.69
230.433	120.69
230.667	112.69
230.901	100.69
231.136	110.69
231.37	114.69
231.604	112.69
231.838	95.69
232.072	105.69
232.306	129.69
232.541	112.69
232.775	108.69
233.009	106.69
233.243	117.69
233.477	106.69
233.711	116.69
233.945	118.69
234.179	100.69
234.413	130.69
234.647	124.69
234.881	106.69
235.115	114.69
235.349	122.69
235.583	123.69
235.817	136.69
236.051	125.69
236.285	122.69
236.519	126.69
236.753	121.69
236.987	155.69
237.221	189.69
237.455	224.69
237.689	184.69
237.922	143.69
238.156	134.69
238.39	130.69
238.624	124.69
238.858	134.69
239.091	123.69
239.325	126.69
239.559	130.69
239.793	141.69
240.027	133.69
240.26	139.69
240.494	148.69
240.728	146.69
240.961	148.69
241.195	153.69
241.429	140.69
241.662	134.69
241.896	141.69
242.13	129.69
242.363	121.69
242.597	135.69
242.83	149.69
243.064	137.69
243.298	145.69
243.531	140.69
243.765	146.69
243.998	148.69
244.232	141.69
244.465	139.69
244.699	148.69
244.932	143.69
245.166	128.69
245.399	142.69
245.633	167.69
245.866	134.69
246.099	133.69
246.333	140.69
246.566	152.69
246.8	147.69
247.033	153.69
247.266	171.69
247.5	144.69
247.733	154.69
247.966	178.69
248.2	173.69
248.433	165.69
248.666	174.69
248.899	180.69
249.133	200.69
249.366	194.69
249.599	182.69
249.832	188.69
250.066	196.69
250.299	186.69
250.532	193.69
250.765	203.69
250.998	216.69
251.231	215.69
251.465	195.69
251.698	198.69
251.931	194.69
252.164	189.69
252.397	197.69
252.63	210.69
252.863	199.69
253.096	220.69
253.329	214.69
253.562	218.69
253.795	209.69
254.028	209.69
254.261	213.69
254.494	220.69
254.727	256.69
254.96	293.69
255.193	258.69
255.426	231.69
255.659	223.69
255.892	235.69
256.124	220.69
256.357	219.69
256.59	215.69
256.823	228.69
257.056	212.69
257.289	209.69
257.521	206.69
257.754	203.69
257.987	210.69
258.22	202.69
258.452	210.69
258.685	213.69
258.918	203.69
259.151	213.69
259.383	212.69
259.616	219.69
259.849	243.69
260.081	244.69
260.314	257.69
260.547	245.69
260.779	246.69
261.012	218.69
261.244	219.69
261.477	237.69
261.71	236.69
261.942	222.69
262.175	233.69
262.407	237.69
262.64	242.69
262.872	234.69
263.105	235.69
263.337	225.69
263.57	212.69
263.802	225.69
264.035	226.69
264.267	232.69
264.499	220.69
264.732	219.69
264.964	211.69
265.197	231.69
265.429	219.69
265.661	242.69
265.894	226.69
266.126	228.69
266.358	230.69
266.591	229.69
266.823	251.69
267.055	228.69
267.287	254.69
267.52	220.69
267.752	226.69
267.984	234.69
268.216	263.69
268.448	234.69
268.681	236.69
268.913	257.69
269.145	262.69
269.377	293.69
269.609	284.69
269.841	265.69
270.073	274.69
270.306	294.69
270.538	308.69
270.77	324.69
271.002	313.69
271.234	304.69
271.466	307.69
271.698	343.69
271.93	317.69
272.162	332.69
272.394	311.69
272.626	316.69
272.858	305.69
273.09	292.69
273.322	304.69
273.553	290.69
273.785	287.69
274.017	261.69
274.249	282.69
274.481	263.69
274.713	258.69
274.945	285.69
275.176	261.69
275.408	283.69
275.64	286.69
275.872	257.69
276.104	273.69
276.335	252.69
276.567	280.69
276.799	314.69
277.031	317.69
277.262	334.69
277.494	344.69
277.726	314.69
277.957	315.69
278.189	309.69
278.421	288.69
278.652	290.69
278.884	281.69
279.115	290.69
279.347	299.69
279.579	278.69
279.81	287.69
280.042	299.69
280.273	292.69
280.505	292.69
280.736	293.69
280.968	278.69
281.199	277.69
281.431	286.69
281.662	279.69
281.894	302.69
282.125	307.69
282.356	308.69
282.588	312.69
282.819	349.69
283.051	305.69
283.282	298.69
283.513	306.69
283.745	326.69
283.976	313.69
284.207	311.69
284.439	307.69
284.67	316.69
284.901	291.69
285.132	317.69
285.364	313.69
285.595	326.69
285.826	321.69
286.057	297.69
286.288	284.69
286.52	308.69
286.751	291.69
286.982	312.69
287.213	324.69
287.444	324.69
287.675	318.69
287.906	353.69
288.138	354.69
288.369	317.69
288.6	341.69
288.831	340.69
289.062	330.69
289.293	331.69
289.524	303.69
289.755	327.69
289.986	337.69
290.217	320.69
290.448	326.69
290.679	312.69
290.91	315.69
291.141	318.69
291.371	321.69
291.602	323.69
291.833	313.69
292.064	327.69
292.295	338.69
292.526	325.69
292.757	322.69
292.987	325.69
293.218	312.69
293.449	339.69
293.68	310.69
293.91	328.69
294.141	329.69
294.372	326.69
294.603	334.69
294.833	324.69
295.064	326.69
295.295	337.69
295.525	327.69
295.756	337.69
295.987	344.69
296.217	342.69
296.448	384.69
296.679	353.69
296.909	343.69
297.14	337.69
297.37	344.69
297.601	324.69
297.831	333.69
298.062	346.69
298.292	345.69
298.523	363.69
298.753	351.69
298.984	340.69
299.214	352.69
299.445	337.69
299.675	358.69
299.905	348.69
300.136	339.69
300.366	342.69
300.597	347.69
300.827	353.69
301.057	373.69
301.288	374.69
301.518	377.69
301.748	363.69
301.979	372.69
302.209	342.69
302.439	389.69
302.669	383.69
302.9	386.69
303.13	378.69
303.36	361.69
303.59	372.69
303.82	396.69
304.051	387.69
304.281	375.69
304.511	385.69
304.741	346.69
304.971	364.69
305.201	371.69
305.431	362.69
305.661	369.69
305.891	370.69
306.121	379.69
306.352	384.69
306.582	377.69
306.812	376.69
307.042	369.69
307.272	377.69
307.502	353.69
307.731	399.69
307.961	376.69
308.191	375.69
308.421	377.69
308.651	381.69
308.881	363.69
309.111	378.69
309.341	372.69
309.571	388.69
309.8	404.69
310.03	420.69
310.26	416.69
310.49	410.69
310.72	422.69
310.949	405.69
311.179	423.69
311.409	412.69
311.639	403.69
311.868	426.69
312.098	398.69
312.328	441.69
312.557	418.69
312.787	423.69
313.017	436.69
313.246	440.69
313.476	422.69
313.706	416.69
313.935	421.69
314.165	449.69
314.394	427.69
314.624	441.69
314.853	447.69
315.083	430.69
315.312	420.69
315.542	409.69
315.771	421.69
316.001	419.69
316.23	416.69
316.46	430.69
316.689	434.69
316.919	420.69
317.148	429.69
317.377	446.69
317.607	434.69
317.836	428.69
318.065	417.69
318.295	437.69
318.524	397.69
318.753	420.69
318.983	411.69
319.212	416.69
319.441	439.69
319.67	448.69
319.9	420.69
320.129	416.69
320.358	440.69
320.587	432.69
320.816	432.69
321.046	428.69
321.275	432.69
321.504	452.69
321.733	438.69
321.962	470.69
322.191	441.69
322.42	466.69
322.649	471.69
322.878	478.69
323.108	490.69
323.337	508.69
323.566	526.69
323.795	578.69
324.024	584.69
324.253	696.69
324.482	984.69
324.71	1429.69
324.939	2072.69
325.168	1776.69
325.397	912.69
325.626	662.69
325.855	584.69
326.084	536.69
326.313	524.69
326.542	531.69
326.77	558.69
326.999	651.69
327.228	864.69
327.457	1323.69
327.686	1580.69
327.914	1033.69
328.143	704.69
328.372	613.69
328.6	611.69
328.829	580.69
329.058	583.69
329.287	613.69
329.515	588.69
329.744	535.69
329.972	541.69
330.201	539.69
330.43	555.69
330.658	601.69
330.887	647.69
331.115	626.69
331.344	548.69
331.572	525.69
331.801	556.69
332.03	561.69
332.258	524.69
332.486	522.69
332.715	498.69
332.943	508.69
333.172	525.69
333.4	528.69
333.629	538.69
333.857	563.69
334.085	556.69
334.314	559.69
334.542	564.69
334.771	563.69
334.999	558.69
335.227	534.69
335.455	556.69
335.684	513.69
335.912	521.69
336.14	493.69
336.369	503.69
336.597	518.69
336.825	489.69
337.053	497.69
337.281	518.69
337.51	498.69
337.738	502.69
337.966	497.69
338.194	508.69
338.422	494.69
338.65	501.69
338.878	468.69
339.106	483.69
339.334	474.69
339.562	469.69
339.79	491.69
340.018	496.69
340.246	472.69
340.474	449.69
340.702	477.69
340.93	478.69
341.158	478.69
341.386	483.69
341.614	478.69
341.842	486.69
342.07	461.69
342.298	469.69
342.526	453.69
342.754	466.69
342.981	436.69
343.209	467.69
343.437	461.69
343.665	488.69
343.893	478.69
344.12	514.69
344.348	502.69
344.576	474.69
344.804	479.69
345.031	486.69
345.259	510.69
345.487	469.69
345.714	469.69
345.942	458.69
346.17	451.69
346.397	472.69
346.625	466.69
346.853	466.69
347.08	450.69
347.308	466.69
347.535	460.69
347.763	471.69
347.99	460.69
348.218	472.69
348.445	482.69
348.673	469.69
348.9	438.69
349.128	462.69
349.355	452.69
349.583	428.69
349.81	452.69
350.037	438.69
350.265	445.69
350.492	431.69
350.72	451.69
350.947	446.69
351.174	464.69
351.402	445.69
351.629	457.69
351.856	455.69
352.083	453.69
352.311	455.69
352.538	453.69
352.765	476.69
352.992	462.69
353.22	459.69
353.447	457.69
353.674	432.69
353.901	426.69
354.128	438.69
354.355	426.69
354.583	432.69
354.81	432.69
355.037	415.69
355.264	428.69
355.491	423.69
355.718	413.69
355.945	413.69
356.172	429.69
356.399	438.69
356.626	423.69
356.853	432.69
357.08	416.69
357.307	418.69
357.534	429.69
357.761	420.69
357.988	442.69
358.215	451.69
358.441	444.69
358.668	410.69
358.895	437.69
359.122	417.69
359.349	442.69
359.576	450.69
359.802	453.69
360.029	491.69
360.256	489.69
360.483	465.69
360.709	465.69
360.936	473.69
361.163	427.69
361.39	457.69
361.616	462.69
361.843	444.69
362.07	440.69
362.296	456.69
362.523	456.69
362.749	448.69
362.976	442.69
363.203	398.69
363.429	408.69
363.656	441.69
363.882	439.69
364.109	425.69
364.335	422.69
364.562	427.69
364.788	450.69
365.015	408.69
365.241	428.69
365.468	437.69
365.694	413.69
365.92	440.69
366.147	418.69
366.373	423.69
366.599	419.69
366.826	430.69
367.052	419.69
367.278	410.69
367.505	417.69
367.731	418.69
367.957	419.69
368.184	432.69
368.41	425.69
368.636	437.69
368.862	452.69
369.089	433.69
369.315	436.69
369.541	422.69
369.767	406.69
369.993	423.69
370.219	414.69
370.445	423.69
370.672	428.69
370.898	428.69
371.124	422.69
371.35	420.69
371.576	419.69
371.802	408.69
372.028	426.69
372.254	409.69
372.48	426.69
372.706	432.69
372.932	438.69
373.158	431.69
373.384	445.69
373.61	444.69
373.835	444.69
374.061	441.69
374.287	420.69
374.513	444.69
374.739	434.69
374.965	437.69
375.191	451.69
375.416	446.69
375.642	425.69
375.868	427.69
376.094	425.69
376.319	442.69
376.545	419.69
376.771	449.69
376.997	414.69
377.222	426.69
377.448	429.69
377.674	434.69
377.899	420.69
378.125	428.69
378.35	432.69
378.576	428.69
378.802	412.69
379.027	410.69
379.253	409.69
379.478	425.69
379.704	426.69
379.929	428.69
380.155	411.69
380.38	421.69
380.606	425.69
380.831	439.69
381.057	445.69
381.282	421.69
381.507	416.69
381.733	423.69
381.958	416.69
382.184	414.69
382.409	419.69
382.634	453.69
382.86	438.69
383.085	441.69
383.31	444.69
383.535	437.69
383.761	440.69
383.986	469.69
384.211	447.69
384.436	471.69
384.662	463.69
384.887	468.69
385.112	460.69
385.337	463.69
385.562	472.69
385.787	462.69
386.013	471.69
386.238	488.69
386.463	484.69
386.688	476.69
386.913	465.69
387.138	469.69
387.363	461.69
387.588	467.69
387.813	452.69
388.038	472.69
388.263	464.69
388.488	482.69
388.713	485.69
388.938	485.69
389.163	468.69
389.387	461.69
389.612	461.69
389.837	469.69
390.062	464.69
390.287	478.69
390.512	464.69
390.736	469.69
390.961	492.69
391.186	465.69
391.411	490.69
391.636	498.69
391.86	475.69
392.085	493.69
392.31	506.69
392.534	516.69
392.759	491.69
392.984	500.69
393.208	485.69
393.433	478.69
393.658	489.69
393.882	466.69
394.107	488.69
394.331	448.69
394.556	491.69
394.78	475.69
395.005	490.69
395.229	494.69
395.454	523.69
395.678	520.69
395.903	503.69
396.127	520.69
396.352	518.69
396.576	481.69
396.801	497.69
397.025	499.69
397.249	490.69
397.474	518.69
397.698	492.69
397.922	498.69
398.147	530.69
398.371	550.69
398.595	546.69
398.82	543.69
399.044	556.69
399.268	612.69
399.492	649.69
399.717	713.69
399.941	726.69
400.165	712.69
400.389	687.69
400.613	659.69
400.837	597.69
401.062	579.69
401.286	556.69
401.51	573.69
401.734	532.69
401.958	549.69
402.182	557.69
402.406	574.69
402.63	566.69
402.854	583.69
403.078	560.69
403.302	579.69
403.526	596.69
403.75	600.69
403.974	590.69
404.198	573.69
404.422	581.69
404.645	594.69
404.869	588.69
405.093	629.69
405.317	620.69
405.541	668.69
405.765	594.69
405.988	603.69
406.212	602.69
406.436	628.69
406.66	654.69
406.883	632.69
407.107	627.69
407.331	713.69
407.555	757.69
407.778	725.69
408.002	716.69
408.226	636.69
408.449	633.69
408.673	609.69
408.896	632.69
409.12	676.69
409.344	631.69
409.567	598.69
409.791	583.69
410.014	572.69
410.238	569.69
410.461	552.69
410.685	553.69
410.908	569.69
411.132	604.69
411.355	635.69
411.578	607.69
411.802	583.69
412.025	556.69
412.249	566.69
412.472	570.69
412.695	588.69
412.919	584.69
413.142	544.69
413.365	546.69
413.589	518.69
413.812	558.69
414.035	566.69
414.258	539.69
414.482	555.69
414.705	541.69
414.928	549.69
415.151	535.69
415.374	543.69
415.597	538.69
415.821	525.69
416.044	542.69
416.267	524.69
416.49	536.69
416.713	520.69
416.936	557.69
417.159	525.69
417.382	534.69
417.605	538.69
417.828	530.69
418.051	555.69
418.274	546.69
418.497	535.69
418.72	538.69
418.943	520.69
419.166	581.69
419.389	570.69
419.611	585.69
419.834	558.69
420.057	566.69
420.28	550.69
420.503	547.69
420.726	544.69
420.948	571.69
421.171	604.69
421.394	634.69
421.617	574.69
421.839	557.69
422.062	533.69
422.285	547.69
422.507	618.69
422.73	677.69
422.953	655.69
423.175	580.69
423.398	574.69
423.621	579.69
423.843	612.69
424.066	579.69
424.288	592.69
424.511	621.69
424.733	646.69
424.956	717.69
425.178	706.69
425.401	721.69
425.623	701.69
425.846	610.69
426.068	593.69
426.291	580.69
426.513	569.69
426.735	598.69
426.958	612.69
427.18	687.69
427.402	826.69
427.625	880.69
427.847	760.69
428.069	663.69
428.292	604.69
428.514	554.69
428.736	530.69
428.958	541.69
429.181	516.69
429.403	532.69
429.625	538.69
429.847	568.69
430.069	616.69
430.292	612.69
430.514	541.69
430.736	528.69
430.958	506.69
431.18	505.69
431.402	508.69
431.624	506.69
431.846	507.69
432.068	498.69
432.29	514.69
432.512	527.69
432.734	526.69
432.956	516.69
433.178	524.69
433.4	510.69
433.622	516.69
433.844	508.69
434.066	469.69
434.287	506.69
434.509	528.69
434.731	536.69
434.953	541.69
435.175	550.69
435.397	589.69
435.618	564.69
435.84	619.69
436.062	672.69
436.284	758.69
436.505	607.69
436.727	571.69
436.949	531.69
437.17	537.69
437.392	529.69
437.614	533.69
437.835	564.69
438.057	655.69
438.278	765.69
438.5	742.69
438.721	789.69
438.943	758.69
439.165	622.69
439.386	582.69
439.608	567.69
439.829	552.69
440.05	614.69
440.272	628.69
440.493	580.69
440.715	536.69
440.936	536.69
441.158	540.69
441.379	531.69
441.6	561.69
441.822	577.69
442.043	631.69
442.264	679.69
442.486	698.69
442.707	618.69
442.928	582.69
443.149	584.69
443.371	607.69
443.592	634.69
443.813	745.69
444.034	762.69
444.255	665.69
444.476	626.69
444.698	601.69
444.919	600.69
445.14	726.69
445.361	664.69
445.582	642.69
445.803	682.69
446.024	776.69
446.245	794.69
446.466	707.69
446.687	595.69
446.908	561.69
447.129	548.69
447.35	522.69
447.571	534.69
447.792	508.69
448.013	522.69
448.234	549.69
448.455	581.69
448.675	688.69
448.896	786.69
449.117	666.69
449.338	618.69
449.559	736.69
449.779	829.69
450	650.69
450.221	565.69
450.442	524.69
450.662	524.69
450.883	521.69
451.104	532.69
451.324	488.69
451.545	504.69
451.766	491.69
451.986	469.69
452.207	478.69
452.428	458.69
452.648	473.69
452.869	467.69
453.089	488.69
453.31	505.69
453.53	479.69
453.751	476.69
453.971	478.69
454.192	493.69
454.412	480.69
454.633	461.69
454.853	455.69
455.073	459.69
455.294	499.69
455.514	562.69
455.734	535.69
455.955	468.69
456.175	452.69
456.395	433.69
456.616	444.69
456.836	444.69
457.056	440.69
457.276	423.69
457.497	425.69
457.717	450.69
457.937	454.69
458.157	444.69
458.377	477.69
458.598	467.69
458.818	531.69
459.038	601.69
459.258	621.69
459.478	564.69
459.698	521.69
459.918	521.69
460.138	513.69
460.358	543.69
460.578	545.69
460.798	548.69
461.018	551.69
461.238	547.69
461.458	537.69
461.678	542.69
461.898	555.69
462.118	551.69
462.338	555.69
462.558	556.69
462.777	586.69
462.997	586.69
463.217	612.69
463.437	636.69
463.657	608.69
463.876	580.69
464.096	596.69
464.316	580.69
464.536	614.69
464.755	581.69
464.975	588.69
465.195	613.69
465.414	684.69
465.634	602.69
465.854	555.69
466.073	527.69
466.293	524.69
466.512	491.69
466.732	487.69
466.951	465.69
467.171	484.69
467.391	498.69
467.61	503.69
467.829	498.69
468.049	496.69
468.268	489.69
468.488	476.69
468.707	453.69
468.927	482.69
469.146	480.69
469.365	488.69
469.585	474.69
469.804	507.69
470.023	496.69
470.243	485.69
470.462	481.69
470.681	527.69
470.901	522.69
471.12	496.69
471.339	514.69
471.558	491.69
471.777	494.69
471.997	491.69
472.216	477.69
472.435	470.69
472.654	487.69
472.873	485.69
473.092	477.69
473.311	469.69
473.53	487.69
473.749	489.69
473.968	524.69
474.187	636.69
474.406	634.69
474.625	526.69
474.844	466.69
475.063	476.69
475.282	490.69
475.501	496.69
475.72	474.69
475.939	485.69
476.158	489.69
476.377	505.69
476.596	512.69
476.814	500.69
477.033	513.69
477.252	499.69
477.471	515.69
477.69	523.69
477.908	547.69
478.127	567.69
478.346	550.69
478.564	550.69
478.783	555.69
479.002	545.69
479.22	601.69
479.439	572.69
479.658	584.69
479.876	596.69
480.095	596.69
480.313	618.69
480.532	620.69
480.751	625.69
480.969	618.69
481.188	606.69
481.406	640.69
481.624	609.69
481.843	572.69
482.061	560.69
482.28	584.69
482.498	554.69
482.717	557.69
482.935	567.69
483.153	534.69
483.372	546.69
483.59	578.69
483.808	554.69
484.027	547.69
484.245	598.69
484.463	560.69
484.681	573.69
484.9	580.69
485.118	576.69
485.336	584.69
485.554	587.69
485.772	570.69
485.99	591.69
486.209	590.69
486.427	580.69
486.645	610.69
486.863	627.69
487.081	621.69
487.299	589.69
487.517	609.69
487.735	589.69
487.953	591.69
488.171	608.69
488.389	594.69
488.607	616.69
488.825	633.69
489.043	611.69
489.261	608.69
489.479	616.69
489.696	618.69
489.914	615.69
490.132	613.69
490.35	635.69
490.568	636.69
490.786	650.69
491.003	649.69
491.221	649.69
491.439	694.69
491.657	667.69
491.874	693.69
492.092	679.69
492.31	677.69
492.527	683.69
492.745	680.69
492.963	706.69
493.18	689.69
493.398	704.69
493.615	706.69
493.833	717.69
494.05	708.69
494.268	695.69
494.485	714.69
494.703	714.69
494.92	683.69
495.138	714.69
495.355	685.69
495.573	699.69
495.79	713.69
496.008	727.69
496.225	689.69
496.442	709.69
496.66	717.69
496.877	704.69
497.094	704.69
497.312	750.69
497.529	742.69
497.746	798.69
497.963	770.69
498.181	819.69
498.398	787.69
498.615	833.69
498.832	864.69
499.049	875.69
499.267	928.69
499.484	962.69
499.701	988.69
499.918	1058.69
500.135	1140.69
500.352	1200.69
500.569	1234.69
500.786	1235.69
501.003	1201.69
501.22	1136.69
501.437	1089.69
501.654	1029.69
501.871	981.69
