Data from 1985.PennyLincolnUp.Lamp.En5.5.200Scan.071819.P1_HRD10591_17-01-30-969.txt Node
Date: Thu Jul 18 17:01:30 EDT 2019
User: cochatt
Spectrometer: HR+D1059
Trigger mode: 1
Integration Time (sec): 1.000000E-1
Scans to average: 1
Electric dark correction enabled: true
Nonlinearity correction enabled: false
Boxcar width: 0
XAxis mode: Wavelengths
Number of Pixels in Spectrum: 2048
>>>>>Begin Spectral Data<<<<<
223.165	-15.25
223.4	-15.25
223.635	-15.25
223.869	-26.25
224.104	-24.25
224.338	-26.25
224.573	-6.25
224.808	-11.25
225.042	1.75
225.277	3.75
225.511	5.75
225.746	0.75
225.98	9.75
226.215	18.75
226.449	10.75
226.683	6.75
226.918	19.75
227.152	31.75
227.387	16.75
227.621	20.75
227.856	29.75
228.09	33.75
228.324	60.75
228.559	49.75
228.793	53.75
229.027	91.75
229.262	100.75
229.496	96.75
229.73	110.75
229.964	116.75
230.199	111.75
230.433	113.75
230.667	89.75
230.901	113.75
231.136	98.75
231.37	88.75
231.604	103.75
231.838	111.75
232.072	100.75
232.306	117.75
232.541	107.75
232.775	107.75
233.009	111.75
233.243	112.75
233.477	111.75
233.711	115.75
233.945	93.75
234.179	98.75
234.413	111.75
234.647	119.75
234.881	104.75
235.115	99.75
235.349	96.75
235.583	115.75
235.817	121.75
236.051	94.75
236.285	107.75
236.519	112.75
236.753	119.75
236.987	139.75
237.221	158.75
237.455	195.75
237.689	156.75
237.922	129.75
238.156	131.75
238.39	125.75
238.624	97.75
238.858	119.75
239.091	112.75
239.325	122.75
239.559	127.75
239.793	102.75
240.027	123.75
240.26	126.75
240.494	155.75
240.728	147.75
240.961	141.75
241.195	129.75
241.429	125.75
241.662	135.75
241.896	119.75
242.13	118.75
242.363	133.75
242.597	129.75
242.83	131.75
243.064	132.75
243.298	122.75
243.531	121.75
243.765	134.75
243.998	117.75
244.232	136.75
244.465	128.75
244.699	135.75
244.932	129.75
245.166	146.75
245.399	145.75
245.633	153.75
245.866	134.75
246.099	129.75
246.333	121.75
246.566	151.75
246.8	146.75
247.033	146.75
247.266	129.75
247.5	144.75
247.733	168.75
247.966	156.75
248.2	162.75
248.433	157.75
248.666	172.75
248.899	168.75
249.133	168.75
249.366	191.75
249.599	175.75
249.832	156.75
250.066	171.75
250.299	169.75
250.532	168.75
250.765	163.75
250.998	188.75
251.231	199.75
251.465	195.75
251.698	175.75
251.931	190.75
252.164	159.75
252.397	194.75
252.63	182.75
252.863	177.75
253.096	196.75
253.329	211.75
253.562	195.75
253.795	195.75
254.028	193.75
254.261	195.75
254.494	196.75
254.727	223.75
254.96	236.75
255.193	232.75
255.426	211.75
255.659	201.75
255.892	189.75
256.124	207.75
256.357	187.75
256.59	191.75
256.823	196.75
257.056	192.75
257.289	178.75
257.521	197.75
257.754	186.75
257.987	185.75
258.22	181.75
258.452	192.75
258.685	191.75
258.918	201.75
259.151	203.75
259.383	217.75
259.616	201.75
259.849	196.75
260.081	212.75
260.314	199.75
260.547	228.75
260.779	226.75
261.012	212.75
261.244	209.75
261.477	214.75
261.71	226.75
261.942	198.75
262.175	218.75
262.407	232.75
262.64	204.75
262.872	198.75
263.105	191.75
263.337	211.75
263.57	199.75
263.802	198.75
264.035	212.75
264.267	219.75
264.499	188.75
264.732	195.75
264.964	199.75
265.197	199.75
265.429	210.75
265.661	217.75
265.894	196.75
266.126	218.75
266.358	197.75
266.591	219.75
266.823	221.75
267.055	207.75
267.287	224.75
267.52	228.75
267.752	208.75
267.984	222.75
268.216	216.75
268.448	237.75
268.681	234.75
268.913	246.75
269.145	235.75
269.377	253.75
269.609	254.75
269.841	242.75
270.073	255.75
270.306	262.75
270.538	289.75
270.77	290.75
271.002	262.75
271.234	275.75
271.466	272.75
271.698	288.75
271.93	284.75
272.162	281.75
272.394	302.75
272.626	277.75
272.858	280.75
273.09	276.75
273.322	253.75
273.553	259.75
273.785	244.75
274.017	260.75
274.249	259.75
274.481	244.75
274.713	243.75
274.945	235.75
275.176	253.75
275.408	255.75
275.64	261.75
275.872	246.75
276.104	261.75
276.335	257.75
276.567	270.75
276.799	278.75
277.031	291.75
277.262	291.75
277.494	290.75
277.726	282.75
277.957	294.75
278.189	264.75
278.421	269.75
278.652	271.75
278.884	271.75
279.115	241.75
279.347	274.75
279.579	246.75
279.81	260.75
280.042	254.75
280.273	272.75
280.505	257.75
280.736	264.75
280.968	271.75
281.199	257.75
281.431	280.75
281.662	265.75
281.894	273.75
282.125	269.75
282.356	271.75
282.588	290.75
282.819	303.75
283.051	263.75
283.282	273.75
283.513	265.75
283.745	277.75
283.976	276.75
284.207	279.75
284.439	269.75
284.67	278.75
284.901	264.75
285.132	272.75
285.364	274.75
285.595	276.75
285.826	290.75
286.057	278.75
286.288	286.75
286.52	283.75
286.751	304.75
286.982	292.75
287.213	287.75
287.444	287.75
287.675	291.75
287.906	284.75
288.138	299.75
288.369	308.75
288.6	316.75
288.831	302.75
289.062	291.75
289.293	306.75
289.524	300.75
289.755	304.75
289.986	327.75
290.217	305.75
290.448	312.75
290.679	293.75
290.91	287.75
291.141	294.75
291.371	310.75
291.602	297.75
291.833	291.75
292.064	272.75
292.295	300.75
292.526	293.75
292.757	287.75
292.987	304.75
293.218	308.75
293.449	317.75
293.68	305.75
293.91	311.75
294.141	301.75
294.372	291.75
294.603	293.75
294.833	283.75
295.064	302.75
295.295	323.75
295.525	299.75
295.756	313.75
295.987	313.75
296.217	326.75
296.448	321.75
296.679	329.75
296.909	302.75
297.14	283.75
297.37	301.75
297.601	325.75
297.831	305.75
298.062	305.75
298.292	316.75
298.523	321.75
298.753	312.75
298.984	322.75
299.214	308.75
299.445	319.75
299.675	337.75
299.905	331.75
300.136	311.75
300.366	331.75
300.597	323.75
300.827	346.75
301.057	338.75
301.288	348.75
301.518	334.75
301.748	341.75
301.979	328.75
302.209	327.75
302.439	344.75
302.669	331.75
302.9	339.75
303.13	342.75
303.36	345.75
303.59	341.75
303.82	349.75
304.051	337.75
304.281	335.75
304.511	328.75
304.741	343.75
304.971	323.75
305.201	332.75
305.431	346.75
305.661	344.75
305.891	334.75
306.121	354.75
306.352	332.75
306.582	352.75
306.812	336.75
307.042	337.75
307.272	348.75
307.502	349.75
307.731	344.75
307.961	339.75
308.191	350.75
308.421	331.75
308.651	342.75
308.881	356.75
309.111	345.75
309.341	331.75
309.571	361.75
309.8	370.75
310.03	361.75
310.26	375.75
310.49	373.75
310.72	357.75
310.949	390.75
311.179	379.75
311.409	368.75
311.639	369.75
311.868	369.75
312.098	372.75
312.328	373.75
312.557	371.75
312.787	387.75
313.017	400.75
313.246	391.75
313.476	374.75
313.706	380.75
313.935	383.75
314.165	383.75
314.394	380.75
314.624	377.75
314.853	385.75
315.083	375.75
315.312	376.75
315.542	374.75
315.771	388.75
316.001	372.75
316.23	398.75
316.46	372.75
316.689	390.75
316.919	373.75
317.148	412.75
317.377	373.75
317.607	378.75
317.836	394.75
318.065	374.75
318.295	383.75
318.524	384.75
318.753	389.75
318.983	399.75
319.212	379.75
319.441	380.75
319.67	392.75
319.9	382.75
320.129	376.75
320.358	398.75
320.587	396.75
320.816	415.75
321.046	405.75
321.275	383.75
321.504	397.75
321.733	420.75
321.962	386.75
322.191	389.75
322.42	419.75
322.649	431.75
322.878	447.75
323.108	424.75
323.337	458.75
323.566	440.75
323.795	479.75
324.024	484.75
324.253	587.75
324.482	780.75
324.71	1097.75
324.939	1607.75
325.168	1335.75
325.397	711.75
325.626	565.75
325.855	478.75
326.084	467.75
326.313	458.75
326.542	479.75
326.77	477.75
326.999	569.75
327.228	718.75
327.457	978.75
327.686	1179.75
327.914	817.75
328.143	589.75
328.372	535.75
328.6	505.75
328.829	471.75
329.058	482.75
329.287	510.75
329.515	503.75
329.744	468.75
329.972	483.75
330.201	467.75
330.43	484.75
330.658	481.75
330.887	526.75
331.115	503.75
331.344	470.75
331.572	472.75
331.801	494.75
332.03	471.75
332.258	476.75
332.486	471.75
332.715	456.75
332.943	441.75
333.172	487.75
333.4	488.75
333.629	468.75
333.857	467.75
334.085	498.75
334.314	468.75
334.542	497.75
334.771	471.75
334.999	462.75
335.227	465.75
335.455	492.75
335.684	469.75
335.912	469.75
336.14	472.75
336.369	450.75
336.597	465.75
336.825	453.75
337.053	443.75
337.281	440.75
337.51	459.75
337.738	440.75
337.966	418.75
338.194	421.75
338.422	454.75
338.65	438.75
338.878	431.75
339.106	453.75
339.334	448.75
339.562	440.75
339.79	413.75
340.018	431.75
340.246	443.75
340.474	420.75
340.702	419.75
340.93	434.75
341.158	435.75
341.386	422.75
341.614	411.75
341.842	422.75
342.07	428.75
342.298	457.75
342.526	428.75
342.754	423.75
342.981	415.75
343.209	425.75
343.437	436.75
343.665	444.75
343.893	473.75
344.12	480.75
344.348	472.75
344.576	438.75
344.804	448.75
345.031	445.75
345.259	431.75
345.487	416.75
345.714	404.75
345.942	417.75
346.17	405.75
346.397	405.75
346.625	428.75
346.853	422.75
347.08	401.75
347.308	415.75
347.535	441.75
347.763	423.75
347.99	432.75
348.218	428.75
348.445	429.75
348.673	421.75
348.9	398.75
349.128	387.75
349.355	393.75
349.583	405.75
349.81	387.75
350.037	392.75
350.265	410.75
350.492	388.75
350.72	383.75
350.947	393.75
351.174	402.75
351.402	395.75
351.629	394.75
351.856	413.75
352.083	401.75
352.311	414.75
352.538	425.75
352.765	412.75
352.992	393.75
353.22	401.75
353.447	398.75
353.674	395.75
353.901	398.75
354.128	387.75
354.355	399.75
354.583	403.75
354.81	411.75
355.037	393.75
355.264	399.75
355.491	389.75
355.718	391.75
355.945	383.75
356.172	396.75
356.399	381.75
356.626	389.75
356.853	383.75
357.08	408.75
357.307	381.75
357.534	385.75
357.761	404.75
357.988	421.75
358.215	392.75
358.441	401.75
358.668	409.75
358.895	371.75
359.122	377.75
359.349	400.75
359.576	392.75
359.802	418.75
360.029	435.75
360.256	457.75
360.483	433.75
360.709	412.75
360.936	397.75
361.163	421.75
361.39	412.75
361.616	408.75
361.843	406.75
362.07	424.75
362.296	415.75
362.523	402.75
362.749	387.75
362.976	420.75
363.203	390.75
363.429	391.75
363.656	408.75
363.882	389.75
364.109	381.75
364.335	391.75
364.562	360.75
364.788	374.75
365.015	403.75
365.241	389.75
365.468	387.75
365.694	399.75
365.92	399.75
366.147	403.75
366.373	381.75
366.599	377.75
366.826	372.75
367.052	398.75
367.278	382.75
367.505	384.75
367.731	397.75
367.957	407.75
368.184	389.75
368.41	408.75
368.636	392.75
368.862	434.75
369.089	387.75
369.315	387.75
369.541	388.75
369.767	399.75
369.993	389.75
370.219	404.75
370.445	402.75
370.672	399.75
370.898	395.75
371.124	400.75
371.35	394.75
371.576	417.75
371.802	389.75
372.028	407.75
372.254	403.75
372.48	392.75
372.706	407.75
372.932	392.75
373.158	405.75
373.384	388.75
373.61	408.75
373.835	385.75
374.061	397.75
374.287	429.75
374.513	436.75
374.739	411.75
374.965	427.75
375.191	419.75
375.416	429.75
375.642	402.75
375.868	401.75
376.094	397.75
376.319	400.75
376.545	390.75
376.771	393.75
376.997	385.75
377.222	405.75
377.448	400.75
377.674	385.75
377.899	407.75
378.125	392.75
378.35	387.75
378.576	373.75
378.802	390.75
379.027	408.75
379.253	419.75
379.478	410.75
379.704	400.75
379.929	385.75
380.155	398.75
380.38	391.75
380.606	387.75
380.831	389.75
381.057	398.75
381.282	383.75
381.507	396.75
381.733	404.75
381.958	411.75
382.184	391.75
382.409	401.75
382.634	421.75
382.86	410.75
383.085	408.75
383.31	377.75
383.535	417.75
383.761	421.75
383.986	419.75
384.211	448.75
384.436	420.75
384.662	420.75
384.887	440.75
385.112	443.75
385.337	448.75
385.562	441.75
385.787	441.75
386.013	450.75
386.238	460.75
386.463	443.75
386.688	436.75
386.913	441.75
387.138	447.75
387.363	458.75
387.588	456.75
387.813	450.75
388.038	442.75
388.263	425.75
388.488	452.75
388.713	431.75
388.938	445.75
389.163	437.75
389.387	448.75
389.612	448.75
389.837	425.75
390.062	453.75
390.287	439.75
390.512	415.75
390.736	435.75
390.961	452.75
391.186	437.75
391.411	438.75
391.636	447.75
391.86	437.75
392.085	473.75
392.31	458.75
392.534	450.75
392.759	460.75
392.984	436.75
393.208	436.75
393.433	453.75
393.658	434.75
393.882	447.75
394.107	442.75
394.331	470.75
394.556	439.75
394.78	457.75
395.005	461.75
395.229	465.75
395.454	467.75
395.678	472.75
395.903	481.75
396.127	479.75
396.352	483.75
396.576	496.75
396.801	450.75
397.025	463.75
397.249	487.75
397.474	472.75
397.698	485.75
397.922	492.75
398.147	484.75
398.371	507.75
398.595	489.75
398.82	512.75
399.044	553.75
399.268	562.75
399.492	599.75
399.717	626.75
399.941	655.75
400.165	641.75
400.389	634.75
400.613	585.75
400.837	549.75
401.062	521.75
401.286	520.75
401.51	519.75
401.734	517.75
401.958	525.75
402.182	532.75
402.406	506.75
402.63	543.75
402.854	510.75
403.078	511.75
403.302	539.75
403.526	512.75
403.75	529.75
403.974	525.75
404.198	552.75
404.422	519.75
404.645	554.75
404.869	528.75
405.093	555.75
405.317	583.75
405.541	583.75
405.765	548.75
405.988	539.75
406.212	571.75
406.436	576.75
406.66	583.75
406.883	563.75
407.107	586.75
407.331	630.75
407.555	680.75
407.778	664.75
408.002	625.75
408.226	609.75
408.449	589.75
408.673	600.75
408.896	601.75
409.12	622.75
409.344	610.75
409.567	542.75
409.791	530.75
410.014	535.75
410.238	517.75
410.461	549.75
410.685	519.75
410.908	524.75
411.132	583.75
411.355	603.75
411.578	567.75
411.802	520.75
412.025	526.75
412.249	532.75
412.472	519.75
412.695	519.75
412.919	530.75
413.142	514.75
413.365	499.75
413.589	510.75
413.812	482.75
414.035	480.75
414.258	511.75
414.482	517.75
414.705	492.75
414.928	514.75
415.151	495.75
415.374	509.75
415.597	485.75
415.821	474.75
416.044	494.75
416.267	480.75
416.49	495.75
416.713	480.75
416.936	502.75
417.159	474.75
417.382	491.75
417.605	499.75
417.828	497.75
418.051	525.75
418.274	514.75
418.497	489.75
418.72	494.75
418.943	493.75
419.166	511.75
419.389	537.75
419.611	528.75
419.834	525.75
420.057	508.75
420.28	495.75
420.503	502.75
420.726	512.75
420.948	512.75
421.171	562.75
421.394	541.75
421.617	505.75
421.839	501.75
422.062	514.75
422.285	534.75
422.507	564.75
422.73	625.75
422.953	603.75
423.175	527.75
423.398	513.75
423.621	539.75
423.843	543.75
424.066	568.75
424.288	537.75
424.511	567.75
424.733	602.75
424.956	665.75
425.178	621.75
425.401	610.75
425.623	649.75
425.846	551.75
426.068	539.75
426.291	516.75
426.513	508.75
426.735	522.75
426.958	550.75
427.18	642.75
427.402	702.75
427.625	776.75
427.847	677.75
428.069	586.75
428.292	545.75
428.514	501.75
428.736	481.75
428.958	489.75
429.181	473.75
429.403	485.75
429.625	500.75
429.847	521.75
430.069	574.75
430.292	557.75
430.514	486.75
430.736	503.75
430.958	479.75
431.18	481.75
431.402	472.75
431.624	478.75
431.846	492.75
432.068	450.75
432.29	454.75
432.512	461.75
432.734	465.75
432.956	461.75
433.178	484.75
433.4	473.75
433.622	463.75
433.844	473.75
434.066	468.75
434.287	459.75
434.509	473.75
434.731	481.75
434.953	497.75
435.175	519.75
435.397	512.75
435.618	530.75
435.84	585.75
436.062	609.75
436.284	661.75
436.505	569.75
436.727	513.75
436.949	492.75
437.17	484.75
437.392	470.75
437.614	487.75
437.835	526.75
438.057	571.75
438.278	674.75
438.5	669.75
438.721	727.75
438.943	694.75
439.165	570.75
439.386	525.75
439.608	547.75
439.829	515.75
440.05	525.75
440.272	568.75
440.493	541.75
440.715	507.75
440.936	486.75
441.158	525.75
441.379	499.75
441.6	518.75
441.822	539.75
442.043	565.75
442.264	627.75
442.486	658.75
442.707	566.75
442.928	529.75
443.149	549.75
443.371	566.75
443.592	581.75
443.813	665.75
444.034	708.75
444.255	612.75
444.476	564.75
444.698	541.75
444.919	572.75
445.14	658.75
445.361	571.75
445.582	591.75
445.803	614.75
446.024	700.75
446.245	680.75
446.466	620.75
446.687	553.75
446.908	509.75
447.129	510.75
447.35	480.75
447.571	494.75
447.792	465.75
448.013	484.75
448.234	472.75
448.455	522.75
448.675	621.75
448.896	723.75
449.117	592.75
449.338	571.75
449.559	665.75
449.779	757.75
450	596.75
450.221	513.75
450.442	449.75
450.662	452.75
450.883	468.75
451.104	472.75
451.324	470.75
451.545	441.75
451.766	455.75
451.986	419.75
452.207	442.75
452.428	440.75
452.648	450.75
452.869	444.75
453.089	433.75
453.31	441.75
453.53	453.75
453.751	436.75
453.971	434.75
454.192	441.75
454.412	428.75
454.633	441.75
454.853	419.75
455.073	436.75
455.294	436.75
455.514	489.75
455.734	501.75
455.955	429.75
456.175	420.75
456.395	400.75
456.616	399.75
456.836	400.75
457.056	417.75
457.276	404.75
457.497	394.75
457.717	420.75
457.937	431.75
458.157	405.75
458.377	433.75
458.598	427.75
458.818	500.75
459.038	560.75
459.258	559.75
459.478	529.75
459.698	471.75
459.918	484.75
460.138	465.75
460.358	493.75
460.578	482.75
460.798	472.75
461.018	509.75
461.238	513.75
461.458	479.75
461.678	504.75
461.898	513.75
462.118	498.75
462.338	493.75
462.558	528.75
462.777	547.75
462.997	565.75
463.217	579.75
463.437	600.75
463.657	559.75
463.876	545.75
464.096	559.75
464.316	565.75
464.536	545.75
464.755	542.75
464.975	541.75
465.195	537.75
465.414	588.75
465.634	514.75
465.854	495.75
466.073	498.75
466.293	478.75
466.512	447.75
466.732	439.75
466.951	461.75
467.171	454.75
467.391	469.75
467.61	446.75
467.829	458.75
468.049	455.75
468.268	447.75
468.488	424.75
468.707	447.75
468.927	445.75
469.146	423.75
469.365	428.75
469.585	443.75
469.804	443.75
470.023	455.75
470.243	460.75
470.462	449.75
470.681	462.75
470.901	471.75
471.12	462.75
471.339	448.75
471.558	435.75
471.777	457.75
471.997	420.75
472.216	443.75
472.435	446.75
472.654	435.75
472.873	419.75
473.092	429.75
473.311	435.75
473.53	422.75
473.749	444.75
473.968	467.75
474.187	557.75
474.406	570.75
474.625	498.75
474.844	461.75
475.063	455.75
475.282	472.75
475.501	465.75
475.72	454.75
475.939	470.75
476.158	453.75
476.377	459.75
476.596	447.75
476.814	454.75
477.033	464.75
477.252	480.75
477.471	476.75
477.69	490.75
477.908	489.75
478.127	531.75
478.346	489.75
478.564	509.75
478.783	527.75
479.002	533.75
479.22	517.75
479.439	544.75
479.658	534.75
479.876	547.75
480.095	522.75
480.313	578.75
480.532	571.75
480.751	579.75
480.969	550.75
481.188	567.75
481.406	545.75
481.624	529.75
481.843	517.75
482.061	535.75
482.28	548.75
482.498	545.75
482.717	515.75
482.935	516.75
483.153	542.75
483.372	557.75
483.59	517.75
483.808	534.75
484.027	521.75
484.245	524.75
484.463	511.75
484.681	504.75
484.9	531.75
485.118	535.75
485.336	558.75
485.554	520.75
485.772	553.75
485.99	555.75
486.209	557.75
486.427	560.75
486.645	575.75
486.863	535.75
487.081	558.75
487.299	543.75
487.517	562.75
487.735	540.75
487.953	545.75
488.171	544.75
488.389	561.75
488.607	551.75
488.825	566.75
489.043	541.75
489.261	568.75
489.479	568.75
489.696	555.75
489.914	583.75
490.132	558.75
490.35	587.75
490.568	582.75
490.786	588.75
491.003	586.75
491.221	578.75
491.439	608.75
491.657	616.75
491.874	619.75
492.092	622.75
492.31	616.75
492.527	623.75
492.745	617.75
492.963	628.75
493.18	627.75
493.398	619.75
493.615	639.75
493.833	630.75
494.05	671.75
494.268	636.75
494.485	638.75
494.703	616.75
494.92	629.75
495.138	655.75
495.355	678.75
495.573	648.75
495.79	649.75
496.008	651.75
496.225	673.75
496.442	633.75
496.66	653.75
496.877	655.75
497.094	642.75
497.312	680.75
497.529	675.75
497.746	688.75
497.963	678.75
498.181	725.75
498.398	713.75
498.615	761.75
498.832	815.75
499.049	824.75
499.267	820.75
499.484	894.75
499.701	927.75
499.918	1001.75
500.135	1049.75
500.352	1149.75
500.569	1151.75
500.786	1136.75
501.003	1108.75
501.22	1045.75
501.437	1011.75
501.654	958.75
501.871	930.75
502.088	877.75
