Data from 1985.PennyLincolnUp.Lamp.En5.5.200Scan.071819.P1_HRD10591_17-04-06-972.txt Node
Date: Thu Jul 18 17:04:06 EDT 2019
User: cochatt
Spectrometer: HR+D1059
Trigger mode: 1
Integration Time (sec): 1.000000E-1
Scans to average: 1
Electric dark correction enabled: true
Nonlinearity correction enabled: false
Boxcar width: 0
XAxis mode: Wavelengths
Number of Pixels in Spectrum: 2048
>>>>>Begin Spectral Data<<<<<
223.165	-24.38
223.4	-24.38
223.635	-24.38
223.869	-10.38
224.104	-20.38
224.338	-9.38
224.573	-11.38
224.808	1.62
225.042	-6.38
225.277	-0.38
225.511	-8.38
225.746	0.62
225.98	3.62
226.215	16.62
226.449	-2.38
226.683	17.62
226.918	24.62
227.152	28.62
227.387	23.62
227.621	37.62
227.856	35.62
228.09	40.62
228.324	49.62
228.559	56.62
228.793	43.62
229.027	91.62
229.262	102.62
229.496	109.62
229.73	124.62
229.964	146.62
230.199	114.62
230.433	115.62
230.667	108.62
230.901	119.62
231.136	109.62
231.37	113.62
231.604	107.62
231.838	120.62
232.072	113.62
232.306	112.62
232.541	122.62
232.775	115.62
233.009	113.62
233.243	114.62
233.477	111.62
233.711	118.62
233.945	116.62
234.179	115.62
234.413	121.62
234.647	113.62
234.881	124.62
235.115	121.62
235.349	114.62
235.583	115.62
235.817	113.62
236.051	116.62
236.285	120.62
236.519	132.62
236.753	145.62
236.987	141.62
237.221	182.62
237.455	224.62
237.689	178.62
237.922	149.62
238.156	133.62
238.39	136.62
238.624	121.62
238.858	124.62
239.091	131.62
239.325	121.62
239.559	121.62
239.793	140.62
240.027	144.62
240.26	139.62
240.494	141.62
240.728	141.62
240.961	147.62
241.195	141.62
241.429	159.62
241.662	129.62
241.896	130.62
242.13	142.62
242.363	140.62
242.597	145.62
242.83	155.62
243.064	138.62
243.298	140.62
243.531	141.62
243.765	144.62
243.998	146.62
244.232	137.62
244.465	144.62
244.699	141.62
244.932	153.62
245.166	120.62
245.399	148.62
245.633	147.62
245.866	156.62
246.099	152.62
246.333	159.62
246.566	166.62
246.8	179.62
247.033	177.62
247.266	171.62
247.5	156.62
247.733	158.62
247.966	160.62
248.2	155.62
248.433	187.62
248.666	183.62
248.899	192.62
249.133	193.62
249.366	208.62
249.599	192.62
249.832	194.62
250.066	176.62
250.299	182.62
250.532	213.62
250.765	212.62
250.998	217.62
251.231	232.62
251.465	204.62
251.698	191.62
251.931	202.62
252.164	199.62
252.397	177.62
252.63	214.62
252.863	220.62
253.096	225.62
253.329	220.62
253.562	218.62
253.795	214.62
254.028	214.62
254.261	208.62
254.494	227.62
254.727	258.62
254.96	288.62
255.193	260.62
255.426	250.62
255.659	242.62
255.892	258.62
256.124	269.62
256.357	282.62
256.59	231.62
256.823	237.62
257.056	213.62
257.289	216.62
257.521	226.62
257.754	212.62
257.987	217.62
258.22	233.62
258.452	221.62
258.685	209.62
258.918	211.62
259.151	209.62
259.383	240.62
259.616	214.62
259.849	239.62
260.081	227.62
260.314	275.62
260.547	273.62
260.779	248.62
261.012	235.62
261.244	239.62
261.477	249.62
261.71	236.62
261.942	236.62
262.175	244.62
262.407	233.62
262.64	229.62
262.872	220.62
263.105	241.62
263.337	220.62
263.57	241.62
263.802	221.62
264.035	227.62
264.267	222.62
264.499	246.62
264.732	235.62
264.964	232.62
265.197	223.62
265.429	235.62
265.661	226.62
265.894	240.62
266.126	234.62
266.358	248.62
266.591	232.62
266.823	244.62
267.055	255.62
267.287	261.62
267.52	243.62
267.752	238.62
267.984	236.62
268.216	240.62
268.448	233.62
268.681	251.62
268.913	259.62
269.145	266.62
269.377	280.62
269.609	281.62
269.841	298.62
270.073	303.62
270.306	291.62
270.538	301.62
270.77	326.62
271.002	328.62
271.234	309.62
271.466	301.62
271.698	316.62
271.93	315.62
272.162	341.62
272.394	346.62
272.626	323.62
272.858	310.62
273.09	303.62
273.322	298.62
273.553	287.62
273.785	292.62
274.017	280.62
274.249	272.62
274.481	300.62
274.713	290.62
274.945	289.62
275.176	287.62
275.408	298.62
275.64	301.62
275.872	287.62
276.104	308.62
276.335	293.62
276.567	289.62
276.799	331.62
277.031	325.62
277.262	343.62
277.494	334.62
277.726	337.62
277.957	319.62
278.189	327.62
278.421	291.62
278.652	288.62
278.884	287.62
279.115	307.62
279.347	291.62
279.579	312.62
279.81	300.62
280.042	298.62
280.273	315.62
280.505	288.62
280.736	297.62
280.968	295.62
281.199	315.62
281.431	299.62
281.662	308.62
281.894	299.62
282.125	306.62
282.356	327.62
282.588	331.62
282.819	344.62
283.051	317.62
283.282	303.62
283.513	316.62
283.745	307.62
283.976	303.62
284.207	304.62
284.439	321.62
284.67	328.62
284.901	338.62
285.132	321.62
285.364	322.62
285.595	327.62
285.826	310.62
286.057	328.62
286.288	321.62
286.52	307.62
286.751	312.62
286.982	332.62
287.213	328.62
287.444	333.62
287.675	328.62
287.906	329.62
288.138	318.62
288.369	345.62
288.6	348.62
288.831	331.62
289.062	330.62
289.293	335.62
289.524	323.62
289.755	329.62
289.986	327.62
290.217	317.62
290.448	314.62
290.679	341.62
290.91	321.62
291.141	333.62
291.371	334.62
291.602	343.62
291.833	337.62
292.064	324.62
292.295	344.62
292.526	323.62
292.757	345.62
292.987	325.62
293.218	328.62
293.449	334.62
293.68	335.62
293.91	334.62
294.141	327.62
294.372	344.62
294.603	335.62
294.833	345.62
295.064	331.62
295.295	332.62
295.525	336.62
295.756	339.62
295.987	361.62
296.217	379.62
296.448	352.62
296.679	345.62
296.909	337.62
297.14	340.62
297.37	363.62
297.601	346.62
297.831	336.62
298.062	354.62
298.292	349.62
298.523	358.62
298.753	340.62
298.984	359.62
299.214	367.62
299.445	347.62
299.675	346.62
299.905	385.62
300.136	345.62
300.366	367.62
300.597	363.62
300.827	375.62
301.057	373.62
301.288	387.62
301.518	373.62
301.748	372.62
301.979	379.62
302.209	368.62
302.439	373.62
302.669	378.62
302.9	381.62
303.13	388.62
303.36	393.62
303.59	393.62
303.82	374.62
304.051	405.62
304.281	392.62
304.511	367.62
304.741	371.62
304.971	381.62
305.201	373.62
305.431	385.62
305.661	385.62
305.891	406.62
306.121	395.62
306.352	380.62
306.582	400.62
306.812	376.62
307.042	376.62
307.272	395.62
307.502	383.62
307.731	382.62
307.961	392.62
308.191	422.62
308.421	372.62
308.651	404.62
308.881	395.62
309.111	388.62
309.341	379.62
309.571	395.62
309.8	404.62
310.03	396.62
310.26	409.62
310.49	426.62
310.72	413.62
310.949	432.62
311.179	449.62
311.409	431.62
311.639	405.62
311.868	413.62
312.098	424.62
312.328	435.62
312.557	440.62
312.787	452.62
313.017	441.62
313.246	441.62
313.476	438.62
313.706	417.62
313.935	445.62
314.165	434.62
314.394	448.62
314.624	435.62
314.853	423.62
315.083	434.62
315.312	429.62
315.542	433.62
315.771	427.62
316.001	420.62
316.23	437.62
316.46	425.62
316.689	418.62
316.919	429.62
317.148	443.62
317.377	442.62
317.607	460.62
317.836	445.62
318.065	439.62
318.295	433.62
318.524	435.62
318.753	421.62
318.983	427.62
319.212	424.62
319.441	437.62
319.67	439.62
319.9	429.62
320.129	426.62
320.358	438.62
320.587	430.62
320.816	445.62
321.046	435.62
321.275	437.62
321.504	469.62
321.733	452.62
321.962	453.62
322.191	449.62
322.42	477.62
322.649	480.62
322.878	495.62
323.108	497.62
323.337	503.62
323.566	531.62
323.795	554.62
324.024	601.62
324.253	761.62
324.482	1016.62
324.71	1514.62
324.939	2161.62
325.168	1819.62
325.397	972.62
325.626	699.62
325.855	607.62
326.084	567.62
326.313	555.62
326.542	549.62
326.77	596.62
326.999	708.62
327.228	928.62
327.457	1385.62
327.686	1622.62
327.914	1071.62
328.143	746.62
328.372	684.62
328.6	624.62
328.829	632.62
329.058	596.62
329.287	643.62
329.515	604.62
329.744	588.62
329.972	580.62
330.201	630.62
330.43	660.62
330.658	646.62
330.887	670.62
331.115	660.62
331.344	577.62
331.572	555.62
331.801	555.62
332.03	554.62
332.258	538.62
332.486	546.62
332.715	532.62
332.943	553.62
333.172	567.62
333.4	549.62
333.629	567.62
333.857	583.62
334.085	597.62
334.314	649.62
334.542	665.62
334.771	689.62
334.999	636.62
335.227	575.62
335.455	551.62
335.684	556.62
335.912	531.62
336.14	515.62
336.369	522.62
336.597	551.62
336.825	554.62
337.053	503.62
337.281	515.62
337.51	511.62
337.738	522.62
337.966	501.62
338.194	509.62
338.422	503.62
338.65	510.62
338.878	493.62
339.106	496.62
339.334	493.62
339.562	485.62
339.79	496.62
340.018	501.62
340.246	505.62
340.474	492.62
340.702	500.62
340.93	512.62
341.158	496.62
341.386	490.62
341.614	508.62
341.842	485.62
342.07	473.62
342.298	498.62
342.526	475.62
342.754	483.62
342.981	493.62
343.209	472.62
343.437	492.62
343.665	490.62
343.893	511.62
344.12	516.62
344.348	528.62
344.576	524.62
344.804	518.62
345.031	522.62
345.259	504.62
345.487	476.62
345.714	475.62
345.942	486.62
346.17	475.62
346.397	459.62
346.625	461.62
346.853	480.62
347.08	471.62
347.308	474.62
347.535	481.62
347.763	479.62
347.99	495.62
348.218	479.62
348.445	469.62
348.673	498.62
348.9	484.62
349.128	449.62
349.355	452.62
349.583	460.62
349.81	460.62
350.037	443.62
350.265	445.62
350.492	454.62
350.72	451.62
350.947	444.62
351.174	470.62
351.402	463.62
351.629	493.62
351.856	467.62
352.083	487.62
352.311	460.62
352.538	454.62
352.765	466.62
352.992	470.62
353.22	473.62
353.447	468.62
353.674	458.62
353.901	442.62
354.128	455.62
354.355	450.62
354.583	419.62
354.81	426.62
355.037	434.62
355.264	435.62
355.491	425.62
355.718	440.62
355.945	433.62
356.172	439.62
356.399	422.62
356.626	433.62
356.853	422.62
357.08	440.62
357.307	419.62
357.534	428.62
357.761	425.62
357.988	418.62
358.215	423.62
358.441	432.62
358.668	441.62
358.895	434.62
359.122	460.62
359.349	443.62
359.576	455.62
359.802	474.62
360.029	493.62
360.256	506.62
360.483	501.62
360.709	457.62
360.936	459.62
361.163	455.62
361.39	440.62
361.616	468.62
361.843	437.62
362.07	461.62
362.296	476.62
362.523	461.62
362.749	457.62
362.976	452.62
363.203	441.62
363.429	441.62
363.656	435.62
363.882	429.62
364.109	424.62
364.335	434.62
364.562	449.62
364.788	452.62
365.015	431.62
365.241	435.62
365.468	436.62
365.694	463.62
365.92	446.62
366.147	442.62
366.373	441.62
366.599	449.62
366.826	433.62
367.052	443.62
367.278	445.62
367.505	443.62
367.731	425.62
367.957	421.62
368.184	449.62
368.41	460.62
368.636	475.62
368.862	448.62
369.089	449.62
369.315	432.62
369.541	422.62
369.767	441.62
369.993	436.62
370.219	442.62
370.445	450.62
370.672	444.62
370.898	433.62
371.124	447.62
371.35	438.62
371.576	439.62
371.802	435.62
372.028	457.62
372.254	419.62
372.48	435.62
372.706	459.62
372.932	474.62
373.158	453.62
373.384	448.62
373.61	434.62
373.835	439.62
374.061	442.62
374.287	443.62
374.513	434.62
374.739	467.62
374.965	467.62
375.191	469.62
375.416	452.62
375.642	433.62
375.868	455.62
376.094	468.62
376.319	438.62
376.545	446.62
376.771	445.62
376.997	429.62
377.222	434.62
377.448	427.62
377.674	453.62
377.899	416.62
378.125	428.62
378.35	456.62
378.576	421.62
378.802	436.62
379.027	453.62
379.253	441.62
379.478	437.62
379.704	417.62
379.929	421.62
380.155	458.62
380.38	449.62
380.606	426.62
380.831	457.62
381.057	438.62
381.282	432.62
381.507	443.62
381.733	441.62
381.958	466.62
382.184	448.62
382.409	444.62
382.634	446.62
382.86	448.62
383.085	431.62
383.31	460.62
383.535	462.62
383.761	474.62
383.986	484.62
384.211	462.62
384.436	451.62
384.662	459.62
384.887	484.62
385.112	482.62
385.337	492.62
385.562	493.62
385.787	484.62
386.013	480.62
386.238	480.62
386.463	500.62
386.688	477.62
386.913	505.62
387.138	485.62
387.363	487.62
387.588	499.62
387.813	500.62
388.038	493.62
388.263	476.62
388.488	486.62
388.713	487.62
388.938	461.62
389.163	485.62
389.387	498.62
389.612	476.62
389.837	462.62
390.062	495.62
390.287	475.62
390.512	488.62
390.736	473.62
390.961	473.62
391.186	457.62
391.411	482.62
391.636	479.62
391.86	540.62
392.085	503.62
392.31	506.62
392.534	471.62
392.759	482.62
392.984	519.62
393.208	479.62
393.433	515.62
393.658	486.62
393.882	481.62
394.107	481.62
394.331	484.62
394.556	503.62
394.78	496.62
395.005	519.62
395.229	494.62
395.454	509.62
395.678	521.62
395.903	503.62
396.127	537.62
396.352	539.62
396.576	517.62
396.801	519.62
397.025	518.62
397.249	498.62
397.474	533.62
397.698	512.62
397.922	545.62
398.147	557.62
398.371	554.62
398.595	567.62
398.82	564.62
399.044	576.62
399.268	603.62
399.492	671.62
399.717	707.62
399.941	741.62
400.165	752.62
400.389	693.62
400.613	637.62
400.837	577.62
401.062	577.62
401.286	570.62
401.51	561.62
401.734	552.62
401.958	566.62
402.182	583.62
402.406	595.62
402.63	589.62
402.854	593.62
403.078	585.62
403.302	588.62
403.526	599.62
403.75	588.62
403.974	609.62
404.198	610.62
404.422	604.62
404.645	630.62
404.869	604.62
405.093	639.62
405.317	684.62
405.541	727.62
405.765	674.62
405.988	637.62
406.212	607.62
406.436	631.62
406.66	660.62
406.883	627.62
407.107	649.62
407.331	732.62
407.555	765.62
407.778	789.62
408.002	685.62
408.226	675.62
408.449	628.62
408.673	649.62
408.896	658.62
409.12	683.62
409.344	682.62
409.567	629.62
409.791	614.62
410.014	585.62
410.238	581.62
410.461	592.62
410.685	600.62
410.908	609.62
411.132	632.62
411.355	650.62
411.578	625.62
411.802	585.62
412.025	595.62
412.249	602.62
412.472	631.62
412.695	635.62
412.919	653.62
413.142	618.62
413.365	593.62
413.589	577.62
413.812	562.62
414.035	550.62
414.258	554.62
414.482	553.62
414.705	541.62
414.928	536.62
415.151	545.62
415.374	537.62
415.597	539.62
415.821	532.62
416.044	549.62
416.267	549.62
416.49	536.62
416.713	545.62
416.936	548.62
417.159	550.62
417.382	531.62
417.605	527.62
417.828	583.62
418.051	577.62
418.274	569.62
418.497	530.62
418.72	559.62
418.943	549.62
419.166	568.62
419.389	611.62
419.611	581.62
419.834	600.62
420.057	607.62
420.28	597.62
420.503	600.62
420.726	557.62
420.948	596.62
421.171	626.62
421.394	653.62
421.617	620.62
421.839	564.62
422.062	546.62
422.285	584.62
422.507	660.62
422.73	720.62
422.953	657.62
423.175	609.62
423.398	578.62
423.621	590.62
423.843	621.62
424.066	615.62
424.288	620.62
424.511	641.62
424.733	658.62
424.956	765.62
425.178	731.62
425.401	675.62
425.623	709.62
425.846	644.62
426.068	604.62
426.291	593.62
426.513	576.62
426.735	608.62
426.958	625.62
427.18	727.62
427.402	828.62
427.625	931.62
427.847	817.62
428.069	696.62
428.292	641.62
428.514	572.62
428.736	541.62
428.958	557.62
429.181	525.62
429.403	533.62
429.625	546.62
429.847	583.62
430.069	637.62
430.292	643.62
430.514	553.62
430.736	559.62
430.958	523.62
431.18	545.62
431.402	523.62
431.624	519.62
431.846	499.62
432.068	511.62
432.29	536.62
432.512	520.62
432.734	507.62
432.956	537.62
433.178	546.62
433.4	557.62
433.622	522.62
433.844	519.62
434.066	503.62
434.287	529.62
434.509	548.62
434.731	543.62
434.953	552.62
435.175	553.62
435.397	606.62
435.618	579.62
435.84	646.62
436.062	719.62
436.284	785.62
436.505	642.62
436.727	586.62
436.949	574.62
437.17	537.62
437.392	535.62
437.614	554.62
437.835	564.62
438.057	658.62
438.278	799.62
438.5	760.62
438.721	808.62
438.943	801.62
439.165	639.62
439.386	568.62
439.608	583.62
439.829	572.62
440.05	618.62
440.272	665.62
440.493	631.62
440.715	555.62
440.936	551.62
441.158	544.62
441.379	561.62
441.6	576.62
441.822	604.62
442.043	631.62
442.264	695.62
442.486	754.62
442.707	654.62
442.928	617.62
443.149	613.62
443.371	637.62
443.592	643.62
443.813	754.62
444.034	816.62
444.255	695.62
444.476	639.62
444.698	633.62
444.919	603.62
445.14	756.62
445.361	696.62
445.582	637.62
445.803	696.62
446.024	822.62
446.245	779.62
446.466	736.62
446.687	640.62
446.908	600.62
447.129	573.62
447.35	544.62
447.571	527.62
447.792	537.62
448.013	548.62
448.234	561.62
448.455	612.62
448.675	706.62
448.896	817.62
449.117	683.62
449.338	647.62
449.559	763.62
449.779	848.62
450	667.62
450.221	565.62
450.442	556.62
450.662	525.62
450.883	533.62
451.104	552.62
451.324	528.62
451.545	501.62
451.766	482.62
451.986	444.62
452.207	476.62
452.428	481.62
452.648	513.62
452.869	468.62
453.089	495.62
453.31	518.62
453.53	507.62
453.751	481.62
453.971	487.62
454.192	506.62
454.412	467.62
454.633	460.62
454.853	452.62
455.073	491.62
455.294	513.62
455.514	567.62
455.734	542.62
455.955	469.62
456.175	473.62
456.395	448.62
456.616	452.62
456.836	456.62
457.056	461.62
457.276	426.62
457.497	455.62
457.717	462.62
457.937	449.62
458.157	488.62
458.377	469.62
458.598	492.62
458.818	546.62
459.038	641.62
459.258	641.62
459.478	561.62
459.698	536.62
459.918	550.62
460.138	538.62
460.358	551.62
460.578	546.62
460.798	547.62
461.018	561.62
461.238	535.62
461.458	543.62
461.678	548.62
461.898	538.62
462.118	573.62
462.338	595.62
462.558	608.62
462.777	570.62
462.997	602.62
463.217	612.62
463.437	642.62
463.657	611.62
463.876	606.62
464.096	603.62
464.316	594.62
464.536	605.62
464.755	604.62
464.975	591.62
465.195	600.62
465.414	678.62
465.634	602.62
465.854	563.62
466.073	539.62
466.293	525.62
466.512	499.62
466.732	512.62
466.951	497.62
467.171	499.62
467.391	519.62
467.61	512.62
467.829	532.62
468.049	524.62
468.268	525.62
468.488	517.62
468.707	502.62
468.927	491.62
469.146	470.62
469.365	492.62
469.585	478.62
469.804	477.62
470.023	501.62
470.243	522.62
470.462	514.62
470.681	530.62
470.901	505.62
471.12	527.62
471.339	512.62
471.558	497.62
471.777	515.62
471.997	508.62
472.216	519.62
472.435	552.62
472.654	571.62
472.873	490.62
473.092	509.62
473.311	510.62
473.53	497.62
473.749	526.62
473.968	531.62
474.187	623.62
474.406	664.62
474.625	557.62
474.844	527.62
475.063	505.62
475.282	517.62
475.501	507.62
475.72	516.62
475.939	484.62
476.158	514.62
476.377	506.62
476.596	531.62
476.814	533.62
477.033	545.62
477.252	557.62
477.471	546.62
477.69	548.62
477.908	550.62
478.127	567.62
478.346	551.62
478.564	570.62
478.783	571.62
479.002	576.62
479.22	603.62
479.439	604.62
479.658	606.62
479.876	639.62
480.095	630.62
480.313	664.62
480.532	645.62
480.751	639.62
480.969	609.62
481.188	716.62
481.406	788.62
481.624	665.62
481.843	626.62
482.061	616.62
482.28	581.62
482.498	594.62
482.717	610.62
482.935	576.62
483.153	577.62
483.372	578.62
483.59	582.62
483.808	586.62
484.027	588.62
484.245	579.62
484.463	620.62
484.681	596.62
484.9	599.62
485.118	608.62
485.336	616.62
485.554	607.62
485.772	626.62
485.99	612.62
486.209	600.62
486.427	605.62
486.645	604.62
486.863	613.62
487.081	628.62
487.299	635.62
487.517	632.62
487.735	634.62
487.953	626.62
488.171	644.62
488.389	636.62
488.607	638.62
488.825	631.62
489.043	637.62
489.261	641.62
489.479	616.62
489.696	639.62
489.914	644.62
490.132	642.62
490.35	651.62
490.568	665.62
490.786	671.62
491.003	661.62
491.221	693.62
491.439	721.62
491.657	720.62
491.874	721.62
492.092	751.62
492.31	752.62
492.527	761.62
492.745	755.62
492.963	741.62
493.18	753.62
493.398	747.62
493.615	763.62
493.833	751.62
494.05	748.62
494.268	747.62
494.485	765.62
494.703	731.62
494.92	747.62
495.138	728.62
495.355	735.62
495.573	763.62
495.79	739.62
496.008	771.62
496.225	768.62
496.442	766.62
496.66	756.62
496.877	730.62
497.094	744.62
497.312	759.62
497.529	764.62
497.746	800.62
497.963	785.62
498.181	821.62
498.398	813.62
498.615	838.62
498.832	876.62
499.049	902.62
499.267	945.62
499.484	993.62
499.701	1034.62
499.918	1091.62
500.135	1164.62
500.352	1214.62
500.569	1263.62
500.786	1260.62
501.003	1251.62
501.22	1156.62
501.437	1120.62
501.654	1071.62
501.871	1042.62
