Data from 1985.PennyLincolnUp.Lamp.En5.5.200Scan.071819.P1_HRD10591_17-02-31-970.txt Node
Date: Thu Jul 18 17:02:31 EDT 2019
User: cochatt
Spectrometer: HR+D1059
Trigger mode: 1
Integration Time (sec): 1.000000E-1
Scans to average: 1
Electric dark correction enabled: true
Nonlinearity correction enabled: false
Boxcar width: 0
XAxis mode: Wavelengths
Number of Pixels in Spectrum: 2048
>>>>>Begin Spectral Data<<<<<
223.165	2.94
223.4	2.94
223.635	2.94
223.869	-10.06
224.104	-30.06
224.338	-24.06
224.573	-24.06
224.808	-11.06
225.042	-10.06
225.277	1.94
225.511	2.94
225.746	5.94
225.98	0.94
226.215	-5.06
226.449	22.94
226.683	17.94
226.918	29.94
227.152	28.94
227.387	29.94
227.621	43.94
227.856	41.94
228.09	49.94
228.324	47.94
228.559	57.94
228.793	71.94
229.027	93.94
229.262	87.94
229.496	100.94
229.73	126.94
229.964	150.94
230.199	125.94
230.433	123.94
230.667	119.94
230.901	114.94
231.136	97.94
231.37	125.94
231.604	110.94
231.838	116.94
232.072	111.94
232.306	102.94
232.541	105.94
232.775	109.94
233.009	104.94
233.243	105.94
233.477	125.94
233.711	107.94
233.945	101.94
234.179	129.94
234.413	112.94
234.647	116.94
234.881	116.94
235.115	119.94
235.349	122.94
235.583	119.94
235.817	123.94
236.051	126.94
236.285	135.94
236.519	124.94
236.753	135.94
236.987	144.94
237.221	179.94
237.455	212.94
237.689	182.94
237.922	134.94
238.156	141.94
238.39	129.94
238.624	140.94
238.858	126.94
239.091	116.94
239.325	119.94
239.559	142.94
239.793	141.94
240.027	141.94
240.26	132.94
240.494	126.94
240.728	142.94
240.961	150.94
241.195	141.94
241.429	145.94
241.662	124.94
241.896	137.94
242.13	125.94
242.363	119.94
242.597	135.94
242.83	144.94
243.064	134.94
243.298	142.94
243.531	133.94
243.765	146.94
243.998	151.94
244.232	144.94
244.465	151.94
244.699	141.94
244.932	155.94
245.166	155.94
245.399	152.94
245.633	157.94
245.866	132.94
246.099	162.94
246.333	149.94
246.566	153.94
246.8	147.94
247.033	151.94
247.266	171.94
247.5	151.94
247.733	171.94
247.966	170.94
248.2	193.94
248.433	164.94
248.666	169.94
248.899	193.94
249.133	195.94
249.366	190.94
249.599	190.94
249.832	157.94
250.066	195.94
250.299	191.94
250.532	187.94
250.765	186.94
250.998	212.94
251.231	219.94
251.465	217.94
251.698	196.94
251.931	195.94
252.164	195.94
252.397	190.94
252.63	191.94
252.863	202.94
253.096	213.94
253.329	231.94
253.562	218.94
253.795	217.94
254.028	217.94
254.261	204.94
254.494	227.94
254.727	243.94
254.96	277.94
255.193	244.94
255.426	231.94
255.659	245.94
255.892	227.94
256.124	223.94
256.357	235.94
256.59	217.94
256.823	209.94
257.056	197.94
257.289	196.94
257.521	209.94
257.754	210.94
257.987	211.94
258.22	209.94
258.452	203.94
258.685	198.94
258.918	209.94
259.151	212.94
259.383	218.94
259.616	219.94
259.849	233.94
260.081	233.94
260.314	239.94
260.547	264.94
260.779	257.94
261.012	229.94
261.244	223.94
261.477	226.94
261.71	232.94
261.942	242.94
262.175	224.94
262.407	229.94
262.64	222.94
262.872	217.94
263.105	212.94
263.337	219.94
263.57	233.94
263.802	223.94
264.035	228.94
264.267	222.94
264.499	211.94
264.732	212.94
264.964	222.94
265.197	225.94
265.429	214.94
265.661	215.94
265.894	230.94
266.126	213.94
266.358	228.94
266.591	245.94
266.823	244.94
267.055	229.94
267.287	228.94
267.52	245.94
267.752	257.94
267.984	231.94
268.216	238.94
268.448	247.94
268.681	259.94
268.913	256.94
269.145	269.94
269.377	280.94
269.609	279.94
269.841	279.94
270.073	290.94
270.306	299.94
270.538	315.94
270.77	329.94
271.002	300.94
271.234	296.94
271.466	324.94
271.698	324.94
271.93	291.94
272.162	328.94
272.394	325.94
272.626	300.94
272.858	297.94
273.09	277.94
273.322	317.94
273.553	270.94
273.785	282.94
274.017	265.94
274.249	280.94
274.481	286.94
274.713	272.94
274.945	282.94
275.176	277.94
275.408	284.94
275.64	296.94
275.872	277.94
276.104	274.94
276.335	274.94
276.567	296.94
276.799	305.94
277.031	331.94
277.262	325.94
277.494	325.94
277.726	315.94
277.957	306.94
278.189	286.94
278.421	286.94
278.652	280.94
278.884	293.94
279.115	299.94
279.347	281.94
279.579	285.94
279.81	294.94
280.042	281.94
280.273	276.94
280.505	295.94
280.736	293.94
280.968	302.94
281.199	286.94
281.431	286.94
281.662	300.94
281.894	302.94
282.125	284.94
282.356	291.94
282.588	317.94
282.819	307.94
283.051	311.94
283.282	323.94
283.513	315.94
283.745	291.94
283.976	316.94
284.207	315.94
284.439	307.94
284.67	305.94
284.901	295.94
285.132	297.94
285.364	311.94
285.595	302.94
285.826	293.94
286.057	305.94
286.288	310.94
286.52	301.94
286.751	301.94
286.982	289.94
287.213	316.94
287.444	320.94
287.675	333.94
287.906	338.94
288.138	345.94
288.369	352.94
288.6	335.94
288.831	320.94
289.062	333.94
289.293	307.94
289.524	333.94
289.755	325.94
289.986	325.94
290.217	322.94
290.448	340.94
290.679	329.94
290.91	313.94
291.141	308.94
291.371	314.94
291.602	343.94
291.833	326.94
292.064	311.94
292.295	305.94
292.526	314.94
292.757	321.94
292.987	318.94
293.218	326.94
293.449	345.94
293.68	335.94
293.91	317.94
294.141	309.94
294.372	343.94
294.603	342.94
294.833	323.94
295.064	354.94
295.295	318.94
295.525	329.94
295.756	338.94
295.987	319.94
296.217	350.94
296.448	373.94
296.679	333.94
296.909	328.94
297.14	329.94
297.37	327.94
297.601	346.94
297.831	328.94
298.062	335.94
298.292	351.94
298.523	351.94
298.753	346.94
298.984	336.94
299.214	345.94
299.445	348.94
299.675	364.94
299.905	381.94
300.136	355.94
300.366	345.94
300.597	349.94
300.827	354.94
301.057	380.94
301.288	365.94
301.518	377.94
301.748	365.94
301.979	371.94
302.209	376.94
302.439	362.94
302.669	367.94
302.9	371.94
303.13	357.94
303.36	360.94
303.59	371.94
303.82	381.94
304.051	397.94
304.281	370.94
304.511	351.94
304.741	375.94
304.971	370.94
305.201	371.94
305.431	381.94
305.661	385.94
305.891	353.94
306.121	363.94
306.352	373.94
306.582	366.94
306.812	366.94
307.042	375.94
307.272	378.94
307.502	387.94
307.731	373.94
307.961	361.94
308.191	366.94
308.421	376.94
308.651	371.94
308.881	361.94
309.111	393.94
309.341	383.94
309.571	363.94
309.8	414.94
310.03	393.94
310.26	414.94
310.49	386.94
310.72	397.94
310.949	423.94
311.179	451.94
311.409	454.94
311.639	411.94
311.868	423.94
312.098	404.94
312.328	423.94
312.557	425.94
312.787	445.94
313.017	459.94
313.246	423.94
313.476	449.94
313.706	418.94
313.935	441.94
314.165	425.94
314.394	420.94
314.624	453.94
314.853	428.94
315.083	403.94
315.312	405.94
315.542	421.94
315.771	420.94
316.001	396.94
316.23	395.94
316.46	408.94
316.689	400.94
316.919	410.94
317.148	406.94
317.377	427.94
317.607	410.94
317.836	425.94
318.065	422.94
318.295	421.94
318.524	425.94
318.753	426.94
318.983	438.94
319.212	436.94
319.441	420.94
319.67	420.94
319.9	427.94
320.129	429.94
320.358	427.94
320.587	436.94
320.816	417.94
321.046	443.94
321.275	440.94
321.504	447.94
321.733	425.94
321.962	454.94
322.191	435.94
322.42	469.94
322.649	467.94
322.878	504.94
323.108	509.94
323.337	497.94
323.566	536.94
323.795	563.94
324.024	607.94
324.253	702.94
324.482	981.94
324.71	1438.94
324.939	2002.94
325.168	1737.94
325.397	901.94
325.626	664.94
325.855	569.94
326.084	555.94
326.313	525.94
326.542	533.94
326.77	599.94
326.999	663.94
327.228	876.94
327.457	1267.94
327.686	1518.94
327.914	1052.94
328.143	723.94
328.372	639.94
328.6	579.94
328.829	595.94
329.058	615.94
329.287	600.94
329.515	569.94
329.744	543.94
329.972	545.94
330.201	540.94
330.43	572.94
330.658	587.94
330.887	623.94
331.115	635.94
331.344	544.94
331.572	535.94
331.801	543.94
332.03	521.94
332.258	513.94
332.486	493.94
332.715	499.94
332.943	516.94
333.172	539.94
333.4	517.94
333.629	546.94
333.857	543.94
334.085	542.94
334.314	548.94
334.542	529.94
334.771	550.94
334.999	525.94
335.227	519.94
335.455	527.94
335.684	511.94
335.912	518.94
336.14	501.94
336.369	516.94
336.597	504.94
336.825	494.94
337.053	497.94
337.281	494.94
337.51	493.94
337.738	471.94
337.966	475.94
338.194	503.94
338.422	491.94
338.65	494.94
338.878	493.94
339.106	476.94
339.334	482.94
339.562	467.94
339.79	478.94
340.018	478.94
340.246	497.94
340.474	464.94
340.702	497.94
340.93	478.94
341.158	480.94
341.386	449.94
341.614	478.94
341.842	476.94
342.07	472.94
342.298	449.94
342.526	454.94
342.754	455.94
342.981	427.94
343.209	454.94
343.437	466.94
343.665	483.94
343.893	494.94
344.12	522.94
344.348	510.94
344.576	511.94
344.804	503.94
345.031	505.94
345.259	489.94
345.487	456.94
345.714	469.94
345.942	450.94
346.17	468.94
346.397	469.94
346.625	446.94
346.853	450.94
347.08	476.94
347.308	471.94
347.535	453.94
347.763	453.94
347.99	454.94
348.218	462.94
348.445	477.94
348.673	461.94
348.9	439.94
349.128	448.94
349.355	446.94
349.583	435.94
349.81	453.94
350.037	446.94
350.265	436.94
350.492	435.94
350.72	430.94
350.947	457.94
351.174	466.94
351.402	451.94
351.629	460.94
351.856	456.94
352.083	451.94
352.311	483.94
352.538	453.94
352.765	464.94
352.992	468.94
353.22	440.94
353.447	446.94
353.674	435.94
353.901	419.94
354.128	434.94
354.355	435.94
354.583	420.94
354.81	413.94
355.037	416.94
355.264	437.94
355.491	427.94
355.718	420.94
355.945	440.94
356.172	415.94
356.399	411.94
356.626	429.94
356.853	417.94
357.08	424.94
357.307	430.94
357.534	426.94
357.761	410.94
357.988	406.94
358.215	414.94
358.441	427.94
358.668	418.94
358.895	419.94
359.122	427.94
359.349	437.94
359.576	454.94
359.802	439.94
360.029	485.94
360.256	499.94
360.483	466.94
360.709	452.94
360.936	431.94
361.163	426.94
361.39	443.94
361.616	463.94
361.843	445.94
362.07	428.94
362.296	445.94
362.523	444.94
362.749	453.94
362.976	422.94
363.203	454.94
363.429	428.94
363.656	435.94
363.882	431.94
364.109	437.94
364.335	405.94
364.562	427.94
364.788	421.94
365.015	414.94
365.241	423.94
365.468	452.94
365.694	443.94
365.92	437.94
366.147	425.94
366.373	417.94
366.599	409.94
366.826	422.94
367.052	423.94
367.278	416.94
367.505	431.94
367.731	425.94
367.957	424.94
368.184	405.94
368.41	430.94
368.636	433.94
368.862	438.94
369.089	434.94
369.315	426.94
369.541	447.94
369.767	429.94
369.993	430.94
370.219	421.94
370.445	445.94
370.672	426.94
370.898	430.94
371.124	426.94
371.35	419.94
371.576	442.94
371.802	430.94
372.028	418.94
372.254	429.94
372.48	407.94
372.706	429.94
372.932	457.94
373.158	437.94
373.384	429.94
373.61	430.94
373.835	443.94
374.061	415.94
374.287	431.94
374.513	429.94
374.739	454.94
374.965	475.94
375.191	453.94
375.416	453.94
375.642	414.94
375.868	438.94
376.094	442.94
376.319	418.94
376.545	430.94
376.771	434.94
376.997	455.94
377.222	445.94
377.448	419.94
377.674	429.94
377.899	416.94
378.125	440.94
378.35	422.94
378.576	421.94
378.802	416.94
379.027	443.94
379.253	433.94
379.478	406.94
379.704	396.94
379.929	408.94
380.155	409.94
380.38	419.94
380.606	422.94
380.831	419.94
381.057	420.94
381.282	432.94
381.507	425.94
381.733	418.94
381.958	443.94
382.184	439.94
382.409	440.94
382.634	441.94
382.86	409.94
383.085	448.94
383.31	426.94
383.535	446.94
383.761	454.94
383.986	445.94
384.211	459.94
384.436	453.94
384.662	449.94
384.887	464.94
385.112	475.94
385.337	460.94
385.562	485.94
385.787	478.94
386.013	484.94
386.238	490.94
386.463	484.94
386.688	475.94
386.913	473.94
387.138	470.94
387.363	444.94
387.588	462.94
387.813	483.94
388.038	455.94
388.263	467.94
388.488	454.94
388.713	473.94
388.938	465.94
389.163	476.94
389.387	480.94
389.612	455.94
389.837	464.94
390.062	450.94
390.287	471.94
390.512	468.94
390.736	443.94
390.961	483.94
391.186	486.94
391.411	483.94
391.636	495.94
391.86	506.94
392.085	513.94
392.31	513.94
392.534	474.94
392.759	494.94
392.984	492.94
393.208	474.94
393.433	481.94
393.658	484.94
393.882	491.94
394.107	500.94
394.331	513.94
394.556	479.94
394.78	486.94
395.005	477.94
395.229	488.94
395.454	503.94
395.678	492.94
395.903	507.94
396.127	530.94
396.352	515.94
396.576	516.94
396.801	501.94
397.025	475.94
397.249	504.94
397.474	515.94
397.698	522.94
397.922	525.94
398.147	551.94
398.371	538.94
398.595	513.94
398.82	533.94
399.044	562.94
399.268	583.94
399.492	616.94
399.717	684.94
399.941	715.94
400.165	706.94
400.389	671.94
400.613	625.94
400.837	566.94
401.062	563.94
401.286	580.94
401.51	568.94
401.734	549.94
401.958	563.94
402.182	571.94
402.406	556.94
402.63	577.94
402.854	575.94
403.078	570.94
403.302	571.94
403.526	598.94
403.75	590.94
403.974	612.94
404.198	577.94
404.422	589.94
404.645	569.94
404.869	610.94
405.093	615.94
405.317	654.94
405.541	673.94
405.765	614.94
405.988	597.94
406.212	617.94
406.436	619.94
406.66	627.94
406.883	628.94
407.107	644.94
407.331	693.94
407.555	759.94
407.778	769.94
408.002	697.94
408.226	653.94
408.449	647.94
408.673	656.94
408.896	633.94
409.12	698.94
409.344	653.94
409.567	615.94
409.791	597.94
410.014	571.94
410.238	581.94
410.461	587.94
410.685	579.94
410.908	572.94
411.132	598.94
411.355	641.94
411.578	627.94
411.802	569.94
412.025	554.94
412.249	554.94
412.472	573.94
412.695	574.94
412.919	587.94
413.142	546.94
413.365	541.94
413.589	559.94
413.812	530.94
414.035	498.94
414.258	554.94
414.482	535.94
414.705	542.94
414.928	519.94
415.151	513.94
415.374	521.94
415.597	526.94
415.821	540.94
416.044	559.94
416.267	538.94
416.49	513.94
416.713	522.94
416.936	537.94
417.159	531.94
417.382	519.94
417.605	543.94
417.828	534.94
418.051	563.94
418.274	552.94
418.497	550.94
418.72	537.94
418.943	534.94
419.166	575.94
419.389	586.94
419.611	589.94
419.834	558.94
420.057	552.94
420.28	551.94
420.503	547.94
420.726	555.94
420.948	553.94
421.171	612.94
421.394	644.94
421.617	563.94
421.839	537.94
422.062	543.94
422.285	575.94
422.507	614.94
422.73	666.94
422.953	678.94
423.175	626.94
423.398	586.94
423.621	583.94
423.843	595.94
424.066	608.94
424.288	588.94
424.511	610.94
424.733	651.94
424.956	741.94
425.178	685.94
425.401	678.94
425.623	693.94
425.846	603.94
426.068	576.94
426.291	573.94
426.513	564.94
426.735	597.94
426.958	630.94
427.18	696.94
427.402	817.94
427.625	876.94
427.847	760.94
428.069	661.94
428.292	606.94
428.514	595.94
428.736	545.94
428.958	531.94
429.181	522.94
429.403	532.94
429.625	547.94
429.847	570.94
430.069	633.94
430.292	611.94
430.514	529.94
430.736	519.94
430.958	507.94
431.18	512.94
431.402	531.94
431.624	500.94
431.846	483.94
432.068	496.94
432.29	504.94
432.512	516.94
432.734	498.94
432.956	493.94
433.178	517.94
433.4	515.94
433.622	497.94
433.844	493.94
434.066	494.94
434.287	511.94
434.509	516.94
434.731	536.94
434.953	523.94
435.175	571.94
435.397	574.94
435.618	578.94
435.84	621.94
436.062	707.94
436.284	745.94
436.505	634.94
436.727	599.94
436.949	543.94
437.17	549.94
437.392	521.94
437.614	550.94
437.835	575.94
438.057	659.94
438.278	748.94
438.5	757.94
438.721	791.94
438.943	777.94
439.165	627.94
439.386	581.94
439.608	571.94
439.829	566.94
440.05	593.94
440.272	653.94
440.493	590.94
440.715	563.94
440.936	538.94
441.158	540.94
441.379	550.94
441.6	557.94
441.822	583.94
442.043	633.94
442.264	713.94
442.486	723.94
442.707	626.94
442.928	591.94
443.149	596.94
443.371	625.94
443.592	666.94
443.813	737.94
444.034	808.94
444.255	677.94
444.476	619.94
444.698	616.94
444.919	617.94
445.14	722.94
445.361	649.94
445.582	623.94
445.803	685.94
446.024	754.94
446.245	780.94
446.466	715.94
446.687	620.94
446.908	589.94
447.129	530.94
447.35	521.94
447.571	526.94
447.792	513.94
448.013	535.94
448.234	537.94
448.455	599.94
448.675	699.94
448.896	771.94
449.117	661.94
449.338	641.94
449.559	760.94
449.779	851.94
450	671.94
450.221	555.94
450.442	527.94
450.662	510.94
450.883	509.94
451.104	507.94
451.324	523.94
451.545	492.94
451.766	465.94
451.986	451.94
452.207	467.94
452.428	467.94
452.648	461.94
452.869	486.94
453.089	475.94
453.31	493.94
453.53	478.94
453.751	464.94
453.971	476.94
454.192	486.94
454.412	472.94
454.633	479.94
454.853	456.94
455.073	455.94
455.294	486.94
455.514	541.94
455.734	547.94
455.955	470.94
456.175	457.94
456.395	445.94
456.616	451.94
456.836	433.94
457.056	417.94
457.276	437.94
457.497	474.94
457.717	466.94
457.937	457.94
458.157	441.94
458.377	487.94
458.598	477.94
458.818	541.94
459.038	626.94
459.258	614.94
459.478	574.94
459.698	519.94
459.918	488.94
460.138	517.94
460.358	542.94
460.578	538.94
460.798	558.94
461.018	549.94
461.238	523.94
461.458	550.94
461.678	507.94
461.898	555.94
462.118	545.94
462.338	538.94
462.558	568.94
462.777	570.94
462.997	594.94
463.217	627.94
463.437	605.94
463.657	595.94
463.876	615.94
464.096	606.94
464.316	569.94
464.536	593.94
464.755	590.94
464.975	575.94
465.195	614.94
465.414	677.94
465.634	573.94
465.854	562.94
466.073	513.94
466.293	503.94
466.512	510.94
466.732	508.94
466.951	493.94
467.171	479.94
467.391	490.94
467.61	506.94
467.829	504.94
468.049	509.94
468.268	472.94
468.488	478.94
468.707	471.94
468.927	457.94
469.146	501.94
469.365	501.94
469.585	465.94
469.804	497.94
470.023	510.94
470.243	501.94
470.462	500.94
470.681	515.94
470.901	510.94
471.12	515.94
471.339	489.94
471.558	495.94
471.777	503.94
471.997	486.94
472.216	491.94
472.435	460.94
472.654	485.94
472.873	475.94
473.092	485.94
473.311	471.94
473.53	494.94
473.749	481.94
473.968	525.94
474.187	625.94
474.406	637.94
474.625	548.94
474.844	511.94
475.063	494.94
475.282	483.94
475.501	498.94
475.72	490.94
475.939	501.94
476.158	501.94
476.377	520.94
476.596	501.94
476.814	494.94
477.033	513.94
477.252	510.94
477.471	509.94
477.69	541.94
477.908	554.94
478.127	535.94
478.346	526.94
478.564	546.94
478.783	547.94
479.002	574.94
479.22	585.94
479.439	606.94
479.658	598.94
479.876	578.94
480.095	592.94
480.313	633.94
480.532	628.94
480.751	615.94
480.969	589.94
481.188	620.94
481.406	614.94
481.624	600.94
481.843	585.94
482.061	578.94
482.28	563.94
482.498	549.94
482.717	546.94
482.935	547.94
483.153	568.94
483.372	571.94
483.59	564.94
483.808	553.94
484.027	573.94
484.245	567.94
484.463	552.94
484.681	606.94
484.9	551.94
485.118	589.94
485.336	591.94
485.554	562.94
485.772	601.94
485.99	586.94
486.209	597.94
486.427	584.94
486.645	599.94
486.863	593.94
487.081	626.94
487.299	609.94
487.517	593.94
487.735	603.94
487.953	599.94
488.171	612.94
488.389	596.94
488.607	609.94
488.825	617.94
489.043	612.94
489.261	596.94
489.479	602.94
489.696	599.94
489.914	618.94
490.132	634.94
490.35	621.94
490.568	648.94
490.786	627.94
491.003	638.94
491.221	651.94
491.439	673.94
491.657	650.94
491.874	675.94
492.092	668.94
492.31	686.94
492.527	662.94
492.745	709.94
492.963	685.94
493.18	686.94
493.398	699.94
493.615	693.94
493.833	674.94
494.05	705.94
494.268	712.94
494.485	723.94
494.703	711.94
494.92	697.94
495.138	684.94
495.355	689.94
495.573	704.94
495.79	717.94
496.008	703.94
496.225	706.94
496.442	721.94
496.66	703.94
496.877	725.94
497.094	738.94
497.312	722.94
497.529	741.94
497.746	761.94
497.963	778.94
498.181	802.94
498.398	789.94
498.615	791.94
498.832	870.94
499.049	900.94
499.267	901.94
499.484	947.94
499.701	993.94
499.918	1057.94
500.135	1142.94
500.352	1193.94
500.569	1235.94
500.786	1219.94
501.003	1158.94
501.22	1146.94
501.437	1067.94
501.654	1035.94
501.871	999.94
