Data from 1985.PennyLincolnUp.Lamp.En5.5.200Scan.071819.P1_HRD10591_17-01-10-969.txt Node
Date: Thu Jul 18 17:01:10 EDT 2019
User: cochatt
Spectrometer: HR+D1059
Trigger mode: 1
Integration Time (sec): 1.000000E-1
Scans to average: 1
Electric dark correction enabled: true
Nonlinearity correction enabled: false
Boxcar width: 0
XAxis mode: Wavelengths
Number of Pixels in Spectrum: 2048
>>>>>Begin Spectral Data<<<<<
223.165	-17.81
223.4	-17.81
223.635	-17.81
223.869	7.19
224.104	-14.81
224.338	-19.81
224.573	-28.81
224.808	-6.81
225.042	-12.81
225.277	-2.81
225.511	1.19
225.746	-13.81
225.98	11.19
226.215	5.19
226.449	13.19
226.683	32.19
226.918	19.19
227.152	28.19
227.387	40.19
227.621	44.19
227.856	47.19
228.09	42.19
228.324	54.19
228.559	65.19
228.793	65.19
229.027	91.19
229.262	81.19
229.496	107.19
229.73	99.19
229.964	130.19
230.199	101.19
230.433	87.19
230.667	94.19
230.901	98.19
231.136	94.19
231.37	110.19
231.604	107.19
231.838	110.19
232.072	103.19
232.306	121.19
232.541	101.19
232.775	109.19
233.009	115.19
233.243	105.19
233.477	91.19
233.711	111.19
233.945	122.19
234.179	117.19
234.413	115.19
234.647	121.19
234.881	106.19
235.115	122.19
235.349	115.19
235.583	122.19
235.817	121.19
236.051	114.19
236.285	118.19
236.519	110.19
236.753	120.19
236.987	125.19
237.221	149.19
237.455	158.19
237.689	153.19
237.922	131.19
238.156	126.19
238.39	119.19
238.624	125.19
238.858	116.19
239.091	117.19
239.325	114.19
239.559	115.19
239.793	120.19
240.027	110.19
240.26	112.19
240.494	123.19
240.728	119.19
240.961	141.19
241.195	124.19
241.429	138.19
241.662	123.19
241.896	133.19
242.13	136.19
242.363	123.19
242.597	141.19
242.83	131.19
243.064	139.19
243.298	112.19
243.531	122.19
243.765	111.19
243.998	141.19
244.232	144.19
244.465	138.19
244.699	124.19
244.932	141.19
245.166	137.19
245.399	116.19
245.633	124.19
245.866	155.19
246.099	137.19
246.333	147.19
246.566	129.19
246.8	146.19
247.033	133.19
247.266	155.19
247.5	153.19
247.733	158.19
247.966	163.19
248.2	153.19
248.433	165.19
248.666	152.19
248.899	161.19
249.133	163.19
249.366	174.19
249.599	165.19
249.832	158.19
250.066	157.19
250.299	158.19
250.532	165.19
250.765	171.19
250.998	175.19
251.231	188.19
251.465	190.19
251.698	167.19
251.931	169.19
252.164	157.19
252.397	190.19
252.63	168.19
252.863	171.19
253.096	189.19
253.329	201.19
253.562	200.19
253.795	190.19
254.028	178.19
254.261	188.19
254.494	189.19
254.727	215.19
254.96	201.19
255.193	206.19
255.426	202.19
255.659	191.19
255.892	185.19
256.124	181.19
256.357	175.19
256.59	181.19
256.823	169.19
257.056	179.19
257.289	189.19
257.521	188.19
257.754	191.19
257.987	188.19
258.22	187.19
258.452	180.19
258.685	185.19
258.918	173.19
259.151	195.19
259.383	184.19
259.616	195.19
259.849	196.19
260.081	190.19
260.314	211.19
260.547	208.19
260.779	188.19
261.012	205.19
261.244	202.19
261.477	204.19
261.71	183.19
261.942	198.19
262.175	209.19
262.407	197.19
262.64	195.19
262.872	190.19
263.105	193.19
263.337	188.19
263.57	185.19
263.802	200.19
264.035	225.19
264.267	190.19
264.499	211.19
264.732	204.19
264.964	207.19
265.197	211.19
265.429	190.19
265.661	195.19
265.894	212.19
266.126	212.19
266.358	210.19
266.591	199.19
266.823	207.19
267.055	205.19
267.287	214.19
267.52	219.19
267.752	199.19
267.984	204.19
268.216	227.19
268.448	208.19
268.681	211.19
268.913	235.19
269.145	226.19
269.377	223.19
269.609	227.19
269.841	232.19
270.073	234.19
270.306	244.19
270.538	261.19
270.77	255.19
271.002	235.19
271.234	240.19
271.466	246.19
271.698	249.19
271.93	262.19
272.162	269.19
272.394	269.19
272.626	259.19
272.858	231.19
273.09	253.19
273.322	263.19
273.553	264.19
273.785	245.19
274.017	238.19
274.249	227.19
274.481	241.19
274.713	246.19
274.945	254.19
275.176	267.19
275.408	250.19
275.64	238.19
275.872	231.19
276.104	251.19
276.335	246.19
276.567	239.19
276.799	251.19
277.031	251.19
277.262	257.19
277.494	265.19
277.726	262.19
277.957	260.19
278.189	262.19
278.421	261.19
278.652	242.19
278.884	257.19
279.115	249.19
279.347	252.19
279.579	253.19
279.81	248.19
280.042	273.19
280.273	262.19
280.505	281.19
280.736	258.19
280.968	260.19
281.199	243.19
281.431	259.19
281.662	234.19
281.894	260.19
282.125	263.19
282.356	264.19
282.588	272.19
282.819	269.19
283.051	277.19
283.282	279.19
283.513	285.19
283.745	288.19
283.976	291.19
284.207	285.19
284.439	289.19
284.67	281.19
284.901	262.19
285.132	269.19
285.364	273.19
285.595	267.19
285.826	276.19
286.057	287.19
286.288	267.19
286.52	286.19
286.751	291.19
286.982	283.19
287.213	285.19
287.444	279.19
287.675	309.19
287.906	294.19
288.138	293.19
288.369	279.19
288.6	293.19
288.831	292.19
289.062	306.19
289.293	282.19
289.524	293.19
289.755	303.19
289.986	288.19
290.217	273.19
290.448	286.19
290.679	283.19
290.91	295.19
291.141	291.19
291.371	291.19
291.602	301.19
291.833	295.19
292.064	284.19
292.295	296.19
292.526	279.19
292.757	289.19
292.987	291.19
293.218	290.19
293.449	300.19
293.68	301.19
293.91	292.19
294.141	315.19
294.372	291.19
294.603	306.19
294.833	296.19
295.064	303.19
295.295	297.19
295.525	301.19
295.756	307.19
295.987	305.19
296.217	281.19
296.448	314.19
296.679	318.19
296.909	312.19
297.14	306.19
297.37	306.19
297.601	323.19
297.831	309.19
298.062	309.19
298.292	331.19
298.523	310.19
298.753	312.19
298.984	282.19
299.214	305.19
299.445	342.19
299.675	323.19
299.905	322.19
300.136	307.19
300.366	321.19
300.597	283.19
300.827	322.19
301.057	322.19
301.288	331.19
301.518	324.19
301.748	328.19
301.979	336.19
302.209	333.19
302.439	329.19
302.669	321.19
302.9	342.19
303.13	329.19
303.36	354.19
303.59	339.19
303.82	322.19
304.051	321.19
304.281	330.19
304.511	333.19
304.741	319.19
304.971	310.19
305.201	349.19
305.431	334.19
305.661	325.19
305.891	331.19
306.121	332.19
306.352	338.19
306.582	332.19
306.812	324.19
307.042	330.19
307.272	315.19
307.502	346.19
307.731	331.19
307.961	338.19
308.191	354.19
308.421	341.19
308.651	329.19
308.881	323.19
309.111	340.19
309.341	324.19
309.571	357.19
309.8	320.19
310.03	330.19
310.26	337.19
310.49	345.19
310.72	346.19
310.949	348.19
311.179	353.19
311.409	373.19
311.639	373.19
311.868	359.19
312.098	359.19
312.328	368.19
312.557	385.19
312.787	374.19
313.017	390.19
313.246	362.19
313.476	341.19
313.706	358.19
313.935	358.19
314.165	373.19
314.394	387.19
314.624	382.19
314.853	363.19
315.083	350.19
315.312	357.19
315.542	343.19
315.771	381.19
316.001	358.19
316.23	355.19
316.46	352.19
316.689	390.19
316.919	363.19
317.148	385.19
317.377	377.19
317.607	369.19
317.836	368.19
318.065	363.19
318.295	366.19
318.524	353.19
318.753	363.19
318.983	375.19
319.212	353.19
319.441	370.19
319.67	366.19
319.9	362.19
320.129	371.19
320.358	385.19
320.587	374.19
320.816	381.19
321.046	377.19
321.275	365.19
321.504	377.19
321.733	369.19
321.962	380.19
322.191	385.19
322.42	396.19
322.649	365.19
322.878	393.19
323.108	385.19
323.337	390.19
323.566	402.19
323.795	445.19
324.024	433.19
324.253	500.19
324.482	595.19
324.71	793.19
324.939	1059.19
325.168	909.19
325.397	561.19
325.626	448.19
325.855	447.19
326.084	406.19
326.313	425.19
326.542	418.19
326.77	443.19
326.999	462.19
327.228	544.19
327.457	725.19
327.686	871.19
327.914	637.19
328.143	490.19
328.372	440.19
328.6	435.19
328.829	437.19
329.058	446.19
329.287	443.19
329.515	427.19
329.744	426.19
329.972	396.19
330.201	426.19
330.43	420.19
330.658	436.19
330.887	459.19
331.115	457.19
331.344	422.19
331.572	426.19
331.801	414.19
332.03	416.19
332.258	431.19
332.486	428.19
332.715	447.19
332.943	424.19
333.172	463.19
333.4	458.19
333.629	483.19
333.857	453.19
334.085	454.19
334.314	459.19
334.542	469.19
334.771	466.19
334.999	464.19
335.227	460.19
335.455	445.19
335.684	461.19
335.912	445.19
336.14	457.19
336.369	429.19
336.597	455.19
336.825	454.19
337.053	444.19
337.281	429.19
337.51	428.19
337.738	433.19
337.966	426.19
338.194	421.19
338.422	424.19
338.65	415.19
338.878	446.19
339.106	428.19
339.334	408.19
339.562	420.19
339.79	428.19
340.018	414.19
340.246	413.19
340.474	395.19
340.702	405.19
340.93	402.19
341.158	415.19
341.386	425.19
341.614	403.19
341.842	407.19
342.07	406.19
342.298	413.19
342.526	415.19
342.754	415.19
342.981	419.19
343.209	413.19
343.437	413.19
343.665	427.19
343.893	424.19
344.12	445.19
344.348	456.19
344.576	456.19
344.804	433.19
345.031	416.19
345.259	410.19
345.487	415.19
345.714	416.19
345.942	405.19
346.17	388.19
346.397	422.19
346.625	381.19
346.853	377.19
347.08	406.19
347.308	407.19
347.535	390.19
347.763	391.19
347.99	397.19
348.218	422.19
348.445	392.19
348.673	380.19
348.9	402.19
349.128	401.19
349.355	383.19
349.583	372.19
349.81	371.19
350.037	391.19
350.265	382.19
350.492	378.19
350.72	385.19
350.947	403.19
351.174	397.19
351.402	373.19
351.629	395.19
351.856	393.19
352.083	400.19
352.311	395.19
352.538	388.19
352.765	397.19
352.992	399.19
353.22	385.19
353.447	381.19
353.674	375.19
353.901	362.19
354.128	381.19
354.355	389.19
354.583	402.19
354.81	385.19
355.037	391.19
355.264	369.19
355.491	390.19
355.718	393.19
355.945	373.19
356.172	362.19
356.399	363.19
356.626	372.19
356.853	384.19
357.08	371.19
357.307	373.19
357.534	366.19
357.761	365.19
357.988	372.19
358.215	385.19
358.441	367.19
358.668	389.19
358.895	362.19
359.122	363.19
359.349	386.19
359.576	389.19
359.802	395.19
360.029	410.19
360.256	413.19
360.483	405.19
360.709	391.19
360.936	373.19
361.163	367.19
361.39	385.19
361.616	375.19
361.843	361.19
362.07	365.19
362.296	384.19
362.523	382.19
362.749	398.19
362.976	377.19
363.203	378.19
363.429	382.19
363.656	375.19
363.882	378.19
364.109	375.19
364.335	389.19
364.562	400.19
364.788	391.19
365.015	375.19
365.241	366.19
365.468	380.19
365.694	377.19
365.92	377.19
366.147	369.19
366.373	378.19
366.599	387.19
366.826	375.19
367.052	379.19
367.278	378.19
367.505	382.19
367.731	382.19
367.957	387.19
368.184	363.19
368.41	371.19
368.636	390.19
368.862	392.19
369.089	406.19
369.315	371.19
369.541	383.19
369.767	372.19
369.993	374.19
370.219	378.19
370.445	371.19
370.672	406.19
370.898	372.19
371.124	391.19
371.35	397.19
371.576	390.19
371.802	367.19
372.028	383.19
372.254	373.19
372.48	395.19
372.706	407.19
372.932	393.19
373.158	393.19
373.384	412.19
373.61	402.19
373.835	392.19
374.061	403.19
374.287	393.19
374.513	400.19
374.739	402.19
374.965	405.19
375.191	402.19
375.416	410.19
375.642	402.19
375.868	398.19
376.094	411.19
376.319	395.19
376.545	400.19
376.771	369.19
376.997	406.19
377.222	382.19
377.448	396.19
377.674	388.19
377.899	380.19
378.125	394.19
378.35	391.19
378.576	386.19
378.802	365.19
379.027	387.19
379.253	397.19
379.478	396.19
379.704	397.19
379.929	392.19
380.155	398.19
380.38	374.19
380.606	378.19
380.831	400.19
381.057	377.19
381.282	409.19
381.507	387.19
381.733	405.19
381.958	393.19
382.184	417.19
382.409	394.19
382.634	401.19
382.86	407.19
383.085	387.19
383.31	403.19
383.535	410.19
383.761	425.19
383.986	435.19
384.211	422.19
384.436	439.19
384.662	439.19
384.887	419.19
385.112	425.19
385.337	433.19
385.562	446.19
385.787	442.19
386.013	464.19
386.238	456.19
386.463	451.19
386.688	438.19
386.913	438.19
387.138	460.19
387.363	435.19
387.588	444.19
387.813	443.19
388.038	436.19
388.263	442.19
388.488	456.19
388.713	451.19
388.938	438.19
389.163	417.19
389.387	444.19
389.612	436.19
389.837	422.19
390.062	413.19
390.287	421.19
390.512	430.19
390.736	427.19
390.961	452.19
391.186	465.19
391.411	440.19
391.636	455.19
391.86	461.19
392.085	467.19
392.31	468.19
392.534	446.19
392.759	445.19
392.984	441.19
393.208	455.19
393.433	459.19
393.658	458.19
393.882	462.19
394.107	425.19
394.331	432.19
394.556	447.19
394.78	455.19
395.005	451.19
395.229	442.19
395.454	444.19
395.678	450.19
395.903	467.19
396.127	469.19
396.352	490.19
396.576	482.19
396.801	465.19
397.025	473.19
397.249	475.19
397.474	466.19
397.698	480.19
397.922	476.19
398.147	486.19
398.371	483.19
398.595	488.19
398.82	518.19
399.044	534.19
399.268	538.19
399.492	583.19
399.717	643.19
399.941	659.19
400.165	635.19
400.389	625.19
400.613	548.19
400.837	537.19
401.062	533.19
401.286	526.19
401.51	498.19
401.734	506.19
401.958	491.19
402.182	515.19
402.406	522.19
402.63	527.19
402.854	522.19
403.078	514.19
403.302	502.19
403.526	522.19
403.75	532.19
403.974	536.19
404.198	541.19
404.422	523.19
404.645	508.19
404.869	533.19
405.093	528.19
405.317	537.19
405.541	570.19
405.765	533.19
405.988	539.19
406.212	553.19
406.436	566.19
406.66	553.19
406.883	541.19
407.107	601.19
407.331	594.19
407.555	659.19
407.778	644.19
408.002	605.19
408.226	572.19
408.449	557.19
408.673	579.19
408.896	572.19
409.12	595.19
409.344	584.19
409.567	532.19
409.791	517.19
410.014	545.19
410.238	520.19
410.461	524.19
410.685	539.19
410.908	511.19
411.132	556.19
411.355	545.19
411.578	552.19
411.802	521.19
412.025	506.19
412.249	517.19
412.472	544.19
412.695	513.19
412.919	484.19
413.142	499.19
413.365	486.19
413.589	495.19
413.812	468.19
414.035	493.19
414.258	482.19
414.482	490.19
414.705	468.19
414.928	500.19
415.151	504.19
415.374	473.19
415.597	481.19
415.821	487.19
416.044	494.19
416.267	460.19
416.49	487.19
416.713	474.19
416.936	470.19
417.159	498.19
417.382	482.19
417.605	488.19
417.828	504.19
418.051	510.19
418.274	487.19
418.497	476.19
418.72	474.19
418.943	478.19
419.166	523.19
419.389	533.19
419.611	530.19
419.834	497.19
420.057	510.19
420.28	487.19
420.503	481.19
420.726	480.19
420.948	474.19
421.171	531.19
421.394	554.19
421.617	500.19
421.839	509.19
422.062	498.19
422.285	503.19
422.507	532.19
422.73	572.19
422.953	551.19
423.175	507.19
423.398	525.19
423.621	507.19
423.843	517.19
424.066	504.19
424.288	523.19
424.511	539.19
424.733	578.19
424.956	596.19
425.178	580.19
425.401	582.19
425.623	584.19
425.846	526.19
426.068	498.19
426.291	489.19
426.513	484.19
426.735	503.19
426.958	543.19
427.18	558.19
427.402	661.19
427.625	695.19
427.847	591.19
428.069	515.19
428.292	493.19
428.514	470.19
428.736	476.19
428.958	462.19
429.181	476.19
429.403	466.19
429.625	465.19
429.847	474.19
430.069	517.19
430.292	526.19
430.514	474.19
430.736	456.19
430.958	471.19
431.18	442.19
431.402	435.19
431.624	464.19
431.846	457.19
432.068	449.19
432.29	478.19
432.512	459.19
432.734	467.19
432.956	459.19
433.178	457.19
433.4	466.19
433.622	430.19
433.844	464.19
434.066	457.19
434.287	445.19
434.509	468.19
434.731	466.19
434.953	497.19
435.175	489.19
435.397	493.19
435.618	520.19
435.84	523.19
436.062	568.19
436.284	620.19
436.505	524.19
436.727	499.19
436.949	457.19
437.17	475.19
437.392	476.19
437.614	497.19
437.835	469.19
438.057	534.19
438.278	579.19
438.5	594.19
438.721	615.19
438.943	622.19
439.165	494.19
439.386	478.19
439.608	487.19
439.829	471.19
440.05	469.19
440.272	517.19
440.493	481.19
440.715	467.19
440.936	485.19
441.158	490.19
441.379	483.19
441.6	485.19
441.822	514.19
442.043	525.19
442.264	570.19
442.486	603.19
442.707	519.19
442.928	514.19
443.149	517.19
443.371	535.19
443.592	569.19
443.813	599.19
444.034	625.19
444.255	577.19
444.476	543.19
444.698	543.19
444.919	531.19
445.14	659.19
445.361	570.19
445.582	546.19
445.803	557.19
446.024	589.19
446.245	603.19
446.466	561.19
446.687	487.19
446.908	466.19
447.129	455.19
447.35	434.19
447.571	451.19
447.792	443.19
448.013	466.19
448.234	470.19
448.455	493.19
448.675	574.19
448.896	633.19
449.117	521.19
449.338	512.19
449.559	582.19
449.779	676.19
450	539.19
450.221	468.19
450.442	469.19
450.662	427.19
450.883	426.19
451.104	423.19
451.324	435.19
451.545	439.19
451.766	428.19
451.986	438.19
452.207	419.19
452.428	397.19
452.648	391.19
452.869	419.19
453.089	410.19
453.31	461.19
453.53	421.19
453.751	425.19
453.971	412.19
454.192	429.19
454.412	386.19
454.633	405.19
454.853	405.19
455.073	408.19
455.294	426.19
455.514	435.19
455.734	441.19
455.955	410.19
456.175	389.19
456.395	386.19
456.616	392.19
456.836	408.19
457.056	398.19
457.276	391.19
457.497	401.19
457.717	408.19
457.937	406.19
458.157	429.19
458.377	419.19
458.598	415.19
458.818	464.19
459.038	488.19
459.258	498.19
459.478	460.19
459.698	453.19
459.918	462.19
460.138	472.19
460.358	452.19
460.578	485.19
460.798	488.19
461.018	504.19
461.238	477.19
461.458	501.19
461.678	488.19
461.898	467.19
462.118	517.19
462.338	553.19
462.558	514.19
462.777	537.19
462.997	581.19
463.217	589.19
463.437	585.19
463.657	571.19
463.876	549.19
464.096	558.19
464.316	548.19
464.536	553.19
464.755	549.19
464.975	531.19
465.195	543.19
465.414	523.19
465.634	482.19
465.854	465.19
466.073	470.19
466.293	441.19
466.512	456.19
466.732	463.19
466.951	461.19
467.171	469.19
467.391	453.19
467.61	431.19
467.829	449.19
468.049	442.19
468.268	430.19
468.488	427.19
468.707	435.19
468.927	437.19
469.146	411.19
469.365	423.19
469.585	442.19
469.804	434.19
470.023	433.19
470.243	446.19
470.462	449.19
470.681	461.19
470.901	459.19
471.12	447.19
471.339	439.19
471.558	446.19
471.777	438.19
471.997	441.19
472.216	443.19
472.435	450.19
472.654	425.19
472.873	446.19
473.092	438.19
473.311	454.19
473.53	420.19
473.749	428.19
473.968	462.19
474.187	506.19
474.406	511.19
474.625	438.19
474.844	434.19
475.063	441.19
475.282	443.19
475.501	447.19
475.72	471.19
475.939	440.19
476.158	465.19
476.377	466.19
476.596	467.19
476.814	446.19
477.033	461.19
477.252	465.19
477.471	484.19
477.69	490.19
477.908	485.19
478.127	486.19
478.346	499.19
478.564	513.19
478.783	506.19
479.002	529.19
479.22	519.19
479.439	515.19
479.658	537.19
479.876	521.19
480.095	531.19
480.313	545.19
480.532	560.19
480.751	551.19
480.969	563.19
481.188	559.19
481.406	520.19
481.624	523.19
481.843	523.19
482.061	537.19
482.28	504.19
482.498	506.19
482.717	509.19
482.935	514.19
483.153	517.19
483.372	520.19
483.59	524.19
483.808	507.19
484.027	516.19
484.245	535.19
484.463	506.19
484.681	532.19
484.9	523.19
485.118	531.19
485.336	525.19
485.554	544.19
485.772	543.19
485.99	535.19
486.209	537.19
486.427	557.19
486.645	561.19
486.863	539.19
487.081	561.19
487.299	559.19
487.517	544.19
487.735	538.19
487.953	553.19
488.171	519.19
488.389	541.19
488.607	543.19
488.825	527.19
489.043	540.19
489.261	537.19
489.479	557.19
489.696	542.19
489.914	558.19
490.132	550.19
490.35	563.19
490.568	554.19
490.786	552.19
491.003	553.19
491.221	551.19
491.439	580.19
491.657	565.19
491.874	593.19
492.092	580.19
492.31	575.19
492.527	589.19
492.745	583.19
492.963	591.19
493.18	587.19
493.398	602.19
493.615	590.19
493.833	610.19
494.05	598.19
494.268	595.19
494.485	606.19
494.703	629.19
494.92	622.19
495.138	598.19
495.355	622.19
495.573	618.19
495.79	641.19
496.008	617.19
496.225	629.19
496.442	620.19
496.66	639.19
496.877	613.19
497.094	637.19
497.312	653.19
497.529	652.19
497.746	661.19
497.963	665.19
498.181	693.19
498.398	732.19
498.615	724.19
498.832	777.19
499.049	806.19
499.267	839.19
499.484	870.19
499.701	909.19
499.918	961.19
500.135	1082.19
500.352	1124.19
500.569	1157.19
500.786	1119.19
501.003	1107.19
501.22	1066.19
501.437	961.19
501.654	899.19
501.871	859.19
502.088	844.19
