Data from 1985.PennyLincolnUp.Lamp.En5.5.200Scan.071819.P1_HRD10591_17-01-27-970.txt Node
Date: Thu Jul 18 17:01:27 EDT 2019
User: cochatt
Spectrometer: HR+D1059
Trigger mode: 1
Integration Time (sec): 1.000000E-1
Scans to average: 1
Electric dark correction enabled: true
Nonlinearity correction enabled: false
Boxcar width: 0
XAxis mode: Wavelengths
Number of Pixels in Spectrum: 2048
>>>>>Begin Spectral Data<<<<<
223.165	2.44
223.4	2.44
223.635	2.44
223.869	-25.56
224.104	-23.56
224.338	-23.56
224.573	-19.56
224.808	-14.56
225.042	-6.56
225.277	-7.56
225.511	-12.56
225.746	9.44
225.98	2.44
226.215	6.44
226.449	18.44
226.683	31.44
226.918	23.44
227.152	39.44
227.387	33.44
227.621	20.44
227.856	44.44
228.09	46.44
228.324	54.44
228.559	51.44
228.793	74.44
229.027	99.44
229.262	99.44
229.496	102.44
229.73	124.44
229.964	129.44
230.199	115.44
230.433	105.44
230.667	116.44
230.901	112.44
231.136	100.44
231.37	103.44
231.604	103.44
231.838	102.44
232.072	109.44
232.306	115.44
232.541	98.44
232.775	97.44
233.009	105.44
233.243	118.44
233.477	120.44
233.711	143.44
233.945	115.44
234.179	106.44
234.413	122.44
234.647	113.44
234.881	113.44
235.115	114.44
235.349	125.44
235.583	117.44
235.817	119.44
236.051	127.44
236.285	121.44
236.519	123.44
236.753	113.44
236.987	124.44
237.221	160.44
237.455	200.44
237.689	163.44
237.922	135.44
238.156	133.44
238.39	119.44
238.624	136.44
238.858	121.44
239.091	117.44
239.325	125.44
239.559	124.44
239.793	132.44
240.027	130.44
240.26	136.44
240.494	140.44
240.728	149.44
240.961	152.44
241.195	140.44
241.429	142.44
241.662	120.44
241.896	133.44
242.13	134.44
242.363	127.44
242.597	125.44
242.83	144.44
243.064	136.44
243.298	132.44
243.531	126.44
243.765	135.44
243.998	140.44
244.232	128.44
244.465	144.44
244.699	129.44
244.932	137.44
245.166	138.44
245.399	141.44
245.633	157.44
245.866	154.44
246.099	138.44
246.333	138.44
246.566	149.44
246.8	148.44
247.033	150.44
247.266	151.44
247.5	147.44
247.733	174.44
247.966	147.44
248.2	147.44
248.433	157.44
248.666	161.44
248.899	174.44
249.133	187.44
249.366	187.44
249.599	181.44
249.832	182.44
250.066	170.44
250.299	165.44
250.532	157.44
250.765	189.44
250.998	208.44
251.231	204.44
251.465	209.44
251.698	189.44
251.931	182.44
252.164	198.44
252.397	186.44
252.63	189.44
252.863	210.44
253.096	200.44
253.329	213.44
253.562	197.44
253.795	194.44
254.028	196.44
254.261	196.44
254.494	202.44
254.727	220.44
254.96	257.44
255.193	243.44
255.426	218.44
255.659	200.44
255.892	202.44
256.124	198.44
256.357	198.44
256.59	203.44
256.823	189.44
257.056	197.44
257.289	199.44
257.521	198.44
257.754	188.44
257.987	195.44
258.22	182.44
258.452	212.44
258.685	214.44
258.918	197.44
259.151	205.44
259.383	204.44
259.616	213.44
259.849	210.44
260.081	220.44
260.314	241.44
260.547	228.44
260.779	227.44
261.012	208.44
261.244	213.44
261.477	211.44
261.71	221.44
261.942	217.44
262.175	221.44
262.407	227.44
262.64	199.44
262.872	194.44
263.105	201.44
263.337	201.44
263.57	206.44
263.802	207.44
264.035	209.44
264.267	214.44
264.499	215.44
264.732	211.44
264.964	198.44
265.197	217.44
265.429	222.44
265.661	214.44
265.894	219.44
266.126	217.44
266.358	197.44
266.591	214.44
266.823	222.44
267.055	234.44
267.287	238.44
267.52	239.44
267.752	233.44
267.984	231.44
268.216	202.44
268.448	226.44
268.681	224.44
268.913	238.44
269.145	274.44
269.377	268.44
269.609	244.44
269.841	249.44
270.073	254.44
270.306	271.44
270.538	298.44
270.77	290.44
271.002	289.44
271.234	266.44
271.466	275.44
271.698	306.44
271.93	292.44
272.162	291.44
272.394	301.44
272.626	285.44
272.858	266.44
273.09	265.44
273.322	249.44
273.553	262.44
273.785	249.44
274.017	273.44
274.249	250.44
274.481	250.44
274.713	258.44
274.945	271.44
275.176	273.44
275.408	273.44
275.64	263.44
275.872	268.44
276.104	272.44
276.335	290.44
276.567	274.44
276.799	286.44
277.031	297.44
277.262	305.44
277.494	303.44
277.726	302.44
277.957	279.44
278.189	278.44
278.421	279.44
278.652	278.44
278.884	287.44
279.115	261.44
279.347	285.44
279.579	244.44
279.81	279.44
280.042	265.44
280.273	263.44
280.505	270.44
280.736	258.44
280.968	281.44
281.199	269.44
281.431	269.44
281.662	274.44
281.894	279.44
282.125	279.44
282.356	301.44
282.588	286.44
282.819	293.44
283.051	300.44
283.282	268.44
283.513	278.44
283.745	275.44
283.976	298.44
284.207	270.44
284.439	277.44
284.67	287.44
284.901	287.44
285.132	299.44
285.364	284.44
285.595	299.44
285.826	290.44
286.057	305.44
286.288	280.44
286.52	277.44
286.751	313.44
286.982	288.44
287.213	281.44
287.444	308.44
287.675	303.44
287.906	309.44
288.138	315.44
288.369	311.44
288.6	314.44
288.831	320.44
289.062	290.44
289.293	293.44
289.524	307.44
289.755	308.44
289.986	302.44
290.217	297.44
290.448	307.44
290.679	289.44
290.91	304.44
291.141	298.44
291.371	291.44
291.602	318.44
291.833	307.44
292.064	313.44
292.295	304.44
292.526	326.44
292.757	301.44
292.987	314.44
293.218	313.44
293.449	301.44
293.68	325.44
293.91	316.44
294.141	323.44
294.372	314.44
294.603	326.44
294.833	323.44
295.064	316.44
295.295	296.44
295.525	311.44
295.756	293.44
295.987	342.44
296.217	325.44
296.448	324.44
296.679	319.44
296.909	301.44
297.14	305.44
297.37	311.44
297.601	305.44
297.831	322.44
298.062	321.44
298.292	326.44
298.523	348.44
298.753	329.44
298.984	331.44
299.214	317.44
299.445	336.44
299.675	331.44
299.905	346.44
300.136	318.44
300.366	334.44
300.597	348.44
300.827	327.44
301.057	323.44
301.288	335.44
301.518	353.44
301.748	339.44
301.979	355.44
302.209	336.44
302.439	349.44
302.669	343.44
302.9	358.44
303.13	349.44
303.36	348.44
303.59	376.44
303.82	347.44
304.051	356.44
304.281	355.44
304.511	348.44
304.741	370.44
304.971	343.44
305.201	355.44
305.431	364.44
305.661	353.44
305.891	339.44
306.121	366.44
306.352	371.44
306.582	343.44
306.812	355.44
307.042	329.44
307.272	342.44
307.502	349.44
307.731	362.44
307.961	334.44
308.191	349.44
308.421	362.44
308.651	339.44
308.881	347.44
309.111	362.44
309.341	374.44
309.571	356.44
309.8	387.44
310.03	373.44
310.26	366.44
310.49	362.44
310.72	379.44
310.949	398.44
311.179	405.44
311.409	388.44
311.639	365.44
311.868	383.44
312.098	378.44
312.328	400.44
312.557	385.44
312.787	409.44
313.017	413.44
313.246	391.44
313.476	395.44
313.706	388.44
313.935	391.44
314.165	382.44
314.394	415.44
314.624	407.44
314.853	386.44
315.083	397.44
315.312	405.44
315.542	399.44
315.771	379.44
316.001	395.44
316.23	399.44
316.46	406.44
316.689	415.44
316.919	395.44
317.148	399.44
317.377	396.44
317.607	415.44
317.836	391.44
318.065	402.44
318.295	408.44
318.524	385.44
318.753	376.44
318.983	387.44
319.212	373.44
319.441	410.44
319.67	388.44
319.9	389.44
320.129	404.44
320.358	393.44
320.587	377.44
320.816	391.44
321.046	410.44
321.275	405.44
321.504	411.44
321.733	397.44
321.962	396.44
322.191	412.44
322.42	420.44
322.649	437.44
322.878	413.44
323.108	424.44
323.337	454.44
323.566	473.44
323.795	466.44
324.024	517.44
324.253	591.44
324.482	771.44
324.71	1126.44
324.939	1558.44
325.168	1356.44
325.397	737.44
325.626	554.44
325.855	493.44
326.084	485.44
326.313	445.44
326.542	460.44
326.77	501.44
326.999	565.44
327.228	717.44
327.457	1033.44
327.686	1169.44
327.914	843.44
328.143	577.44
328.372	565.44
328.6	524.44
328.829	506.44
329.058	506.44
329.287	536.44
329.515	522.44
329.744	473.44
329.972	480.44
330.201	478.44
330.43	478.44
330.658	501.44
330.887	515.44
331.115	528.44
331.344	485.44
331.572	473.44
331.801	474.44
332.03	497.44
332.258	471.44
332.486	451.44
332.715	445.44
332.943	477.44
333.172	471.44
333.4	491.44
333.629	486.44
333.857	513.44
334.085	491.44
334.314	490.44
334.542	482.44
334.771	487.44
334.999	464.44
335.227	493.44
335.455	478.44
335.684	487.44
335.912	462.44
336.14	449.44
336.369	447.44
336.597	463.44
336.825	468.44
337.053	444.44
337.281	454.44
337.51	452.44
337.738	460.44
337.966	445.44
338.194	463.44
338.422	451.44
338.65	474.44
338.878	429.44
339.106	466.44
339.334	460.44
339.562	440.44
339.79	445.44
340.018	455.44
340.246	442.44
340.474	443.44
340.702	421.44
340.93	431.44
341.158	433.44
341.386	433.44
341.614	442.44
341.842	451.44
342.07	441.44
342.298	451.44
342.526	430.44
342.754	438.44
342.981	446.44
343.209	438.44
343.437	450.44
343.665	445.44
343.893	460.44
344.12	474.44
344.348	446.44
344.576	444.44
344.804	438.44
345.031	463.44
345.259	455.44
345.487	439.44
345.714	419.44
345.942	419.44
346.17	433.44
346.397	425.44
346.625	421.44
346.853	415.44
347.08	426.44
347.308	406.44
347.535	403.44
347.763	444.44
347.99	405.44
348.218	426.44
348.445	413.44
348.673	416.44
348.9	422.44
349.128	423.44
349.355	424.44
349.583	429.44
349.81	422.44
350.037	412.44
350.265	391.44
350.492	418.44
350.72	435.44
350.947	422.44
351.174	402.44
351.402	412.44
351.629	422.44
351.856	424.44
352.083	451.44
352.311	449.44
352.538	436.44
352.765	412.44
352.992	415.44
353.22	415.44
353.447	408.44
353.674	401.44
353.901	390.44
354.128	399.44
354.355	400.44
354.583	396.44
354.81	396.44
355.037	385.44
355.264	409.44
355.491	402.44
355.718	402.44
355.945	405.44
356.172	384.44
356.399	414.44
356.626	398.44
356.853	390.44
357.08	408.44
357.307	406.44
357.534	403.44
357.761	388.44
357.988	402.44
358.215	388.44
358.441	390.44
358.668	418.44
358.895	411.44
359.122	400.44
359.349	410.44
359.576	425.44
359.802	411.44
360.029	449.44
360.256	445.44
360.483	429.44
360.709	403.44
360.936	395.44
361.163	410.44
361.39	422.44
361.616	421.44
361.843	411.44
362.07	409.44
362.296	403.44
362.523	403.44
362.749	410.44
362.976	428.44
363.203	411.44
363.429	401.44
363.656	401.44
363.882	392.44
364.109	376.44
364.335	399.44
364.562	396.44
364.788	383.44
365.015	411.44
365.241	405.44
365.468	400.44
365.694	394.44
365.92	406.44
366.147	409.44
366.373	406.44
366.599	399.44
366.826	397.44
367.052	394.44
367.278	399.44
367.505	400.44
367.731	394.44
367.957	409.44
368.184	386.44
368.41	421.44
368.636	421.44
368.862	413.44
369.089	415.44
369.315	399.44
369.541	374.44
369.767	385.44
369.993	383.44
370.219	398.44
370.445	399.44
370.672	390.44
370.898	398.44
371.124	419.44
371.35	389.44
371.576	409.44
371.802	399.44
372.028	409.44
372.254	405.44
372.48	430.44
372.706	389.44
372.932	423.44
373.158	415.44
373.384	423.44
373.61	411.44
373.835	407.44
374.061	402.44
374.287	425.44
374.513	408.44
374.739	407.44
374.965	413.44
375.191	420.44
375.416	406.44
375.642	400.44
375.868	412.44
376.094	420.44
376.319	419.44
376.545	410.44
376.771	413.44
376.997	412.44
377.222	442.44
377.448	412.44
377.674	407.44
377.899	415.44
378.125	394.44
378.35	403.44
378.576	387.44
378.802	405.44
379.027	394.44
379.253	396.44
379.478	398.44
379.704	404.44
379.929	397.44
380.155	392.44
380.38	398.44
380.606	405.44
380.831	396.44
381.057	402.44
381.282	405.44
381.507	409.44
381.733	385.44
381.958	399.44
382.184	415.44
382.409	433.44
382.634	412.44
382.86	416.44
383.085	396.44
383.31	425.44
383.535	434.44
383.761	415.44
383.986	407.44
384.211	427.44
384.436	418.44
384.662	446.44
384.887	440.44
385.112	453.44
385.337	457.44
385.562	457.44
385.787	470.44
386.013	442.44
386.238	474.44
386.463	450.44
386.688	461.44
386.913	460.44
387.138	456.44
387.363	460.44
387.588	429.44
387.813	447.44
388.038	445.44
388.263	449.44
388.488	425.44
388.713	444.44
388.938	441.44
389.163	444.44
389.387	447.44
389.612	447.44
389.837	419.44
390.062	440.44
390.287	459.44
390.512	452.44
390.736	452.44
390.961	434.44
391.186	430.44
391.411	430.44
391.636	455.44
391.86	467.44
392.085	472.44
392.31	484.44
392.534	451.44
392.759	454.44
392.984	469.44
393.208	459.44
393.433	468.44
393.658	458.44
393.882	458.44
394.107	462.44
394.331	456.44
394.556	455.44
394.78	451.44
395.005	471.44
395.229	455.44
395.454	461.44
395.678	474.44
395.903	483.44
396.127	492.44
396.352	494.44
396.576	453.44
396.801	473.44
397.025	449.44
397.249	468.44
397.474	489.44
397.698	492.44
397.922	500.44
398.147	499.44
398.371	498.44
398.595	511.44
398.82	511.44
399.044	543.44
399.268	561.44
399.492	618.44
399.717	653.44
399.941	652.44
400.165	651.44
400.389	633.44
400.613	585.44
400.837	549.44
401.062	541.44
401.286	532.44
401.51	538.44
401.734	507.44
401.958	521.44
402.182	529.44
402.406	535.44
402.63	541.44
402.854	543.44
403.078	527.44
403.302	539.44
403.526	554.44
403.75	559.44
403.974	542.44
404.198	540.44
404.422	580.44
404.645	554.44
404.869	557.44
405.093	561.44
405.317	574.44
405.541	595.44
405.765	563.44
405.988	564.44
406.212	556.44
406.436	571.44
406.66	573.44
406.883	572.44
407.107	601.44
407.331	606.44
407.555	689.44
407.778	693.44
408.002	653.44
408.226	621.44
408.449	595.44
408.673	605.44
408.896	597.44
409.12	638.44
409.344	617.44
409.567	546.44
409.791	571.44
410.014	558.44
410.238	545.44
410.461	539.44
410.685	550.44
410.908	548.44
411.132	562.44
411.355	590.44
411.578	577.44
411.802	550.44
412.025	525.44
412.249	531.44
412.472	505.44
412.695	505.44
412.919	487.44
413.142	509.44
413.365	515.44
413.589	500.44
413.812	514.44
414.035	491.44
414.258	494.44
414.482	529.44
414.705	496.44
414.928	496.44
415.151	507.44
415.374	515.44
415.597	505.44
415.821	490.44
416.044	481.44
416.267	497.44
416.49	479.44
416.713	495.44
416.936	500.44
417.159	476.44
417.382	493.44
417.605	479.44
417.828	527.44
418.051	505.44
418.274	514.44
418.497	487.44
418.72	515.44
418.943	502.44
419.166	519.44
419.389	565.44
419.611	534.44
419.834	533.44
420.057	534.44
420.28	517.44
420.503	501.44
420.726	525.44
420.948	492.44
421.171	539.44
421.394	566.44
421.617	525.44
421.839	512.44
422.062	517.44
422.285	538.44
422.507	573.44
422.73	632.44
422.953	608.44
423.175	563.44
423.398	557.44
423.621	554.44
423.843	570.44
424.066	550.44
424.288	556.44
424.511	556.44
424.733	622.44
424.956	680.44
425.178	635.44
425.401	647.44
425.623	623.44
425.846	568.44
426.068	563.44
426.291	533.44
426.513	525.44
426.735	556.44
426.958	578.44
427.18	661.44
427.402	765.44
427.625	787.44
427.847	674.44
428.069	581.44
428.292	546.44
428.514	529.44
428.736	495.44
428.958	508.44
429.181	487.44
429.403	494.44
429.625	513.44
429.847	501.44
430.069	553.44
430.292	592.44
430.514	505.44
430.736	476.44
430.958	490.44
431.18	479.44
431.402	490.44
431.624	467.44
431.846	476.44
432.068	462.44
432.29	486.44
432.512	479.44
432.734	483.44
432.956	475.44
433.178	464.44
433.4	489.44
433.622	492.44
433.844	493.44
434.066	492.44
434.287	486.44
434.509	489.44
434.731	494.44
434.953	498.44
435.175	521.44
435.397	537.44
435.618	520.44
435.84	552.44
436.062	642.44
436.284	684.44
436.505	569.44
436.727	511.44
436.949	481.44
437.17	495.44
437.392	497.44
437.614	471.44
437.835	514.44
438.057	600.44
438.278	679.44
438.5	673.44
438.721	739.44
438.943	677.44
439.165	569.44
439.386	531.44
439.608	528.44
439.829	543.44
440.05	563.44
440.272	574.44
440.493	553.44
440.715	539.44
440.936	505.44
441.158	495.44
441.379	485.44
441.6	487.44
441.822	558.44
442.043	559.44
442.264	628.44
442.486	684.44
442.707	581.44
442.928	547.44
443.149	533.44
443.371	568.44
443.592	597.44
443.813	673.44
444.034	718.44
444.255	648.44
444.476	583.44
444.698	570.44
444.919	570.44
445.14	693.44
445.361	597.44
445.582	591.44
445.803	636.44
446.024	689.44
446.245	697.44
446.466	636.44
446.687	564.44
446.908	519.44
447.129	511.44
447.35	493.44
447.571	477.44
447.792	476.44
448.013	469.44
448.234	516.44
448.455	542.44
448.675	635.44
448.896	727.44
449.117	612.44
449.338	576.44
449.559	668.44
449.779	771.44
450	606.44
450.221	525.44
450.442	500.44
450.662	449.44
450.883	468.44
451.104	483.44
451.324	467.44
451.545	452.44
451.766	437.44
451.986	443.44
452.207	439.44
452.428	438.44
452.648	444.44
452.869	438.44
453.089	466.44
453.31	458.44
453.53	439.44
453.751	473.44
453.971	441.44
454.192	445.44
454.412	412.44
454.633	440.44
454.853	440.44
455.073	435.44
455.294	465.44
455.514	512.44
455.734	485.44
455.955	414.44
456.175	420.44
456.395	413.44
456.616	407.44
456.836	403.44
457.056	425.44
457.276	419.44
457.497	437.44
457.717	412.44
457.937	405.44
458.157	436.44
458.377	427.44
458.598	450.44
458.818	502.44
459.038	558.44
459.258	552.44
459.478	522.44
459.698	471.44
459.918	484.44
460.138	484.44
460.358	505.44
460.578	517.44
460.798	520.44
461.018	523.44
461.238	515.44
461.458	521.44
461.678	494.44
461.898	500.44
462.118	515.44
462.338	525.44
462.558	541.44
462.777	556.44
462.997	582.44
463.217	597.44
463.437	621.44
463.657	586.44
463.876	553.44
464.096	545.44
464.316	554.44
464.536	566.44
464.755	528.44
464.975	547.44
465.195	538.44
465.414	599.44
465.634	537.44
465.854	504.44
466.073	506.44
466.293	485.44
466.512	483.44
466.732	456.44
466.951	473.44
467.171	462.44
467.391	464.44
467.61	459.44
467.829	457.44
468.049	477.44
468.268	444.44
468.488	461.44
468.707	451.44
468.927	453.44
469.146	445.44
469.365	435.44
469.585	457.44
469.804	461.44
470.023	461.44
470.243	469.44
470.462	466.44
470.681	483.44
470.901	469.44
471.12	482.44
471.339	470.44
471.558	469.44
471.777	482.44
471.997	442.44
472.216	450.44
472.435	454.44
472.654	452.44
472.873	449.44
473.092	462.44
473.311	449.44
473.53	462.44
473.749	464.44
473.968	492.44
474.187	574.44
474.406	580.44
474.625	518.44
474.844	467.44
475.063	447.44
475.282	446.44
475.501	469.44
475.72	462.44
475.939	477.44
476.158	506.44
476.377	460.44
476.596	465.44
476.814	482.44
477.033	491.44
477.252	476.44
477.471	499.44
477.69	503.44
477.908	511.44
478.127	505.44
478.346	514.44
478.564	537.44
478.783	532.44
479.002	549.44
479.22	527.44
479.439	541.44
479.658	547.44
479.876	558.44
480.095	591.44
480.313	599.44
480.532	582.44
480.751	580.44
480.969	578.44
481.188	548.44
481.406	546.44
481.624	572.44
481.843	541.44
482.061	540.44
482.28	542.44
482.498	524.44
482.717	533.44
482.935	541.44
483.153	546.44
483.372	527.44
483.59	522.44
483.808	524.44
484.027	543.44
484.245	526.44
484.463	517.44
484.681	547.44
484.9	534.44
485.118	525.44
485.336	551.44
485.554	548.44
485.772	555.44
485.99	549.44
486.209	569.44
486.427	555.44
486.645	547.44
486.863	582.44
487.081	566.44
487.299	558.44
487.517	561.44
487.735	571.44
487.953	594.44
488.171	577.44
488.389	552.44
488.607	568.44
488.825	569.44
489.043	561.44
489.261	558.44
489.479	559.44
489.696	566.44
489.914	590.44
490.132	581.44
490.35	562.44
490.568	577.44
490.786	595.44
491.003	601.44
491.221	599.44
491.439	622.44
491.657	598.44
491.874	611.44
492.092	627.44
492.31	622.44
492.527	625.44
492.745	602.44
492.963	603.44
493.18	629.44
493.398	641.44
493.615	637.44
493.833	638.44
494.05	682.44
494.268	665.44
494.485	637.44
494.703	634.44
494.92	652.44
495.138	635.44
495.355	639.44
495.573	643.44
495.79	655.44
496.008	667.44
496.225	639.44
496.442	666.44
496.66	645.44
496.877	657.44
497.094	667.44
497.312	678.44
497.529	669.44
497.746	685.44
497.963	729.44
498.181	750.44
498.398	745.44
498.615	781.44
498.832	802.44
499.049	855.44
499.267	865.44
499.484	884.44
499.701	923.44
499.918	963.44
500.135	1089.44
500.352	1154.44
500.569	1170.44
500.786	1166.44
501.003	1139.44
501.22	1090.44
501.437	1006.44
501.654	961.44
501.871	902.44
