Data from 1985.PennyLincolnUp.Lamp.En5.5.200Scan.071819.P1_HRD10591_17-02-54-970.txt Node
Date: Thu Jul 18 17:02:54 EDT 2019
User: cochatt
Spectrometer: HR+D1059
Trigger mode: 1
Integration Time (sec): 1.000000E-1
Scans to average: 1
Electric dark correction enabled: true
Nonlinearity correction enabled: false
Boxcar width: 0
XAxis mode: Wavelengths
Number of Pixels in Spectrum: 2048
>>>>>Begin Spectral Data<<<<<
223.165	-6.19
223.4	-6.19
223.635	-6.19
223.869	-34.19
224.104	-16.19
224.338	-9.19
224.573	-15.19
224.808	-10.19
225.042	-18.19
225.277	-15.19
225.511	8.81
225.746	15.81
225.98	10.81
226.215	13.81
226.449	19.81
226.683	7.81
226.918	21.81
227.152	25.81
227.387	27.81
227.621	26.81
227.856	39.81
228.09	43.81
228.324	39.81
228.559	55.81
228.793	69.81
229.027	98.81
229.262	105.81
229.496	110.81
229.73	123.81
229.964	139.81
230.199	133.81
230.433	107.81
230.667	99.81
230.901	99.81
231.136	114.81
231.37	99.81
231.604	126.81
231.838	113.81
232.072	108.81
232.306	108.81
232.541	103.81
232.775	113.81
233.009	116.81
233.243	126.81
233.477	114.81
233.711	107.81
233.945	126.81
234.179	131.81
234.413	123.81
234.647	115.81
234.881	116.81
235.115	108.81
235.349	121.81
235.583	128.81
235.817	122.81
236.051	118.81
236.285	121.81
236.519	121.81
236.753	135.81
236.987	147.81
237.221	187.81
237.455	224.81
237.689	185.81
237.922	130.81
238.156	126.81
238.39	137.81
238.624	133.81
238.858	121.81
239.091	126.81
239.325	112.81
239.559	117.81
239.793	109.81
240.027	125.81
240.26	143.81
240.494	146.81
240.728	141.81
240.961	150.81
241.195	134.81
241.429	145.81
241.662	130.81
241.896	122.81
242.13	138.81
242.363	122.81
242.597	121.81
242.83	120.81
243.064	130.81
243.298	149.81
243.531	131.81
243.765	145.81
243.998	130.81
244.232	140.81
244.465	153.81
244.699	142.81
244.932	156.81
245.166	158.81
245.399	155.81
245.633	154.81
245.866	152.81
246.099	154.81
246.333	146.81
246.566	162.81
246.8	148.81
247.033	149.81
247.266	143.81
247.5	153.81
247.733	177.81
247.966	166.81
248.2	164.81
248.433	168.81
248.666	156.81
248.899	171.81
249.133	195.81
249.366	188.81
249.599	186.81
249.832	171.81
250.066	169.81
250.299	172.81
250.532	179.81
250.765	209.81
250.998	219.81
251.231	229.81
251.465	211.81
251.698	181.81
251.931	188.81
252.164	194.81
252.397	197.81
252.63	205.81
252.863	201.81
253.096	222.81
253.329	211.81
253.562	216.81
253.795	196.81
254.028	205.81
254.261	217.81
254.494	231.81
254.727	241.81
254.96	258.81
255.193	250.81
255.426	258.81
255.659	230.81
255.892	214.81
256.124	207.81
256.357	215.81
256.59	207.81
256.823	189.81
257.056	199.81
257.289	197.81
257.521	214.81
257.754	206.81
257.987	209.81
258.22	193.81
258.452	213.81
258.685	218.81
258.918	230.81
259.151	221.81
259.383	218.81
259.616	217.81
259.849	229.81
260.081	249.81
260.314	259.81
260.547	245.81
260.779	229.81
261.012	243.81
261.244	238.81
261.477	228.81
261.71	218.81
261.942	212.81
262.175	240.81
262.407	234.81
262.64	217.81
262.872	242.81
263.105	214.81
263.337	217.81
263.57	229.81
263.802	222.81
264.035	202.81
264.267	218.81
264.499	221.81
264.732	229.81
264.964	221.81
265.197	234.81
265.429	225.81
265.661	216.81
265.894	221.81
266.126	220.81
266.358	209.81
266.591	225.81
266.823	231.81
267.055	237.81
267.287	244.81
267.52	232.81
267.752	226.81
267.984	245.81
268.216	228.81
268.448	243.81
268.681	261.81
268.913	290.81
269.145	268.81
269.377	273.81
269.609	288.81
269.841	272.81
270.073	264.81
270.306	303.81
270.538	305.81
270.77	326.81
271.002	316.81
271.234	322.81
271.466	298.81
271.698	318.81
271.93	332.81
272.162	325.81
272.394	339.81
272.626	304.81
272.858	306.81
273.09	285.81
273.322	279.81
273.553	272.81
273.785	279.81
274.017	267.81
274.249	272.81
274.481	290.81
274.713	279.81
274.945	262.81
275.176	274.81
275.408	284.81
275.64	293.81
275.872	272.81
276.104	258.81
276.335	283.81
276.567	284.81
276.799	292.81
277.031	319.81
277.262	339.81
277.494	309.81
277.726	283.81
277.957	302.81
278.189	289.81
278.421	289.81
278.652	290.81
278.884	272.81
279.115	287.81
279.347	287.81
279.579	290.81
279.81	283.81
280.042	298.81
280.273	286.81
280.505	293.81
280.736	284.81
280.968	299.81
281.199	304.81
281.431	295.81
281.662	300.81
281.894	293.81
282.125	298.81
282.356	296.81
282.588	322.81
282.819	333.81
283.051	314.81
283.282	302.81
283.513	304.81
283.745	296.81
283.976	306.81
284.207	299.81
284.439	319.81
284.67	303.81
284.901	304.81
285.132	308.81
285.364	288.81
285.595	321.81
285.826	302.81
286.057	314.81
286.288	312.81
286.52	317.81
286.751	302.81
286.982	303.81
287.213	313.81
287.444	326.81
287.675	325.81
287.906	329.81
288.138	331.81
288.369	321.81
288.6	354.81
288.831	322.81
289.062	326.81
289.293	316.81
289.524	319.81
289.755	324.81
289.986	299.81
290.217	310.81
290.448	333.81
290.679	326.81
290.91	306.81
291.141	307.81
291.371	300.81
291.602	328.81
291.833	336.81
292.064	305.81
292.295	314.81
292.526	309.81
292.757	318.81
292.987	322.81
293.218	292.81
293.449	318.81
293.68	322.81
293.91	321.81
294.141	335.81
294.372	336.81
294.603	316.81
294.833	328.81
295.064	349.81
295.295	330.81
295.525	336.81
295.756	338.81
295.987	341.81
296.217	367.81
296.448	356.81
296.679	349.81
296.909	339.81
297.14	328.81
297.37	339.81
297.601	338.81
297.831	333.81
298.062	344.81
298.292	341.81
298.523	336.81
298.753	345.81
298.984	337.81
299.214	350.81
299.445	331.81
299.675	321.81
299.905	358.81
300.136	371.81
300.366	346.81
300.597	335.81
300.827	361.81
301.057	346.81
301.288	371.81
301.518	369.81
301.748	354.81
301.979	376.81
302.209	366.81
302.439	374.81
302.669	378.81
302.9	364.81
303.13	359.81
303.36	371.81
303.59	380.81
303.82	374.81
304.051	371.81
304.281	375.81
304.511	360.81
304.741	359.81
304.971	385.81
305.201	366.81
305.431	357.81
305.661	368.81
305.891	385.81
306.121	368.81
306.352	365.81
306.582	377.81
306.812	359.81
307.042	363.81
307.272	382.81
307.502	386.81
307.731	387.81
307.961	367.81
308.191	375.81
308.421	358.81
308.651	361.81
308.881	375.81
309.111	376.81
309.341	381.81
309.571	386.81
309.8	382.81
310.03	402.81
310.26	393.81
310.49	413.81
310.72	427.81
310.949	430.81
311.179	420.81
311.409	396.81
311.639	417.81
311.868	423.81
312.098	411.81
312.328	377.81
312.557	449.81
312.787	459.81
313.017	458.81
313.246	413.81
313.476	416.81
313.706	406.81
313.935	438.81
314.165	407.81
314.394	443.81
314.624	419.81
314.853	419.81
315.083	426.81
315.312	420.81
315.542	411.81
315.771	423.81
316.001	414.81
316.23	400.81
316.46	432.81
316.689	424.81
316.919	453.81
317.148	430.81
317.377	433.81
317.607	415.81
317.836	423.81
318.065	411.81
318.295	408.81
318.524	404.81
318.753	395.81
318.983	384.81
319.212	394.81
319.441	439.81
319.67	433.81
319.9	427.81
320.129	407.81
320.358	428.81
320.587	413.81
320.816	451.81
321.046	430.81
321.275	425.81
321.504	445.81
321.733	417.81
321.962	426.81
322.191	483.81
322.42	462.81
322.649	488.81
322.878	475.81
323.108	487.81
323.337	514.81
323.566	527.81
323.795	553.81
324.024	596.81
324.253	688.81
324.482	944.81
324.71	1446.81
324.939	2025.81
325.168	1740.81
325.397	928.81
325.626	664.81
325.855	559.81
326.084	552.81
326.313	537.81
326.542	529.81
326.77	571.81
326.999	675.81
327.228	885.81
327.457	1291.81
327.686	1521.81
327.914	1014.81
328.143	694.81
328.372	625.81
328.6	598.81
328.829	552.81
329.058	590.81
329.287	630.81
329.515	560.81
329.744	528.81
329.972	532.81
330.201	539.81
330.43	551.81
330.658	605.81
330.887	627.81
331.115	626.81
331.344	568.81
331.572	506.81
331.801	524.81
332.03	530.81
332.258	522.81
332.486	483.81
332.715	514.81
332.943	516.81
333.172	521.81
333.4	539.81
333.629	545.81
333.857	554.81
334.085	541.81
334.314	536.81
334.542	548.81
334.771	541.81
334.999	536.81
335.227	542.81
335.455	521.81
335.684	517.81
335.912	476.81
336.14	491.81
336.369	486.81
336.597	501.81
336.825	486.81
337.053	501.81
337.281	491.81
337.51	475.81
337.738	495.81
337.966	491.81
338.194	490.81
338.422	468.81
338.65	486.81
338.878	487.81
339.106	464.81
339.334	491.81
339.562	459.81
339.79	460.81
340.018	471.81
340.246	470.81
340.474	477.81
340.702	470.81
340.93	481.81
341.158	480.81
341.386	458.81
341.614	475.81
341.842	465.81
342.07	469.81
342.298	483.81
342.526	457.81
342.754	455.81
342.981	453.81
343.209	468.81
343.437	452.81
343.665	472.81
343.893	475.81
344.12	487.81
344.348	507.81
344.576	513.81
344.804	512.81
345.031	499.81
345.259	487.81
345.487	465.81
345.714	469.81
345.942	466.81
346.17	454.81
346.397	442.81
346.625	439.81
346.853	445.81
347.08	424.81
347.308	447.81
347.535	458.81
347.763	444.81
347.99	452.81
348.218	450.81
348.445	456.81
348.673	458.81
348.9	440.81
349.128	443.81
349.355	428.81
349.583	416.81
349.81	432.81
350.037	446.81
350.265	440.81
350.492	421.81
350.72	435.81
350.947	447.81
351.174	410.81
351.402	450.81
351.629	430.81
351.856	450.81
352.083	441.81
352.311	430.81
352.538	462.81
352.765	482.81
352.992	452.81
353.22	451.81
353.447	438.81
353.674	451.81
353.901	410.81
354.128	425.81
354.355	412.81
354.583	418.81
354.81	400.81
355.037	428.81
355.264	402.81
355.491	414.81
355.718	419.81
355.945	422.81
356.172	419.81
356.399	414.81
356.626	410.81
356.853	409.81
357.08	409.81
357.307	409.81
357.534	393.81
357.761	403.81
357.988	411.81
358.215	422.81
358.441	398.81
358.668	424.81
358.895	428.81
359.122	436.81
359.349	418.81
359.576	441.81
359.802	474.81
360.029	485.81
360.256	497.81
360.483	500.81
360.709	446.81
360.936	449.81
361.163	440.81
361.39	430.81
361.616	426.81
361.843	430.81
362.07	428.81
362.296	453.81
362.523	418.81
362.749	437.81
362.976	435.81
363.203	435.81
363.429	436.81
363.656	428.81
363.882	447.81
364.109	402.81
364.335	420.81
364.562	427.81
364.788	416.81
365.015	408.81
365.241	410.81
365.468	437.81
365.694	438.81
365.92	441.81
366.147	411.81
366.373	424.81
366.599	421.81
366.826	395.81
367.052	407.81
367.278	406.81
367.505	425.81
367.731	408.81
367.957	439.81
368.184	432.81
368.41	435.81
368.636	447.81
368.862	464.81
369.089	426.81
369.315	389.81
369.541	425.81
369.767	419.81
369.993	417.81
370.219	409.81
370.445	422.81
370.672	433.81
370.898	396.81
371.124	430.81
371.35	427.81
371.576	439.81
371.802	428.81
372.028	419.81
372.254	405.81
372.48	439.81
372.706	431.81
372.932	430.81
373.158	420.81
373.384	431.81
373.61	447.81
373.835	427.81
374.061	410.81
374.287	431.81
374.513	432.81
374.739	438.81
374.965	431.81
375.191	444.81
375.416	442.81
375.642	427.81
375.868	425.81
376.094	415.81
376.319	425.81
376.545	424.81
376.771	430.81
376.997	414.81
377.222	413.81
377.448	433.81
377.674	431.81
377.899	394.81
378.125	431.81
378.35	421.81
378.576	428.81
378.802	431.81
379.027	418.81
379.253	430.81
379.478	420.81
379.704	400.81
379.929	416.81
380.155	418.81
380.38	420.81
380.606	415.81
380.831	421.81
381.057	422.81
381.282	442.81
381.507	422.81
381.733	397.81
381.958	420.81
382.184	432.81
382.409	416.81
382.634	420.81
382.86	436.81
383.085	403.81
383.31	425.81
383.535	447.81
383.761	438.81
383.986	437.81
384.211	461.81
384.436	456.81
384.662	459.81
384.887	476.81
385.112	464.81
385.337	471.81
385.562	468.81
385.787	454.81
386.013	478.81
386.238	475.81
386.463	477.81
386.688	478.81
386.913	471.81
387.138	481.81
387.363	454.81
387.588	465.81
387.813	471.81
388.038	456.81
388.263	462.81
388.488	478.81
388.713	459.81
388.938	464.81
389.163	471.81
389.387	480.81
389.612	447.81
389.837	475.81
390.062	451.81
390.287	464.81
390.512	460.81
390.736	473.81
390.961	450.81
391.186	477.81
391.411	485.81
391.636	487.81
391.86	493.81
392.085	488.81
392.31	496.81
392.534	502.81
392.759	493.81
392.984	470.81
393.208	487.81
393.433	449.81
393.658	456.81
393.882	478.81
394.107	462.81
394.331	479.81
394.556	487.81
394.78	485.81
395.005	471.81
395.229	474.81
395.454	497.81
395.678	476.81
395.903	486.81
396.127	507.81
396.352	531.81
396.576	495.81
396.801	469.81
397.025	488.81
397.249	461.81
397.474	510.81
397.698	507.81
397.922	518.81
398.147	542.81
398.371	529.81
398.595	522.81
398.82	547.81
399.044	582.81
399.268	617.81
399.492	633.81
399.717	686.81
399.941	682.81
400.165	672.81
400.389	674.81
400.613	648.81
400.837	618.81
401.062	578.81
401.286	569.81
401.51	575.81
401.734	552.81
401.958	565.81
402.182	538.81
402.406	565.81
402.63	564.81
402.854	555.81
403.078	570.81
403.302	571.81
403.526	580.81
403.75	582.81
403.974	587.81
404.198	580.81
404.422	584.81
404.645	574.81
404.869	586.81
405.093	601.81
405.317	608.81
405.541	654.81
405.765	600.81
405.988	598.81
406.212	594.81
406.436	614.81
406.66	659.81
406.883	600.81
407.107	664.81
407.331	681.81
407.555	763.81
407.778	726.81
408.002	684.81
408.226	611.81
408.449	632.81
408.673	611.81
408.896	632.81
409.12	671.81
409.344	648.81
409.567	580.81
409.791	586.81
410.014	579.81
410.238	555.81
410.461	534.81
410.685	568.81
410.908	562.81
411.132	588.81
411.355	614.81
411.578	599.81
411.802	555.81
412.025	562.81
412.249	585.81
412.472	589.81
412.695	585.81
412.919	575.81
413.142	546.81
413.365	551.81
413.589	537.81
413.812	536.81
414.035	537.81
414.258	561.81
414.482	536.81
414.705	549.81
414.928	535.81
415.151	509.81
415.374	523.81
415.597	522.81
415.821	535.81
416.044	546.81
416.267	530.81
416.49	527.81
416.713	524.81
416.936	538.81
417.159	528.81
417.382	535.81
417.605	525.81
417.828	525.81
418.051	537.81
418.274	539.81
418.497	521.81
418.72	543.81
418.943	528.81
419.166	568.81
419.389	584.81
419.611	560.81
419.834	560.81
420.057	566.81
420.28	555.81
420.503	546.81
420.726	553.81
420.948	548.81
421.171	596.81
421.394	623.81
421.617	572.81
421.839	537.81
422.062	564.81
422.285	558.81
422.507	616.81
422.73	660.81
422.953	659.81
423.175	592.81
423.398	572.81
423.621	574.81
423.843	589.81
424.066	595.81
424.288	589.81
424.511	600.81
424.733	645.81
424.956	718.81
425.178	676.81
425.401	688.81
425.623	695.81
425.846	622.81
426.068	574.81
426.291	582.81
426.513	570.81
426.735	592.81
426.958	586.81
427.18	676.81
427.402	798.81
427.625	891.81
427.847	748.81
428.069	640.81
428.292	590.81
428.514	543.81
428.736	552.81
428.958	562.81
429.181	524.81
429.403	507.81
429.625	519.81
429.847	552.81
430.069	606.81
430.292	605.81
430.514	507.81
430.736	508.81
430.958	519.81
431.18	506.81
431.402	507.81
431.624	495.81
431.846	519.81
432.068	510.81
432.29	495.81
432.512	490.81
432.734	522.81
432.956	504.81
433.178	499.81
433.4	518.81
433.622	489.81
433.844	528.81
434.066	505.81
434.287	499.81
434.509	515.81
434.731	519.81
434.953	537.81
435.175	550.81
435.397	572.81
435.618	588.81
435.84	616.81
436.062	712.81
436.284	751.81
436.505	601.81
436.727	582.81
436.949	559.81
437.17	525.81
437.392	539.81
437.614	532.81
437.835	540.81
438.057	656.81
438.278	754.81
438.5	734.81
438.721	784.81
438.943	767.81
439.165	603.81
439.386	555.81
439.608	550.81
439.829	559.81
440.05	587.81
440.272	644.81
440.493	625.81
440.715	574.81
440.936	538.81
441.158	545.81
441.379	532.81
441.6	543.81
441.822	580.81
442.043	621.81
442.264	688.81
442.486	704.81
442.707	618.81
442.928	585.81
443.149	622.81
443.371	619.81
443.592	658.81
443.813	726.81
444.034	768.81
444.255	690.81
444.476	607.81
444.698	610.81
444.919	617.81
445.14	754.81
445.361	667.81
445.582	633.81
445.803	666.81
446.024	765.81
446.245	759.81
446.466	704.81
446.687	613.81
446.908	569.81
447.129	521.81
447.35	540.81
447.571	512.81
447.792	516.81
448.013	519.81
448.234	532.81
448.455	586.81
448.675	681.81
448.896	803.81
449.117	654.81
449.338	601.81
449.559	734.81
449.779	798.81
450	673.81
450.221	556.81
450.442	529.81
450.662	532.81
450.883	521.81
451.104	521.81
451.324	503.81
451.545	486.81
451.766	464.81
451.986	464.81
452.207	472.81
452.428	451.81
452.648	471.81
452.869	485.81
453.089	464.81
453.31	482.81
453.53	473.81
453.751	456.81
453.971	473.81
454.192	488.81
454.412	496.81
454.633	464.81
454.853	476.81
455.073	462.81
455.294	477.81
455.514	540.81
455.734	539.81
455.955	453.81
456.175	442.81
456.395	452.81
456.616	433.81
456.836	442.81
457.056	404.81
457.276	415.81
457.497	426.81
457.717	446.81
457.937	459.81
458.157	457.81
458.377	465.81
458.598	485.81
458.818	549.81
459.038	594.81
459.258	600.81
459.478	534.81
459.698	495.81
459.918	486.81
460.138	522.81
460.358	529.81
460.578	528.81
460.798	561.81
461.018	512.81
461.238	525.81
461.458	550.81
461.678	529.81
461.898	538.81
462.118	539.81
462.338	546.81
462.558	566.81
462.777	564.81
462.997	573.81
463.217	617.81
463.437	639.81
463.657	598.81
463.876	571.81
464.096	581.81
464.316	591.81
464.536	588.81
464.755	581.81
464.975	574.81
465.195	630.81
465.414	670.81
465.634	589.81
465.854	532.81
466.073	537.81
466.293	516.81
466.512	490.81
466.732	474.81
466.951	491.81
467.171	478.81
467.391	488.81
467.61	494.81
467.829	502.81
468.049	509.81
468.268	494.81
468.488	480.81
468.707	476.81
468.927	462.81
469.146	472.81
469.365	471.81
469.585	466.81
469.804	487.81
470.023	477.81
470.243	498.81
470.462	518.81
470.681	517.81
470.901	513.81
471.12	489.81
471.339	490.81
471.558	487.81
471.777	488.81
471.997	480.81
472.216	468.81
472.435	485.81
472.654	470.81
472.873	460.81
473.092	493.81
473.311	480.81
473.53	479.81
473.749	471.81
473.968	518.81
474.187	626.81
474.406	634.81
474.625	554.81
474.844	491.81
475.063	471.81
475.282	487.81
475.501	517.81
475.72	485.81
475.939	472.81
476.158	478.81
476.377	504.81
476.596	487.81
476.814	505.81
477.033	484.81
477.252	510.81
477.471	502.81
477.69	500.81
477.908	547.81
478.127	547.81
478.346	541.81
478.564	528.81
478.783	550.81
479.002	564.81
479.22	555.81
479.439	571.81
479.658	587.81
479.876	600.81
480.095	599.81
480.313	642.81
480.532	614.81
480.751	611.81
480.969	615.81
481.188	632.81
481.406	638.81
481.624	598.81
481.843	572.81
482.061	552.81
482.28	558.81
482.498	536.81
482.717	555.81
482.935	561.81
483.153	536.81
483.372	566.81
483.59	560.81
483.808	552.81
484.027	560.81
484.245	553.81
484.463	567.81
484.681	558.81
484.9	552.81
485.118	583.81
485.336	579.81
485.554	595.81
485.772	582.81
485.99	566.81
486.209	579.81
486.427	578.81
486.645	599.81
486.863	604.81
487.081	602.81
487.299	631.81
487.517	591.81
487.735	604.81
487.953	575.81
488.171	601.81
488.389	610.81
488.607	608.81
488.825	606.81
489.043	603.81
489.261	595.81
489.479	592.81
489.696	614.81
489.914	605.81
490.132	623.81
490.35	630.81
490.568	628.81
490.786	647.81
491.003	660.81
491.221	660.81
491.439	668.81
491.657	676.81
491.874	682.81
492.092	658.81
492.31	650.81
492.527	686.81
492.745	671.81
492.963	707.81
493.18	683.81
493.398	684.81
493.615	683.81
493.833	681.81
494.05	696.81
494.268	690.81
494.485	718.81
494.703	720.81
494.92	697.81
495.138	703.81
495.355	708.81
495.573	718.81
495.79	713.81
496.008	726.81
496.225	713.81
496.442	708.81
496.66	720.81
496.877	714.81
497.094	712.81
497.312	724.81
497.529	725.81
497.746	736.81
497.963	762.81
498.181	794.81
498.398	821.81
498.615	830.81
498.832	856.81
499.049	878.81
499.267	890.81
499.484	940.81
499.701	989.81
499.918	1040.81
500.135	1115.81
500.352	1180.81
500.569	1210.81
500.786	1202.81
501.003	1162.81
501.22	1113.81
501.437	1050.81
501.654	1000.81
501.871	964.81
