Data from 1985.PennyLincolnUp.Lamp.En5.5.200Scan.071819.P1_HRD10591_17-01-14-969.txt Node
Date: Thu Jul 18 17:01:14 EDT 2019
User: cochatt
Spectrometer: HR+D1059
Trigger mode: 1
Integration Time (sec): 1.000000E-1
Scans to average: 1
Electric dark correction enabled: true
Nonlinearity correction enabled: false
Boxcar width: 0
XAxis mode: Wavelengths
Number of Pixels in Spectrum: 2048
>>>>>Begin Spectral Data<<<<<
223.165	-6.75
223.4	-6.75
223.635	-6.75
223.869	-21.75
224.104	-25.75
224.338	-15.75
224.573	-13.75
224.808	-1.75
225.042	-1.75
225.277	-11.75
225.511	-12.75
225.746	5.25
225.98	1.25
226.215	13.25
226.449	24.25
226.683	14.25
226.918	21.25
227.152	32.25
227.387	33.25
227.621	39.25
227.856	46.25
228.09	45.25
228.324	38.25
228.559	48.25
228.793	58.25
229.027	87.25
229.262	82.25
229.496	92.25
229.73	100.25
229.964	126.25
230.199	106.25
230.433	96.25
230.667	97.25
230.901	99.25
231.136	106.25
231.37	97.25
231.604	107.25
231.838	99.25
232.072	99.25
232.306	107.25
232.541	108.25
232.775	112.25
233.009	100.25
233.243	103.25
233.477	114.25
233.711	97.25
233.945	90.25
234.179	123.25
234.413	118.25
234.647	104.25
234.881	114.25
235.115	110.25
235.349	112.25
235.583	107.25
235.817	100.25
236.051	104.25
236.285	122.25
236.519	107.25
236.753	110.25
236.987	121.25
237.221	144.25
237.455	171.25
237.689	156.25
237.922	112.25
238.156	129.25
238.39	124.25
238.624	111.25
238.858	116.25
239.091	117.25
239.325	127.25
239.559	105.25
239.793	99.25
240.027	124.25
240.26	126.25
240.494	128.25
240.728	128.25
240.961	120.25
241.195	136.25
241.429	123.25
241.662	119.25
241.896	110.25
242.13	125.25
242.363	134.25
242.597	120.25
242.83	114.25
243.064	120.25
243.298	118.25
243.531	121.25
243.765	137.25
243.998	120.25
244.232	130.25
244.465	128.25
244.699	134.25
244.932	133.25
245.166	125.25
245.399	130.25
245.633	136.25
245.866	140.25
246.099	137.25
246.333	134.25
246.566	121.25
246.8	126.25
247.033	133.25
247.266	152.25
247.5	133.25
247.733	146.25
247.966	161.25
248.2	171.25
248.433	142.25
248.666	152.25
248.899	162.25
249.133	168.25
249.366	162.25
249.599	168.25
249.832	156.25
250.066	152.25
250.299	160.25
250.532	143.25
250.765	167.25
250.998	180.25
251.231	192.25
251.465	190.25
251.698	187.25
251.931	171.25
252.164	172.25
252.397	182.25
252.63	174.25
252.863	165.25
253.096	161.25
253.329	185.25
253.562	189.25
253.795	185.25
254.028	180.25
254.261	176.25
254.494	202.25
254.727	202.25
254.96	203.25
255.193	206.25
255.426	202.25
255.659	189.25
255.892	196.25
256.124	204.25
256.357	191.25
256.59	190.25
256.823	192.25
257.056	185.25
257.289	172.25
257.521	178.25
257.754	192.25
257.987	194.25
258.22	197.25
258.452	189.25
258.685	187.25
258.918	201.25
259.151	195.25
259.383	187.25
259.616	180.25
259.849	200.25
260.081	200.25
260.314	206.25
260.547	219.25
260.779	190.25
261.012	199.25
261.244	200.25
261.477	180.25
261.71	201.25
261.942	193.25
262.175	214.25
262.407	209.25
262.64	199.25
262.872	197.25
263.105	179.25
263.337	195.25
263.57	198.25
263.802	193.25
264.035	185.25
264.267	211.25
264.499	200.25
264.732	206.25
264.964	203.25
265.197	208.25
265.429	195.25
265.661	197.25
265.894	183.25
266.126	207.25
266.358	212.25
266.591	216.25
266.823	187.25
267.055	211.25
267.287	211.25
267.52	207.25
267.752	214.25
267.984	205.25
268.216	213.25
268.448	218.25
268.681	220.25
268.913	230.25
269.145	250.25
269.377	245.25
269.609	241.25
269.841	242.25
270.073	237.25
270.306	257.25
270.538	258.25
270.77	258.25
271.002	243.25
271.234	251.25
271.466	237.25
271.698	245.25
271.93	244.25
272.162	253.25
272.394	266.25
272.626	268.25
272.858	257.25
273.09	241.25
273.322	255.25
273.553	232.25
273.785	224.25
274.017	243.25
274.249	221.25
274.481	249.25
274.713	241.25
274.945	235.25
275.176	231.25
275.408	234.25
275.64	247.25
275.872	252.25
276.104	260.25
276.335	263.25
276.567	252.25
276.799	248.25
277.031	277.25
277.262	275.25
277.494	284.25
277.726	248.25
277.957	264.25
278.189	267.25
278.421	253.25
278.652	257.25
278.884	266.25
279.115	250.25
279.347	248.25
279.579	264.25
279.81	263.25
280.042	249.25
280.273	262.25
280.505	244.25
280.736	277.25
280.968	256.25
281.199	266.25
281.431	240.25
281.662	283.25
281.894	258.25
282.125	246.25
282.356	273.25
282.588	272.25
282.819	266.25
283.051	281.25
283.282	269.25
283.513	271.25
283.745	265.25
283.976	267.25
284.207	284.25
284.439	264.25
284.67	278.25
284.901	273.25
285.132	292.25
285.364	282.25
285.595	280.25
285.826	253.25
286.057	276.25
286.288	286.25
286.52	283.25
286.751	268.25
286.982	306.25
287.213	295.25
287.444	270.25
287.675	290.25
287.906	296.25
288.138	290.25
288.369	291.25
288.6	285.25
288.831	290.25
289.062	270.25
289.293	293.25
289.524	294.25
289.755	296.25
289.986	278.25
290.217	281.25
290.448	298.25
290.679	305.25
290.91	304.25
291.141	298.25
291.371	314.25
291.602	293.25
291.833	295.25
292.064	296.25
292.295	283.25
292.526	287.25
292.757	271.25
292.987	272.25
293.218	274.25
293.449	295.25
293.68	301.25
293.91	281.25
294.141	297.25
294.372	303.25
294.603	292.25
294.833	298.25
295.064	292.25
295.295	310.25
295.525	290.25
295.756	290.25
295.987	287.25
296.217	313.25
296.448	301.25
296.679	308.25
296.909	312.25
297.14	287.25
297.37	300.25
297.601	322.25
297.831	310.25
298.062	279.25
298.292	314.25
298.523	306.25
298.753	332.25
298.984	301.25
299.214	314.25
299.445	309.25
299.675	322.25
299.905	329.25
300.136	310.25
300.366	314.25
300.597	338.25
300.827	317.25
301.057	338.25
301.288	322.25
301.518	332.25
301.748	339.25
301.979	324.25
302.209	320.25
302.439	330.25
302.669	333.25
302.9	334.25
303.13	325.25
303.36	331.25
303.59	356.25
303.82	327.25
304.051	334.25
304.281	340.25
304.511	342.25
304.741	318.25
304.971	322.25
305.201	327.25
305.431	348.25
305.661	333.25
305.891	325.25
306.121	329.25
306.352	318.25
306.582	321.25
306.812	317.25
307.042	330.25
307.272	336.25
307.502	333.25
307.731	357.25
307.961	340.25
308.191	333.25
308.421	340.25
308.651	336.25
308.881	331.25
309.111	312.25
309.341	334.25
309.571	337.25
309.8	331.25
310.03	338.25
310.26	346.25
310.49	358.25
310.72	348.25
310.949	371.25
311.179	362.25
311.409	350.25
311.639	355.25
311.868	349.25
312.098	341.25
312.328	364.25
312.557	376.25
312.787	357.25
313.017	350.25
313.246	368.25
313.476	352.25
313.706	383.25
313.935	376.25
314.165	372.25
314.394	380.25
314.624	382.25
314.853	365.25
315.083	400.25
315.312	372.25
315.542	361.25
315.771	371.25
316.001	354.25
316.23	370.25
316.46	358.25
316.689	364.25
316.919	394.25
317.148	380.25
317.377	368.25
317.607	363.25
317.836	370.25
318.065	376.25
318.295	383.25
318.524	364.25
318.753	382.25
318.983	349.25
319.212	370.25
319.441	368.25
319.67	374.25
319.9	350.25
320.129	368.25
320.358	380.25
320.587	372.25
320.816	382.25
321.046	364.25
321.275	382.25
321.504	378.25
321.733	391.25
321.962	384.25
322.191	388.25
322.42	405.25
322.649	378.25
322.878	401.25
323.108	380.25
323.337	418.25
323.566	429.25
323.795	434.25
324.024	456.25
324.253	509.25
324.482	628.25
324.71	850.25
324.939	1204.25
325.168	1070.25
325.397	590.25
325.626	474.25
325.855	437.25
326.084	422.25
326.313	412.25
326.542	428.25
326.77	457.25
326.999	495.25
327.228	618.25
327.457	798.25
327.686	921.25
327.914	654.25
328.143	513.25
328.372	472.25
328.6	456.25
328.829	431.25
329.058	453.25
329.287	458.25
329.515	445.25
329.744	419.25
329.972	423.25
330.201	414.25
330.43	445.25
330.658	448.25
330.887	451.25
331.115	458.25
331.344	447.25
331.572	424.25
331.801	451.25
332.03	445.25
332.258	454.25
332.486	435.25
332.715	451.25
332.943	446.25
333.172	434.25
333.4	454.25
333.629	466.25
333.857	472.25
334.085	461.25
334.314	463.25
334.542	458.25
334.771	460.25
334.999	458.25
335.227	469.25
335.455	457.25
335.684	445.25
335.912	467.25
336.14	446.25
336.369	456.25
336.597	425.25
336.825	445.25
337.053	427.25
337.281	428.25
337.51	428.25
337.738	438.25
337.966	434.25
338.194	442.25
338.422	440.25
338.65	448.25
338.878	432.25
339.106	424.25
339.334	426.25
339.562	418.25
339.79	417.25
340.018	412.25
340.246	432.25
340.474	414.25
340.702	425.25
340.93	398.25
341.158	425.25
341.386	384.25
341.614	434.25
341.842	432.25
342.07	417.25
342.298	412.25
342.526	405.25
342.754	413.25
342.981	415.25
343.209	401.25
343.437	412.25
343.665	406.25
343.893	440.25
344.12	432.25
344.348	461.25
344.576	443.25
344.804	436.25
345.031	429.25
345.259	450.25
345.487	420.25
345.714	417.25
345.942	411.25
346.17	401.25
346.397	387.25
346.625	394.25
346.853	384.25
347.08	384.25
347.308	387.25
347.535	386.25
347.763	386.25
347.99	408.25
348.218	400.25
348.445	399.25
348.673	384.25
348.9	370.25
349.128	377.25
349.355	395.25
349.583	379.25
349.81	377.25
350.037	394.25
350.265	389.25
350.492	379.25
350.72	389.25
350.947	382.25
351.174	384.25
351.402	374.25
351.629	388.25
351.856	388.25
352.083	393.25
352.311	397.25
352.538	403.25
352.765	412.25
352.992	390.25
353.22	386.25
353.447	379.25
353.674	391.25
353.901	380.25
354.128	376.25
354.355	388.25
354.583	358.25
354.81	377.25
355.037	370.25
355.264	379.25
355.491	389.25
355.718	395.25
355.945	382.25
356.172	360.25
356.399	384.25
356.626	380.25
356.853	377.25
357.08	392.25
357.307	374.25
357.534	371.25
357.761	385.25
357.988	388.25
358.215	389.25
358.441	378.25
358.668	380.25
358.895	381.25
359.122	380.25
359.349	384.25
359.576	393.25
359.802	395.25
360.029	411.25
360.256	389.25
360.483	389.25
360.709	358.25
360.936	377.25
361.163	418.25
361.39	390.25
361.616	384.25
361.843	397.25
362.07	388.25
362.296	404.25
362.523	386.25
362.749	390.25
362.976	381.25
363.203	372.25
363.429	376.25
363.656	364.25
363.882	391.25
364.109	384.25
364.335	394.25
364.562	361.25
364.788	374.25
365.015	387.25
365.241	382.25
365.468	380.25
365.694	392.25
365.92	379.25
366.147	388.25
366.373	398.25
366.599	388.25
366.826	372.25
367.052	373.25
367.278	360.25
367.505	376.25
367.731	378.25
367.957	394.25
368.184	376.25
368.41	389.25
368.636	392.25
368.862	387.25
369.089	384.25
369.315	388.25
369.541	395.25
369.767	372.25
369.993	385.25
370.219	379.25
370.445	386.25
370.672	357.25
370.898	380.25
371.124	396.25
371.35	381.25
371.576	399.25
371.802	387.25
372.028	396.25
372.254	373.25
372.48	388.25
372.706	388.25
372.932	403.25
373.158	388.25
373.384	393.25
373.61	392.25
373.835	392.25
374.061	402.25
374.287	394.25
374.513	393.25
374.739	405.25
374.965	404.25
375.191	407.25
375.416	393.25
375.642	399.25
375.868	397.25
376.094	397.25
376.319	387.25
376.545	393.25
376.771	386.25
376.997	396.25
377.222	381.25
377.448	394.25
377.674	365.25
377.899	374.25
378.125	368.25
378.35	384.25
378.576	386.25
378.802	376.25
379.027	393.25
379.253	376.25
379.478	376.25
379.704	393.25
379.929	371.25
380.155	375.25
380.38	384.25
380.606	380.25
380.831	366.25
381.057	396.25
381.282	382.25
381.507	396.25
381.733	389.25
381.958	381.25
382.184	369.25
382.409	421.25
382.634	408.25
382.86	402.25
383.085	389.25
383.31	401.25
383.535	412.25
383.761	397.25
383.986	418.25
384.211	417.25
384.436	428.25
384.662	429.25
384.887	420.25
385.112	428.25
385.337	422.25
385.562	426.25
385.787	426.25
386.013	445.25
386.238	440.25
386.463	442.25
386.688	451.25
386.913	432.25
387.138	426.25
387.363	412.25
387.588	438.25
387.813	437.25
388.038	425.25
388.263	427.25
388.488	440.25
388.713	453.25
388.938	423.25
389.163	438.25
389.387	430.25
389.612	436.25
389.837	445.25
390.062	433.25
390.287	438.25
390.512	418.25
390.736	406.25
390.961	435.25
391.186	433.25
391.411	438.25
391.636	418.25
391.86	444.25
392.085	457.25
392.31	458.25
392.534	462.25
392.759	447.25
392.984	463.25
393.208	418.25
393.433	445.25
393.658	446.25
393.882	462.25
394.107	446.25
394.331	440.25
394.556	411.25
394.78	432.25
395.005	464.25
395.229	461.25
395.454	456.25
395.678	459.25
395.903	480.25
396.127	479.25
396.352	466.25
396.576	452.25
396.801	472.25
397.025	457.25
397.249	445.25
397.474	463.25
397.698	468.25
397.922	470.25
398.147	475.25
398.371	466.25
398.595	491.25
398.82	484.25
399.044	497.25
399.268	555.25
399.492	591.25
399.717	641.25
399.941	629.25
400.165	659.25
400.389	597.25
400.613	571.25
400.837	521.25
401.062	499.25
401.286	539.25
401.51	492.25
401.734	497.25
401.958	525.25
402.182	510.25
402.406	511.25
402.63	520.25
402.854	513.25
403.078	513.25
403.302	535.25
403.526	547.25
403.75	512.25
403.974	536.25
404.198	537.25
404.422	546.25
404.645	539.25
404.869	563.25
405.093	540.25
405.317	541.25
405.541	558.25
405.765	552.25
405.988	520.25
406.212	537.25
406.436	532.25
406.66	560.25
406.883	566.25
407.107	586.25
407.331	609.25
407.555	650.25
407.778	666.25
408.002	626.25
408.226	583.25
408.449	566.25
408.673	562.25
408.896	569.25
409.12	593.25
409.344	581.25
409.567	540.25
409.791	542.25
410.014	534.25
410.238	525.25
410.461	541.25
410.685	493.25
410.908	518.25
411.132	550.25
411.355	564.25
411.578	536.25
411.802	522.25
412.025	521.25
412.249	537.25
412.472	513.25
412.695	489.25
412.919	501.25
413.142	505.25
413.365	500.25
413.589	492.25
413.812	480.25
414.035	468.25
414.258	480.25
414.482	495.25
414.705	486.25
414.928	473.25
415.151	490.25
415.374	482.25
415.597	491.25
415.821	497.25
416.044	476.25
416.267	496.25
416.49	492.25
416.713	476.25
416.936	494.25
417.159	485.25
417.382	475.25
417.605	486.25
417.828	484.25
418.051	500.25
418.274	489.25
418.497	481.25
418.72	510.25
418.943	474.25
419.166	497.25
419.389	538.25
419.611	515.25
419.834	497.25
420.057	509.25
420.28	486.25
420.503	510.25
420.726	493.25
420.948	484.25
421.171	533.25
421.394	546.25
421.617	518.25
421.839	488.25
422.062	489.25
422.285	483.25
422.507	542.25
422.73	592.25
422.953	566.25
423.175	518.25
423.398	513.25
423.621	483.25
423.843	500.25
424.066	524.25
424.288	540.25
424.511	522.25
424.733	541.25
424.956	613.25
425.178	609.25
425.401	595.25
425.623	595.25
425.846	545.25
426.068	483.25
426.291	505.25
426.513	488.25
426.735	502.25
426.958	564.25
427.18	561.25
427.402	661.25
427.625	717.25
427.847	595.25
428.069	510.25
428.292	517.25
428.514	488.25
428.736	459.25
428.958	481.25
429.181	455.25
429.403	479.25
429.625	483.25
429.847	491.25
430.069	517.25
430.292	540.25
430.514	476.25
430.736	466.25
430.958	470.25
431.18	454.25
431.402	478.25
431.624	445.25
431.846	451.25
432.068	462.25
432.29	469.25
432.512	443.25
432.734	475.25
432.956	454.25
433.178	477.25
433.4	465.25
433.622	458.25
433.844	456.25
434.066	468.25
434.287	472.25
434.509	460.25
434.731	502.25
434.953	496.25
435.175	492.25
435.397	514.25
435.618	527.25
435.84	522.25
436.062	595.25
436.284	637.25
436.505	553.25
436.727	510.25
436.949	469.25
437.17	493.25
437.392	458.25
437.614	476.25
437.835	493.25
438.057	557.25
438.278	611.25
438.5	629.25
438.721	665.25
438.943	632.25
439.165	517.25
439.386	471.25
439.608	505.25
439.829	478.25
440.05	493.25
440.272	508.25
440.493	484.25
440.715	472.25
440.936	461.25
441.158	484.25
441.379	467.25
441.6	498.25
441.822	501.25
442.043	538.25
442.264	581.25
442.486	605.25
442.707	518.25
442.928	520.25
443.149	520.25
443.371	538.25
443.592	561.25
443.813	598.25
444.034	649.25
444.255	570.25
444.476	551.25
444.698	538.25
444.919	548.25
445.14	694.25
445.361	585.25
445.582	541.25
445.803	564.25
446.024	635.25
446.245	626.25
446.466	566.25
446.687	515.25
446.908	497.25
447.129	454.25
447.35	467.25
447.571	453.25
447.792	449.25
448.013	452.25
448.234	450.25
448.455	475.25
448.675	574.25
448.896	646.25
449.117	553.25
449.338	548.25
449.559	615.25
449.779	675.25
450	566.25
450.221	482.25
450.442	472.25
450.662	428.25
450.883	442.25
451.104	446.25
451.324	450.25
451.545	440.25
451.766	433.25
451.986	401.25
452.207	423.25
452.428	420.25
452.648	422.25
452.869	417.25
453.089	404.25
453.31	408.25
453.53	415.25
453.751	413.25
453.971	425.25
454.192	410.25
454.412	409.25
454.633	411.25
454.853	430.25
455.073	389.25
455.294	413.25
455.514	469.25
455.734	448.25
455.955	422.25
456.175	420.25
456.395	396.25
456.616	377.25
456.836	390.25
457.056	400.25
457.276	406.25
457.497	406.25
457.717	392.25
457.937	408.25
458.157	412.25
458.377	417.25
458.598	448.25
458.818	446.25
459.038	501.25
459.258	510.25
459.478	476.25
459.698	466.25
459.918	464.25
460.138	473.25
460.358	482.25
460.578	507.25
460.798	484.25
461.018	497.25
461.238	486.25
461.458	480.25
461.678	499.25
461.898	506.25
462.118	491.25
462.338	526.25
462.558	534.25
462.777	517.25
462.997	567.25
463.217	581.25
463.437	586.25
463.657	556.25
463.876	557.25
464.096	547.25
464.316	545.25
464.536	554.25
464.755	515.25
464.975	505.25
465.195	540.25
465.414	530.25
465.634	513.25
465.854	489.25
466.073	453.25
466.293	440.25
466.512	439.25
466.732	441.25
466.951	438.25
467.171	445.25
467.391	432.25
467.61	448.25
467.829	449.25
468.049	443.25
468.268	426.25
468.488	407.25
468.707	434.25
468.927	436.25
469.146	444.25
469.365	440.25
469.585	414.25
469.804	438.25
470.023	423.25
470.243	421.25
470.462	440.25
470.681	448.25
470.901	446.25
471.12	454.25
471.339	442.25
471.558	438.25
471.777	442.25
471.997	443.25
472.216	431.25
472.435	436.25
472.654	422.25
472.873	435.25
473.092	432.25
473.311	420.25
473.53	430.25
473.749	460.25
473.968	451.25
474.187	512.25
474.406	526.25
474.625	472.25
474.844	442.25
475.063	437.25
475.282	422.25
475.501	425.25
475.72	427.25
475.939	446.25
476.158	447.25
476.377	459.25
476.596	458.25
476.814	442.25
477.033	470.25
477.252	456.25
477.471	470.25
477.69	466.25
477.908	478.25
478.127	520.25
478.346	480.25
478.564	478.25
478.783	510.25
479.002	512.25
479.22	518.25
479.439	532.25
479.658	516.25
479.876	516.25
480.095	550.25
480.313	558.25
480.532	544.25
480.751	554.25
480.969	526.25
481.188	546.25
481.406	537.25
481.624	522.25
481.843	522.25
482.061	511.25
482.28	521.25
482.498	512.25
482.717	506.25
482.935	510.25
483.153	519.25
483.372	489.25
483.59	489.25
483.808	493.25
484.027	516.25
484.245	496.25
484.463	488.25
484.681	518.25
484.9	516.25
485.118	522.25
485.336	502.25
485.554	525.25
485.772	502.25
485.99	514.25
486.209	544.25
486.427	546.25
486.645	542.25
486.863	532.25
487.081	545.25
487.299	527.25
487.517	548.25
487.735	545.25
487.953	549.25
488.171	555.25
488.389	545.25
488.607	528.25
488.825	553.25
489.043	510.25
489.261	530.25
489.479	550.25
489.696	550.25
489.914	553.25
490.132	550.25
490.35	551.25
490.568	547.25
490.786	561.25
491.003	544.25
491.221	577.25
491.439	569.25
491.657	575.25
491.874	569.25
492.092	599.25
492.31	597.25
492.527	594.25
492.745	600.25
492.963	593.25
493.18	594.25
493.398	598.25
493.615	616.25
493.833	587.25
494.05	597.25
494.268	602.25
494.485	604.25
494.703	617.25
494.92	630.25
495.138	602.25
495.355	603.25
495.573	622.25
495.79	600.25
496.008	597.25
496.225	632.25
496.442	608.25
496.66	628.25
496.877	615.25
497.094	634.25
497.312	639.25
497.529	658.25
497.746	652.25
497.963	655.25
498.181	709.25
498.398	697.25
498.615	776.25
498.832	730.25
499.049	784.25
499.267	823.25
499.484	896.25
499.701	942.25
499.918	957.25
500.135	1036.25
500.352	1106.25
500.569	1131.25
500.786	1117.25
501.003	1088.25
501.22	1033.25
501.437	985.25
501.654	936.25
501.871	873.25
502.088	842.25
