Data from 1985.PennyLincolnUp.Lamp.En5.5.200Scan.071819.P1_HRD10591_17-03-13-970.txt Node
Date: Thu Jul 18 17:03:13 EDT 2019
User: cochatt
Spectrometer: HR+D1059
Trigger mode: 1
Integration Time (sec): 1.000000E-1
Scans to average: 1
Electric dark correction enabled: true
Nonlinearity correction enabled: false
Boxcar width: 0
XAxis mode: Wavelengths
Number of Pixels in Spectrum: 2048
>>>>>Begin Spectral Data<<<<<
223.165	-6.06
223.4	-6.06
223.635	-6.06
223.869	-15.06
224.104	-14.06
224.338	-6.06
224.573	-13.06
224.808	-25.06
225.042	0.94
225.277	-18.06
225.511	-1.06
225.746	5.94
225.98	0.94
226.215	0.94
226.449	11.94
226.683	16.94
226.918	30.94
227.152	29.94
227.387	13.94
227.621	39.94
227.856	49.94
228.09	53.94
228.324	55.94
228.559	54.94
228.793	64.94
229.027	92.94
229.262	109.94
229.496	98.94
229.73	120.94
229.964	139.94
230.199	118.94
230.433	116.94
230.667	106.94
230.901	112.94
231.136	117.94
231.37	113.94
231.604	117.94
231.838	122.94
232.072	101.94
232.306	118.94
232.541	120.94
232.775	101.94
233.009	120.94
233.243	114.94
233.477	119.94
233.711	116.94
233.945	108.94
234.179	125.94
234.413	119.94
234.647	128.94
234.881	119.94
235.115	117.94
235.349	113.94
235.583	114.94
235.817	104.94
236.051	113.94
236.285	118.94
236.519	126.94
236.753	135.94
236.987	160.94
237.221	185.94
237.455	226.94
237.689	172.94
237.922	137.94
238.156	136.94
238.39	132.94
238.624	150.94
238.858	117.94
239.091	121.94
239.325	135.94
239.559	128.94
239.793	129.94
240.027	144.94
240.26	139.94
240.494	180.94
240.728	139.94
240.961	142.94
241.195	150.94
241.429	128.94
241.662	141.94
241.896	123.94
242.13	139.94
242.363	134.94
242.597	135.94
242.83	143.94
243.064	136.94
243.298	136.94
243.531	128.94
243.765	141.94
243.998	123.94
244.232	156.94
244.465	149.94
244.699	143.94
244.932	133.94
245.166	143.94
245.399	152.94
245.633	148.94
245.866	151.94
246.099	149.94
246.333	152.94
246.566	163.94
246.8	164.94
247.033	159.94
247.266	143.94
247.5	169.94
247.733	170.94
247.966	173.94
248.2	154.94
248.433	161.94
248.666	171.94
248.899	184.94
249.133	199.94
249.366	189.94
249.599	190.94
249.832	193.94
250.066	185.94
250.299	181.94
250.532	189.94
250.765	197.94
250.998	220.94
251.231	228.94
251.465	215.94
251.698	200.94
251.931	184.94
252.164	199.94
252.397	203.94
252.63	198.94
252.863	189.94
253.096	213.94
253.329	221.94
253.562	233.94
253.795	209.94
254.028	222.94
254.261	205.94
254.494	223.94
254.727	258.94
254.96	276.94
255.193	263.94
255.426	243.94
255.659	233.94
255.892	236.94
256.124	230.94
256.357	235.94
256.59	228.94
256.823	207.94
257.056	209.94
257.289	212.94
257.521	213.94
257.754	213.94
257.987	206.94
258.22	212.94
258.452	204.94
258.685	211.94
258.918	202.94
259.151	204.94
259.383	220.94
259.616	214.94
259.849	230.94
260.081	232.94
260.314	256.94
260.547	257.94
260.779	241.94
261.012	235.94
261.244	224.94
261.477	218.94
261.71	215.94
261.942	230.94
262.175	257.94
262.407	246.94
262.64	226.94
262.872	218.94
263.105	217.94
263.337	238.94
263.57	216.94
263.802	217.94
264.035	211.94
264.267	216.94
264.499	222.94
264.732	210.94
264.964	216.94
265.197	219.94
265.429	242.94
265.661	212.94
265.894	222.94
266.126	216.94
266.358	219.94
266.591	217.94
266.823	242.94
267.055	237.94
267.287	250.94
267.52	246.94
267.752	240.94
267.984	225.94
268.216	243.94
268.448	262.94
268.681	251.94
268.913	252.94
269.145	282.94
269.377	274.94
269.609	281.94
269.841	297.94
270.073	308.94
270.306	310.94
270.538	344.94
270.77	333.94
271.002	300.94
271.234	297.94
271.466	306.94
271.698	317.94
271.93	331.94
272.162	320.94
272.394	322.94
272.626	299.94
272.858	291.94
273.09	293.94
273.322	285.94
273.553	291.94
273.785	277.94
274.017	277.94
274.249	284.94
274.481	270.94
274.713	283.94
274.945	271.94
275.176	289.94
275.408	276.94
275.64	271.94
275.872	291.94
276.104	301.94
276.335	284.94
276.567	289.94
276.799	301.94
277.031	312.94
277.262	320.94
277.494	350.94
277.726	297.94
277.957	310.94
278.189	291.94
278.421	289.94
278.652	298.94
278.884	296.94
279.115	303.94
279.347	314.94
279.579	294.94
279.81	291.94
280.042	296.94
280.273	294.94
280.505	268.94
280.736	286.94
280.968	279.94
281.199	305.94
281.431	288.94
281.662	297.94
281.894	313.94
282.125	276.94
282.356	308.94
282.588	335.94
282.819	333.94
283.051	310.94
283.282	320.94
283.513	297.94
283.745	294.94
283.976	293.94
284.207	301.94
284.439	309.94
284.67	321.94
284.901	305.94
285.132	308.94
285.364	303.94
285.595	328.94
285.826	305.94
286.057	317.94
286.288	290.94
286.52	312.94
286.751	306.94
286.982	312.94
287.213	338.94
287.444	307.94
287.675	314.94
287.906	332.94
288.138	338.94
288.369	333.94
288.6	331.94
288.831	313.94
289.062	337.94
289.293	315.94
289.524	320.94
289.755	308.94
289.986	320.94
290.217	317.94
290.448	310.94
290.679	342.94
290.91	312.94
291.141	344.94
291.371	335.94
291.602	320.94
291.833	302.94
292.064	318.94
292.295	307.94
292.526	323.94
292.757	304.94
292.987	345.94
293.218	333.94
293.449	334.94
293.68	317.94
293.91	332.94
294.141	323.94
294.372	312.94
294.603	315.94
294.833	332.94
295.064	351.94
295.295	339.94
295.525	327.94
295.756	339.94
295.987	340.94
296.217	354.94
296.448	353.94
296.679	333.94
296.909	324.94
297.14	349.94
297.37	333.94
297.601	348.94
297.831	342.94
298.062	331.94
298.292	339.94
298.523	338.94
298.753	344.94
298.984	348.94
299.214	339.94
299.445	362.94
299.675	351.94
299.905	355.94
300.136	355.94
300.366	357.94
300.597	379.94
300.827	370.94
301.057	351.94
301.288	372.94
301.518	386.94
301.748	378.94
301.979	384.94
302.209	370.94
302.439	377.94
302.669	361.94
302.9	364.94
303.13	366.94
303.36	357.94
303.59	369.94
303.82	374.94
304.051	388.94
304.281	383.94
304.511	374.94
304.741	376.94
304.971	354.94
305.201	368.94
305.431	363.94
305.661	388.94
305.891	368.94
306.121	378.94
306.352	375.94
306.582	352.94
306.812	384.94
307.042	366.94
307.272	362.94
307.502	391.94
307.731	381.94
307.961	377.94
308.191	376.94
308.421	358.94
308.651	357.94
308.881	395.94
309.111	356.94
309.341	384.94
309.571	388.94
309.8	387.94
310.03	393.94
310.26	406.94
310.49	406.94
310.72	431.94
310.949	424.94
311.179	434.94
311.409	427.94
311.639	434.94
311.868	410.94
312.098	408.94
312.328	416.94
312.557	445.94
312.787	446.94
313.017	445.94
313.246	430.94
313.476	418.94
313.706	428.94
313.935	421.94
314.165	424.94
314.394	440.94
314.624	435.94
314.853	413.94
315.083	418.94
315.312	430.94
315.542	410.94
315.771	410.94
316.001	411.94
316.23	419.94
316.46	428.94
316.689	414.94
316.919	437.94
317.148	434.94
317.377	422.94
317.607	420.94
317.836	416.94
318.065	433.94
318.295	409.94
318.524	420.94
318.753	415.94
318.983	406.94
319.212	419.94
319.441	421.94
319.67	435.94
319.9	411.94
320.129	420.94
320.358	423.94
320.587	423.94
320.816	419.94
321.046	431.94
321.275	436.94
321.504	453.94
321.733	438.94
321.962	449.94
322.191	478.94
322.42	465.94
322.649	479.94
322.878	472.94
323.108	494.94
323.337	499.94
323.566	522.94
323.795	555.94
324.024	612.94
324.253	704.94
324.482	948.94
324.71	1434.94
324.939	2101.94
325.168	1753.94
325.397	935.94
325.626	668.94
325.855	584.94
326.084	550.94
326.313	534.94
326.542	538.94
326.77	608.94
326.999	700.94
327.228	894.94
327.457	1282.94
327.686	1550.94
327.914	1057.94
328.143	730.94
328.372	629.94
328.6	596.94
328.829	603.94
329.058	589.94
329.287	592.94
329.515	603.94
329.744	553.94
329.972	547.94
330.201	550.94
330.43	594.94
330.658	614.94
330.887	645.94
331.115	624.94
331.344	570.94
331.572	525.94
331.801	512.94
332.03	539.94
332.258	538.94
332.486	529.94
332.715	522.94
332.943	512.94
333.172	536.94
333.4	526.94
333.629	540.94
333.857	579.94
334.085	538.94
334.314	555.94
334.542	557.94
334.771	551.94
334.999	537.94
335.227	540.94
335.455	522.94
335.684	517.94
335.912	501.94
336.14	502.94
336.369	501.94
336.597	517.94
336.825	515.94
337.053	515.94
337.281	498.94
337.51	489.94
337.738	497.94
337.966	508.94
338.194	509.94
338.422	511.94
338.65	486.94
338.878	471.94
339.106	471.94
339.334	478.94
339.562	463.94
339.79	469.94
340.018	486.94
340.246	475.94
340.474	477.94
340.702	463.94
340.93	498.94
341.158	477.94
341.386	487.94
341.614	494.94
341.842	476.94
342.07	461.94
342.298	468.94
342.526	474.94
342.754	456.94
342.981	463.94
343.209	475.94
343.437	468.94
343.665	490.94
343.893	502.94
344.12	481.94
344.348	502.94
344.576	486.94
344.804	472.94
345.031	500.94
345.259	494.94
345.487	470.94
345.714	469.94
345.942	462.94
346.17	457.94
346.397	442.94
346.625	461.94
346.853	468.94
347.08	461.94
347.308	463.94
347.535	455.94
347.763	456.94
347.99	444.94
348.218	444.94
348.445	468.94
348.673	482.94
348.9	472.94
349.128	458.94
349.355	428.94
349.583	442.94
349.81	442.94
350.037	422.94
350.265	438.94
350.492	437.94
350.72	428.94
350.947	450.94
351.174	470.94
351.402	459.94
351.629	445.94
351.856	445.94
352.083	445.94
352.311	455.94
352.538	438.94
352.765	446.94
352.992	448.94
353.22	462.94
353.447	469.94
353.674	434.94
353.901	438.94
354.128	423.94
354.355	405.94
354.583	427.94
354.81	432.94
355.037	424.94
355.264	413.94
355.491	429.94
355.718	410.94
355.945	406.94
356.172	407.94
356.399	428.94
356.626	403.94
356.853	408.94
357.08	416.94
357.307	439.94
357.534	413.94
357.761	411.94
357.988	425.94
358.215	424.94
358.441	410.94
358.668	425.94
358.895	412.94
359.122	422.94
359.349	443.94
359.576	470.94
359.802	442.94
360.029	489.94
360.256	483.94
360.483	468.94
360.709	450.94
360.936	422.94
361.163	453.94
361.39	457.94
361.616	467.94
361.843	448.94
362.07	447.94
362.296	436.94
362.523	420.94
362.749	446.94
362.976	455.94
363.203	434.94
363.429	411.94
363.656	424.94
363.882	408.94
364.109	428.94
364.335	424.94
364.562	436.94
364.788	413.94
365.015	436.94
365.241	427.94
365.468	436.94
365.694	412.94
365.92	443.94
366.147	412.94
366.373	418.94
366.599	427.94
366.826	419.94
367.052	440.94
367.278	453.94
367.505	429.94
367.731	403.94
367.957	420.94
368.184	437.94
368.41	430.94
368.636	437.94
368.862	436.94
369.089	442.94
369.315	420.94
369.541	434.94
369.767	444.94
369.993	441.94
370.219	421.94
370.445	408.94
370.672	421.94
370.898	401.94
371.124	409.94
371.35	428.94
371.576	426.94
371.802	424.94
372.028	419.94
372.254	407.94
372.48	444.94
372.706	426.94
372.932	450.94
373.158	434.94
373.384	431.94
373.61	429.94
373.835	430.94
374.061	418.94
374.287	433.94
374.513	429.94
374.739	446.94
374.965	436.94
375.191	453.94
375.416	450.94
375.642	434.94
375.868	414.94
376.094	434.94
376.319	444.94
376.545	443.94
376.771	432.94
376.997	428.94
377.222	397.94
377.448	410.94
377.674	429.94
377.899	415.94
378.125	429.94
378.35	428.94
378.576	432.94
378.802	432.94
379.027	408.94
379.253	417.94
379.478	411.94
379.704	420.94
379.929	427.94
380.155	449.94
380.38	420.94
380.606	416.94
380.831	426.94
381.057	429.94
381.282	446.94
381.507	445.94
381.733	444.94
381.958	430.94
382.184	453.94
382.409	427.94
382.634	443.94
382.86	431.94
383.085	446.94
383.31	424.94
383.535	448.94
383.761	441.94
383.986	442.94
384.211	461.94
384.436	452.94
384.662	485.94
384.887	480.94
385.112	476.94
385.337	476.94
385.562	471.94
385.787	454.94
386.013	476.94
386.238	514.94
386.463	467.94
386.688	472.94
386.913	457.94
387.138	457.94
387.363	475.94
387.588	457.94
387.813	490.94
388.038	496.94
388.263	497.94
388.488	449.94
388.713	485.94
388.938	475.94
389.163	452.94
389.387	477.94
389.612	434.94
389.837	474.94
390.062	476.94
390.287	473.94
390.512	460.94
390.736	472.94
390.961	463.94
391.186	476.94
391.411	457.94
391.636	489.94
391.86	501.94
392.085	512.94
392.31	493.94
392.534	487.94
392.759	509.94
392.984	506.94
393.208	476.94
393.433	475.94
393.658	476.94
393.882	516.94
394.107	485.94
394.331	492.94
394.556	483.94
394.78	491.94
395.005	469.94
395.229	482.94
395.454	496.94
395.678	510.94
395.903	501.94
396.127	517.94
396.352	517.94
396.576	499.94
396.801	471.94
397.025	488.94
397.249	502.94
397.474	498.94
397.698	507.94
397.922	537.94
398.147	548.94
398.371	548.94
398.595	535.94
398.82	557.94
399.044	570.94
399.268	581.94
399.492	655.94
399.717	697.94
399.941	669.94
400.165	707.94
400.389	702.94
400.613	620.94
400.837	581.94
401.062	585.94
401.286	565.94
401.51	568.94
401.734	534.94
401.958	554.94
402.182	572.94
402.406	536.94
402.63	572.94
402.854	567.94
403.078	586.94
403.302	562.94
403.526	583.94
403.75	597.94
403.974	565.94
404.198	579.94
404.422	573.94
404.645	606.94
404.869	605.94
405.093	631.94
405.317	655.94
405.541	678.94
405.765	610.94
405.988	605.94
406.212	600.94
406.436	616.94
406.66	653.94
406.883	619.94
407.107	644.94
407.331	690.94
407.555	747.94
407.778	764.94
408.002	698.94
408.226	668.94
408.449	616.94
408.673	628.94
408.896	647.94
409.12	682.94
409.344	646.94
409.567	594.94
409.791	605.94
410.014	576.94
410.238	578.94
410.461	586.94
410.685	548.94
410.908	562.94
411.132	605.94
411.355	616.94
411.578	626.94
411.802	569.94
412.025	576.94
412.249	567.94
412.472	581.94
412.695	630.94
412.919	607.94
413.142	576.94
413.365	563.94
413.589	550.94
413.812	551.94
414.035	539.94
414.258	520.94
414.482	542.94
414.705	555.94
414.928	533.94
415.151	532.94
415.374	533.94
415.597	540.94
415.821	537.94
416.044	548.94
416.267	536.94
416.49	530.94
416.713	515.94
416.936	532.94
417.159	534.94
417.382	537.94
417.605	540.94
417.828	535.94
418.051	545.94
418.274	548.94
418.497	544.94
418.72	529.94
418.943	530.94
419.166	554.94
419.389	596.94
419.611	568.94
419.834	582.94
420.057	585.94
420.28	562.94
420.503	549.94
420.726	540.94
420.948	538.94
421.171	617.94
421.394	621.94
421.617	581.94
421.839	562.94
422.062	552.94
422.285	572.94
422.507	610.94
422.73	689.94
422.953	644.94
423.175	597.94
423.398	575.94
423.621	566.94
423.843	596.94
424.066	593.94
424.288	602.94
424.511	603.94
424.733	653.94
424.956	720.94
425.178	702.94
425.401	708.94
425.623	710.94
425.846	595.94
426.068	560.94
426.291	561.94
426.513	581.94
426.735	578.94
426.958	608.94
427.18	692.94
427.402	821.94
427.625	904.94
427.847	764.94
428.069	672.94
428.292	611.94
428.514	564.94
428.736	539.94
428.958	521.94
429.181	541.94
429.403	531.94
429.625	523.94
429.847	569.94
430.069	621.94
430.292	619.94
430.514	535.94
430.736	514.94
430.958	514.94
431.18	499.94
431.402	510.94
431.624	514.94
431.846	501.94
432.068	514.94
432.29	501.94
432.512	516.94
432.734	506.94
432.956	512.94
433.178	524.94
433.4	528.94
433.622	507.94
433.844	512.94
434.066	508.94
434.287	502.94
434.509	520.94
434.731	499.94
434.953	534.94
435.175	555.94
435.397	598.94
435.618	570.94
435.84	621.94
436.062	679.94
436.284	746.94
436.505	622.94
436.727	557.94
436.949	523.94
437.17	522.94
437.392	526.94
437.614	537.94
437.835	560.94
438.057	636.94
438.278	768.94
438.5	759.94
438.721	818.94
438.943	760.94
439.165	612.94
439.386	574.94
439.608	562.94
439.829	554.94
440.05	584.94
440.272	632.94
440.493	605.94
440.715	554.94
440.936	519.94
441.158	532.94
441.379	535.94
441.6	554.94
441.822	599.94
442.043	615.94
442.264	686.94
442.486	728.94
442.707	618.94
442.928	602.94
443.149	587.94
443.371	602.94
443.592	668.94
443.813	717.94
444.034	793.94
444.255	653.94
444.476	611.94
444.698	611.94
444.919	618.94
445.14	734.94
445.361	636.94
445.582	619.94
445.803	671.94
446.024	768.94
446.245	773.94
446.466	693.94
446.687	621.94
446.908	580.94
447.129	532.94
447.35	512.94
447.571	513.94
447.792	547.94
448.013	518.94
448.234	539.94
448.455	579.94
448.675	696.94
448.896	790.94
449.117	662.94
449.338	617.94
449.559	730.94
449.779	837.94
450	656.94
450.221	568.94
450.442	516.94
450.662	499.94
450.883	516.94
451.104	532.94
451.324	505.94
451.545	508.94
451.766	463.94
451.986	470.94
452.207	454.94
452.428	456.94
452.648	458.94
452.869	476.94
453.089	480.94
453.31	487.94
453.53	479.94
453.751	465.94
453.971	454.94
454.192	477.94
454.412	489.94
454.633	465.94
454.853	455.94
455.073	452.94
455.294	491.94
455.514	538.94
455.734	522.94
455.955	425.94
456.175	459.94
456.395	457.94
456.616	415.94
456.836	441.94
457.056	444.94
457.276	439.94
457.497	437.94
457.717	446.94
457.937	458.94
458.157	453.94
458.377	489.94
458.598	498.94
458.818	546.94
459.038	606.94
459.258	617.94
459.478	572.94
459.698	520.94
459.918	498.94
460.138	516.94
460.358	546.94
460.578	540.94
460.798	530.94
461.018	520.94
461.238	520.94
461.458	531.94
461.678	538.94
461.898	540.94
462.118	558.94
462.338	559.94
462.558	569.94
462.777	568.94
462.997	629.94
463.217	613.94
463.437	629.94
463.657	597.94
463.876	594.94
464.096	586.94
464.316	567.94
464.536	593.94
464.755	590.94
464.975	578.94
465.195	610.94
465.414	665.94
465.634	603.94
465.854	547.94
466.073	525.94
466.293	505.94
466.512	474.94
466.732	496.94
466.951	489.94
467.171	500.94
467.391	490.94
467.61	512.94
467.829	509.94
468.049	474.94
468.268	467.94
468.488	470.94
468.707	480.94
468.927	465.94
469.146	471.94
469.365	477.94
469.585	476.94
469.804	491.94
470.023	480.94
470.243	488.94
470.462	507.94
470.681	516.94
470.901	526.94
471.12	494.94
471.339	512.94
471.558	478.94
471.777	460.94
471.997	475.94
472.216	486.94
472.435	504.94
472.654	502.94
472.873	492.94
473.092	501.94
473.311	466.94
473.53	489.94
473.749	494.94
473.968	532.94
474.187	638.94
474.406	649.94
474.625	523.94
474.844	512.94
475.063	491.94
475.282	497.94
475.501	494.94
475.72	499.94
475.939	499.94
476.158	500.94
476.377	491.94
476.596	496.94
476.814	497.94
477.033	515.94
477.252	516.94
477.471	501.94
477.69	509.94
477.908	512.94
478.127	562.94
478.346	540.94
478.564	524.94
478.783	545.94
479.002	559.94
479.22	571.94
479.439	591.94
479.658	602.94
479.876	614.94
480.095	628.94
480.313	629.94
480.532	606.94
480.751	628.94
480.969	608.94
481.188	654.94
481.406	680.94
481.624	605.94
481.843	566.94
482.061	585.94
482.28	578.94
482.498	556.94
482.717	560.94
482.935	562.94
483.153	543.94
483.372	569.94
483.59	577.94
483.808	574.94
484.027	557.94
484.245	558.94
484.463	579.94
484.681	573.94
484.9	577.94
485.118	561.94
485.336	581.94
485.554	587.94
485.772	608.94
485.99	582.94
486.209	562.94
486.427	582.94
486.645	581.94
486.863	614.94
487.081	617.94
487.299	619.94
487.517	596.94
487.735	622.94
487.953	611.94
488.171	600.94
488.389	594.94
488.607	621.94
488.825	602.94
489.043	607.94
489.261	613.94
489.479	604.94
489.696	624.94
489.914	619.94
490.132	628.94
490.35	616.94
490.568	619.94
490.786	645.94
491.003	651.94
491.221	637.94
491.439	688.94
491.657	690.94
491.874	671.94
492.092	700.94
492.31	697.94
492.527	678.94
492.745	701.94
492.963	703.94
493.18	724.94
493.398	718.94
493.615	705.94
493.833	714.94
494.05	707.94
494.268	684.94
494.485	675.94
494.703	714.94
494.92	710.94
495.138	700.94
495.355	699.94
495.573	716.94
495.79	707.94
496.008	708.94
496.225	715.94
496.442	709.94
496.66	739.94
496.877	705.94
497.094	697.94
497.312	728.94
497.529	751.94
497.746	761.94
497.963	774.94
498.181	808.94
498.398	801.94
498.615	821.94
498.832	864.94
499.049	901.94
499.267	938.94
499.484	954.94
499.701	1027.94
499.918	1038.94
500.135	1096.94
500.352	1140.94
500.569	1204.94
500.786	1238.94
501.003	1185.94
501.22	1131.94
501.437	1089.94
501.654	1034.94
501.871	1004.94
