Data from 1985.PennyLincolnUp.Lamp.En5.5.200Scan.071819.P1_HRD10591_17-04-04-971.txt Node
Date: Thu Jul 18 17:04:04 EDT 2019
User: cochatt
Spectrometer: HR+D1059
Trigger mode: 1
Integration Time (sec): 1.000000E-1
Scans to average: 1
Electric dark correction enabled: true
Nonlinearity correction enabled: false
Boxcar width: 0
XAxis mode: Wavelengths
Number of Pixels in Spectrum: 2048
>>>>>Begin Spectral Data<<<<<
223.165	-22.88
223.4	-22.88
223.635	-22.88
223.869	0.12
224.104	-21.88
224.338	-9.88
224.573	-25.88
224.808	-0.88
225.042	-1.88
225.277	-16.88
225.511	-7.88
225.746	3.12
225.98	7.12
226.215	19.12
226.449	8.12
226.683	19.12
226.918	26.12
227.152	25.12
227.387	40.12
227.621	35.12
227.856	33.12
228.09	36.12
228.324	55.12
228.559	55.12
228.793	63.12
229.027	103.12
229.262	113.12
229.496	99.12
229.73	128.12
229.964	152.12
230.199	130.12
230.433	120.12
230.667	126.12
230.901	134.12
231.136	112.12
231.37	106.12
231.604	118.12
231.838	115.12
232.072	114.12
232.306	118.12
232.541	116.12
232.775	114.12
233.009	114.12
233.243	113.12
233.477	129.12
233.711	116.12
233.945	101.12
234.179	121.12
234.413	118.12
234.647	124.12
234.881	108.12
235.115	122.12
235.349	131.12
235.583	109.12
235.817	119.12
236.051	147.12
236.285	130.12
236.519	135.12
236.753	139.12
236.987	143.12
237.221	186.12
237.455	239.12
237.689	181.12
237.922	139.12
238.156	137.12
238.39	129.12
238.624	124.12
238.858	128.12
239.091	128.12
239.325	120.12
239.559	135.12
239.793	139.12
240.027	125.12
240.26	149.12
240.494	165.12
240.728	156.12
240.961	168.12
241.195	149.12
241.429	152.12
241.662	144.12
241.896	129.12
242.13	138.12
242.363	145.12
242.597	157.12
242.83	145.12
243.064	141.12
243.298	150.12
243.531	147.12
243.765	134.12
243.998	149.12
244.232	142.12
244.465	152.12
244.699	147.12
244.932	137.12
245.166	157.12
245.399	142.12
245.633	139.12
245.866	136.12
246.099	143.12
246.333	155.12
246.566	148.12
246.8	149.12
247.033	158.12
247.266	162.12
247.5	181.12
247.733	182.12
247.966	188.12
248.2	193.12
248.433	174.12
248.666	162.12
248.899	167.12
249.133	190.12
249.366	215.12
249.599	216.12
249.832	184.12
250.066	218.12
250.299	200.12
250.532	207.12
250.765	225.12
250.998	245.12
251.231	254.12
251.465	226.12
251.698	230.12
251.931	205.12
252.164	209.12
252.397	212.12
252.63	203.12
252.863	191.12
253.096	224.12
253.329	237.12
253.562	225.12
253.795	243.12
254.028	233.12
254.261	226.12
254.494	253.12
254.727	265.12
254.96	275.12
255.193	276.12
255.426	246.12
255.659	242.12
255.892	269.12
256.124	275.12
256.357	277.12
256.59	244.12
256.823	241.12
257.056	238.12
257.289	213.12
257.521	215.12
257.754	223.12
257.987	204.12
258.22	234.12
258.452	229.12
258.685	228.12
258.918	200.12
259.151	229.12
259.383	210.12
259.616	214.12
259.849	230.12
260.081	263.12
260.314	259.12
260.547	250.12
260.779	244.12
261.012	255.12
261.244	242.12
261.477	250.12
261.71	225.12
261.942	225.12
262.175	241.12
262.407	246.12
262.64	221.12
262.872	206.12
263.105	225.12
263.337	223.12
263.57	232.12
263.802	220.12
264.035	244.12
264.267	230.12
264.499	220.12
264.732	220.12
264.964	224.12
265.197	232.12
265.429	235.12
265.661	229.12
265.894	257.12
266.126	238.12
266.358	242.12
266.591	241.12
266.823	248.12
267.055	249.12
267.287	254.12
267.52	252.12
267.752	237.12
267.984	256.12
268.216	254.12
268.448	267.12
268.681	268.12
268.913	262.12
269.145	288.12
269.377	280.12
269.609	287.12
269.841	285.12
270.073	295.12
270.306	315.12
270.538	323.12
270.77	332.12
271.002	332.12
271.234	285.12
271.466	312.12
271.698	324.12
271.93	347.12
272.162	346.12
272.394	352.12
272.626	314.12
272.858	307.12
273.09	296.12
273.322	303.12
273.553	299.12
273.785	280.12
274.017	288.12
274.249	291.12
274.481	281.12
274.713	278.12
274.945	289.12
275.176	294.12
275.408	287.12
275.64	281.12
275.872	291.12
276.104	305.12
276.335	290.12
276.567	276.12
276.799	296.12
277.031	331.12
277.262	355.12
277.494	327.12
277.726	350.12
277.957	313.12
278.189	318.12
278.421	309.12
278.652	308.12
278.884	288.12
279.115	301.12
279.347	309.12
279.579	286.12
279.81	300.12
280.042	293.12
280.273	295.12
280.505	292.12
280.736	299.12
280.968	320.12
281.199	299.12
281.431	316.12
281.662	307.12
281.894	309.12
282.125	319.12
282.356	317.12
282.588	346.12
282.819	343.12
283.051	323.12
283.282	305.12
283.513	312.12
283.745	311.12
283.976	301.12
284.207	321.12
284.439	316.12
284.67	334.12
284.901	298.12
285.132	317.12
285.364	317.12
285.595	316.12
285.826	314.12
286.057	312.12
286.288	326.12
286.52	328.12
286.751	318.12
286.982	326.12
287.213	323.12
287.444	325.12
287.675	318.12
287.906	330.12
288.138	354.12
288.369	343.12
288.6	339.12
288.831	346.12
289.062	327.12
289.293	327.12
289.524	346.12
289.755	335.12
289.986	327.12
290.217	325.12
290.448	301.12
290.679	331.12
290.91	326.12
291.141	344.12
291.371	328.12
291.602	341.12
291.833	341.12
292.064	344.12
292.295	332.12
292.526	318.12
292.757	334.12
292.987	330.12
293.218	316.12
293.449	362.12
293.68	348.12
293.91	322.12
294.141	322.12
294.372	353.12
294.603	335.12
294.833	342.12
295.064	327.12
295.295	339.12
295.525	329.12
295.756	351.12
295.987	340.12
296.217	383.12
296.448	373.12
296.679	341.12
296.909	358.12
297.14	351.12
297.37	348.12
297.601	346.12
297.831	361.12
298.062	353.12
298.292	346.12
298.523	375.12
298.753	370.12
298.984	348.12
299.214	353.12
299.445	350.12
299.675	349.12
299.905	385.12
300.136	382.12
300.366	339.12
300.597	361.12
300.827	369.12
301.057	371.12
301.288	381.12
301.518	377.12
301.748	377.12
301.979	369.12
302.209	385.12
302.439	393.12
302.669	395.12
302.9	379.12
303.13	361.12
303.36	383.12
303.59	374.12
303.82	408.12
304.051	397.12
304.281	374.12
304.511	383.12
304.741	379.12
304.971	378.12
305.201	391.12
305.431	362.12
305.661	369.12
305.891	378.12
306.121	384.12
306.352	380.12
306.582	391.12
306.812	377.12
307.042	383.12
307.272	395.12
307.502	397.12
307.731	398.12
307.961	397.12
308.191	376.12
308.421	398.12
308.651	401.12
308.881	389.12
309.111	408.12
309.341	387.12
309.571	406.12
309.8	416.12
310.03	423.12
310.26	431.12
310.49	419.12
310.72	427.12
310.949	436.12
311.179	449.12
311.409	426.12
311.639	437.12
311.868	415.12
312.098	446.12
312.328	427.12
312.557	457.12
312.787	449.12
313.017	446.12
313.246	455.12
313.476	447.12
313.706	431.12
313.935	441.12
314.165	433.12
314.394	457.12
314.624	455.12
314.853	440.12
315.083	438.12
315.312	428.12
315.542	432.12
315.771	437.12
316.001	442.12
316.23	454.12
316.46	422.12
316.689	420.12
316.919	443.12
317.148	432.12
317.377	440.12
317.607	445.12
317.836	429.12
318.065	426.12
318.295	428.12
318.524	421.12
318.753	429.12
318.983	441.12
319.212	450.12
319.441	445.12
319.67	437.12
319.9	443.12
320.129	427.12
320.358	423.12
320.587	453.12
320.816	443.12
321.046	473.12
321.275	461.12
321.504	470.12
321.733	455.12
321.962	443.12
322.191	453.12
322.42	480.12
322.649	489.12
322.878	503.12
323.108	513.12
323.337	527.12
323.566	552.12
323.795	569.12
324.024	626.12
324.253	748.12
324.482	1046.12
324.71	1543.12
324.939	2204.12
325.168	1883.12
325.397	940.12
325.626	685.12
325.855	592.12
326.084	577.12
326.313	567.12
326.542	581.12
326.77	580.12
326.999	719.12
327.228	961.12
327.457	1387.12
327.686	1641.12
327.914	1110.12
328.143	745.12
328.372	664.12
328.6	642.12
328.829	618.12
329.058	617.12
329.287	637.12
329.515	613.12
329.744	576.12
329.972	568.12
330.201	610.12
330.43	675.12
330.658	655.12
330.887	682.12
331.115	659.12
331.344	594.12
331.572	562.12
331.801	582.12
332.03	559.12
332.258	563.12
332.486	548.12
332.715	539.12
332.943	548.12
333.172	537.12
333.4	542.12
333.629	584.12
333.857	591.12
334.085	616.12
334.314	650.12
334.542	667.12
334.771	707.12
334.999	619.12
335.227	590.12
335.455	557.12
335.684	551.12
335.912	536.12
336.14	516.12
336.369	537.12
336.597	537.12
336.825	545.12
337.053	507.12
337.281	513.12
337.51	513.12
337.738	533.12
337.966	521.12
338.194	512.12
338.422	522.12
338.65	513.12
338.878	502.12
339.106	503.12
339.334	499.12
339.562	501.12
339.79	482.12
340.018	491.12
340.246	499.12
340.474	531.12
340.702	499.12
340.93	485.12
341.158	491.12
341.386	449.12
341.614	476.12
341.842	479.12
342.07	486.12
342.298	470.12
342.526	486.12
342.754	473.12
342.981	486.12
343.209	483.12
343.437	471.12
343.665	511.12
343.893	490.12
344.12	525.12
344.348	523.12
344.576	519.12
344.804	520.12
345.031	494.12
345.259	498.12
345.487	506.12
345.714	488.12
345.942	471.12
346.17	481.12
346.397	476.12
346.625	459.12
346.853	462.12
347.08	453.12
347.308	506.12
347.535	483.12
347.763	498.12
347.99	487.12
348.218	488.12
348.445	479.12
348.673	490.12
348.9	463.12
349.128	462.12
349.355	442.12
349.583	444.12
349.81	463.12
350.037	460.12
350.265	453.12
350.492	442.12
350.72	428.12
350.947	457.12
351.174	459.12
351.402	475.12
351.629	471.12
351.856	487.12
352.083	487.12
352.311	459.12
352.538	480.12
352.765	488.12
352.992	486.12
353.22	479.12
353.447	462.12
353.674	426.12
353.901	461.12
354.128	447.12
354.355	445.12
354.583	407.12
354.81	428.12
355.037	426.12
355.264	451.12
355.491	413.12
355.718	427.12
355.945	452.12
356.172	446.12
356.399	420.12
356.626	451.12
356.853	425.12
357.08	422.12
357.307	438.12
357.534	455.12
357.761	425.12
357.988	436.12
358.215	449.12
358.441	434.12
358.668	455.12
358.895	420.12
359.122	443.12
359.349	437.12
359.576	454.12
359.802	472.12
360.029	505.12
360.256	481.12
360.483	483.12
360.709	479.12
360.936	456.12
361.163	477.12
361.39	470.12
361.616	468.12
361.843	457.12
362.07	455.12
362.296	455.12
362.523	446.12
362.749	458.12
362.976	441.12
363.203	441.12
363.429	444.12
363.656	442.12
363.882	446.12
364.109	451.12
364.335	437.12
364.562	443.12
364.788	435.12
365.015	438.12
365.241	434.12
365.468	461.12
365.694	446.12
365.92	438.12
366.147	421.12
366.373	431.12
366.599	454.12
366.826	444.12
367.052	425.12
367.278	429.12
367.505	434.12
367.731	435.12
367.957	453.12
368.184	443.12
368.41	471.12
368.636	467.12
368.862	467.12
369.089	435.12
369.315	447.12
369.541	434.12
369.767	450.12
369.993	431.12
370.219	453.12
370.445	434.12
370.672	434.12
370.898	433.12
371.124	452.12
371.35	434.12
371.576	431.12
371.802	444.12
372.028	453.12
372.254	448.12
372.48	445.12
372.706	437.12
372.932	457.12
373.158	434.12
373.384	442.12
373.61	421.12
373.835	437.12
374.061	444.12
374.287	439.12
374.513	459.12
374.739	449.12
374.965	468.12
375.191	475.12
375.416	449.12
375.642	436.12
375.868	452.12
376.094	424.12
376.319	428.12
376.545	448.12
376.771	447.12
376.997	437.12
377.222	446.12
377.448	427.12
377.674	426.12
377.899	445.12
378.125	435.12
378.35	433.12
378.576	446.12
378.802	442.12
379.027	443.12
379.253	438.12
379.478	442.12
379.704	429.12
379.929	433.12
380.155	459.12
380.38	446.12
380.606	456.12
380.831	442.12
381.057	427.12
381.282	439.12
381.507	419.12
381.733	434.12
381.958	439.12
382.184	417.12
382.409	439.12
382.634	442.12
382.86	448.12
383.085	444.12
383.31	467.12
383.535	423.12
383.761	457.12
383.986	457.12
384.211	472.12
384.436	477.12
384.662	470.12
384.887	489.12
385.112	470.12
385.337	476.12
385.562	492.12
385.787	473.12
386.013	533.12
386.238	503.12
386.463	478.12
386.688	498.12
386.913	490.12
387.138	481.12
387.363	482.12
387.588	483.12
387.813	494.12
388.038	479.12
388.263	506.12
388.488	482.12
388.713	481.12
388.938	489.12
389.163	507.12
389.387	461.12
389.612	470.12
389.837	477.12
390.062	493.12
390.287	485.12
390.512	490.12
390.736	486.12
390.961	497.12
391.186	492.12
391.411	506.12
391.636	508.12
391.86	512.12
392.085	524.12
392.31	519.12
392.534	508.12
392.759	517.12
392.984	515.12
393.208	468.12
393.433	499.12
393.658	501.12
393.882	500.12
394.107	491.12
394.331	492.12
394.556	486.12
394.78	499.12
395.005	499.12
395.229	478.12
395.454	514.12
395.678	517.12
395.903	535.12
396.127	549.12
396.352	539.12
396.576	515.12
396.801	504.12
397.025	515.12
397.249	505.12
397.474	554.12
397.698	550.12
397.922	544.12
398.147	563.12
398.371	557.12
398.595	547.12
398.82	547.12
399.044	587.12
399.268	622.12
399.492	672.12
399.717	687.12
399.941	720.12
400.165	727.12
400.389	717.12
400.613	642.12
400.837	609.12
401.062	583.12
401.286	579.12
401.51	583.12
401.734	571.12
401.958	571.12
402.182	572.12
402.406	582.12
402.63	581.12
402.854	589.12
403.078	596.12
403.302	602.12
403.526	610.12
403.75	625.12
403.974	605.12
404.198	629.12
404.422	611.12
404.645	625.12
404.869	620.12
405.093	651.12
405.317	702.12
405.541	711.12
405.765	673.12
405.988	625.12
406.212	654.12
406.436	660.12
406.66	675.12
406.883	645.12
407.107	695.12
407.331	718.12
407.555	788.12
407.778	774.12
408.002	698.12
408.226	662.12
408.449	659.12
408.673	660.12
408.896	683.12
409.12	695.12
409.344	660.12
409.567	604.12
409.791	604.12
410.014	584.12
410.238	576.12
410.461	589.12
410.685	596.12
410.908	595.12
411.132	607.12
411.355	637.12
411.578	642.12
411.802	597.12
412.025	612.12
412.249	627.12
412.472	627.12
412.695	681.12
412.919	681.12
413.142	585.12
413.365	570.12
413.589	601.12
413.812	566.12
414.035	572.12
414.258	558.12
414.482	548.12
414.705	582.12
414.928	543.12
415.151	553.12
415.374	542.12
415.597	554.12
415.821	535.12
416.044	546.12
416.267	557.12
416.49	562.12
416.713	541.12
416.936	563.12
417.159	541.12
417.382	554.12
417.605	550.12
417.828	561.12
418.051	567.12
418.274	578.12
418.497	553.12
418.72	569.12
418.943	575.12
419.166	564.12
419.389	610.12
419.611	577.12
419.834	588.12
420.057	577.12
420.28	590.12
420.503	590.12
420.726	598.12
420.948	588.12
421.171	638.12
421.394	649.12
421.617	588.12
421.839	577.12
422.062	589.12
422.285	585.12
422.507	647.12
422.73	721.12
422.953	691.12
423.175	595.12
423.398	588.12
423.621	589.12
423.843	586.12
424.066	607.12
424.288	603.12
424.511	636.12
424.733	663.12
424.956	759.12
425.178	709.12
425.401	721.12
425.623	736.12
425.846	606.12
426.068	602.12
426.291	575.12
426.513	585.12
426.735	600.12
426.958	651.12
427.18	715.12
427.402	836.12
427.625	926.12
427.847	804.12
428.069	729.12
428.292	651.12
428.514	586.12
428.736	564.12
428.958	571.12
429.181	531.12
429.403	537.12
429.625	534.12
429.847	575.12
430.069	636.12
430.292	637.12
430.514	570.12
430.736	525.12
430.958	531.12
431.18	538.12
431.402	525.12
431.624	504.12
431.846	518.12
432.068	526.12
432.29	527.12
432.512	532.12
432.734	538.12
432.956	519.12
433.178	555.12
433.4	547.12
433.622	535.12
433.844	520.12
434.066	502.12
434.287	521.12
434.509	547.12
434.731	543.12
434.953	546.12
435.175	574.12
435.397	586.12
435.618	595.12
435.84	635.12
436.062	710.12
436.284	779.12
436.505	645.12
436.727	584.12
436.949	551.12
437.17	523.12
437.392	546.12
437.614	547.12
437.835	578.12
438.057	685.12
438.278	778.12
438.5	751.12
438.721	837.12
438.943	804.12
439.165	647.12
439.386	580.12
439.608	595.12
439.829	568.12
440.05	635.12
440.272	666.12
440.493	602.12
440.715	589.12
440.936	565.12
441.158	550.12
441.379	561.12
441.6	564.12
441.822	583.12
442.043	665.12
442.264	705.12
442.486	767.12
442.707	628.12
442.928	615.12
443.149	601.12
443.371	633.12
443.592	656.12
443.813	762.12
444.034	834.12
444.255	698.12
444.476	635.12
444.698	631.12
444.919	595.12
445.14	757.12
445.361	689.12
445.582	641.12
445.803	714.12
446.024	782.12
446.245	775.12
446.466	718.12
446.687	631.12
446.908	585.12
447.129	550.12
447.35	561.12
447.571	529.12
447.792	537.12
448.013	554.12
448.234	566.12
448.455	602.12
448.675	709.12
448.896	796.12
449.117	693.12
449.338	626.12
449.559	757.12
449.779	852.12
450	697.12
450.221	570.12
450.442	537.12
450.662	515.12
450.883	524.12
451.104	542.12
451.324	531.12
451.545	527.12
451.766	511.12
451.986	465.12
452.207	470.12
452.428	502.12
452.648	500.12
452.869	488.12
453.089	488.12
453.31	506.12
453.53	490.12
453.751	475.12
453.971	478.12
454.192	495.12
454.412	512.12
454.633	467.12
454.853	497.12
455.073	484.12
455.294	486.12
455.514	533.12
455.734	534.12
455.955	493.12
456.175	459.12
456.395	454.12
456.616	464.12
456.836	490.12
457.056	447.12
457.276	448.12
457.497	462.12
457.717	460.12
457.937	470.12
458.157	477.12
458.377	474.12
458.598	511.12
458.818	543.12
459.038	621.12
459.258	667.12
459.478	578.12
459.698	539.12
459.918	548.12
460.138	556.12
460.358	551.12
460.578	565.12
460.798	567.12
461.018	559.12
461.238	543.12
461.458	574.12
461.678	542.12
461.898	550.12
462.118	562.12
462.338	557.12
462.558	595.12
462.777	611.12
462.997	627.12
463.217	641.12
463.437	643.12
463.657	627.12
463.876	615.12
464.096	635.12
464.316	606.12
464.536	598.12
464.755	603.12
464.975	587.12
465.195	629.12
465.414	665.12
465.634	620.12
465.854	551.12
466.073	545.12
466.293	538.12
466.512	497.12
466.732	494.12
466.951	511.12
467.171	515.12
467.391	501.12
467.61	514.12
467.829	507.12
468.049	526.12
468.268	505.12
468.488	511.12
468.707	498.12
468.927	502.12
469.146	499.12
469.365	491.12
469.585	497.12
469.804	492.12
470.023	527.12
470.243	536.12
470.462	548.12
470.681	539.12
470.901	527.12
471.12	509.12
471.339	519.12
471.558	506.12
471.777	523.12
471.997	507.12
472.216	525.12
472.435	570.12
472.654	564.12
472.873	540.12
473.092	500.12
473.311	501.12
473.53	514.12
473.749	502.12
473.968	571.12
474.187	643.12
474.406	646.12
474.625	549.12
474.844	528.12
475.063	513.12
475.282	495.12
475.501	518.12
475.72	497.12
475.939	480.12
476.158	535.12
476.377	504.12
476.596	517.12
476.814	509.12
477.033	530.12
477.252	546.12
477.471	523.12
477.69	563.12
477.908	575.12
478.127	564.12
478.346	564.12
478.564	556.12
478.783	567.12
479.002	579.12
479.22	614.12
479.439	584.12
479.658	621.12
479.876	635.12
480.095	617.12
480.313	639.12
480.532	626.12
480.751	652.12
480.969	670.12
481.188	720.12
481.406	793.12
481.624	680.12
481.843	632.12
482.061	614.12
482.28	594.12
482.498	597.12
482.717	587.12
482.935	597.12
483.153	589.12
483.372	572.12
483.59	570.12
483.808	573.12
484.027	575.12
484.245	591.12
484.463	607.12
484.681	605.12
484.9	591.12
485.118	596.12
485.336	626.12
485.554	601.12
485.772	633.12
485.99	618.12
486.209	593.12
486.427	637.12
486.645	608.12
486.863	614.12
487.081	639.12
487.299	651.12
487.517	611.12
487.735	636.12
487.953	615.12
488.171	636.12
488.389	612.12
488.607	634.12
488.825	647.12
489.043	647.12
489.261	630.12
489.479	631.12
489.696	603.12
489.914	637.12
490.132	638.12
490.35	654.12
490.568	668.12
490.786	698.12
491.003	695.12
491.221	685.12
491.439	728.12
491.657	709.12
491.874	713.12
492.092	730.12
492.31	709.12
492.527	736.12
492.745	744.12
492.963	738.12
493.18	774.12
493.398	759.12
493.615	734.12
493.833	749.12
494.05	784.12
494.268	742.12
494.485	748.12
494.703	745.12
494.92	738.12
495.138	759.12
495.355	746.12
495.573	737.12
495.79	722.12
496.008	771.12
496.225	745.12
496.442	766.12
496.66	746.12
496.877	764.12
497.094	779.12
497.312	759.12
497.529	790.12
497.746	808.12
497.963	825.12
498.181	866.12
498.398	840.12
498.615	871.12
498.832	893.12
499.049	923.12
499.267	942.12
499.484	975.12
499.701	1037.12
499.918	1089.12
500.135	1164.12
500.352	1238.12
500.569	1269.12
500.786	1271.12
501.003	1190.12
501.22	1182.12
501.437	1103.12
501.654	1071.12
501.871	1051.12
