Data from 1985.PennyLincolnUp.Lamp.En5.5.200Scan.071819.P1_HRD10591_17-04-11-972.txt Node
Date: Thu Jul 18 17:04:11 EDT 2019
User: cochatt
Spectrometer: HR+D1059
Trigger mode: 1
Integration Time (sec): 1.000000E-1
Scans to average: 1
Electric dark correction enabled: true
Nonlinearity correction enabled: false
Boxcar width: 0
XAxis mode: Wavelengths
Number of Pixels in Spectrum: 2048
>>>>>Begin Spectral Data<<<<<
223.165	-22.06
223.4	-22.06
223.635	-22.06
223.869	-12.06
224.104	-17.06
224.338	-18.06
224.573	-5.06
224.808	-14.06
225.042	-8.06
225.277	-22.06
225.511	4.94
225.746	-3.06
225.98	11.94
226.215	16.94
226.449	7.94
226.683	9.94
226.918	32.94
227.152	36.94
227.387	26.94
227.621	27.94
227.856	31.94
228.09	33.94
228.324	49.94
228.559	64.94
228.793	64.94
229.027	102.94
229.262	102.94
229.496	119.94
229.73	119.94
229.964	150.94
230.199	136.94
230.433	109.94
230.667	120.94
230.901	103.94
231.136	104.94
231.37	113.94
231.604	105.94
231.838	107.94
232.072	107.94
232.306	113.94
232.541	107.94
232.775	113.94
233.009	125.94
233.243	127.94
233.477	120.94
233.711	109.94
233.945	103.94
234.179	117.94
234.413	114.94
234.647	119.94
234.881	131.94
235.115	117.94
235.349	123.94
235.583	133.94
235.817	121.94
236.051	115.94
236.285	132.94
236.519	128.94
236.753	150.94
236.987	134.94
237.221	180.94
237.455	214.94
237.689	187.94
237.922	141.94
238.156	138.94
238.39	121.94
238.624	137.94
238.858	126.94
239.091	131.94
239.325	139.94
239.559	134.94
239.793	135.94
240.027	145.94
240.26	161.94
240.494	150.94
240.728	159.94
240.961	157.94
241.195	141.94
241.429	147.94
241.662	140.94
241.896	135.94
242.13	131.94
242.363	130.94
242.597	143.94
242.83	159.94
243.064	143.94
243.298	147.94
243.531	141.94
243.765	132.94
243.998	150.94
244.232	154.94
244.465	145.94
244.699	169.94
244.932	159.94
245.166	142.94
245.399	149.94
245.633	139.94
245.866	126.94
246.099	155.94
246.333	159.94
246.566	135.94
246.8	140.94
247.033	170.94
247.266	163.94
247.5	172.94
247.733	175.94
247.966	170.94
248.2	164.94
248.433	171.94
248.666	172.94
248.899	196.94
249.133	188.94
249.366	213.94
249.599	185.94
249.832	187.94
250.066	182.94
250.299	189.94
250.532	212.94
250.765	225.94
250.998	242.94
251.231	238.94
251.465	218.94
251.698	213.94
251.931	206.94
252.164	198.94
252.397	198.94
252.63	214.94
252.863	200.94
253.096	222.94
253.329	226.94
253.562	236.94
253.795	214.94
254.028	215.94
254.261	236.94
254.494	233.94
254.727	251.94
254.96	279.94
255.193	258.94
255.426	258.94
255.659	236.94
255.892	249.94
256.124	275.94
256.357	272.94
256.59	256.94
256.823	234.94
257.056	226.94
257.289	226.94
257.521	226.94
257.754	214.94
257.987	209.94
258.22	212.94
258.452	223.94
258.685	209.94
258.918	214.94
259.151	223.94
259.383	241.94
259.616	197.94
259.849	214.94
260.081	265.94
260.314	259.94
260.547	261.94
260.779	257.94
261.012	254.94
261.244	241.94
261.477	214.94
261.71	207.94
261.942	223.94
262.175	251.94
262.407	224.94
262.64	227.94
262.872	229.94
263.105	232.94
263.337	214.94
263.57	211.94
263.802	213.94
264.035	233.94
264.267	225.94
264.499	218.94
264.732	214.94
264.964	232.94
265.197	237.94
265.429	241.94
265.661	235.94
265.894	243.94
266.126	232.94
266.358	227.94
266.591	241.94
266.823	241.94
267.055	247.94
267.287	247.94
267.52	244.94
267.752	238.94
267.984	236.94
268.216	244.94
268.448	248.94
268.681	258.94
268.913	261.94
269.145	279.94
269.377	292.94
269.609	297.94
269.841	294.94
270.073	285.94
270.306	305.94
270.538	321.94
270.77	333.94
271.002	319.94
271.234	302.94
271.466	323.94
271.698	326.94
271.93	335.94
272.162	343.94
272.394	318.94
272.626	349.94
272.858	286.94
273.09	289.94
273.322	291.94
273.553	298.94
273.785	307.94
274.017	285.94
274.249	281.94
274.481	291.94
274.713	268.94
274.945	289.94
275.176	283.94
275.408	287.94
275.64	278.94
275.872	271.94
276.104	283.94
276.335	309.94
276.567	307.94
276.799	320.94
277.031	333.94
277.262	343.94
277.494	339.94
277.726	311.94
277.957	305.94
278.189	303.94
278.421	300.94
278.652	318.94
278.884	290.94
279.115	299.94
279.347	285.94
279.579	293.94
279.81	296.94
280.042	292.94
280.273	301.94
280.505	272.94
280.736	281.94
280.968	311.94
281.199	281.94
281.431	292.94
281.662	291.94
281.894	301.94
282.125	307.94
282.356	321.94
282.588	333.94
282.819	324.94
283.051	333.94
283.282	308.94
283.513	322.94
283.745	325.94
283.976	337.94
284.207	332.94
284.439	309.94
284.67	312.94
284.901	298.94
285.132	302.94
285.364	318.94
285.595	306.94
285.826	318.94
286.057	313.94
286.288	341.94
286.52	341.94
286.751	317.94
286.982	301.94
287.213	302.94
287.444	318.94
287.675	314.94
287.906	346.94
288.138	334.94
288.369	343.94
288.6	335.94
288.831	337.94
289.062	325.94
289.293	325.94
289.524	351.94
289.755	329.94
289.986	323.94
290.217	332.94
290.448	338.94
290.679	347.94
290.91	338.94
291.141	311.94
291.371	321.94
291.602	342.94
291.833	342.94
292.064	340.94
292.295	331.94
292.526	326.94
292.757	331.94
292.987	336.94
293.218	332.94
293.449	355.94
293.68	324.94
293.91	334.94
294.141	332.94
294.372	336.94
294.603	326.94
294.833	338.94
295.064	342.94
295.295	330.94
295.525	340.94
295.756	366.94
295.987	341.94
296.217	354.94
296.448	366.94
296.679	353.94
296.909	347.94
297.14	341.94
297.37	336.94
297.601	350.94
297.831	331.94
298.062	349.94
298.292	333.94
298.523	380.94
298.753	373.94
298.984	364.94
299.214	350.94
299.445	340.94
299.675	357.94
299.905	369.94
300.136	373.94
300.366	370.94
300.597	369.94
300.827	371.94
301.057	373.94
301.288	386.94
301.518	369.94
301.748	373.94
301.979	372.94
302.209	374.94
302.439	369.94
302.669	365.94
302.9	363.94
303.13	382.94
303.36	395.94
303.59	375.94
303.82	384.94
304.051	385.94
304.281	383.94
304.511	375.94
304.741	381.94
304.971	374.94
305.201	371.94
305.431	359.94
305.661	370.94
305.891	369.94
306.121	369.94
306.352	388.94
306.582	402.94
306.812	364.94
307.042	372.94
307.272	364.94
307.502	359.94
307.731	383.94
307.961	405.94
308.191	372.94
308.421	375.94
308.651	375.94
308.881	399.94
309.111	399.94
309.341	395.94
309.571	398.94
309.8	383.94
310.03	415.94
310.26	412.94
310.49	413.94
310.72	407.94
310.949	443.94
311.179	421.94
311.409	428.94
311.639	433.94
311.868	409.94
312.098	433.94
312.328	421.94
312.557	417.94
312.787	458.94
313.017	467.94
313.246	418.94
313.476	428.94
313.706	438.94
313.935	438.94
314.165	425.94
314.394	453.94
314.624	449.94
314.853	429.94
315.083	437.94
315.312	423.94
315.542	434.94
315.771	417.94
316.001	414.94
316.23	403.94
316.46	425.94
316.689	426.94
316.919	433.94
317.148	429.94
317.377	435.94
317.607	426.94
317.836	428.94
318.065	424.94
318.295	435.94
318.524	441.94
318.753	415.94
318.983	419.94
319.212	420.94
319.441	427.94
319.67	435.94
319.9	438.94
320.129	439.94
320.358	434.94
320.587	449.94
320.816	417.94
321.046	464.94
321.275	448.94
321.504	430.94
321.733	453.94
321.962	464.94
322.191	453.94
322.42	469.94
322.649	503.94
322.878	504.94
323.108	514.94
323.337	532.94
323.566	544.94
323.795	583.94
324.024	609.94
324.253	727.94
324.482	977.94
324.71	1513.94
324.939	2111.94
325.168	1773.94
325.397	937.94
325.626	658.94
325.855	582.94
326.084	559.94
326.313	537.94
326.542	554.94
326.77	595.94
326.999	690.94
327.228	916.94
327.457	1342.94
327.686	1601.94
327.914	1063.94
328.143	735.94
328.372	661.94
328.6	622.94
328.829	604.94
329.058	614.94
329.287	632.94
329.515	592.94
329.744	586.94
329.972	565.94
330.201	604.94
330.43	650.94
330.658	661.94
330.887	638.94
331.115	627.94
331.344	577.94
331.572	533.94
331.801	555.94
332.03	581.94
332.258	547.94
332.486	523.94
332.715	532.94
332.943	545.94
333.172	530.94
333.4	557.94
333.629	555.94
333.857	591.94
334.085	607.94
334.314	649.94
334.542	661.94
334.771	671.94
334.999	622.94
335.227	556.94
335.455	550.94
335.684	525.94
335.912	537.94
336.14	524.94
336.369	519.94
336.597	539.94
336.825	513.94
337.053	529.94
337.281	497.94
337.51	512.94
337.738	511.94
337.966	504.94
338.194	508.94
338.422	511.94
338.65	507.94
338.878	478.94
339.106	485.94
339.334	479.94
339.562	471.94
339.79	481.94
340.018	468.94
340.246	484.94
340.474	493.94
340.702	483.94
340.93	478.94
341.158	482.94
341.386	465.94
341.614	460.94
341.842	474.94
342.07	491.94
342.298	487.94
342.526	460.94
342.754	477.94
342.981	468.94
343.209	472.94
343.437	481.94
343.665	476.94
343.893	494.94
344.12	525.94
344.348	501.94
344.576	483.94
344.804	491.94
345.031	501.94
345.259	494.94
345.487	514.94
345.714	476.94
345.942	442.94
346.17	488.94
346.397	452.94
346.625	474.94
346.853	460.94
347.08	434.94
347.308	462.94
347.535	469.94
347.763	475.94
347.99	447.94
348.218	464.94
348.445	459.94
348.673	473.94
348.9	473.94
349.128	438.94
349.355	453.94
349.583	454.94
349.81	457.94
350.037	439.94
350.265	445.94
350.492	437.94
350.72	442.94
350.947	446.94
351.174	462.94
351.402	469.94
351.629	473.94
351.856	482.94
352.083	489.94
352.311	456.94
352.538	459.94
352.765	475.94
352.992	454.94
353.22	458.94
353.447	451.94
353.674	461.94
353.901	448.94
354.128	451.94
354.355	448.94
354.583	438.94
354.81	437.94
355.037	412.94
355.264	423.94
355.491	428.94
355.718	421.94
355.945	423.94
356.172	430.94
356.399	420.94
356.626	427.94
356.853	436.94
357.08	423.94
357.307	425.94
357.534	420.94
357.761	433.94
357.988	419.94
358.215	412.94
358.441	417.94
358.668	424.94
358.895	437.94
359.122	448.94
359.349	447.94
359.576	466.94
359.802	469.94
360.029	488.94
360.256	498.94
360.483	465.94
360.709	451.94
360.936	459.94
361.163	454.94
361.39	474.94
361.616	454.94
361.843	425.94
362.07	425.94
362.296	480.94
362.523	435.94
362.749	455.94
362.976	451.94
363.203	459.94
363.429	438.94
363.656	442.94
363.882	433.94
364.109	432.94
364.335	445.94
364.562	436.94
364.788	433.94
365.015	415.94
365.241	435.94
365.468	420.94
365.694	435.94
365.92	441.94
366.147	431.94
366.373	437.94
366.599	417.94
366.826	422.94
367.052	444.94
367.278	416.94
367.505	433.94
367.731	466.94
367.957	437.94
368.184	453.94
368.41	428.94
368.636	440.94
368.862	457.94
369.089	435.94
369.315	431.94
369.541	421.94
369.767	429.94
369.993	435.94
370.219	430.94
370.445	434.94
370.672	458.94
370.898	450.94
371.124	439.94
371.35	461.94
371.576	444.94
371.802	397.94
372.028	429.94
372.254	434.94
372.48	456.94
372.706	439.94
372.932	427.94
373.158	416.94
373.384	465.94
373.61	447.94
373.835	451.94
374.061	429.94
374.287	471.94
374.513	437.94
374.739	447.94
374.965	455.94
375.191	456.94
375.416	454.94
375.642	449.94
375.868	424.94
376.094	437.94
376.319	449.94
376.545	429.94
376.771	440.94
376.997	421.94
377.222	435.94
377.448	443.94
377.674	452.94
377.899	411.94
378.125	429.94
378.35	421.94
378.576	417.94
378.802	412.94
379.027	422.94
379.253	420.94
379.478	431.94
379.704	416.94
379.929	436.94
380.155	440.94
380.38	424.94
380.606	411.94
380.831	453.94
381.057	447.94
381.282	413.94
381.507	420.94
381.733	441.94
381.958	437.94
382.184	444.94
382.409	444.94
382.634	453.94
382.86	426.94
383.085	457.94
383.31	458.94
383.535	441.94
383.761	458.94
383.986	453.94
384.211	426.94
384.436	477.94
384.662	470.94
384.887	476.94
385.112	483.94
385.337	481.94
385.562	471.94
385.787	464.94
386.013	495.94
386.238	498.94
386.463	497.94
386.688	489.94
386.913	467.94
387.138	482.94
387.363	475.94
387.588	469.94
387.813	473.94
388.038	493.94
388.263	461.94
388.488	468.94
388.713	479.94
388.938	473.94
389.163	464.94
389.387	487.94
389.612	470.94
389.837	477.94
390.062	463.94
390.287	473.94
390.512	471.94
390.736	468.94
390.961	452.94
391.186	463.94
391.411	482.94
391.636	493.94
391.86	499.94
392.085	513.94
392.31	539.94
392.534	493.94
392.759	499.94
392.984	497.94
393.208	512.94
393.433	477.94
393.658	472.94
393.882	487.94
394.107	480.94
394.331	471.94
394.556	494.94
394.78	498.94
395.005	482.94
395.229	470.94
395.454	503.94
395.678	492.94
395.903	509.94
396.127	529.94
396.352	536.94
396.576	523.94
396.801	516.94
397.025	517.94
397.249	528.94
397.474	505.94
397.698	515.94
397.922	534.94
398.147	517.94
398.371	533.94
398.595	549.94
398.82	567.94
399.044	573.94
399.268	613.94
399.492	664.94
399.717	694.94
399.941	735.94
400.165	706.94
400.389	681.94
400.613	639.94
400.837	591.94
401.062	584.94
401.286	580.94
401.51	562.94
401.734	548.94
401.958	578.94
402.182	545.94
402.406	579.94
402.63	600.94
402.854	582.94
403.078	577.94
403.302	592.94
403.526	588.94
403.75	611.94
403.974	597.94
404.198	588.94
404.422	610.94
404.645	582.94
404.869	602.94
405.093	649.94
405.317	691.94
405.541	717.94
405.765	670.94
405.988	605.94
406.212	612.94
406.436	626.94
406.66	637.94
406.883	635.94
407.107	673.94
407.331	701.94
407.555	795.94
407.778	791.94
408.002	696.94
408.226	667.94
408.449	629.94
408.673	625.94
408.896	650.94
409.12	690.94
409.344	669.94
409.567	607.94
409.791	603.94
410.014	564.94
410.238	566.94
410.461	587.94
410.685	574.94
410.908	597.94
411.132	604.94
411.355	646.94
411.578	618.94
411.802	587.94
412.025	559.94
412.249	573.94
412.472	621.94
412.695	648.94
412.919	648.94
413.142	604.94
413.365	576.94
413.589	565.94
413.812	556.94
414.035	569.94
414.258	551.94
414.482	548.94
414.705	533.94
414.928	542.94
415.151	547.94
415.374	541.94
415.597	533.94
415.821	536.94
416.044	529.94
416.267	542.94
416.49	545.94
416.713	542.94
416.936	543.94
417.159	547.94
417.382	555.94
417.605	545.94
417.828	544.94
418.051	565.94
418.274	568.94
418.497	558.94
418.72	548.94
418.943	535.94
419.166	559.94
419.389	583.94
419.611	574.94
419.834	566.94
420.057	574.94
420.28	594.94
420.503	580.94
420.726	580.94
420.948	617.94
421.171	624.94
421.394	631.94
421.617	586.94
421.839	565.94
422.062	551.94
422.285	565.94
422.507	618.94
422.73	691.94
422.953	666.94
423.175	591.94
423.398	587.94
423.621	578.94
423.843	615.94
424.066	598.94
424.288	577.94
424.511	634.94
424.733	667.94
424.956	748.94
425.178	694.94
425.401	693.94
425.623	706.94
425.846	629.94
426.068	591.94
426.291	578.94
426.513	571.94
426.735	589.94
426.958	631.94
427.18	725.94
427.402	836.94
427.625	901.94
427.847	783.94
428.069	687.94
428.292	604.94
428.514	566.94
428.736	556.94
428.958	529.94
429.181	545.94
429.403	539.94
429.625	549.94
429.847	565.94
430.069	634.94
430.292	620.94
430.514	554.94
430.736	530.94
430.958	553.94
431.18	541.94
431.402	530.94
431.624	500.94
431.846	505.94
432.068	513.94
432.29	512.94
432.512	494.94
432.734	529.94
432.956	501.94
433.178	513.94
433.4	550.94
433.622	519.94
433.844	513.94
434.066	528.94
434.287	513.94
434.509	529.94
434.731	549.94
434.953	550.94
435.175	547.94
435.397	557.94
435.618	583.94
435.84	629.94
436.062	702.94
436.284	772.94
436.505	653.94
436.727	579.94
436.949	556.94
437.17	539.94
437.392	551.94
437.614	537.94
437.835	556.94
438.057	665.94
438.278	773.94
438.5	750.94
438.721	818.94
438.943	777.94
439.165	625.94
439.386	603.94
439.608	593.94
439.829	563.94
440.05	612.94
440.272	647.94
440.493	625.94
440.715	541.94
440.936	548.94
441.158	534.94
441.379	531.94
441.6	556.94
441.822	583.94
442.043	632.94
442.264	721.94
442.486	729.94
442.707	620.94
442.928	590.94
443.149	615.94
443.371	614.94
443.592	663.94
443.813	733.94
444.034	802.94
444.255	686.94
444.476	643.94
444.698	611.94
444.919	627.94
445.14	761.94
445.361	670.94
445.582	622.94
445.803	681.94
446.024	761.94
446.245	768.94
446.466	717.94
446.687	623.94
446.908	556.94
447.129	533.94
447.35	529.94
447.571	509.94
447.792	548.94
448.013	551.94
448.234	543.94
448.455	603.94
448.675	701.94
448.896	793.94
449.117	659.94
449.338	658.94
449.559	724.94
449.779	856.94
450	688.94
450.221	563.94
450.442	527.94
450.662	503.94
450.883	522.94
451.104	551.94
451.324	522.94
451.545	514.94
451.766	478.94
451.986	492.94
452.207	469.94
452.428	467.94
452.648	461.94
452.869	497.94
453.089	475.94
453.31	501.94
453.53	483.94
453.751	491.94
453.971	474.94
454.192	495.94
454.412	473.94
454.633	464.94
454.853	467.94
455.073	474.94
455.294	500.94
455.514	527.94
455.734	523.94
455.955	486.94
456.175	460.94
456.395	466.94
456.616	452.94
456.836	429.94
457.056	451.94
457.276	439.94
457.497	459.94
457.717	455.94
457.937	454.94
458.157	467.94
458.377	469.94
458.598	492.94
458.818	543.94
459.038	596.94
459.258	614.94
459.478	542.94
459.698	527.94
459.918	535.94
460.138	535.94
460.358	536.94
460.578	563.94
460.798	547.94
461.018	549.94
461.238	538.94
461.458	518.94
461.678	538.94
461.898	542.94
462.118	563.94
462.338	567.94
462.558	538.94
462.777	580.94
462.997	599.94
463.217	645.94
463.437	639.94
463.657	614.94
463.876	589.94
464.096	618.94
464.316	581.94
464.536	578.94
464.755	583.94
464.975	589.94
465.195	635.94
465.414	659.94
465.634	573.94
465.854	558.94
466.073	543.94
466.293	512.94
466.512	510.94
466.732	483.94
466.951	477.94
467.171	493.94
467.391	501.94
467.61	511.94
467.829	531.94
468.049	528.94
468.268	494.94
468.488	485.94
468.707	492.94
468.927	482.94
469.146	480.94
469.365	484.94
469.585	483.94
469.804	506.94
470.023	497.94
470.243	505.94
470.462	530.94
470.681	550.94
470.901	542.94
471.12	507.94
471.339	515.94
471.558	495.94
471.777	516.94
471.997	494.94
472.216	511.94
472.435	538.94
472.654	539.94
472.873	520.94
473.092	487.94
473.311	496.94
473.53	476.94
473.749	489.94
473.968	523.94
474.187	614.94
474.406	630.94
474.625	521.94
474.844	494.94
475.063	499.94
475.282	477.94
475.501	496.94
475.72	497.94
475.939	509.94
476.158	497.94
476.377	528.94
476.596	504.94
476.814	519.94
477.033	531.94
477.252	533.94
477.471	533.94
477.69	541.94
477.908	551.94
478.127	554.94
478.346	545.94
478.564	568.94
478.783	551.94
479.002	595.94
479.22	591.94
479.439	586.94
479.658	607.94
479.876	599.94
480.095	599.94
480.313	638.94
480.532	654.94
480.751	634.94
480.969	661.94
481.188	705.94
481.406	753.94
481.624	655.94
481.843	634.94
482.061	589.94
482.28	587.94
482.498	581.94
482.717	575.94
482.935	559.94
483.153	549.94
483.372	581.94
483.59	572.94
483.808	569.94
484.027	564.94
484.245	591.94
484.463	582.94
484.681	592.94
484.9	593.94
485.118	594.94
485.336	581.94
485.554	589.94
485.772	610.94
485.99	597.94
486.209	601.94
486.427	607.94
486.645	604.94
486.863	613.94
487.081	630.94
487.299	643.94
487.517	633.94
487.735	612.94
487.953	605.94
488.171	641.94
488.389	621.94
488.607	630.94
488.825	628.94
489.043	635.94
489.261	618.94
489.479	611.94
489.696	627.94
489.914	663.94
490.132	653.94
490.35	644.94
490.568	638.94
490.786	648.94
491.003	670.94
491.221	688.94
491.439	722.94
491.657	693.94
491.874	703.94
492.092	714.94
492.31	720.94
492.527	731.94
492.745	706.94
492.963	715.94
493.18	753.94
493.398	748.94
493.615	737.94
493.833	767.94
494.05	748.94
494.268	763.94
494.485	732.94
494.703	710.94
494.92	717.94
495.138	734.94
495.355	724.94
495.573	736.94
495.79	725.94
496.008	735.94
496.225	737.94
496.442	746.94
496.66	737.94
496.877	731.94
497.094	738.94
497.312	767.94
497.529	776.94
497.746	757.94
497.963	793.94
498.181	819.94
498.398	837.94
498.615	868.94
498.832	894.94
499.049	909.94
499.267	949.94
499.484	995.94
499.701	985.94
499.918	1058.94
500.135	1119.94
500.352	1233.94
500.569	1239.94
500.786	1277.94
501.003	1242.94
501.22	1149.94
501.437	1093.94
501.654	1037.94
501.871	1012.94
