Data from 1985.PennyLincolnUp.Lamp.En5.5.200Scan.071819.P1_HRD10591_17-04-14-972.txt Node
Date: Thu Jul 18 17:04:14 EDT 2019
User: cochatt
Spectrometer: HR+D1059
Trigger mode: 1
Integration Time (sec): 1.000000E-1
Scans to average: 1
Electric dark correction enabled: true
Nonlinearity correction enabled: false
Boxcar width: 0
XAxis mode: Wavelengths
Number of Pixels in Spectrum: 2048
>>>>>Begin Spectral Data<<<<<
223.165	-9.56
223.4	-9.56
223.635	-9.56
223.869	-10.56
224.104	-24.56
224.338	-26.56
224.573	-15.56
224.808	-6.56
225.042	-6.56
225.277	-4.56
225.511	-11.56
225.746	5.44
225.98	20.44
226.215	4.44
226.449	15.44
226.683	28.44
226.918	14.44
227.152	27.44
227.387	26.44
227.621	51.44
227.856	50.44
228.09	48.44
228.324	48.44
228.559	60.44
228.793	77.44
229.027	97.44
229.262	112.44
229.496	123.44
229.73	128.44
229.964	145.44
230.199	129.44
230.433	109.44
230.667	114.44
230.901	107.44
231.136	118.44
231.37	112.44
231.604	116.44
231.838	109.44
232.072	123.44
232.306	104.44
232.541	109.44
232.775	105.44
233.009	107.44
233.243	105.44
233.477	122.44
233.711	127.44
233.945	125.44
234.179	125.44
234.413	129.44
234.647	117.44
234.881	122.44
235.115	111.44
235.349	120.44
235.583	132.44
235.817	113.44
236.051	125.44
236.285	118.44
236.519	133.44
236.753	141.44
236.987	146.44
237.221	175.44
237.455	215.44
237.689	175.44
237.922	143.44
238.156	135.44
238.39	145.44
238.624	136.44
238.858	127.44
239.091	120.44
239.325	143.44
239.559	132.44
239.793	131.44
240.027	141.44
240.26	154.44
240.494	154.44
240.728	142.44
240.961	160.44
241.195	152.44
241.429	144.44
241.662	134.44
241.896	146.44
242.13	149.44
242.363	134.44
242.597	140.44
242.83	132.44
243.064	138.44
243.298	154.44
243.531	137.44
243.765	143.44
243.998	135.44
244.232	145.44
244.465	153.44
244.699	152.44
244.932	155.44
245.166	159.44
245.399	148.44
245.633	148.44
245.866	139.44
246.099	150.44
246.333	163.44
246.566	153.44
246.8	163.44
247.033	160.44
247.266	152.44
247.5	164.44
247.733	153.44
247.966	189.44
248.2	184.44
248.433	162.44
248.666	191.44
248.899	191.44
249.133	187.44
249.366	217.44
249.599	195.44
249.832	186.44
250.066	178.44
250.299	199.44
250.532	214.44
250.765	214.44
250.998	235.44
251.231	238.44
251.465	214.44
251.698	212.44
251.931	216.44
252.164	200.44
252.397	191.44
252.63	210.44
252.863	210.44
253.096	213.44
253.329	224.44
253.562	220.44
253.795	204.44
254.028	207.44
254.261	229.44
254.494	217.44
254.727	266.44
254.96	261.44
255.193	254.44
255.426	237.44
255.659	246.44
255.892	246.44
256.124	266.44
256.357	275.44
256.59	249.44
256.823	228.44
257.056	231.44
257.289	225.44
257.521	214.44
257.754	218.44
257.987	208.44
258.22	218.44
258.452	223.44
258.685	221.44
258.918	204.44
259.151	205.44
259.383	201.44
259.616	228.44
259.849	228.44
260.081	230.44
260.314	244.44
260.547	272.44
260.779	254.44
261.012	227.44
261.244	241.44
261.477	228.44
261.71	237.44
261.942	236.44
262.175	261.44
262.407	249.44
262.64	228.44
262.872	230.44
263.105	229.44
263.337	210.44
263.57	224.44
263.802	212.44
264.035	233.44
264.267	217.44
264.499	237.44
264.732	234.44
264.964	233.44
265.197	225.44
265.429	238.44
265.661	221.44
265.894	209.44
266.126	248.44
266.358	222.44
266.591	233.44
266.823	223.44
267.055	240.44
267.287	254.44
267.52	225.44
267.752	235.44
267.984	251.44
268.216	246.44
268.448	247.44
268.681	246.44
268.913	257.44
269.145	287.44
269.377	284.44
269.609	275.44
269.841	269.44
270.073	270.44
270.306	305.44
270.538	318.44
270.77	328.44
271.002	300.44
271.234	312.44
271.466	302.44
271.698	337.44
271.93	307.44
272.162	330.44
272.394	334.44
272.626	305.44
272.858	292.44
273.09	282.44
273.322	276.44
273.553	280.44
273.785	293.44
274.017	264.44
274.249	279.44
274.481	281.44
274.713	282.44
274.945	281.44
275.176	266.44
275.408	278.44
275.64	280.44
275.872	274.44
276.104	300.44
276.335	311.44
276.567	290.44
276.799	298.44
277.031	321.44
277.262	328.44
277.494	325.44
277.726	329.44
277.957	301.44
278.189	317.44
278.421	288.44
278.652	282.44
278.884	280.44
279.115	293.44
279.347	284.44
279.579	289.44
279.81	285.44
280.042	289.44
280.273	297.44
280.505	299.44
280.736	289.44
280.968	278.44
281.199	294.44
281.431	316.44
281.662	286.44
281.894	292.44
282.125	308.44
282.356	316.44
282.588	333.44
282.819	321.44
283.051	320.44
283.282	318.44
283.513	311.44
283.745	297.44
283.976	316.44
284.207	314.44
284.439	300.44
284.67	314.44
284.901	300.44
285.132	296.44
285.364	303.44
285.595	310.44
285.826	306.44
286.057	312.44
286.288	334.44
286.52	324.44
286.751	321.44
286.982	320.44
287.213	322.44
287.444	311.44
287.675	312.44
287.906	346.44
288.138	328.44
288.369	329.44
288.6	339.44
288.831	333.44
289.062	329.44
289.293	339.44
289.524	335.44
289.755	316.44
289.986	336.44
290.217	316.44
290.448	324.44
290.679	342.44
290.91	336.44
291.141	297.44
291.371	324.44
291.602	329.44
291.833	340.44
292.064	330.44
292.295	340.44
292.526	330.44
292.757	332.44
292.987	322.44
293.218	322.44
293.449	334.44
293.68	306.44
293.91	339.44
294.141	345.44
294.372	341.44
294.603	336.44
294.833	320.44
295.064	325.44
295.295	329.44
295.525	329.44
295.756	342.44
295.987	344.44
296.217	373.44
296.448	364.44
296.679	329.44
296.909	341.44
297.14	336.44
297.37	345.44
297.601	361.44
297.831	354.44
298.062	353.44
298.292	339.44
298.523	341.44
298.753	327.44
298.984	351.44
299.214	332.44
299.445	352.44
299.675	347.44
299.905	362.44
300.136	356.44
300.366	346.44
300.597	355.44
300.827	359.44
301.057	374.44
301.288	370.44
301.518	380.44
301.748	366.44
301.979	385.44
302.209	376.44
302.439	372.44
302.669	377.44
302.9	352.44
303.13	388.44
303.36	368.44
303.59	354.44
303.82	400.44
304.051	382.44
304.281	369.44
304.511	375.44
304.741	378.44
304.971	384.44
305.201	375.44
305.431	382.44
305.661	377.44
305.891	384.44
306.121	374.44
306.352	370.44
306.582	390.44
306.812	380.44
307.042	399.44
307.272	378.44
307.502	379.44
307.731	375.44
307.961	378.44
308.191	374.44
308.421	376.44
308.651	392.44
308.881	385.44
309.111	384.44
309.341	385.44
309.571	396.44
309.8	402.44
310.03	399.44
310.26	398.44
310.49	412.44
310.72	429.44
310.949	440.44
311.179	407.44
311.409	426.44
311.639	429.44
311.868	397.44
312.098	418.44
312.328	438.44
312.557	455.44
312.787	438.44
313.017	457.44
313.246	420.44
313.476	415.44
313.706	427.44
313.935	417.44
314.165	422.44
314.394	428.44
314.624	429.44
314.853	421.44
315.083	425.44
315.312	440.44
315.542	425.44
315.771	430.44
316.001	421.44
316.23	420.44
316.46	414.44
316.689	430.44
316.919	416.44
317.148	406.44
317.377	436.44
317.607	442.44
317.836	447.44
318.065	427.44
318.295	422.44
318.524	423.44
318.753	421.44
318.983	419.44
319.212	422.44
319.441	432.44
319.67	438.44
319.9	426.44
320.129	417.44
320.358	428.44
320.587	426.44
320.816	452.44
321.046	452.44
321.275	444.44
321.504	457.44
321.733	430.44
321.962	459.44
322.191	473.44
322.42	475.44
322.649	477.44
322.878	481.44
323.108	500.44
323.337	530.44
323.566	525.44
323.795	544.44
324.024	593.44
324.253	667.44
324.482	970.44
324.71	1458.44
324.939	2037.44
325.168	1716.44
325.397	908.44
325.626	648.44
325.855	570.44
326.084	545.44
326.313	527.44
326.542	555.44
326.77	591.44
326.999	681.44
327.228	885.44
327.457	1324.44
327.686	1528.44
327.914	1042.44
328.143	728.44
328.372	652.44
328.6	643.44
328.829	586.44
329.058	593.44
329.287	599.44
329.515	586.44
329.744	583.44
329.972	584.44
330.201	584.44
330.43	662.44
330.658	664.44
330.887	634.44
331.115	640.44
331.344	574.44
331.572	541.44
331.801	534.44
332.03	543.44
332.258	513.44
332.486	522.44
332.715	504.44
332.943	546.44
333.172	520.44
333.4	544.44
333.629	559.44
333.857	570.44
334.085	600.44
334.314	633.44
334.542	648.44
334.771	651.44
334.999	603.44
335.227	564.44
335.455	549.44
335.684	523.44
335.912	521.44
336.14	526.44
336.369	505.44
336.597	528.44
336.825	544.44
337.053	489.44
337.281	506.44
337.51	513.44
337.738	481.44
337.966	510.44
338.194	496.44
338.422	505.44
338.65	474.44
338.878	493.44
339.106	461.44
339.334	486.44
339.562	476.44
339.79	481.44
340.018	504.44
340.246	491.44
340.474	469.44
340.702	474.44
340.93	476.44
341.158	454.44
341.386	469.44
341.614	472.44
341.842	485.44
342.07	477.44
342.298	464.44
342.526	448.44
342.754	473.44
342.981	454.44
343.209	474.44
343.437	460.44
343.665	476.44
343.893	498.44
344.12	506.44
344.348	520.44
344.576	474.44
344.804	486.44
345.031	499.44
345.259	483.44
345.487	480.44
345.714	474.44
345.942	465.44
346.17	463.44
346.397	460.44
346.625	462.44
346.853	473.44
347.08	446.44
347.308	463.44
347.535	457.44
347.763	458.44
347.99	476.44
348.218	465.44
348.445	473.44
348.673	490.44
348.9	465.44
349.128	441.44
349.355	431.44
349.583	448.44
349.81	438.44
350.037	434.44
350.265	472.44
350.492	447.44
350.72	443.44
350.947	445.44
351.174	453.44
351.402	453.44
351.629	456.44
351.856	441.44
352.083	453.44
352.311	457.44
352.538	465.44
352.765	470.44
352.992	468.44
353.22	443.44
353.447	458.44
353.674	420.44
353.901	433.44
354.128	427.44
354.355	427.44
354.583	428.44
354.81	427.44
355.037	423.44
355.264	414.44
355.491	438.44
355.718	425.44
355.945	441.44
356.172	423.44
356.399	404.44
356.626	407.44
356.853	417.44
357.08	421.44
357.307	416.44
357.534	409.44
357.761	426.44
357.988	441.44
358.215	417.44
358.441	414.44
358.668	417.44
358.895	420.44
359.122	434.44
359.349	429.44
359.576	440.44
359.802	458.44
360.029	500.44
360.256	492.44
360.483	484.44
360.709	447.44
360.936	454.44
361.163	444.44
361.39	442.44
361.616	443.44
361.843	437.44
362.07	434.44
362.296	451.44
362.523	455.44
362.749	446.44
362.976	422.44
363.203	424.44
363.429	418.44
363.656	443.44
363.882	423.44
364.109	409.44
364.335	432.44
364.562	420.44
364.788	428.44
365.015	433.44
365.241	424.44
365.468	437.44
365.694	444.44
365.92	427.44
366.147	426.44
366.373	406.44
366.599	409.44
366.826	428.44
367.052	416.44
367.278	426.44
367.505	419.44
367.731	445.44
367.957	424.44
368.184	448.44
368.41	423.44
368.636	438.44
368.862	447.44
369.089	432.44
369.315	413.44
369.541	425.44
369.767	426.44
369.993	424.44
370.219	453.44
370.445	412.44
370.672	412.44
370.898	433.44
371.124	446.44
371.35	436.44
371.576	425.44
371.802	446.44
372.028	445.44
372.254	443.44
372.48	416.44
372.706	440.44
372.932	454.44
373.158	449.44
373.384	440.44
373.61	419.44
373.835	425.44
374.061	442.44
374.287	417.44
374.513	435.44
374.739	441.44
374.965	447.44
375.191	452.44
375.416	452.44
375.642	453.44
375.868	464.44
376.094	435.44
376.319	415.44
376.545	419.44
376.771	428.44
376.997	398.44
377.222	424.44
377.448	407.44
377.674	431.44
377.899	427.44
378.125	437.44
378.35	425.44
378.576	434.44
378.802	418.44
379.027	429.44
379.253	424.44
379.478	432.44
379.704	428.44
379.929	438.44
380.155	445.44
380.38	438.44
380.606	423.44
380.831	410.44
381.057	442.44
381.282	418.44
381.507	413.44
381.733	422.44
381.958	424.44
382.184	443.44
382.409	454.44
382.634	440.44
382.86	440.44
383.085	450.44
383.31	454.44
383.535	446.44
383.761	451.44
383.986	442.44
384.211	470.44
384.436	457.44
384.662	463.44
384.887	471.44
385.112	461.44
385.337	444.44
385.562	482.44
385.787	449.44
386.013	475.44
386.238	481.44
386.463	481.44
386.688	482.44
386.913	451.44
387.138	459.44
387.363	469.44
387.588	443.44
387.813	480.44
388.038	471.44
388.263	479.44
388.488	464.44
388.713	483.44
388.938	492.44
389.163	487.44
389.387	466.44
389.612	488.44
389.837	469.44
390.062	490.44
390.287	474.44
390.512	487.44
390.736	476.44
390.961	479.44
391.186	486.44
391.411	493.44
391.636	496.44
391.86	519.44
392.085	504.44
392.31	495.44
392.534	490.44
392.759	503.44
392.984	495.44
393.208	486.44
393.433	476.44
393.658	478.44
393.882	473.44
394.107	459.44
394.331	492.44
394.556	496.44
394.78	481.44
395.005	495.44
395.229	512.44
395.454	516.44
395.678	515.44
395.903	521.44
396.127	526.44
396.352	508.44
396.576	504.44
396.801	478.44
397.025	476.44
397.249	491.44
397.474	502.44
397.698	522.44
397.922	521.44
398.147	530.44
398.371	541.44
398.595	522.44
398.82	559.44
399.044	589.44
399.268	619.44
399.492	648.44
399.717	696.44
399.941	698.44
400.165	711.44
400.389	700.44
400.613	623.44
400.837	577.44
401.062	575.44
401.286	552.44
401.51	567.44
401.734	568.44
401.958	550.44
402.182	578.44
402.406	594.44
402.63	586.44
402.854	550.44
403.078	581.44
403.302	579.44
403.526	570.44
403.75	589.44
403.974	594.44
404.198	581.44
404.422	612.44
404.645	605.44
404.869	608.44
405.093	644.44
405.317	648.44
405.541	695.44
405.765	648.44
405.988	609.44
406.212	616.44
406.436	639.44
406.66	657.44
406.883	639.44
407.107	650.44
407.331	700.44
407.555	752.44
407.778	757.44
408.002	666.44
408.226	639.44
408.449	630.44
408.673	625.44
408.896	647.44
409.12	670.44
409.344	658.44
409.567	607.44
409.791	588.44
410.014	555.44
410.238	586.44
410.461	547.44
410.685	581.44
410.908	590.44
411.132	616.44
411.355	654.44
411.578	589.44
411.802	570.44
412.025	548.44
412.249	571.44
412.472	604.44
412.695	631.44
412.919	656.44
413.142	589.44
413.365	590.44
413.589	573.44
413.812	540.44
414.035	542.44
414.258	549.44
414.482	502.44
414.705	550.44
414.928	558.44
415.151	547.44
415.374	543.44
415.597	530.44
415.821	539.44
416.044	530.44
416.267	524.44
416.49	536.44
416.713	545.44
416.936	525.44
417.159	540.44
417.382	540.44
417.605	545.44
417.828	566.44
418.051	560.44
418.274	566.44
418.497	542.44
418.72	533.44
418.943	538.44
419.166	573.44
419.389	579.44
419.611	574.44
419.834	582.44
420.057	580.44
420.28	583.44
420.503	570.44
420.726	563.44
420.948	589.44
421.171	591.44
421.394	629.44
421.617	570.44
421.839	554.44
422.062	585.44
422.285	568.44
422.507	620.44
422.73	674.44
422.953	672.44
423.175	610.44
423.398	570.44
423.621	581.44
423.843	574.44
424.066	593.44
424.288	590.44
424.511	613.44
424.733	643.44
424.956	728.44
425.178	673.44
425.401	684.44
425.623	707.44
425.846	601.44
426.068	576.44
426.291	557.44
426.513	564.44
426.735	588.44
426.958	617.44
427.18	693.44
427.402	804.44
427.625	878.44
427.847	772.44
428.069	662.44
428.292	626.44
428.514	576.44
428.736	540.44
428.958	526.44
429.181	549.44
429.403	543.44
429.625	528.44
429.847	585.44
430.069	620.44
430.292	623.44
430.514	530.44
430.736	537.44
430.958	528.44
431.18	505.44
431.402	512.44
431.624	512.44
431.846	521.44
432.068	514.44
432.29	511.44
432.512	507.44
432.734	534.44
432.956	520.44
433.178	507.44
433.4	544.44
433.622	515.44
433.844	518.44
434.066	486.44
434.287	510.44
434.509	516.44
434.731	530.44
434.953	537.44
435.175	549.44
435.397	569.44
435.618	570.44
435.84	610.44
436.062	688.44
436.284	728.44
436.505	616.44
436.727	569.44
436.949	535.44
437.17	535.44
437.392	508.44
437.614	552.44
437.835	553.44
438.057	639.44
438.278	760.44
438.5	733.44
438.721	792.44
438.943	772.44
439.165	622.44
439.386	582.44
439.608	566.44
439.829	565.44
440.05	601.44
440.272	646.44
440.493	609.44
440.715	562.44
440.936	552.44
441.158	543.44
441.379	557.44
441.6	554.44
441.822	606.44
442.043	601.44
442.264	681.44
442.486	700.44
442.707	636.44
442.928	599.44
443.149	588.44
443.371	593.44
443.592	636.44
443.813	743.44
444.034	793.44
444.255	659.44
444.476	612.44
444.698	614.44
444.919	630.44
445.14	724.44
445.361	678.44
445.582	628.44
445.803	685.44
446.024	766.44
446.245	765.44
446.466	673.44
446.687	600.44
446.908	573.44
447.129	536.44
447.35	508.44
447.571	537.44
447.792	534.44
448.013	514.44
448.234	556.44
448.455	576.44
448.675	708.44
448.896	786.44
449.117	657.44
449.338	643.44
449.559	741.44
449.779	844.44
450	648.44
450.221	560.44
450.442	521.44
450.662	514.44
450.883	537.44
451.104	514.44
451.324	518.44
451.545	509.44
451.766	482.44
451.986	473.44
452.207	471.44
452.428	472.44
452.648	475.44
452.869	468.44
453.089	470.44
453.31	487.44
453.53	465.44
453.751	464.44
453.971	469.44
454.192	502.44
454.412	473.44
454.633	447.44
454.853	458.44
455.073	473.44
455.294	471.44
455.514	556.44
455.734	529.44
455.955	507.44
456.175	485.44
456.395	449.44
456.616	462.44
456.836	457.44
457.056	455.44
457.276	441.44
457.497	452.44
457.717	429.44
457.937	463.44
458.157	476.44
458.377	466.44
458.598	470.44
458.818	538.44
459.038	615.44
459.258	629.44
459.478	534.44
459.698	520.44
459.918	516.44
460.138	494.44
460.358	541.44
460.578	518.44
460.798	555.44
461.018	566.44
461.238	550.44
461.458	532.44
461.678	545.44
461.898	542.44
462.118	547.44
462.338	565.44
462.558	559.44
462.777	580.44
462.997	615.44
463.217	588.44
463.437	632.44
463.657	588.44
463.876	568.44
464.096	564.44
464.316	603.44
464.536	578.44
464.755	583.44
464.975	598.44
465.195	598.44
465.414	667.44
465.634	574.44
465.854	550.44
466.073	547.44
466.293	527.44
466.512	515.44
466.732	477.44
466.951	465.44
467.171	490.44
467.391	497.44
467.61	494.44
467.829	502.44
468.049	505.44
468.268	490.44
468.488	493.44
468.707	489.44
468.927	497.44
469.146	495.44
469.365	466.44
469.585	465.44
469.804	494.44
470.023	509.44
470.243	520.44
470.462	512.44
470.681	522.44
470.901	524.44
471.12	513.44
471.339	490.44
471.558	497.44
471.777	511.44
471.997	489.44
472.216	497.44
472.435	557.44
472.654	529.44
472.873	480.44
473.092	476.44
473.311	485.44
473.53	511.44
473.749	521.44
473.968	538.44
474.187	607.44
474.406	610.44
474.625	581.44
474.844	517.44
475.063	490.44
475.282	495.44
475.501	507.44
475.72	487.44
475.939	477.44
476.158	496.44
476.377	498.44
476.596	513.44
476.814	518.44
477.033	544.44
477.252	535.44
477.471	534.44
477.69	553.44
477.908	544.44
478.127	565.44
478.346	562.44
478.564	543.44
478.783	591.44
479.002	584.44
479.22	564.44
479.439	611.44
479.658	604.44
479.876	597.44
480.095	631.44
480.313	621.44
480.532	626.44
480.751	628.44
480.969	638.44
481.188	668.44
481.406	742.44
481.624	665.44
481.843	624.44
482.061	598.44
482.28	587.44
482.498	570.44
482.717	574.44
482.935	566.44
483.153	579.44
483.372	580.44
483.59	573.44
483.808	570.44
484.027	592.44
484.245	581.44
484.463	586.44
484.681	583.44
484.9	580.44
485.118	613.44
485.336	584.44
485.554	565.44
485.772	596.44
485.99	630.44
486.209	586.44
486.427	606.44
486.645	623.44
486.863	595.44
487.081	625.44
487.299	625.44
487.517	631.44
487.735	584.44
487.953	605.44
488.171	617.44
488.389	604.44
488.607	595.44
488.825	597.44
489.043	605.44
489.261	622.44
489.479	616.44
489.696	606.44
489.914	620.44
490.132	638.44
490.35	620.44
490.568	642.44
490.786	641.44
491.003	662.44
491.221	678.44
491.439	671.44
491.657	692.44
491.874	700.44
492.092	722.44
492.31	700.44
492.527	736.44
492.745	717.44
492.963	713.44
493.18	736.44
493.398	725.44
493.615	742.44
493.833	715.44
494.05	726.44
494.268	743.44
494.485	733.44
494.703	720.44
494.92	739.44
495.138	740.44
495.355	734.44
495.573	747.44
495.79	720.44
496.008	745.44
496.225	713.44
496.442	710.44
496.66	740.44
496.877	720.44
497.094	725.44
497.312	737.44
497.529	732.44
497.746	786.44
497.963	772.44
498.181	810.44
498.398	831.44
498.615	860.44
498.832	862.44
499.049	890.44
499.267	918.44
499.484	933.44
499.701	985.44
499.918	1068.44
500.135	1120.44
500.352	1253.44
500.569	1248.44
500.786	1232.44
501.003	1198.44
501.22	1123.44
501.437	1088.44
501.654	1038.44
501.871	983.44
