Data from 1985.PennyLincolnUp.Lamp.En5.5.200Scan.071819.P1_HRD10591_17-02-06-970.txt Node
Date: Thu Jul 18 17:02:06 EDT 2019
User: cochatt
Spectrometer: HR+D1059
Trigger mode: 1
Integration Time (sec): 1.000000E-1
Scans to average: 1
Electric dark correction enabled: true
Nonlinearity correction enabled: false
Boxcar width: 0
XAxis mode: Wavelengths
Number of Pixels in Spectrum: 2048
>>>>>Begin Spectral Data<<<<<
223.165	-15.88
223.4	-15.88
223.635	-15.88
223.869	-24.88
224.104	-12.88
224.338	-10.88
224.573	-22.88
224.808	-13.88
225.042	-10.88
225.277	-8.88
225.511	1.12
225.746	20.12
225.98	3.12
226.215	7.12
226.449	22.12
226.683	18.12
226.918	30.12
227.152	19.12
227.387	34.12
227.621	44.12
227.856	47.12
228.09	39.12
228.324	41.12
228.559	46.12
228.793	69.12
229.027	90.12
229.262	99.12
229.496	121.12
229.73	131.12
229.964	153.12
230.199	125.12
230.433	104.12
230.667	113.12
230.901	108.12
231.136	102.12
231.37	111.12
231.604	102.12
231.838	123.12
232.072	126.12
232.306	113.12
232.541	114.12
232.775	109.12
233.009	110.12
233.243	113.12
233.477	129.12
233.711	123.12
233.945	118.12
234.179	103.12
234.413	127.12
234.647	125.12
234.881	114.12
235.115	111.12
235.349	129.12
235.583	108.12
235.817	115.12
236.051	121.12
236.285	135.12
236.519	123.12
236.753	131.12
236.987	131.12
237.221	164.12
237.455	206.12
237.689	161.12
237.922	135.12
238.156	125.12
238.39	131.12
238.624	126.12
238.858	133.12
239.091	117.12
239.325	125.12
239.559	115.12
239.793	125.12
240.027	129.12
240.26	127.12
240.494	161.12
240.728	158.12
240.961	150.12
241.195	134.12
241.429	146.12
241.662	125.12
241.896	141.12
242.13	132.12
242.363	147.12
242.597	137.12
242.83	129.12
243.064	146.12
243.298	121.12
243.531	129.12
243.765	142.12
243.998	131.12
244.232	138.12
244.465	151.12
244.699	145.12
244.932	147.12
245.166	159.12
245.399	149.12
245.633	148.12
245.866	134.12
246.099	162.12
246.333	153.12
246.566	141.12
246.8	140.12
247.033	157.12
247.266	153.12
247.5	159.12
247.733	171.12
247.966	190.12
248.2	175.12
248.433	163.12
248.666	170.12
248.899	172.12
249.133	186.12
249.366	189.12
249.599	182.12
249.832	181.12
250.066	174.12
250.299	163.12
250.532	174.12
250.765	202.12
250.998	193.12
251.231	205.12
251.465	188.12
251.698	187.12
251.931	181.12
252.164	196.12
252.397	186.12
252.63	193.12
252.863	206.12
253.096	209.12
253.329	213.12
253.562	215.12
253.795	198.12
254.028	202.12
254.261	191.12
254.494	220.12
254.727	250.12
254.96	257.12
255.193	235.12
255.426	248.12
255.659	226.12
255.892	217.12
256.124	199.12
256.357	207.12
256.59	189.12
256.823	195.12
257.056	199.12
257.289	197.12
257.521	184.12
257.754	195.12
257.987	193.12
258.22	223.12
258.452	201.12
258.685	202.12
258.918	197.12
259.151	193.12
259.383	205.12
259.616	217.12
259.849	235.12
260.081	233.12
260.314	230.12
260.547	232.12
260.779	253.12
261.012	213.12
261.244	224.12
261.477	217.12
261.71	215.12
261.942	229.12
262.175	218.12
262.407	234.12
262.64	218.12
262.872	220.12
263.105	211.12
263.337	215.12
263.57	214.12
263.802	236.12
264.035	212.12
264.267	225.12
264.499	231.12
264.732	215.12
264.964	220.12
265.197	221.12
265.429	222.12
265.661	222.12
265.894	219.12
266.126	222.12
266.358	225.12
266.591	234.12
266.823	224.12
267.055	243.12
267.287	232.12
267.52	217.12
267.752	232.12
267.984	230.12
268.216	238.12
268.448	234.12
268.681	234.12
268.913	253.12
269.145	265.12
269.377	261.12
269.609	267.12
269.841	274.12
270.073	263.12
270.306	283.12
270.538	301.12
270.77	305.12
271.002	307.12
271.234	278.12
271.466	298.12
271.698	295.12
271.93	315.12
272.162	318.12
272.394	314.12
272.626	303.12
272.858	300.12
273.09	278.12
273.322	283.12
273.553	275.12
273.785	258.12
274.017	259.12
274.249	275.12
274.481	267.12
274.713	277.12
274.945	260.12
275.176	273.12
275.408	271.12
275.64	263.12
275.872	275.12
276.104	269.12
276.335	254.12
276.567	291.12
276.799	289.12
277.031	302.12
277.262	307.12
277.494	316.12
277.726	302.12
277.957	299.12
278.189	287.12
278.421	275.12
278.652	288.12
278.884	281.12
279.115	293.12
279.347	278.12
279.579	257.12
279.81	277.12
280.042	278.12
280.273	287.12
280.505	281.12
280.736	281.12
280.968	294.12
281.199	291.12
281.431	271.12
281.662	281.12
281.894	295.12
282.125	270.12
282.356	297.12
282.588	335.12
282.819	291.12
283.051	307.12
283.282	285.12
283.513	296.12
283.745	290.12
283.976	297.12
284.207	299.12
284.439	309.12
284.67	286.12
284.901	305.12
285.132	293.12
285.364	283.12
285.595	322.12
285.826	289.12
286.057	289.12
286.288	290.12
286.52	302.12
286.751	291.12
286.982	311.12
287.213	317.12
287.444	307.12
287.675	312.12
287.906	321.12
288.138	321.12
288.369	323.12
288.6	309.12
288.831	310.12
289.062	325.12
289.293	311.12
289.524	293.12
289.755	317.12
289.986	298.12
290.217	317.12
290.448	289.12
290.679	308.12
290.91	315.12
291.141	311.12
291.371	301.12
291.602	309.12
291.833	315.12
292.064	293.12
292.295	309.12
292.526	331.12
292.757	321.12
292.987	305.12
293.218	311.12
293.449	306.12
293.68	299.12
293.91	317.12
294.141	317.12
294.372	313.12
294.603	322.12
294.833	332.12
295.064	323.12
295.295	308.12
295.525	321.12
295.756	332.12
295.987	324.12
296.217	348.12
296.448	340.12
296.679	344.12
296.909	310.12
297.14	334.12
297.37	328.12
297.601	317.12
297.831	337.12
298.062	333.12
298.292	342.12
298.523	343.12
298.753	330.12
298.984	349.12
299.214	334.12
299.445	341.12
299.675	315.12
299.905	336.12
300.136	322.12
300.366	350.12
300.597	354.12
300.827	350.12
301.057	357.12
301.288	349.12
301.518	366.12
301.748	359.12
301.979	334.12
302.209	357.12
302.439	349.12
302.669	364.12
302.9	380.12
303.13	355.12
303.36	347.12
303.59	367.12
303.82	369.12
304.051	365.12
304.281	348.12
304.511	366.12
304.741	351.12
304.971	367.12
305.201	348.12
305.431	354.12
305.661	373.12
305.891	366.12
306.121	362.12
306.352	364.12
306.582	356.12
306.812	356.12
307.042	365.12
307.272	359.12
307.502	356.12
307.731	370.12
307.961	372.12
308.191	360.12
308.421	357.12
308.651	340.12
308.881	355.12
309.111	346.12
309.341	371.12
309.571	360.12
309.8	377.12
310.03	377.12
310.26	381.12
310.49	371.12
310.72	416.12
310.949	399.12
311.179	415.12
311.409	418.12
311.639	402.12
311.868	404.12
312.098	383.12
312.328	409.12
312.557	412.12
312.787	431.12
313.017	430.12
313.246	398.12
313.476	408.12
313.706	409.12
313.935	405.12
314.165	417.12
314.394	426.12
314.624	421.12
314.853	409.12
315.083	407.12
315.312	413.12
315.542	425.12
315.771	388.12
316.001	383.12
316.23	392.12
316.46	393.12
316.689	405.12
316.919	401.12
317.148	386.12
317.377	395.12
317.607	429.12
317.836	391.12
318.065	404.12
318.295	413.12
318.524	402.12
318.753	403.12
318.983	402.12
319.212	398.12
319.441	409.12
319.67	414.12
319.9	397.12
320.129	407.12
320.358	405.12
320.587	391.12
320.816	416.12
321.046	429.12
321.275	434.12
321.504	427.12
321.733	424.12
321.962	444.12
322.191	449.12
322.42	459.12
322.649	469.12
322.878	455.12
323.108	469.12
323.337	485.12
323.566	487.12
323.795	526.12
324.024	587.12
324.253	655.12
324.482	901.12
324.71	1349.12
324.939	1871.12
325.168	1609.12
325.397	878.12
325.626	611.12
325.855	537.12
326.084	506.12
326.313	500.12
326.542	522.12
326.77	533.12
326.999	625.12
327.228	836.12
327.457	1213.12
327.686	1422.12
327.914	966.12
328.143	688.12
328.372	601.12
328.6	566.12
328.829	551.12
329.058	570.12
329.287	573.12
329.515	522.12
329.744	516.12
329.972	497.12
330.201	511.12
330.43	530.12
330.658	546.12
330.887	590.12
331.115	589.12
331.344	543.12
331.572	494.12
331.801	496.12
332.03	539.12
332.258	490.12
332.486	489.12
332.715	499.12
332.943	497.12
333.172	502.12
333.4	479.12
333.629	507.12
333.857	542.12
334.085	526.12
334.314	535.12
334.542	518.12
334.771	511.12
334.999	525.12
335.227	503.12
335.455	508.12
335.684	491.12
335.912	485.12
336.14	497.12
336.369	474.12
336.597	487.12
336.825	479.12
337.053	484.12
337.281	476.12
337.51	472.12
337.738	468.12
337.966	485.12
338.194	464.12
338.422	476.12
338.65	475.12
338.878	461.12
339.106	458.12
339.334	479.12
339.562	453.12
339.79	459.12
340.018	452.12
340.246	437.12
340.474	477.12
340.702	449.12
340.93	440.12
341.158	452.12
341.386	465.12
341.614	462.12
341.842	455.12
342.07	461.12
342.298	466.12
342.526	457.12
342.754	454.12
342.981	439.12
343.209	421.12
343.437	445.12
343.665	457.12
343.893	492.12
344.12	502.12
344.348	478.12
344.576	475.12
344.804	468.12
345.031	456.12
345.259	466.12
345.487	457.12
345.714	451.12
345.942	442.12
346.17	424.12
346.397	424.12
346.625	435.12
346.853	423.12
347.08	405.12
347.308	436.12
347.535	435.12
347.763	446.12
347.99	446.12
348.218	437.12
348.445	445.12
348.673	437.12
348.9	424.12
349.128	443.12
349.355	429.12
349.583	420.12
349.81	436.12
350.037	418.12
350.265	399.12
350.492	427.12
350.72	414.12
350.947	425.12
351.174	437.12
351.402	448.12
351.629	452.12
351.856	439.12
352.083	424.12
352.311	469.12
352.538	437.12
352.765	449.12
352.992	427.12
353.22	441.12
353.447	433.12
353.674	423.12
353.901	413.12
354.128	418.12
354.355	394.12
354.583	397.12
354.81	405.12
355.037	427.12
355.264	403.12
355.491	390.12
355.718	405.12
355.945	407.12
356.172	425.12
356.399	393.12
356.626	391.12
356.853	417.12
357.08	411.12
357.307	419.12
357.534	393.12
357.761	420.12
357.988	393.12
358.215	405.12
358.441	419.12
358.668	405.12
358.895	408.12
359.122	409.12
359.349	402.12
359.576	423.12
359.802	418.12
360.029	469.12
360.256	487.12
360.483	465.12
360.709	433.12
360.936	431.12
361.163	421.12
361.39	442.12
361.616	425.12
361.843	420.12
362.07	423.12
362.296	430.12
362.523	434.12
362.749	414.12
362.976	422.12
363.203	413.12
363.429	422.12
363.656	419.12
363.882	411.12
364.109	405.12
364.335	414.12
364.562	396.12
364.788	393.12
365.015	406.12
365.241	413.12
365.468	417.12
365.694	415.12
365.92	418.12
366.147	409.12
366.373	422.12
366.599	415.12
366.826	405.12
367.052	418.12
367.278	398.12
367.505	412.12
367.731	413.12
367.957	404.12
368.184	419.12
368.41	424.12
368.636	417.12
368.862	433.12
369.089	401.12
369.315	423.12
369.541	414.12
369.767	417.12
369.993	419.12
370.219	407.12
370.445	395.12
370.672	392.12
370.898	406.12
371.124	401.12
371.35	410.12
371.576	393.12
371.802	409.12
372.028	421.12
372.254	415.12
372.48	393.12
372.706	409.12
372.932	422.12
373.158	412.12
373.384	414.12
373.61	404.12
373.835	419.12
374.061	422.12
374.287	413.12
374.513	420.12
374.739	431.12
374.965	436.12
375.191	437.12
375.416	433.12
375.642	439.12
375.868	425.12
376.094	437.12
376.319	405.12
376.545	408.12
376.771	393.12
376.997	394.12
377.222	385.12
377.448	418.12
377.674	423.12
377.899	390.12
378.125	418.12
378.35	418.12
378.576	410.12
378.802	399.12
379.027	407.12
379.253	401.12
379.478	410.12
379.704	416.12
379.929	398.12
380.155	398.12
380.38	413.12
380.606	403.12
380.831	414.12
381.057	417.12
381.282	393.12
381.507	420.12
381.733	409.12
381.958	405.12
382.184	430.12
382.409	414.12
382.634	434.12
382.86	417.12
383.085	425.12
383.31	414.12
383.535	423.12
383.761	429.12
383.986	437.12
384.211	447.12
384.436	441.12
384.662	456.12
384.887	433.12
385.112	453.12
385.337	459.12
385.562	443.12
385.787	441.12
386.013	449.12
386.238	479.12
386.463	474.12
386.688	474.12
386.913	464.12
387.138	461.12
387.363	454.12
387.588	454.12
387.813	451.12
388.038	459.12
388.263	464.12
388.488	440.12
388.713	467.12
388.938	457.12
389.163	461.12
389.387	443.12
389.612	452.12
389.837	457.12
390.062	446.12
390.287	450.12
390.512	440.12
390.736	431.12
390.961	462.12
391.186	467.12
391.411	478.12
391.636	464.12
391.86	474.12
392.085	481.12
392.31	481.12
392.534	461.12
392.759	482.12
392.984	469.12
393.208	476.12
393.433	463.12
393.658	463.12
393.882	456.12
394.107	471.12
394.331	451.12
394.556	464.12
394.78	467.12
395.005	480.12
395.229	475.12
395.454	492.12
395.678	481.12
395.903	493.12
396.127	501.12
396.352	504.12
396.576	475.12
396.801	489.12
397.025	489.12
397.249	483.12
397.474	486.12
397.698	488.12
397.922	492.12
398.147	527.12
398.371	508.12
398.595	525.12
398.82	518.12
399.044	549.12
399.268	564.12
399.492	630.12
399.717	667.12
399.941	672.12
400.165	674.12
400.389	686.12
400.613	632.12
400.837	577.12
401.062	582.12
401.286	523.12
401.51	554.12
401.734	556.12
401.958	559.12
402.182	545.12
402.406	543.12
402.63	547.12
402.854	548.12
403.078	541.12
403.302	562.12
403.526	570.12
403.75	556.12
403.974	590.12
404.198	570.12
404.422	566.12
404.645	590.12
404.869	571.12
405.093	572.12
405.317	583.12
405.541	611.12
405.765	588.12
405.988	561.12
406.212	580.12
406.436	607.12
406.66	633.12
406.883	596.12
407.107	620.12
407.331	665.12
407.555	707.12
407.778	739.12
408.002	673.12
408.226	643.12
408.449	618.12
408.673	580.12
408.896	605.12
409.12	660.12
409.344	618.12
409.567	577.12
409.791	583.12
410.014	542.12
410.238	548.12
410.461	556.12
410.685	530.12
410.908	543.12
411.132	594.12
411.355	615.12
411.578	581.12
411.802	569.12
412.025	541.12
412.249	534.12
412.472	553.12
412.695	528.12
412.919	541.12
413.142	534.12
413.365	525.12
413.589	517.12
413.812	533.12
414.035	516.12
414.258	533.12
414.482	534.12
414.705	525.12
414.928	521.12
415.151	533.12
415.374	519.12
415.597	513.12
415.821	529.12
416.044	511.12
416.267	497.12
416.49	514.12
416.713	533.12
416.936	523.12
417.159	494.12
417.382	501.12
417.605	508.12
417.828	519.12
418.051	537.12
418.274	548.12
418.497	501.12
418.72	513.12
418.943	516.12
419.166	548.12
419.389	567.12
419.611	559.12
419.834	554.12
420.057	541.12
420.28	521.12
420.503	541.12
420.726	539.12
420.948	539.12
421.171	557.12
421.394	587.12
421.617	550.12
421.839	525.12
422.062	533.12
422.285	546.12
422.507	590.12
422.73	667.12
422.953	645.12
423.175	561.12
423.398	555.12
423.621	552.12
423.843	573.12
424.066	583.12
424.288	548.12
424.511	565.12
424.733	634.12
424.956	695.12
425.178	655.12
425.401	665.12
425.623	699.12
425.846	589.12
426.068	553.12
426.291	549.12
426.513	587.12
426.735	545.12
426.958	613.12
427.18	659.12
427.402	756.12
427.625	853.12
427.847	746.12
428.069	614.12
428.292	571.12
428.514	537.12
428.736	537.12
428.958	514.12
429.181	519.12
429.403	503.12
429.625	499.12
429.847	515.12
430.069	591.12
430.292	598.12
430.514	523.12
430.736	518.12
430.958	501.12
431.18	487.12
431.402	461.12
431.624	447.12
431.846	482.12
432.068	488.12
432.29	489.12
432.512	515.12
432.734	507.12
432.956	479.12
433.178	475.12
433.4	507.12
433.622	501.12
433.844	505.12
434.066	489.12
434.287	496.12
434.509	481.12
434.731	511.12
434.953	527.12
435.175	539.12
435.397	570.12
435.618	562.12
435.84	570.12
436.062	670.12
436.284	713.12
436.505	582.12
436.727	543.12
436.949	521.12
437.17	514.12
437.392	527.12
437.614	531.12
437.835	534.12
438.057	618.12
438.278	709.12
438.5	701.12
438.721	777.12
438.943	746.12
439.165	578.12
439.386	558.12
439.608	570.12
439.829	568.12
440.05	557.12
440.272	609.12
440.493	567.12
440.715	521.12
440.936	495.12
441.158	525.12
441.379	534.12
441.6	539.12
441.822	540.12
442.043	570.12
442.264	641.12
442.486	710.12
442.707	606.12
442.928	564.12
443.149	565.12
443.371	598.12
443.592	622.12
443.813	674.12
444.034	746.12
444.255	646.12
444.476	579.12
444.698	576.12
444.919	572.12
445.14	691.12
445.361	640.12
445.582	619.12
445.803	657.12
446.024	706.12
446.245	720.12
446.466	661.12
446.687	551.12
446.908	553.12
447.129	509.12
447.35	505.12
447.571	500.12
447.792	514.12
448.013	479.12
448.234	517.12
448.455	590.12
448.675	647.12
448.896	745.12
449.117	631.12
449.338	602.12
449.559	700.12
449.779	782.12
450	643.12
450.221	503.12
450.442	525.12
450.662	484.12
450.883	488.12
451.104	517.12
451.324	505.12
451.545	477.12
451.766	453.12
451.986	467.12
452.207	449.12
452.428	445.12
452.648	468.12
452.869	465.12
453.089	463.12
453.31	482.12
453.53	453.12
453.751	449.12
453.971	450.12
454.192	500.12
454.412	462.12
454.633	475.12
454.853	441.12
455.073	475.12
455.294	476.12
455.514	534.12
455.734	508.12
455.955	461.12
456.175	447.12
456.395	441.12
456.616	417.12
456.836	417.12
457.056	424.12
457.276	415.12
457.497	418.12
457.717	411.12
457.937	431.12
458.157	447.12
458.377	448.12
458.598	465.12
458.818	525.12
459.038	585.12
459.258	610.12
459.478	521.12
459.698	524.12
459.918	507.12
460.138	491.12
460.358	509.12
460.578	519.12
460.798	528.12
461.018	518.12
461.238	505.12
461.458	538.12
461.678	519.12
461.898	555.12
462.118	543.12
462.338	523.12
462.558	541.12
462.777	565.12
462.997	579.12
463.217	611.12
463.437	604.12
463.657	577.12
463.876	580.12
464.096	566.12
464.316	565.12
464.536	595.12
464.755	577.12
464.975	556.12
465.195	600.12
465.414	643.12
465.634	579.12
465.854	513.12
466.073	488.12
466.293	479.12
466.512	476.12
466.732	472.12
466.951	463.12
467.171	473.12
467.391	469.12
467.61	484.12
467.829	484.12
468.049	468.12
468.268	471.12
468.488	458.12
468.707	441.12
468.927	451.12
469.146	455.12
469.365	459.12
469.585	438.12
469.804	471.12
470.023	483.12
470.243	468.12
470.462	481.12
470.681	506.12
470.901	512.12
471.12	474.12
471.339	499.12
471.558	474.12
471.777	483.12
471.997	473.12
472.216	451.12
472.435	450.12
472.654	451.12
472.873	459.12
473.092	443.12
473.311	457.12
473.53	478.12
473.749	480.12
473.968	501.12
474.187	609.12
474.406	615.12
474.625	522.12
474.844	449.12
475.063	459.12
475.282	464.12
475.501	466.12
475.72	475.12
475.939	474.12
476.158	450.12
476.377	460.12
476.596	474.12
476.814	479.12
477.033	516.12
477.252	514.12
477.471	516.12
477.69	514.12
477.908	523.12
478.127	512.12
478.346	517.12
478.564	543.12
478.783	516.12
479.002	531.12
479.22	553.12
479.439	554.12
479.658	562.12
479.876	575.12
480.095	597.12
480.313	621.12
480.532	594.12
480.751	587.12
480.969	612.12
481.188	576.12
481.406	550.12
481.624	542.12
481.843	562.12
482.061	569.12
482.28	551.12
482.498	538.12
482.717	545.12
482.935	537.12
483.153	532.12
483.372	542.12
483.59	549.12
483.808	540.12
484.027	558.12
484.245	518.12
484.463	553.12
484.681	539.12
484.9	546.12
485.118	554.12
485.336	554.12
485.554	539.12
485.772	571.12
485.99	576.12
486.209	552.12
486.427	575.12
486.645	579.12
486.863	578.12
487.081	581.12
487.299	588.12
487.517	573.12
487.735	571.12
487.953	571.12
488.171	572.12
488.389	575.12
488.607	592.12
488.825	595.12
489.043	553.12
489.261	591.12
489.479	595.12
489.696	595.12
489.914	591.12
490.132	598.12
490.35	596.12
490.568	583.12
490.786	605.12
491.003	619.12
491.221	621.12
491.439	631.12
491.657	647.12
491.874	638.12
492.092	631.12
492.31	627.12
492.527	643.12
492.745	652.12
492.963	636.12
493.18	676.12
493.398	667.12
493.615	665.12
493.833	657.12
494.05	661.12
494.268	659.12
494.485	666.12
494.703	663.12
494.92	661.12
495.138	657.12
495.355	682.12
495.573	669.12
495.79	675.12
496.008	667.12
496.225	694.12
496.442	692.12
496.66	675.12
496.877	694.12
497.094	677.12
497.312	703.12
497.529	722.12
497.746	723.12
497.963	720.12
498.181	768.12
498.398	781.12
498.615	760.12
498.832	819.12
499.049	857.12
499.267	887.12
499.484	940.12
499.701	961.12
499.918	1030.12
500.135	1098.12
500.352	1149.12
500.569	1171.12
500.786	1171.12
501.003	1172.12
501.22	1106.12
501.437	1049.12
501.654	994.12
501.871	952.12
