Data from 1985.PennyLincolnUp.Lamp.En5.5.200Scan.071819.P1_HRD10591_17-04-07-971.txt Node
Date: Thu Jul 18 17:04:07 EDT 2019
User: cochatt
Spectrometer: HR+D1059
Trigger mode: 1
Integration Time (sec): 1.000000E-1
Scans to average: 1
Electric dark correction enabled: true
Nonlinearity correction enabled: false
Boxcar width: 0
XAxis mode: Wavelengths
Number of Pixels in Spectrum: 2048
>>>>>Begin Spectral Data<<<<<
223.165	-5.19
223.4	-5.19
223.635	-5.19
223.869	-23.19
224.104	-22.19
224.338	-23.19
224.573	-28.19
224.808	-13.19
225.042	4.81
225.277	-4.19
225.511	4.81
225.746	3.81
225.98	3.81
226.215	14.81
226.449	2.81
226.683	28.81
226.918	30.81
227.152	24.81
227.387	30.81
227.621	33.81
227.856	50.81
228.09	43.81
228.324	36.81
228.559	44.81
228.793	55.81
229.027	76.81
229.262	86.81
229.496	98.81
229.73	117.81
229.964	130.81
230.199	115.81
230.433	113.81
230.667	118.81
230.901	107.81
231.136	96.81
231.37	116.81
231.604	122.81
231.838	107.81
232.072	119.81
232.306	104.81
232.541	113.81
232.775	112.81
233.009	95.81
233.243	118.81
233.477	123.81
233.711	125.81
233.945	113.81
234.179	125.81
234.413	113.81
234.647	112.81
234.881	120.81
235.115	111.81
235.349	122.81
235.583	117.81
235.817	125.81
236.051	114.81
236.285	114.81
236.519	133.81
236.753	141.81
236.987	139.81
237.221	191.81
237.455	210.81
237.689	171.81
237.922	130.81
238.156	134.81
238.39	137.81
238.624	121.81
238.858	121.81
239.091	129.81
239.325	131.81
239.559	124.81
239.793	117.81
240.027	130.81
240.26	139.81
240.494	138.81
240.728	147.81
240.961	144.81
241.195	145.81
241.429	156.81
241.662	128.81
241.896	127.81
242.13	131.81
242.363	128.81
242.597	146.81
242.83	138.81
243.064	130.81
243.298	142.81
243.531	140.81
243.765	137.81
243.998	132.81
244.232	144.81
244.465	149.81
244.699	144.81
244.932	160.81
245.166	153.81
245.399	144.81
245.633	145.81
245.866	132.81
246.099	132.81
246.333	157.81
246.566	158.81
246.8	143.81
247.033	156.81
247.266	158.81
247.5	161.81
247.733	165.81
247.966	172.81
248.2	183.81
248.433	167.81
248.666	180.81
248.899	179.81
249.133	186.81
249.366	214.81
249.599	191.81
249.832	183.81
250.066	191.81
250.299	185.81
250.532	187.81
250.765	219.81
250.998	228.81
251.231	201.81
251.465	199.81
251.698	203.81
251.931	208.81
252.164	212.81
252.397	186.81
252.63	191.81
252.863	209.81
253.096	228.81
253.329	219.81
253.562	228.81
253.795	212.81
254.028	223.81
254.261	228.81
254.494	223.81
254.727	252.81
254.96	270.81
255.193	271.81
255.426	263.81
255.659	249.81
255.892	232.81
256.124	265.81
256.357	278.81
256.59	221.81
256.823	210.81
257.056	218.81
257.289	209.81
257.521	240.81
257.754	223.81
257.987	204.81
258.22	220.81
258.452	213.81
258.685	215.81
258.918	219.81
259.151	203.81
259.383	212.81
259.616	226.81
259.849	235.81
260.081	231.81
260.314	250.81
260.547	270.81
260.779	246.81
261.012	244.81
261.244	218.81
261.477	226.81
261.71	211.81
261.942	243.81
262.175	240.81
262.407	226.81
262.64	224.81
262.872	236.81
263.105	228.81
263.337	227.81
263.57	220.81
263.802	221.81
264.035	238.81
264.267	217.81
264.499	220.81
264.732	227.81
264.964	228.81
265.197	217.81
265.429	218.81
265.661	212.81
265.894	234.81
266.126	252.81
266.358	223.81
266.591	228.81
266.823	249.81
267.055	235.81
267.287	251.81
267.52	246.81
267.752	240.81
267.984	239.81
268.216	254.81
268.448	239.81
268.681	252.81
268.913	252.81
269.145	272.81
269.377	291.81
269.609	265.81
269.841	279.81
270.073	274.81
270.306	307.81
270.538	328.81
270.77	324.81
271.002	310.81
271.234	286.81
271.466	295.81
271.698	321.81
271.93	314.81
272.162	313.81
272.394	324.81
272.626	297.81
272.858	292.81
273.09	273.81
273.322	287.81
273.553	295.81
273.785	289.81
274.017	273.81
274.249	274.81
274.481	267.81
274.713	279.81
274.945	276.81
275.176	306.81
275.408	268.81
275.64	291.81
275.872	283.81
276.104	277.81
276.335	286.81
276.567	280.81
276.799	303.81
277.031	322.81
277.262	343.81
277.494	351.81
277.726	327.81
277.957	284.81
278.189	294.81
278.421	311.81
278.652	274.81
278.884	295.81
279.115	299.81
279.347	287.81
279.579	263.81
279.81	279.81
280.042	283.81
280.273	280.81
280.505	294.81
280.736	290.81
280.968	278.81
281.199	302.81
281.431	281.81
281.662	291.81
281.894	287.81
282.125	289.81
282.356	322.81
282.588	332.81
282.819	331.81
283.051	310.81
283.282	279.81
283.513	302.81
283.745	298.81
283.976	290.81
284.207	327.81
284.439	321.81
284.67	312.81
284.901	316.81
285.132	305.81
285.364	303.81
285.595	315.81
285.826	308.81
286.057	282.81
286.288	304.81
286.52	312.81
286.751	307.81
286.982	325.81
287.213	316.81
287.444	316.81
287.675	315.81
287.906	322.81
288.138	332.81
288.369	310.81
288.6	327.81
288.831	318.81
289.062	324.81
289.293	322.81
289.524	315.81
289.755	327.81
289.986	308.81
290.217	327.81
290.448	314.81
290.679	334.81
290.91	332.81
291.141	313.81
291.371	319.81
291.602	327.81
291.833	320.81
292.064	329.81
292.295	320.81
292.526	326.81
292.757	327.81
292.987	320.81
293.218	324.81
293.449	338.81
293.68	342.81
293.91	314.81
294.141	316.81
294.372	324.81
294.603	319.81
294.833	322.81
295.064	326.81
295.295	317.81
295.525	319.81
295.756	310.81
295.987	342.81
296.217	370.81
296.448	361.81
296.679	354.81
296.909	314.81
297.14	345.81
297.37	346.81
297.601	320.81
297.831	328.81
298.062	343.81
298.292	340.81
298.523	351.81
298.753	350.81
298.984	345.81
299.214	342.81
299.445	354.81
299.675	352.81
299.905	346.81
300.136	364.81
300.366	332.81
300.597	352.81
300.827	357.81
301.057	371.81
301.288	383.81
301.518	351.81
301.748	352.81
301.979	379.81
302.209	366.81
302.439	386.81
302.669	364.81
302.9	376.81
303.13	362.81
303.36	359.81
303.59	380.81
303.82	374.81
304.051	369.81
304.281	368.81
304.511	377.81
304.741	351.81
304.971	360.81
305.201	373.81
305.431	363.81
305.661	364.81
305.891	360.81
306.121	347.81
306.352	369.81
306.582	390.81
306.812	374.81
307.042	361.81
307.272	376.81
307.502	376.81
307.731	380.81
307.961	370.81
308.191	386.81
308.421	377.81
308.651	376.81
308.881	383.81
309.111	380.81
309.341	384.81
309.571	400.81
309.8	411.81
310.03	410.81
310.26	418.81
310.49	413.81
310.72	418.81
310.949	413.81
311.179	431.81
311.409	423.81
311.639	412.81
311.868	408.81
312.098	422.81
312.328	427.81
312.557	435.81
312.787	446.81
313.017	433.81
313.246	415.81
313.476	427.81
313.706	429.81
313.935	430.81
314.165	436.81
314.394	438.81
314.624	418.81
314.853	438.81
315.083	441.81
315.312	421.81
315.542	424.81
315.771	430.81
316.001	402.81
316.23	424.81
316.46	421.81
316.689	414.81
316.919	438.81
317.148	430.81
317.377	442.81
317.607	439.81
317.836	423.81
318.065	403.81
318.295	407.81
318.524	424.81
318.753	417.81
318.983	410.81
319.212	412.81
319.441	393.81
319.67	417.81
319.9	432.81
320.129	411.81
320.358	411.81
320.587	448.81
320.816	432.81
321.046	417.81
321.275	458.81
321.504	430.81
321.733	475.81
321.962	446.81
322.191	447.81
322.42	455.81
322.649	480.81
322.878	483.81
323.108	490.81
323.337	504.81
323.566	542.81
323.795	560.81
324.024	595.81
324.253	720.81
324.482	994.81
324.71	1496.81
324.939	2120.81
325.168	1767.81
325.397	930.81
325.626	679.81
325.855	577.81
326.084	543.81
326.313	537.81
326.542	536.81
326.77	587.81
326.999	690.81
327.228	891.81
327.457	1322.81
327.686	1577.81
327.914	1080.81
328.143	757.81
328.372	667.81
328.6	642.81
328.829	595.81
329.058	628.81
329.287	647.81
329.515	628.81
329.744	548.81
329.972	566.81
330.201	591.81
330.43	631.81
330.658	633.81
330.887	656.81
331.115	660.81
331.344	558.81
331.572	559.81
331.801	543.81
332.03	555.81
332.258	519.81
332.486	530.81
332.715	534.81
332.943	532.81
333.172	533.81
333.4	538.81
333.629	541.81
333.857	570.81
334.085	591.81
334.314	624.81
334.542	662.81
334.771	688.81
334.999	616.81
335.227	567.81
335.455	542.81
335.684	530.81
335.912	535.81
336.14	496.81
336.369	515.81
336.597	498.81
336.825	519.81
337.053	496.81
337.281	483.81
337.51	482.81
337.738	509.81
337.966	491.81
338.194	502.81
338.422	496.81
338.65	482.81
338.878	494.81
339.106	474.81
339.334	475.81
339.562	460.81
339.79	474.81
340.018	469.81
340.246	479.81
340.474	483.81
340.702	467.81
340.93	479.81
341.158	468.81
341.386	471.81
341.614	474.81
341.842	464.81
342.07	468.81
342.298	448.81
342.526	460.81
342.754	465.81
342.981	448.81
343.209	443.81
343.437	464.81
343.665	479.81
343.893	480.81
344.12	498.81
344.348	500.81
344.576	504.81
344.804	470.81
345.031	496.81
345.259	504.81
345.487	480.81
345.714	466.81
345.942	463.81
346.17	475.81
346.397	458.81
346.625	460.81
346.853	449.81
347.08	441.81
347.308	434.81
347.535	438.81
347.763	451.81
347.99	464.81
348.218	467.81
348.445	472.81
348.673	467.81
348.9	473.81
349.128	437.81
349.355	422.81
349.583	442.81
349.81	449.81
350.037	454.81
350.265	426.81
350.492	446.81
350.72	442.81
350.947	436.81
351.174	426.81
351.402	472.81
351.629	454.81
351.856	484.81
352.083	440.81
352.311	476.81
352.538	473.81
352.765	458.81
352.992	459.81
353.22	456.81
353.447	448.81
353.674	434.81
353.901	433.81
354.128	428.81
354.355	431.81
354.583	426.81
354.81	432.81
355.037	426.81
355.264	424.81
355.491	411.81
355.718	407.81
355.945	417.81
356.172	427.81
356.399	413.81
356.626	413.81
356.853	423.81
357.08	428.81
357.307	423.81
357.534	417.81
357.761	418.81
357.988	415.81
358.215	408.81
358.441	438.81
358.668	422.81
358.895	434.81
359.122	432.81
359.349	449.81
359.576	452.81
359.802	470.81
360.029	482.81
360.256	500.81
360.483	495.81
360.709	456.81
360.936	462.81
361.163	440.81
361.39	448.81
361.616	474.81
361.843	452.81
362.07	424.81
362.296	448.81
362.523	444.81
362.749	426.81
362.976	412.81
363.203	445.81
363.429	415.81
363.656	430.81
363.882	424.81
364.109	436.81
364.335	412.81
364.562	421.81
364.788	416.81
365.015	411.81
365.241	423.81
365.468	415.81
365.694	422.81
365.92	428.81
366.147	428.81
366.373	431.81
366.599	426.81
366.826	430.81
367.052	408.81
367.278	425.81
367.505	414.81
367.731	421.81
367.957	420.81
368.184	424.81
368.41	435.81
368.636	427.81
368.862	432.81
369.089	421.81
369.315	419.81
369.541	414.81
369.767	424.81
369.993	425.81
370.219	441.81
370.445	418.81
370.672	416.81
370.898	422.81
371.124	421.81
371.35	435.81
371.576	439.81
371.802	416.81
372.028	420.81
372.254	438.81
372.48	432.81
372.706	419.81
372.932	427.81
373.158	419.81
373.384	446.81
373.61	456.81
373.835	423.81
374.061	435.81
374.287	447.81
374.513	443.81
374.739	450.81
374.965	441.81
375.191	447.81
375.416	437.81
375.642	467.81
375.868	432.81
376.094	411.81
376.319	410.81
376.545	438.81
376.771	438.81
376.997	436.81
377.222	420.81
377.448	432.81
377.674	435.81
377.899	405.81
378.125	400.81
378.35	400.81
378.576	406.81
378.802	416.81
379.027	400.81
379.253	406.81
379.478	433.81
379.704	418.81
379.929	430.81
380.155	411.81
380.38	438.81
380.606	449.81
380.831	413.81
381.057	419.81
381.282	426.81
381.507	420.81
381.733	428.81
381.958	426.81
382.184	415.81
382.409	419.81
382.634	447.81
382.86	426.81
383.085	427.81
383.31	438.81
383.535	442.81
383.761	442.81
383.986	438.81
384.211	445.81
384.436	440.81
384.662	454.81
384.887	458.81
385.112	458.81
385.337	460.81
385.562	450.81
385.787	461.81
386.013	500.81
386.238	486.81
386.463	468.81
386.688	462.81
386.913	450.81
387.138	450.81
387.363	472.81
387.588	443.81
387.813	470.81
388.038	450.81
388.263	473.81
388.488	494.81
388.713	457.81
388.938	455.81
389.163	459.81
389.387	484.81
389.612	455.81
389.837	470.81
390.062	469.81
390.287	444.81
390.512	462.81
390.736	451.81
390.961	473.81
391.186	485.81
391.411	482.81
391.636	480.81
391.86	486.81
392.085	500.81
392.31	488.81
392.534	490.81
392.759	500.81
392.984	494.81
393.208	476.81
393.433	461.81
393.658	474.81
393.882	494.81
394.107	458.81
394.331	448.81
394.556	482.81
394.78	486.81
395.005	478.81
395.229	482.81
395.454	497.81
395.678	496.81
395.903	500.81
396.127	501.81
396.352	515.81
396.576	510.81
396.801	487.81
397.025	515.81
397.249	485.81
397.474	514.81
397.698	515.81
397.922	523.81
398.147	516.81
398.371	548.81
398.595	555.81
398.82	546.81
399.044	553.81
399.268	596.81
399.492	627.81
399.717	691.81
399.941	697.81
400.165	697.81
400.389	696.81
400.613	629.81
400.837	588.81
401.062	551.81
401.286	548.81
401.51	553.81
401.734	535.81
401.958	576.81
402.182	562.81
402.406	550.81
402.63	535.81
402.854	568.81
403.078	572.81
403.302	562.81
403.526	575.81
403.75	591.81
403.974	575.81
404.198	562.81
404.422	577.81
404.645	583.81
404.869	604.81
405.093	649.81
405.317	686.81
405.541	695.81
405.765	641.81
405.988	598.81
406.212	596.81
406.436	629.81
406.66	649.81
406.883	604.81
407.107	624.81
407.331	674.81
407.555	756.81
407.778	725.81
408.002	696.81
408.226	636.81
408.449	639.81
408.673	616.81
408.896	636.81
409.12	694.81
409.344	664.81
409.567	598.81
409.791	607.81
410.014	572.81
410.238	592.81
410.461	540.81
410.685	581.81
410.908	587.81
411.132	608.81
411.355	621.81
411.578	623.81
411.802	574.81
412.025	576.81
412.249	577.81
412.472	606.81
412.695	659.81
412.919	613.81
413.142	578.81
413.365	570.81
413.589	552.81
413.812	550.81
414.035	543.81
414.258	532.81
414.482	543.81
414.705	535.81
414.928	536.81
415.151	540.81
415.374	548.81
415.597	531.81
415.821	530.81
416.044	541.81
416.267	522.81
416.49	514.81
416.713	516.81
416.936	542.81
417.159	520.81
417.382	523.81
417.605	546.81
417.828	560.81
418.051	559.81
418.274	537.81
418.497	530.81
418.72	542.81
418.943	531.81
419.166	572.81
419.389	590.81
419.611	572.81
419.834	556.81
420.057	559.81
420.28	562.81
420.503	569.81
420.726	568.81
420.948	586.81
421.171	609.81
421.394	615.81
421.617	568.81
421.839	549.81
422.062	524.81
422.285	578.81
422.507	624.81
422.73	706.81
422.953	674.81
423.175	587.81
423.398	570.81
423.621	575.81
423.843	591.81
424.066	588.81
424.288	564.81
424.511	604.81
424.733	656.81
424.956	715.81
425.178	682.81
425.401	704.81
425.623	676.81
425.846	618.81
426.068	585.81
426.291	576.81
426.513	572.81
426.735	560.81
426.958	623.81
427.18	687.81
427.402	802.81
427.625	859.81
427.847	777.81
428.069	680.81
428.292	602.81
428.514	551.81
428.736	546.81
428.958	536.81
429.181	516.81
429.403	524.81
429.625	530.81
429.847	550.81
430.069	625.81
430.292	617.81
430.514	552.81
430.736	546.81
430.958	531.81
431.18	502.81
431.402	523.81
431.624	514.81
431.846	500.81
432.068	484.81
432.29	486.81
432.512	494.81
432.734	525.81
432.956	521.81
433.178	516.81
433.4	528.81
433.622	521.81
433.844	507.81
434.066	518.81
434.287	495.81
434.509	504.81
434.731	516.81
434.953	554.81
435.175	536.81
435.397	576.81
435.618	561.81
435.84	601.81
436.062	714.81
436.284	746.81
436.505	618.81
436.727	552.81
436.949	515.81
437.17	511.81
437.392	532.81
437.614	553.81
437.835	558.81
438.057	643.81
438.278	729.81
438.5	721.81
438.721	798.81
438.943	771.81
439.165	624.81
439.386	588.81
439.608	587.81
439.829	588.81
440.05	601.81
440.272	630.81
440.493	590.81
440.715	559.81
440.936	546.81
441.158	526.81
441.379	544.81
441.6	555.81
441.822	572.81
442.043	601.81
442.264	662.81
442.486	732.81
442.707	625.81
442.928	575.81
443.149	576.81
443.371	617.81
443.592	660.81
443.813	750.81
444.034	795.81
444.255	648.81
444.476	633.81
444.698	601.81
444.919	607.81
445.14	715.81
445.361	680.81
445.582	628.81
445.803	672.81
446.024	762.81
446.245	756.81
446.466	708.81
446.687	600.81
446.908	560.81
447.129	535.81
447.35	550.81
447.571	504.81
447.792	499.81
448.013	514.81
448.234	537.81
448.455	580.81
448.675	704.81
448.896	790.81
449.117	656.81
449.338	641.81
449.559	745.81
449.779	833.81
450	653.81
450.221	555.81
450.442	528.81
450.662	504.81
450.883	533.81
451.104	542.81
451.324	514.81
451.545	495.81
451.766	494.81
451.986	459.81
452.207	468.81
452.428	460.81
452.648	472.81
452.869	450.81
453.089	467.81
453.31	483.81
453.53	463.81
453.751	446.81
453.971	472.81
454.192	493.81
454.412	480.81
454.633	464.81
454.853	458.81
455.073	458.81
455.294	487.81
455.514	543.81
455.734	539.81
455.955	477.81
456.175	432.81
456.395	447.81
456.616	454.81
456.836	441.81
457.056	437.81
457.276	433.81
457.497	449.81
457.717	444.81
457.937	457.81
458.157	452.81
458.377	455.81
458.598	487.81
458.818	524.81
459.038	622.81
459.258	635.81
459.478	535.81
459.698	494.81
459.918	526.81
460.138	500.81
460.358	525.81
460.578	536.81
460.798	534.81
461.018	542.81
461.238	547.81
461.458	543.81
461.678	536.81
461.898	554.81
462.118	546.81
462.338	576.81
462.558	571.81
462.777	572.81
462.997	604.81
463.217	623.81
463.437	622.81
463.657	583.81
463.876	577.81
464.096	580.81
464.316	587.81
464.536	583.81
464.755	588.81
464.975	581.81
465.195	609.81
465.414	672.81
465.634	584.81
465.854	548.81
466.073	521.81
466.293	502.81
466.512	482.81
466.732	474.81
466.951	480.81
467.171	485.81
467.391	488.81
467.61	499.81
467.829	514.81
468.049	515.81
468.268	513.81
468.488	503.81
468.707	500.81
468.927	494.81
469.146	480.81
469.365	481.81
469.585	489.81
469.804	490.81
470.023	514.81
470.243	507.81
470.462	483.81
470.681	520.81
470.901	496.81
471.12	484.81
471.339	506.81
471.558	511.81
471.777	512.81
471.997	499.81
472.216	487.81
472.435	550.81
472.654	526.81
472.873	524.81
473.092	501.81
473.311	479.81
473.53	475.81
473.749	494.81
473.968	530.81
474.187	612.81
474.406	627.81
474.625	532.81
474.844	482.81
475.063	507.81
475.282	478.81
475.501	476.81
475.72	508.81
475.939	481.81
476.158	484.81
476.377	488.81
476.596	514.81
476.814	497.81
477.033	520.81
477.252	515.81
477.471	498.81
477.69	534.81
477.908	540.81
478.127	533.81
478.346	560.81
478.564	540.81
478.783	534.81
479.002	578.81
479.22	570.81
479.439	588.81
479.658	595.81
479.876	579.81
480.095	615.81
480.313	638.81
480.532	656.81
480.751	640.81
480.969	631.81
481.188	722.81
481.406	760.81
481.624	669.81
481.843	593.81
482.061	582.81
482.28	569.81
482.498	559.81
482.717	563.81
482.935	549.81
483.153	566.81
483.372	552.81
483.59	574.81
483.808	587.81
484.027	550.81
484.245	557.81
484.463	582.81
484.681	580.81
484.9	560.81
485.118	584.81
485.336	594.81
485.554	603.81
485.772	598.81
485.99	582.81
486.209	558.81
486.427	588.81
486.645	610.81
486.863	601.81
487.081	619.81
487.299	605.81
487.517	613.81
487.735	609.81
487.953	592.81
488.171	598.81
488.389	624.81
488.607	602.81
488.825	614.81
489.043	606.81
489.261	619.81
489.479	623.81
489.696	638.81
489.914	608.81
490.132	624.81
490.35	633.81
490.568	632.81
490.786	644.81
491.003	666.81
491.221	677.81
491.439	700.81
491.657	682.81
491.874	719.81
492.092	713.81
492.31	738.81
492.527	724.81
492.745	728.81
492.963	742.81
493.18	724.81
493.398	713.81
493.615	720.81
493.833	736.81
494.05	721.81
494.268	732.81
494.485	744.81
494.703	694.81
494.92	692.81
495.138	710.81
495.355	711.81
495.573	727.81
495.79	731.81
496.008	724.81
496.225	707.81
496.442	710.81
496.66	725.81
496.877	712.81
497.094	747.81
497.312	745.81
497.529	748.81
497.746	761.81
497.963	772.81
498.181	774.81
498.398	819.81
498.615	847.81
498.832	843.81
499.049	891.81
499.267	917.81
499.484	944.81
499.701	1014.81
499.918	1052.81
500.135	1128.81
500.352	1176.81
500.569	1202.81
500.786	1239.81
501.003	1206.81
501.22	1135.81
501.437	1075.81
501.654	1009.81
501.871	1011.81
