Data from 1985.PennyLincolnUp.Lamp.En5.5.200Scan.071819.P1_HRD10591_17-02-55-970.txt Node
Date: Thu Jul 18 17:02:55 EDT 2019
User: cochatt
Spectrometer: HR+D1059
Trigger mode: 1
Integration Time (sec): 1.000000E-1
Scans to average: 1
Electric dark correction enabled: true
Nonlinearity correction enabled: false
Boxcar width: 0
XAxis mode: Wavelengths
Number of Pixels in Spectrum: 2048
>>>>>Begin Spectral Data<<<<<
223.165	-10.19
223.4	-10.19
223.635	-10.19
223.869	-18.19
224.104	-18.19
224.338	-13.19
224.573	-24.19
224.808	-17.19
225.042	-12.19
225.277	7.81
225.511	-10.19
225.746	8.81
225.98	-3.19
226.215	13.81
226.449	19.81
226.683	14.81
226.918	35.81
227.152	25.81
227.387	38.81
227.621	28.81
227.856	51.81
228.09	56.81
228.324	44.81
228.559	53.81
228.793	64.81
229.027	99.81
229.262	94.81
229.496	104.81
229.73	126.81
229.964	144.81
230.199	128.81
230.433	116.81
230.667	106.81
230.901	100.81
231.136	116.81
231.37	116.81
231.604	123.81
231.838	123.81
232.072	123.81
232.306	119.81
232.541	118.81
232.775	99.81
233.009	119.81
233.243	109.81
233.477	128.81
233.711	122.81
233.945	122.81
234.179	112.81
234.413	101.81
234.647	127.81
234.881	118.81
235.115	119.81
235.349	125.81
235.583	117.81
235.817	134.81
236.051	117.81
236.285	119.81
236.519	129.81
236.753	124.81
236.987	125.81
237.221	156.81
237.455	195.81
237.689	172.81
237.922	151.81
238.156	136.81
238.39	135.81
238.624	115.81
238.858	133.81
239.091	128.81
239.325	122.81
239.559	106.81
239.793	128.81
240.027	134.81
240.26	135.81
240.494	151.81
240.728	148.81
240.961	150.81
241.195	134.81
241.429	130.81
241.662	140.81
241.896	134.81
242.13	131.81
242.363	141.81
242.597	143.81
242.83	139.81
243.064	140.81
243.298	143.81
243.531	143.81
243.765	127.81
243.998	155.81
244.232	148.81
244.465	140.81
244.699	139.81
244.932	146.81
245.166	142.81
245.399	148.81
245.633	148.81
245.866	149.81
246.099	159.81
246.333	152.81
246.566	145.81
246.8	156.81
247.033	142.81
247.266	167.81
247.5	158.81
247.733	164.81
247.966	180.81
248.2	179.81
248.433	167.81
248.666	174.81
248.899	186.81
249.133	190.81
249.366	191.81
249.599	186.81
249.832	176.81
250.066	180.81
250.299	182.81
250.532	175.81
250.765	187.81
250.998	225.81
251.231	221.81
251.465	213.81
251.698	208.81
251.931	197.81
252.164	193.81
252.397	190.81
252.63	204.81
252.863	218.81
253.096	213.81
253.329	214.81
253.562	222.81
253.795	212.81
254.028	201.81
254.261	214.81
254.494	213.81
254.727	245.81
254.96	276.81
255.193	269.81
255.426	235.81
255.659	224.81
255.892	213.81
256.124	229.81
256.357	228.81
256.59	216.81
256.823	205.81
257.056	194.81
257.289	206.81
257.521	199.81
257.754	197.81
257.987	219.81
258.22	202.81
258.452	200.81
258.685	194.81
258.918	211.81
259.151	229.81
259.383	236.81
259.616	213.81
259.849	214.81
260.081	249.81
260.314	252.81
260.547	248.81
260.779	249.81
261.012	230.81
261.244	228.81
261.477	208.81
261.71	221.81
261.942	235.81
262.175	236.81
262.407	236.81
262.64	217.81
262.872	205.81
263.105	219.81
263.337	216.81
263.57	221.81
263.802	242.81
264.035	217.81
264.267	240.81
264.499	240.81
264.732	243.81
264.964	216.81
265.197	218.81
265.429	225.81
265.661	227.81
265.894	238.81
266.126	221.81
266.358	235.81
266.591	240.81
266.823	228.81
267.055	227.81
267.287	243.81
267.52	227.81
267.752	244.81
267.984	230.81
268.216	229.81
268.448	239.81
268.681	244.81
268.913	243.81
269.145	279.81
269.377	279.81
269.609	272.81
269.841	273.81
270.073	294.81
270.306	310.81
270.538	342.81
270.77	349.81
271.002	299.81
271.234	308.81
271.466	300.81
271.698	317.81
271.93	344.81
272.162	322.81
272.394	311.81
272.626	296.81
272.858	297.81
273.09	290.81
273.322	288.81
273.553	274.81
273.785	276.81
274.017	284.81
274.249	280.81
274.481	250.81
274.713	255.81
274.945	269.81
275.176	277.81
275.408	283.81
275.64	290.81
275.872	284.81
276.104	299.81
276.335	278.81
276.567	298.81
276.799	304.81
277.031	318.81
277.262	348.81
277.494	326.81
277.726	312.81
277.957	323.81
278.189	287.81
278.421	285.81
278.652	292.81
278.884	271.81
279.115	287.81
279.347	276.81
279.579	285.81
279.81	280.81
280.042	297.81
280.273	288.81
280.505	289.81
280.736	280.81
280.968	285.81
281.199	284.81
281.431	302.81
281.662	286.81
281.894	281.81
282.125	293.81
282.356	311.81
282.588	320.81
282.819	311.81
283.051	285.81
283.282	298.81
283.513	311.81
283.745	312.81
283.976	301.81
284.207	303.81
284.439	320.81
284.67	316.81
284.901	324.81
285.132	319.81
285.364	317.81
285.595	292.81
285.826	294.81
286.057	309.81
286.288	317.81
286.52	315.81
286.751	296.81
286.982	316.81
287.213	306.81
287.444	308.81
287.675	325.81
287.906	322.81
288.138	314.81
288.369	327.81
288.6	343.81
288.831	327.81
289.062	339.81
289.293	334.81
289.524	316.81
289.755	321.81
289.986	327.81
290.217	313.81
290.448	331.81
290.679	308.81
290.91	325.81
291.141	319.81
291.371	318.81
291.602	334.81
291.833	333.81
292.064	318.81
292.295	315.81
292.526	328.81
292.757	338.81
292.987	327.81
293.218	314.81
293.449	314.81
293.68	323.81
293.91	333.81
294.141	333.81
294.372	339.81
294.603	324.81
294.833	321.81
295.064	337.81
295.295	326.81
295.525	316.81
295.756	335.81
295.987	345.81
296.217	375.81
296.448	375.81
296.679	343.81
296.909	314.81
297.14	331.81
297.37	335.81
297.601	351.81
297.831	340.81
298.062	324.81
298.292	344.81
298.523	336.81
298.753	343.81
298.984	350.81
299.214	351.81
299.445	332.81
299.675	367.81
299.905	346.81
300.136	358.81
300.366	363.81
300.597	351.81
300.827	376.81
301.057	375.81
301.288	373.81
301.518	359.81
301.748	366.81
301.979	361.81
302.209	374.81
302.439	378.81
302.669	375.81
302.9	379.81
303.13	352.81
303.36	359.81
303.59	365.81
303.82	375.81
304.051	378.81
304.281	354.81
304.511	351.81
304.741	374.81
304.971	353.81
305.201	368.81
305.431	355.81
305.661	350.81
305.891	364.81
306.121	384.81
306.352	368.81
306.582	383.81
306.812	382.81
307.042	374.81
307.272	366.81
307.502	368.81
307.731	389.81
307.961	366.81
308.191	348.81
308.421	367.81
308.651	382.81
308.881	375.81
309.111	382.81
309.341	375.81
309.571	392.81
309.8	382.81
310.03	424.81
310.26	401.81
310.49	398.81
310.72	408.81
310.949	414.81
311.179	429.81
311.409	403.81
311.639	403.81
311.868	396.81
312.098	406.81
312.328	411.81
312.557	412.81
312.787	445.81
313.017	439.81
313.246	432.81
313.476	406.81
313.706	424.81
313.935	431.81
314.165	415.81
314.394	432.81
314.624	425.81
314.853	425.81
315.083	409.81
315.312	422.81
315.542	435.81
315.771	422.81
316.001	398.81
316.23	399.81
316.46	407.81
316.689	422.81
316.919	427.81
317.148	418.81
317.377	415.81
317.607	434.81
317.836	431.81
318.065	429.81
318.295	435.81
318.524	398.81
318.753	395.81
318.983	414.81
319.212	414.81
319.441	424.81
319.67	426.81
319.9	415.81
320.129	413.81
320.358	439.81
320.587	412.81
320.816	437.81
321.046	437.81
321.275	429.81
321.504	403.81
321.733	429.81
321.962	451.81
322.191	467.81
322.42	463.81
322.649	480.81
322.878	494.81
323.108	516.81
323.337	495.81
323.566	495.81
323.795	550.81
324.024	582.81
324.253	698.81
324.482	974.81
324.71	1436.81
324.939	2066.81
325.168	1732.81
325.397	914.81
325.626	680.81
325.855	590.81
326.084	555.81
326.313	524.81
326.542	536.81
326.77	569.81
326.999	679.81
327.228	905.81
327.457	1289.81
327.686	1550.81
327.914	1054.81
328.143	685.81
328.372	626.81
328.6	591.81
328.829	564.81
329.058	596.81
329.287	598.81
329.515	582.81
329.744	552.81
329.972	522.81
330.201	524.81
330.43	557.81
330.658	601.81
330.887	616.81
331.115	621.81
331.344	560.81
331.572	547.81
331.801	533.81
332.03	544.81
332.258	529.81
332.486	490.81
332.715	491.81
332.943	525.81
333.172	514.81
333.4	517.81
333.629	534.81
333.857	526.81
334.085	523.81
334.314	540.81
334.542	539.81
334.771	545.81
334.999	535.81
335.227	527.81
335.455	514.81
335.684	506.81
335.912	532.81
336.14	479.81
336.369	475.81
336.597	499.81
336.825	495.81
337.053	516.81
337.281	478.81
337.51	506.81
337.738	501.81
337.966	512.81
338.194	500.81
338.422	516.81
338.65	482.81
338.878	464.81
339.106	458.81
339.334	473.81
339.562	466.81
339.79	461.81
340.018	475.81
340.246	463.81
340.474	479.81
340.702	468.81
340.93	472.81
341.158	473.81
341.386	482.81
341.614	468.81
341.842	493.81
342.07	482.81
342.298	468.81
342.526	458.81
342.754	447.81
342.981	461.81
343.209	465.81
343.437	459.81
343.665	480.81
343.893	488.81
344.12	495.81
344.348	494.81
344.576	471.81
344.804	480.81
345.031	484.81
345.259	511.81
345.487	475.81
345.714	490.81
345.942	473.81
346.17	443.81
346.397	443.81
346.625	432.81
346.853	456.81
347.08	452.81
347.308	465.81
347.535	461.81
347.763	461.81
347.99	457.81
348.218	446.81
348.445	468.81
348.673	448.81
348.9	438.81
349.128	451.81
349.355	429.81
349.583	432.81
349.81	438.81
350.037	426.81
350.265	445.81
350.492	426.81
350.72	452.81
350.947	432.81
351.174	465.81
351.402	457.81
351.629	473.81
351.856	461.81
352.083	441.81
352.311	459.81
352.538	451.81
352.765	464.81
352.992	471.81
353.22	432.81
353.447	454.81
353.674	434.81
353.901	418.81
354.128	436.81
354.355	418.81
354.583	433.81
354.81	421.81
355.037	445.81
355.264	414.81
355.491	413.81
355.718	423.81
355.945	412.81
356.172	406.81
356.399	406.81
356.626	412.81
356.853	438.81
357.08	443.81
357.307	425.81
357.534	438.81
357.761	407.81
357.988	415.81
358.215	422.81
358.441	445.81
358.668	428.81
358.895	421.81
359.122	424.81
359.349	416.81
359.576	430.81
359.802	464.81
360.029	496.81
360.256	479.81
360.483	477.81
360.709	432.81
360.936	439.81
361.163	450.81
361.39	449.81
361.616	447.81
361.843	449.81
362.07	434.81
362.296	482.81
362.523	454.81
362.749	434.81
362.976	437.81
363.203	434.81
363.429	432.81
363.656	434.81
363.882	428.81
364.109	427.81
364.335	415.81
364.562	426.81
364.788	444.81
365.015	427.81
365.241	424.81
365.468	434.81
365.694	428.81
365.92	421.81
366.147	434.81
366.373	408.81
366.599	410.81
366.826	422.81
367.052	392.81
367.278	422.81
367.505	439.81
367.731	434.81
367.957	428.81
368.184	438.81
368.41	422.81
368.636	445.81
368.862	438.81
369.089	442.81
369.315	458.81
369.541	445.81
369.767	416.81
369.993	430.81
370.219	442.81
370.445	425.81
370.672	430.81
370.898	424.81
371.124	424.81
371.35	427.81
371.576	448.81
371.802	438.81
372.028	414.81
372.254	441.81
372.48	414.81
372.706	417.81
372.932	417.81
373.158	439.81
373.384	443.81
373.61	444.81
373.835	454.81
374.061	434.81
374.287	442.81
374.513	438.81
374.739	447.81
374.965	450.81
375.191	445.81
375.416	424.81
375.642	428.81
375.868	444.81
376.094	409.81
376.319	434.81
376.545	428.81
376.771	419.81
376.997	419.81
377.222	429.81
377.448	416.81
377.674	438.81
377.899	420.81
378.125	426.81
378.35	419.81
378.576	404.81
378.802	421.81
379.027	415.81
379.253	416.81
379.478	432.81
379.704	421.81
379.929	419.81
380.155	431.81
380.38	434.81
380.606	435.81
380.831	427.81
381.057	439.81
381.282	411.81
381.507	423.81
381.733	427.81
381.958	426.81
382.184	428.81
382.409	443.81
382.634	443.81
382.86	430.81
383.085	435.81
383.31	419.81
383.535	442.81
383.761	440.81
383.986	450.81
384.211	450.81
384.436	435.81
384.662	462.81
384.887	460.81
385.112	451.81
385.337	469.81
385.562	469.81
385.787	481.81
386.013	481.81
386.238	479.81
386.463	459.81
386.688	498.81
386.913	465.81
387.138	480.81
387.363	470.81
387.588	457.81
387.813	464.81
388.038	486.81
388.263	468.81
388.488	485.81
388.713	478.81
388.938	466.81
389.163	469.81
389.387	475.81
389.612	467.81
389.837	468.81
390.062	472.81
390.287	478.81
390.512	458.81
390.736	468.81
390.961	476.81
391.186	475.81
391.411	479.81
391.636	473.81
391.86	486.81
392.085	504.81
392.31	491.81
392.534	493.81
392.759	493.81
392.984	476.81
393.208	478.81
393.433	490.81
393.658	471.81
393.882	467.81
394.107	492.81
394.331	476.81
394.556	490.81
394.78	475.81
395.005	475.81
395.229	500.81
395.454	514.81
395.678	508.81
395.903	515.81
396.127	534.81
396.352	493.81
396.576	491.81
396.801	488.81
397.025	511.81
397.249	505.81
397.474	506.81
397.698	494.81
397.922	522.81
398.147	504.81
398.371	532.81
398.595	555.81
398.82	548.81
399.044	591.81
399.268	601.81
399.492	641.81
399.717	686.81
399.941	669.81
400.165	711.81
400.389	680.81
400.613	617.81
400.837	580.81
401.062	551.81
401.286	532.81
401.51	534.81
401.734	549.81
401.958	558.81
402.182	548.81
402.406	567.81
402.63	564.81
402.854	575.81
403.078	573.81
403.302	566.81
403.526	592.81
403.75	582.81
403.974	580.81
404.198	566.81
404.422	596.81
404.645	604.81
404.869	585.81
405.093	616.81
405.317	644.81
405.541	664.81
405.765	596.81
405.988	593.81
406.212	623.81
406.436	612.81
406.66	630.81
406.883	625.81
407.107	666.81
407.331	700.81
407.555	734.81
407.778	735.81
408.002	687.81
408.226	639.81
408.449	650.81
408.673	636.81
408.896	637.81
409.12	671.81
409.344	633.81
409.567	608.81
409.791	613.81
410.014	575.81
410.238	567.81
410.461	574.81
410.685	584.81
410.908	590.81
411.132	595.81
411.355	646.81
411.578	602.81
411.802	546.81
412.025	550.81
412.249	581.81
412.472	566.81
412.695	600.81
412.919	592.81
413.142	549.81
413.365	534.81
413.589	535.81
413.812	533.81
414.035	542.81
414.258	518.81
414.482	538.81
414.705	529.81
414.928	540.81
415.151	534.81
415.374	534.81
415.597	535.81
415.821	526.81
416.044	519.81
416.267	526.81
416.49	524.81
416.713	511.81
416.936	527.81
417.159	518.81
417.382	544.81
417.605	535.81
417.828	528.81
418.051	550.81
418.274	546.81
418.497	520.81
418.72	526.81
418.943	542.81
419.166	562.81
419.389	600.81
419.611	585.81
419.834	566.81
420.057	556.81
420.28	556.81
420.503	552.81
420.726	557.81
420.948	545.81
421.171	602.81
421.394	608.81
421.617	564.81
421.839	549.81
422.062	573.81
422.285	558.81
422.507	597.81
422.73	687.81
422.953	649.81
423.175	580.81
423.398	580.81
423.621	578.81
423.843	589.81
424.066	592.81
424.288	592.81
424.511	622.81
424.733	649.81
424.956	741.81
425.178	648.81
425.401	675.81
425.623	694.81
425.846	626.81
426.068	598.81
426.291	574.81
426.513	572.81
426.735	558.81
426.958	614.81
427.18	694.81
427.402	804.81
427.625	882.81
427.847	772.81
428.069	641.81
428.292	586.81
428.514	562.81
428.736	553.81
428.958	535.81
429.181	523.81
429.403	522.81
429.625	534.81
429.847	541.81
430.069	617.81
430.292	609.81
430.514	555.81
430.736	526.81
430.958	525.81
431.18	496.81
431.402	498.81
431.624	498.81
431.846	507.81
432.068	494.81
432.29	510.81
432.512	515.81
432.734	530.81
432.956	517.81
433.178	527.81
433.4	509.81
433.622	521.81
433.844	497.81
434.066	492.81
434.287	516.81
434.509	523.81
434.731	538.81
434.953	542.81
435.175	556.81
435.397	577.81
435.618	564.81
435.84	626.81
436.062	690.81
436.284	711.81
436.505	621.81
436.727	581.81
436.949	538.81
437.17	512.81
437.392	528.81
437.614	540.81
437.835	574.81
438.057	641.81
438.278	747.81
438.5	743.81
438.721	790.81
438.943	787.81
439.165	616.81
439.386	587.81
439.608	572.81
439.829	550.81
440.05	590.81
440.272	621.81
440.493	589.81
440.715	555.81
440.936	540.81
441.158	533.81
441.379	518.81
441.6	580.81
441.822	558.81
442.043	614.81
442.264	675.81
442.486	722.81
442.707	617.81
442.928	557.81
443.149	604.81
443.371	610.81
443.592	670.81
443.813	743.81
444.034	783.81
444.255	676.81
444.476	610.81
444.698	601.81
444.919	621.81
445.14	733.81
445.361	663.81
445.582	643.81
445.803	669.81
446.024	784.81
446.245	751.81
446.466	686.81
446.687	615.81
446.908	557.81
447.129	551.81
447.35	527.81
447.571	525.81
447.792	514.81
448.013	512.81
448.234	555.81
448.455	598.81
448.675	668.81
448.896	785.81
449.117	652.81
449.338	612.81
449.559	736.81
449.779	842.81
450	666.81
450.221	572.81
450.442	532.81
450.662	498.81
450.883	503.81
451.104	536.81
451.324	524.81
451.545	471.81
451.766	489.81
451.986	466.81
452.207	462.81
452.428	473.81
452.648	461.81
452.869	464.81
453.089	486.81
453.31	490.81
453.53	485.81
453.751	458.81
453.971	462.81
454.192	503.81
454.412	474.81
454.633	463.81
454.853	458.81
455.073	468.81
455.294	483.81
455.514	532.81
455.734	526.81
455.955	465.81
456.175	426.81
456.395	438.81
456.616	435.81
456.836	444.81
457.056	450.81
457.276	434.81
457.497	433.81
457.717	442.81
457.937	441.81
458.157	454.81
458.377	475.81
458.598	483.81
458.818	542.81
459.038	619.81
459.258	602.81
459.478	541.81
459.698	523.81
459.918	499.81
460.138	532.81
460.358	525.81
460.578	536.81
460.798	551.81
461.018	533.81
461.238	513.81
461.458	525.81
461.678	539.81
461.898	522.81
462.118	544.81
462.338	563.81
462.558	568.81
462.777	578.81
462.997	599.81
463.217	607.81
463.437	614.81
463.657	614.81
463.876	580.81
464.096	583.81
464.316	567.81
464.536	579.81
464.755	580.81
464.975	576.81
465.195	602.81
465.414	681.81
465.634	572.81
465.854	548.81
466.073	511.81
466.293	487.81
466.512	489.81
466.732	493.81
466.951	488.81
467.171	485.81
467.391	495.81
467.61	478.81
467.829	480.81
468.049	507.81
468.268	482.81
468.488	469.81
468.707	479.81
468.927	456.81
469.146	474.81
469.365	476.81
469.585	474.81
469.804	484.81
470.023	503.81
470.243	502.81
470.462	498.81
470.681	514.81
470.901	506.81
471.12	508.81
471.339	491.81
471.558	499.81
471.777	490.81
471.997	494.81
472.216	476.81
472.435	500.81
472.654	470.81
472.873	483.81
473.092	469.81
473.311	479.81
473.53	491.81
473.749	487.81
473.968	526.81
474.187	619.81
474.406	627.81
474.625	511.81
474.844	503.81
475.063	472.81
475.282	488.81
475.501	480.81
475.72	517.81
475.939	490.81
476.158	502.81
476.377	467.81
476.596	483.81
476.814	489.81
477.033	502.81
477.252	514.81
477.471	521.81
477.69	533.81
477.908	517.81
478.127	540.81
478.346	551.81
478.564	542.81
478.783	562.81
479.002	555.81
479.22	560.81
479.439	570.81
479.658	618.81
479.876	609.81
480.095	583.81
480.313	623.81
480.532	611.81
480.751	603.81
480.969	611.81
481.188	618.81
481.406	591.81
481.624	600.81
481.843	580.81
482.061	586.81
482.28	581.81
482.498	570.81
482.717	542.81
482.935	568.81
483.153	564.81
483.372	541.81
483.59	568.81
483.808	553.81
484.027	562.81
484.245	562.81
484.463	545.81
484.681	591.81
484.9	566.81
485.118	565.81
485.336	579.81
485.554	572.81
485.772	602.81
485.99	590.81
486.209	591.81
486.427	573.81
486.645	588.81
486.863	603.81
487.081	629.81
487.299	607.81
487.517	600.81
487.735	609.81
487.953	603.81
488.171	575.81
488.389	604.81
488.607	613.81
488.825	612.81
489.043	600.81
489.261	594.81
489.479	591.81
489.696	630.81
489.914	621.81
490.132	611.81
490.35	631.81
490.568	610.81
490.786	634.81
491.003	629.81
491.221	664.81
491.439	663.81
491.657	667.81
491.874	682.81
492.092	662.81
492.31	660.81
492.527	673.81
492.745	671.81
492.963	679.81
493.18	686.81
493.398	684.81
493.615	697.81
493.833	704.81
494.05	703.81
494.268	690.81
494.485	712.81
494.703	699.81
494.92	671.81
495.138	691.81
495.355	690.81
495.573	709.81
495.79	726.81
496.008	702.81
496.225	699.81
496.442	706.81
496.66	735.81
496.877	689.81
497.094	710.81
497.312	745.81
497.529	747.81
497.746	762.81
497.963	758.81
498.181	797.81
498.398	796.81
498.615	828.81
498.832	848.81
499.049	878.81
499.267	893.81
499.484	951.81
499.701	1008.81
499.918	1008.81
500.135	1095.81
500.352	1190.81
500.569	1213.81
500.786	1236.81
501.003	1188.81
501.22	1115.81
501.437	1042.81
501.654	1005.81
501.871	974.81
