Data from 1985.PennyLincolnUp.Lamp.En5.5.200Scan.071819.P1_HRD10591_17-01-12-969.txt Node
Date: Thu Jul 18 17:01:12 EDT 2019
User: cochatt
Spectrometer: HR+D1059
Trigger mode: 1
Integration Time (sec): 1.000000E-1
Scans to average: 1
Electric dark correction enabled: true
Nonlinearity correction enabled: false
Boxcar width: 0
XAxis mode: Wavelengths
Number of Pixels in Spectrum: 2048
>>>>>Begin Spectral Data<<<<<
223.165	-29.31
223.4	-29.31
223.635	-29.31
223.869	-21.31
224.104	-18.31
224.338	-15.31
224.573	-13.31
224.808	-23.31
225.042	-3.31
225.277	-15.31
225.511	-1.31
225.746	15.69
225.98	10.69
226.215	14.69
226.449	20.69
226.683	26.69
226.918	27.69
227.152	24.69
227.387	36.69
227.621	41.69
227.856	49.69
228.09	66.69
228.324	57.69
228.559	68.69
228.793	66.69
229.027	81.69
229.262	84.69
229.496	100.69
229.73	116.69
229.964	130.69
230.199	106.69
230.433	103.69
230.667	101.69
230.901	92.69
231.136	110.69
231.37	113.69
231.604	97.69
231.838	106.69
232.072	122.69
232.306	106.69
232.541	100.69
232.775	97.69
233.009	110.69
233.243	100.69
233.477	114.69
233.711	97.69
233.945	96.69
234.179	114.69
234.413	107.69
234.647	103.69
234.881	99.69
235.115	117.69
235.349	107.69
235.583	118.69
235.817	116.69
236.051	115.69
236.285	111.69
236.519	114.69
236.753	111.69
236.987	122.69
237.221	142.69
237.455	187.69
237.689	151.69
237.922	130.69
238.156	132.69
238.39	119.69
238.624	125.69
238.858	118.69
239.091	107.69
239.325	107.69
239.559	120.69
239.793	116.69
240.027	117.69
240.26	125.69
240.494	115.69
240.728	129.69
240.961	132.69
241.195	132.69
241.429	130.69
241.662	139.69
241.896	129.69
242.13	124.69
242.363	130.69
242.597	123.69
242.83	120.69
243.064	131.69
243.298	138.69
243.531	132.69
243.765	127.69
243.998	130.69
244.232	132.69
244.465	140.69
244.699	125.69
244.932	130.69
245.166	130.69
245.399	134.69
245.633	145.69
245.866	132.69
246.099	146.69
246.333	134.69
246.566	128.69
246.8	139.69
247.033	146.69
247.266	138.69
247.5	158.69
247.733	161.69
247.966	158.69
248.2	149.69
248.433	143.69
248.666	145.69
248.899	160.69
249.133	155.69
249.366	161.69
249.599	165.69
249.832	155.69
250.066	147.69
250.299	151.69
250.532	165.69
250.765	171.69
250.998	164.69
251.231	176.69
251.465	175.69
251.698	176.69
251.931	179.69
252.164	157.69
252.397	160.69
252.63	168.69
252.863	176.69
253.096	191.69
253.329	181.69
253.562	184.69
253.795	163.69
254.028	178.69
254.261	188.69
254.494	169.69
254.727	201.69
254.96	212.69
255.193	207.69
255.426	192.69
255.659	180.69
255.892	184.69
256.124	193.69
256.357	194.69
256.59	188.69
256.823	163.69
257.056	176.69
257.289	190.69
257.521	196.69
257.754	191.69
257.987	184.69
258.22	189.69
258.452	176.69
258.685	174.69
258.918	174.69
259.151	183.69
259.383	184.69
259.616	196.69
259.849	205.69
260.081	203.69
260.314	207.69
260.547	188.69
260.779	193.69
261.012	204.69
261.244	200.69
261.477	190.69
261.71	190.69
261.942	176.69
262.175	192.69
262.407	181.69
262.64	182.69
262.872	192.69
263.105	192.69
263.337	193.69
263.57	203.69
263.802	198.69
264.035	197.69
264.267	204.69
264.499	189.69
264.732	196.69
264.964	203.69
265.197	194.69
265.429	219.69
265.661	214.69
265.894	194.69
266.126	200.69
266.358	202.69
266.591	207.69
266.823	212.69
267.055	216.69
267.287	203.69
267.52	200.69
267.752	214.69
267.984	212.69
268.216	221.69
268.448	219.69
268.681	214.69
268.913	217.69
269.145	225.69
269.377	227.69
269.609	236.69
269.841	231.69
270.073	230.69
270.306	250.69
270.538	247.69
270.77	233.69
271.002	248.69
271.234	242.69
271.466	232.69
271.698	232.69
271.93	238.69
272.162	251.69
272.394	240.69
272.626	243.69
272.858	244.69
273.09	255.69
273.322	237.69
273.553	251.69
273.785	234.69
274.017	231.69
274.249	250.69
274.481	252.69
274.713	249.69
274.945	262.69
275.176	215.69
275.408	240.69
275.64	245.69
275.872	227.69
276.104	231.69
276.335	249.69
276.567	237.69
276.799	249.69
277.031	262.69
277.262	238.69
277.494	267.69
277.726	242.69
277.957	241.69
278.189	253.69
278.421	251.69
278.652	230.69
278.884	261.69
279.115	257.69
279.347	257.69
279.579	254.69
279.81	262.69
280.042	262.69
280.273	236.69
280.505	249.69
280.736	244.69
280.968	257.69
281.199	238.69
281.431	244.69
281.662	236.69
281.894	249.69
282.125	260.69
282.356	265.69
282.588	277.69
282.819	284.69
283.051	264.69
283.282	245.69
283.513	261.69
283.745	266.69
283.976	269.69
284.207	257.69
284.439	265.69
284.67	267.69
284.901	270.69
285.132	269.69
285.364	280.69
285.595	258.69
285.826	264.69
286.057	268.69
286.288	253.69
286.52	244.69
286.751	285.69
286.982	280.69
287.213	270.69
287.444	269.69
287.675	283.69
287.906	284.69
288.138	293.69
288.369	287.69
288.6	281.69
288.831	290.69
289.062	285.69
289.293	276.69
289.524	282.69
289.755	276.69
289.986	268.69
290.217	292.69
290.448	286.69
290.679	282.69
290.91	292.69
291.141	294.69
291.371	280.69
291.602	302.69
291.833	280.69
292.064	296.69
292.295	294.69
292.526	265.69
292.757	276.69
292.987	283.69
293.218	289.69
293.449	279.69
293.68	283.69
293.91	287.69
294.141	296.69
294.372	296.69
294.603	292.69
294.833	298.69
295.064	293.69
295.295	310.69
295.525	279.69
295.756	298.69
295.987	278.69
296.217	300.69
296.448	301.69
296.679	290.69
296.909	288.69
297.14	291.69
297.37	301.69
297.601	308.69
297.831	313.69
298.062	298.69
298.292	308.69
298.523	309.69
298.753	302.69
298.984	288.69
299.214	305.69
299.445	295.69
299.675	304.69
299.905	308.69
300.136	322.69
300.366	289.69
300.597	297.69
300.827	313.69
301.057	316.69
301.288	342.69
301.518	311.69
301.748	307.69
301.979	339.69
302.209	320.69
302.439	330.69
302.669	320.69
302.9	324.69
303.13	309.69
303.36	324.69
303.59	313.69
303.82	326.69
304.051	337.69
304.281	326.69
304.511	331.69
304.741	320.69
304.971	328.69
305.201	330.69
305.431	341.69
305.661	326.69
305.891	330.69
306.121	318.69
306.352	338.69
306.582	324.69
306.812	333.69
307.042	333.69
307.272	333.69
307.502	330.69
307.731	320.69
307.961	327.69
308.191	317.69
308.421	339.69
308.651	312.69
308.881	320.69
309.111	326.69
309.341	326.69
309.571	329.69
309.8	338.69
310.03	332.69
310.26	365.69
310.49	334.69
310.72	343.69
310.949	354.69
311.179	349.69
311.409	359.69
311.639	347.69
311.868	345.69
312.098	368.69
312.328	357.69
312.557	341.69
312.787	380.69
313.017	365.69
313.246	365.69
313.476	361.69
313.706	361.69
313.935	365.69
314.165	376.69
314.394	366.69
314.624	367.69
314.853	350.69
315.083	352.69
315.312	349.69
315.542	365.69
315.771	355.69
316.001	356.69
316.23	359.69
316.46	361.69
316.689	356.69
316.919	365.69
317.148	357.69
317.377	350.69
317.607	359.69
317.836	361.69
318.065	378.69
318.295	356.69
318.524	366.69
318.753	360.69
318.983	348.69
319.212	373.69
319.441	368.69
319.67	379.69
319.9	357.69
320.129	365.69
320.358	360.69
320.587	376.69
320.816	374.69
321.046	357.69
321.275	366.69
321.504	353.69
321.733	373.69
321.962	378.69
322.191	378.69
322.42	384.69
322.649	376.69
322.878	377.69
323.108	360.69
323.337	392.69
323.566	440.69
323.795	403.69
324.024	437.69
324.253	452.69
324.482	581.69
324.71	822.69
324.939	1129.69
325.168	980.69
325.397	578.69
325.626	451.69
325.855	438.69
326.084	405.69
326.313	393.69
326.542	418.69
326.77	427.69
326.999	459.69
327.228	572.69
327.457	755.69
327.686	862.69
327.914	624.69
328.143	450.69
328.372	443.69
328.6	430.69
328.829	433.69
329.058	423.69
329.287	451.69
329.515	429.69
329.744	424.69
329.972	428.69
330.201	413.69
330.43	434.69
330.658	410.69
330.887	455.69
331.115	454.69
331.344	422.69
331.572	420.69
331.801	419.69
332.03	447.69
332.258	429.69
332.486	435.69
332.715	430.69
332.943	428.69
333.172	444.69
333.4	432.69
333.629	450.69
333.857	447.69
334.085	462.69
334.314	450.69
334.542	435.69
334.771	451.69
334.999	454.69
335.227	443.69
335.455	428.69
335.684	436.69
335.912	440.69
336.14	420.69
336.369	424.69
336.597	426.69
336.825	424.69
337.053	444.69
337.281	421.69
337.51	423.69
337.738	412.69
337.966	421.69
338.194	409.69
338.422	404.69
338.65	398.69
338.878	405.69
339.106	421.69
339.334	403.69
339.562	409.69
339.79	402.69
340.018	401.69
340.246	408.69
340.474	405.69
340.702	413.69
340.93	401.69
341.158	415.69
341.386	398.69
341.614	394.69
341.842	409.69
342.07	388.69
342.298	404.69
342.526	400.69
342.754	407.69
342.981	405.69
343.209	395.69
343.437	405.69
343.665	395.69
343.893	429.69
344.12	419.69
344.348	416.69
344.576	423.69
344.804	426.69
345.031	410.69
345.259	425.69
345.487	395.69
345.714	392.69
345.942	389.69
346.17	386.69
346.397	408.69
346.625	374.69
346.853	382.69
347.08	388.69
347.308	394.69
347.535	397.69
347.763	390.69
347.99	375.69
348.218	374.69
348.445	412.69
348.673	377.69
348.9	395.69
349.128	392.69
349.355	385.69
349.583	372.69
349.81	355.69
350.037	400.69
350.265	394.69
350.492	386.69
350.72	375.69
350.947	366.69
351.174	372.69
351.402	383.69
351.629	386.69
351.856	358.69
352.083	409.69
352.311	366.69
352.538	382.69
352.765	397.69
352.992	372.69
353.22	355.69
353.447	385.69
353.674	392.69
353.901	375.69
354.128	373.69
354.355	332.69
354.583	377.69
354.81	380.69
355.037	357.69
355.264	390.69
355.491	386.69
355.718	383.69
355.945	385.69
356.172	358.69
356.399	372.69
356.626	359.69
356.853	363.69
357.08	373.69
357.307	360.69
357.534	359.69
357.761	372.69
357.988	370.69
358.215	381.69
358.441	377.69
358.668	380.69
358.895	375.69
359.122	375.69
359.349	376.69
359.576	384.69
359.802	387.69
360.029	388.69
360.256	381.69
360.483	392.69
360.709	368.69
360.936	383.69
361.163	381.69
361.39	369.69
361.616	376.69
361.843	369.69
362.07	363.69
362.296	382.69
362.523	374.69
362.749	369.69
362.976	361.69
363.203	374.69
363.429	365.69
363.656	341.69
363.882	371.69
364.109	382.69
364.335	372.69
364.562	370.69
364.788	357.69
365.015	368.69
365.241	372.69
365.468	380.69
365.694	374.69
365.92	375.69
366.147	365.69
366.373	372.69
366.599	360.69
366.826	351.69
367.052	372.69
367.278	365.69
367.505	366.69
367.731	356.69
367.957	361.69
368.184	369.69
368.41	375.69
368.636	378.69
368.862	378.69
369.089	376.69
369.315	372.69
369.541	398.69
369.767	370.69
369.993	361.69
370.219	357.69
370.445	376.69
370.672	364.69
370.898	371.69
371.124	380.69
371.35	377.69
371.576	382.69
371.802	384.69
372.028	378.69
372.254	385.69
372.48	388.69
372.706	366.69
372.932	390.69
373.158	379.69
373.384	394.69
373.61	386.69
373.835	379.69
374.061	395.69
374.287	392.69
374.513	379.69
374.739	368.69
374.965	411.69
375.191	377.69
375.416	401.69
375.642	381.69
375.868	389.69
376.094	368.69
376.319	389.69
376.545	395.69
376.771	385.69
376.997	394.69
377.222	363.69
377.448	388.69
377.674	361.69
377.899	367.69
378.125	365.69
378.35	378.69
378.576	384.69
378.802	364.69
379.027	370.69
379.253	392.69
379.478	371.69
379.704	373.69
379.929	378.69
380.155	362.69
380.38	371.69
380.606	357.69
380.831	369.69
381.057	376.69
381.282	380.69
381.507	378.69
381.733	399.69
381.958	384.69
382.184	389.69
382.409	381.69
382.634	389.69
382.86	380.69
383.085	407.69
383.31	421.69
383.535	403.69
383.761	407.69
383.986	416.69
384.211	406.69
384.436	431.69
384.662	407.69
384.887	411.69
385.112	425.69
385.337	430.69
385.562	420.69
385.787	413.69
386.013	446.69
386.238	422.69
386.463	447.69
386.688	444.69
386.913	434.69
387.138	424.69
387.363	436.69
387.588	411.69
387.813	418.69
388.038	413.69
388.263	431.69
388.488	433.69
388.713	413.69
388.938	422.69
389.163	417.69
389.387	419.69
389.612	428.69
389.837	425.69
390.062	420.69
390.287	428.69
390.512	427.69
390.736	409.69
390.961	413.69
391.186	427.69
391.411	426.69
391.636	432.69
391.86	450.69
392.085	458.69
392.31	455.69
392.534	452.69
392.759	446.69
392.984	429.69
393.208	433.69
393.433	465.69
393.658	434.69
393.882	440.69
394.107	436.69
394.331	428.69
394.556	441.69
394.78	443.69
395.005	444.69
395.229	436.69
395.454	452.69
395.678	443.69
395.903	456.69
396.127	444.69
396.352	457.69
396.576	446.69
396.801	455.69
397.025	452.69
397.249	434.69
397.474	450.69
397.698	472.69
397.922	474.69
398.147	445.69
398.371	479.69
398.595	494.69
398.82	486.69
399.044	520.69
399.268	541.69
399.492	591.69
399.717	612.69
399.941	648.69
400.165	610.69
400.389	605.69
400.613	567.69
400.837	538.69
401.062	513.69
401.286	479.69
401.51	488.69
401.734	493.69
401.958	505.69
402.182	496.69
402.406	515.69
402.63	514.69
402.854	526.69
403.078	516.69
403.302	501.69
403.526	519.69
403.75	530.69
403.974	510.69
404.198	532.69
404.422	519.69
404.645	516.69
404.869	517.69
405.093	510.69
405.317	517.69
405.541	561.69
405.765	520.69
405.988	506.69
406.212	512.69
406.436	516.69
406.66	552.69
406.883	536.69
407.107	567.69
407.331	609.69
407.555	652.69
407.778	636.69
408.002	597.69
408.226	591.69
408.449	543.69
408.673	555.69
408.896	538.69
409.12	587.69
409.344	557.69
409.567	506.69
409.791	486.69
410.014	496.69
410.238	510.69
410.461	502.69
410.685	500.69
410.908	525.69
411.132	539.69
411.355	554.69
411.578	537.69
411.802	500.69
412.025	493.69
412.249	499.69
412.472	501.69
412.695	478.69
412.919	486.69
413.142	482.69
413.365	476.69
413.589	497.69
413.812	461.69
414.035	468.69
414.258	465.69
414.482	490.69
414.705	482.69
414.928	480.69
415.151	489.69
415.374	473.69
415.597	477.69
415.821	476.69
416.044	452.69
416.267	450.69
416.49	466.69
416.713	470.69
416.936	486.69
417.159	477.69
417.382	476.69
417.605	474.69
417.828	476.69
418.051	468.69
418.274	481.69
418.497	481.69
418.72	465.69
418.943	475.69
419.166	494.69
419.389	520.69
419.611	510.69
419.834	517.69
420.057	465.69
420.28	461.69
420.503	491.69
420.726	478.69
420.948	476.69
421.171	480.69
421.394	519.69
421.617	481.69
421.839	489.69
422.062	475.69
422.285	481.69
422.507	524.69
422.73	578.69
422.953	568.69
423.175	529.69
423.398	511.69
423.621	489.69
423.843	520.69
424.066	508.69
424.288	497.69
424.511	513.69
424.733	550.69
424.956	603.69
425.178	564.69
425.401	578.69
425.623	592.69
425.846	505.69
426.068	494.69
426.291	480.69
426.513	494.69
426.735	496.69
426.958	536.69
427.18	575.69
427.402	642.69
427.625	700.69
427.847	576.69
428.069	521.69
428.292	490.69
428.514	464.69
428.736	449.69
428.958	444.69
429.181	455.69
429.403	445.69
429.625	487.69
429.847	447.69
430.069	527.69
430.292	503.69
430.514	464.69
430.736	457.69
430.958	445.69
431.18	457.69
431.402	443.69
431.624	433.69
431.846	429.69
432.068	435.69
432.29	460.69
432.512	429.69
432.734	446.69
432.956	451.69
433.178	445.69
433.4	431.69
433.622	425.69
433.844	461.69
434.066	444.69
434.287	438.69
434.509	442.69
434.731	452.69
434.953	483.69
435.175	482.69
435.397	508.69
435.618	479.69
435.84	533.69
436.062	560.69
436.284	613.69
436.505	524.69
436.727	479.69
436.949	472.69
437.17	452.69
437.392	475.69
437.614	470.69
437.835	471.69
438.057	532.69
438.278	585.69
438.5	592.69
438.721	627.69
438.943	605.69
439.165	522.69
439.386	455.69
439.608	460.69
439.829	461.69
440.05	499.69
440.272	502.69
440.493	495.69
440.715	462.69
440.936	457.69
441.158	458.69
441.379	458.69
441.6	473.69
441.822	485.69
442.043	520.69
442.264	557.69
442.486	593.69
442.707	539.69
442.928	500.69
443.149	487.69
443.371	525.69
443.592	533.69
443.813	579.69
444.034	657.69
444.255	576.69
444.476	524.69
444.698	534.69
444.919	534.69
445.14	644.69
445.361	568.69
445.582	545.69
445.803	541.69
446.024	594.69
446.245	595.69
446.466	579.69
446.687	485.69
446.908	471.69
447.129	472.69
447.35	444.69
447.571	457.69
447.792	438.69
448.013	452.69
448.234	446.69
448.455	481.69
448.675	567.69
448.896	611.69
449.117	536.69
449.338	520.69
449.559	582.69
449.779	658.69
450	528.69
450.221	466.69
450.442	436.69
450.662	410.69
450.883	408.69
451.104	446.69
451.324	426.69
451.545	424.69
451.766	409.69
451.986	414.69
452.207	418.69
452.428	406.69
452.648	406.69
452.869	416.69
453.089	418.69
453.31	401.69
453.53	388.69
453.751	417.69
453.971	396.69
454.192	402.69
454.412	386.69
454.633	403.69
454.853	390.69
455.073	400.69
455.294	416.69
455.514	432.69
455.734	435.69
455.955	382.69
456.175	404.69
456.395	395.69
456.616	391.69
456.836	397.69
457.056	385.69
457.276	356.69
457.497	408.69
457.717	386.69
457.937	393.69
458.157	396.69
458.377	408.69
458.598	406.69
458.818	443.69
459.038	488.69
459.258	484.69
459.478	467.69
459.698	461.69
459.918	456.69
460.138	465.69
460.358	472.69
460.578	491.69
460.798	481.69
461.018	476.69
461.238	501.69
461.458	486.69
461.678	490.69
461.898	485.69
462.118	478.69
462.338	493.69
462.558	510.69
462.777	528.69
462.997	551.69
463.217	584.69
463.437	570.69
463.657	566.69
463.876	545.69
464.096	534.69
464.316	521.69
464.536	542.69
464.755	553.69
464.975	523.69
465.195	525.69
465.414	522.69
465.634	480.69
465.854	470.69
466.073	454.69
466.293	476.69
466.512	454.69
466.732	427.69
466.951	429.69
467.171	434.69
467.391	404.69
467.61	422.69
467.829	441.69
468.049	425.69
468.268	412.69
468.488	424.69
468.707	425.69
468.927	419.69
469.146	420.69
469.365	425.69
469.585	426.69
469.804	430.69
470.023	448.69
470.243	454.69
470.462	455.69
470.681	436.69
470.901	452.69
471.12	445.69
471.339	428.69
471.558	409.69
471.777	416.69
471.997	426.69
472.216	417.69
472.435	429.69
472.654	441.69
472.873	420.69
473.092	412.69
473.311	450.69
473.53	430.69
473.749	442.69
473.968	444.69
474.187	530.69
474.406	516.69
474.625	477.69
474.844	432.69
475.063	443.69
475.282	455.69
475.501	427.69
475.72	437.69
475.939	424.69
476.158	444.69
476.377	448.69
476.596	442.69
476.814	457.69
477.033	454.69
477.252	457.69
477.471	464.69
477.69	453.69
477.908	461.69
478.127	468.69
478.346	475.69
478.564	477.69
478.783	491.69
479.002	513.69
479.22	503.69
479.439	531.69
479.658	524.69
479.876	527.69
480.095	514.69
480.313	555.69
480.532	546.69
480.751	549.69
480.969	532.69
481.188	540.69
481.406	526.69
481.624	518.69
481.843	499.69
482.061	480.69
482.28	508.69
482.498	482.69
482.717	490.69
482.935	506.69
483.153	512.69
483.372	512.69
483.59	499.69
483.808	506.69
484.027	477.69
484.245	515.69
484.463	526.69
484.681	533.69
484.9	522.69
485.118	518.69
485.336	510.69
485.554	500.69
485.772	536.69
485.99	520.69
486.209	525.69
486.427	530.69
486.645	506.69
486.863	544.69
487.081	537.69
487.299	532.69
487.517	522.69
487.735	503.69
487.953	530.69
488.171	536.69
488.389	529.69
488.607	521.69
488.825	510.69
489.043	514.69
489.261	526.69
489.479	507.69
489.696	537.69
489.914	519.69
490.132	538.69
490.35	548.69
490.568	532.69
490.786	538.69
491.003	560.69
491.221	547.69
491.439	564.69
491.657	575.69
491.874	564.69
492.092	554.69
492.31	575.69
492.527	582.69
492.745	599.69
492.963	588.69
493.18	570.69
493.398	585.69
493.615	595.69
493.833	599.69
494.05	590.69
494.268	584.69
494.485	587.69
494.703	583.69
494.92	587.69
495.138	591.69
495.355	600.69
495.573	583.69
495.79	616.69
496.008	603.69
496.225	611.69
496.442	620.69
496.66	644.69
496.877	610.69
497.094	625.69
497.312	621.69
497.529	637.69
497.746	650.69
497.963	648.69
498.181	688.69
498.398	697.69
498.615	714.69
498.832	772.69
499.049	756.69
499.267	834.69
499.484	836.69
499.701	888.69
499.918	962.69
500.135	1022.69
500.352	1079.69
500.569	1106.69
500.786	1108.69
501.003	1089.69
501.22	984.69
501.437	944.69
501.654	896.69
501.871	876.69
502.088	811.69
