Data from 1985.PennyLincolnUp.Lamp.En5.5.200Scan.071819.P1_HRD10591_17-01-41-969.txt Node
Date: Thu Jul 18 17:01:41 EDT 2019
User: cochatt
Spectrometer: HR+D1059
Trigger mode: 1
Integration Time (sec): 1.000000E-1
Scans to average: 1
Electric dark correction enabled: true
Nonlinearity correction enabled: false
Boxcar width: 0
XAxis mode: Wavelengths
Number of Pixels in Spectrum: 2048
>>>>>Begin Spectral Data<<<<<
223.165	-13.69
223.4	-13.69
223.635	-13.69
223.869	-14.69
224.104	-24.69
224.338	-5.69
224.573	-30.69
224.808	-10.69
225.042	-8.69
225.277	-11.69
225.511	2.31
225.746	-0.69
225.98	-2.69
226.215	-2.69
226.449	20.31
226.683	30.31
226.918	41.31
227.152	32.31
227.387	22.31
227.621	33.31
227.856	43.31
228.09	53.31
228.324	41.31
228.559	53.31
228.793	54.31
229.027	90.31
229.262	88.31
229.496	102.31
229.73	137.31
229.964	124.31
230.199	123.31
230.433	105.31
230.667	104.31
230.901	110.31
231.136	91.31
231.37	110.31
231.604	107.31
231.838	118.31
232.072	117.31
232.306	114.31
232.541	120.31
232.775	103.31
233.009	115.31
233.243	105.31
233.477	108.31
233.711	123.31
233.945	100.31
234.179	112.31
234.413	107.31
234.647	100.31
234.881	108.31
235.115	119.31
235.349	104.31
235.583	117.31
235.817	132.31
236.051	117.31
236.285	121.31
236.519	119.31
236.753	130.31
236.987	147.31
237.221	146.31
237.455	199.31
237.689	158.31
237.922	115.31
238.156	124.31
238.39	114.31
238.624	124.31
238.858	128.31
239.091	134.31
239.325	117.31
239.559	110.31
239.793	114.31
240.027	126.31
240.26	132.31
240.494	141.31
240.728	146.31
240.961	146.31
241.195	136.31
241.429	147.31
241.662	122.31
241.896	126.31
242.13	126.31
242.363	135.31
242.597	143.31
242.83	124.31
243.064	138.31
243.298	131.31
243.531	140.31
243.765	128.31
243.998	135.31
244.232	127.31
244.465	140.31
244.699	129.31
244.932	131.31
245.166	141.31
245.399	131.31
245.633	136.31
245.866	138.31
246.099	127.31
246.333	151.31
246.566	152.31
246.8	144.31
247.033	136.31
247.266	145.31
247.5	144.31
247.733	158.31
247.966	161.31
248.2	150.31
248.433	178.31
248.666	165.31
248.899	162.31
249.133	189.31
249.366	185.31
249.599	177.31
249.832	182.31
250.066	175.31
250.299	169.31
250.532	169.31
250.765	187.31
250.998	195.31
251.231	214.31
251.465	195.31
251.698	185.31
251.931	184.31
252.164	193.31
252.397	162.31
252.63	176.31
252.863	189.31
253.096	211.31
253.329	200.31
253.562	204.31
253.795	193.31
254.028	201.31
254.261	211.31
254.494	214.31
254.727	235.31
254.96	229.31
255.193	243.31
255.426	215.31
255.659	215.31
255.892	213.31
256.124	210.31
256.357	201.31
256.59	205.31
256.823	195.31
257.056	205.31
257.289	195.31
257.521	211.31
257.754	210.31
257.987	208.31
258.22	181.31
258.452	212.31
258.685	206.31
258.918	203.31
259.151	207.31
259.383	217.31
259.616	209.31
259.849	226.31
260.081	222.31
260.314	228.31
260.547	267.31
260.779	227.31
261.012	232.31
261.244	227.31
261.477	217.31
261.71	216.31
261.942	211.31
262.175	220.31
262.407	221.31
262.64	200.31
262.872	202.31
263.105	202.31
263.337	212.31
263.57	210.31
263.802	203.31
264.035	208.31
264.267	212.31
264.499	204.31
264.732	208.31
264.964	200.31
265.197	217.31
265.429	219.31
265.661	198.31
265.894	213.31
266.126	215.31
266.358	215.31
266.591	212.31
266.823	228.31
267.055	215.31
267.287	236.31
267.52	215.31
267.752	231.31
267.984	205.31
268.216	209.31
268.448	231.31
268.681	229.31
268.913	230.31
269.145	266.31
269.377	278.31
269.609	270.31
269.841	246.31
270.073	262.31
270.306	259.31
270.538	283.31
270.77	306.31
271.002	297.31
271.234	285.31
271.466	263.31
271.698	292.31
271.93	298.31
272.162	299.31
272.394	307.31
272.626	294.31
272.858	260.31
273.09	279.31
273.322	284.31
273.553	263.31
273.785	258.31
274.017	276.31
274.249	263.31
274.481	261.31
274.713	261.31
274.945	271.31
275.176	252.31
275.408	264.31
275.64	253.31
275.872	252.31
276.104	271.31
276.335	274.31
276.567	278.31
276.799	283.31
277.031	301.31
277.262	302.31
277.494	313.31
277.726	283.31
277.957	286.31
278.189	280.31
278.421	287.31
278.652	281.31
278.884	262.31
279.115	267.31
279.347	302.31
279.579	262.31
279.81	263.31
280.042	283.31
280.273	273.31
280.505	289.31
280.736	260.31
280.968	280.31
281.199	285.31
281.431	286.31
281.662	298.31
281.894	282.31
282.125	262.31
282.356	300.31
282.588	307.31
282.819	317.31
283.051	289.31
283.282	287.31
283.513	273.31
283.745	273.31
283.976	294.31
284.207	299.31
284.439	299.31
284.67	286.31
284.901	280.31
285.132	311.31
285.364	306.31
285.595	286.31
285.826	299.31
286.057	297.31
286.288	292.31
286.52	312.31
286.751	309.31
286.982	293.31
287.213	302.31
287.444	305.31
287.675	295.31
287.906	305.31
288.138	307.31
288.369	297.31
288.6	290.31
288.831	296.31
289.062	315.31
289.293	303.31
289.524	321.31
289.755	314.31
289.986	314.31
290.217	307.31
290.448	313.31
290.679	305.31
290.91	310.31
291.141	309.31
291.371	324.31
291.602	315.31
291.833	306.31
292.064	322.31
292.295	308.31
292.526	316.31
292.757	313.31
292.987	283.31
293.218	284.31
293.449	305.31
293.68	323.31
293.91	310.31
294.141	305.31
294.372	298.31
294.603	287.31
294.833	319.31
295.064	317.31
295.295	324.31
295.525	313.31
295.756	318.31
295.987	314.31
296.217	348.31
296.448	357.31
296.679	327.31
296.909	308.31
297.14	322.31
297.37	340.31
297.601	329.31
297.831	336.31
298.062	323.31
298.292	311.31
298.523	343.31
298.753	351.31
298.984	325.31
299.214	337.31
299.445	315.31
299.675	337.31
299.905	327.31
300.136	342.31
300.366	347.31
300.597	335.31
300.827	353.31
301.057	349.31
301.288	356.31
301.518	366.31
301.748	343.31
301.979	349.31
302.209	365.31
302.439	364.31
302.669	359.31
302.9	356.31
303.13	336.31
303.36	350.31
303.59	339.31
303.82	356.31
304.051	343.31
304.281	358.31
304.511	367.31
304.741	353.31
304.971	340.31
305.201	344.31
305.431	348.31
305.661	350.31
305.891	354.31
306.121	346.31
306.352	374.31
306.582	355.31
306.812	359.31
307.042	370.31
307.272	360.31
307.502	341.31
307.731	352.31
307.961	358.31
308.191	347.31
308.421	344.31
308.651	363.31
308.881	349.31
309.111	371.31
309.341	376.31
309.571	363.31
309.8	368.31
310.03	384.31
310.26	378.31
310.49	391.31
310.72	378.31
310.949	387.31
311.179	396.31
311.409	399.31
311.639	394.31
311.868	394.31
312.098	378.31
312.328	410.31
312.557	418.31
312.787	421.31
313.017	405.31
313.246	412.31
313.476	378.31
313.706	378.31
313.935	394.31
314.165	392.31
314.394	409.31
314.624	409.31
314.853	408.31
315.083	400.31
315.312	380.31
315.542	387.31
315.771	396.31
316.001	416.31
316.23	389.31
316.46	388.31
316.689	384.31
316.919	410.31
317.148	401.31
317.377	410.31
317.607	392.31
317.836	403.31
318.065	384.31
318.295	406.31
318.524	402.31
318.753	386.31
318.983	398.31
319.212	384.31
319.441	381.31
319.67	417.31
319.9	399.31
320.129	407.31
320.358	394.31
320.587	390.31
320.816	395.31
321.046	391.31
321.275	410.31
321.504	409.31
321.733	406.31
321.962	409.31
322.191	437.31
322.42	443.31
322.649	432.31
322.878	456.31
323.108	445.31
323.337	473.31
323.566	482.31
323.795	487.31
324.024	522.31
324.253	621.31
324.482	844.31
324.71	1198.31
324.939	1707.31
325.168	1454.31
325.397	818.31
325.626	582.31
325.855	531.31
326.084	492.31
326.313	479.31
326.542	503.31
326.77	535.31
326.999	584.31
327.228	740.31
327.457	1068.31
327.686	1265.31
327.914	875.31
328.143	640.31
328.372	573.31
328.6	541.31
328.829	513.31
329.058	543.31
329.287	527.31
329.515	519.31
329.744	489.31
329.972	464.31
330.201	477.31
330.43	491.31
330.658	535.31
330.887	556.31
331.115	545.31
331.344	489.31
331.572	458.31
331.801	501.31
332.03	489.31
332.258	470.31
332.486	479.31
332.715	479.31
332.943	474.31
333.172	456.31
333.4	483.31
333.629	498.31
333.857	497.31
334.085	531.31
334.314	513.31
334.542	496.31
334.771	490.31
334.999	486.31
335.227	489.31
335.455	478.31
335.684	486.31
335.912	476.31
336.14	483.31
336.369	478.31
336.597	469.31
336.825	477.31
337.053	456.31
337.281	466.31
337.51	461.31
337.738	457.31
337.966	463.31
338.194	462.31
338.422	454.31
338.65	470.31
338.878	441.31
339.106	460.31
339.334	463.31
339.562	460.31
339.79	443.31
340.018	449.31
340.246	445.31
340.474	473.31
340.702	452.31
340.93	457.31
341.158	473.31
341.386	458.31
341.614	449.31
341.842	448.31
342.07	420.31
342.298	444.31
342.526	439.31
342.754	419.31
342.981	425.31
343.209	425.31
343.437	437.31
343.665	471.31
343.893	452.31
344.12	469.31
344.348	465.31
344.576	446.31
344.804	453.31
345.031	459.31
345.259	465.31
345.487	449.31
345.714	443.31
345.942	432.31
346.17	427.31
346.397	418.31
346.625	429.31
346.853	417.31
347.08	444.31
347.308	437.31
347.535	410.31
347.763	424.31
347.99	408.31
348.218	433.31
348.445	455.31
348.673	446.31
348.9	414.31
349.128	410.31
349.355	402.31
349.583	414.31
349.81	399.31
350.037	416.31
350.265	410.31
350.492	422.31
350.72	405.31
350.947	401.31
351.174	426.31
351.402	412.31
351.629	435.31
351.856	423.31
352.083	424.31
352.311	454.31
352.538	446.31
352.765	426.31
352.992	418.31
353.22	404.31
353.447	405.31
353.674	406.31
353.901	406.31
354.128	411.31
354.355	403.31
354.583	415.31
354.81	416.31
355.037	404.31
355.264	401.31
355.491	409.31
355.718	409.31
355.945	401.31
356.172	414.31
356.399	379.31
356.626	376.31
356.853	416.31
357.08	395.31
357.307	404.31
357.534	398.31
357.761	381.31
357.988	404.31
358.215	399.31
358.441	403.31
358.668	395.31
358.895	396.31
359.122	396.31
359.349	418.31
359.576	403.31
359.802	425.31
360.029	457.31
360.256	471.31
360.483	447.31
360.709	418.31
360.936	438.31
361.163	413.31
361.39	416.31
361.616	428.31
361.843	427.31
362.07	426.31
362.296	410.31
362.523	433.31
362.749	420.31
362.976	394.31
363.203	410.31
363.429	414.31
363.656	393.31
363.882	394.31
364.109	390.31
364.335	406.31
364.562	422.31
364.788	397.31
365.015	397.31
365.241	412.31
365.468	380.31
365.694	425.31
365.92	406.31
366.147	398.31
366.373	416.31
366.599	404.31
366.826	410.31
367.052	400.31
367.278	404.31
367.505	420.31
367.731	407.31
367.957	398.31
368.184	415.31
368.41	428.31
368.636	414.31
368.862	416.31
369.089	403.31
369.315	392.31
369.541	398.31
369.767	382.31
369.993	417.31
370.219	401.31
370.445	387.31
370.672	404.31
370.898	415.31
371.124	409.31
371.35	417.31
371.576	430.31
371.802	411.31
372.028	408.31
372.254	391.31
372.48	406.31
372.706	414.31
372.932	420.31
373.158	416.31
373.384	419.31
373.61	429.31
373.835	414.31
374.061	408.31
374.287	419.31
374.513	427.31
374.739	418.31
374.965	407.31
375.191	434.31
375.416	418.31
375.642	414.31
375.868	410.31
376.094	423.31
376.319	414.31
376.545	394.31
376.771	400.31
376.997	424.31
377.222	417.31
377.448	403.31
377.674	403.31
377.899	406.31
378.125	391.31
378.35	404.31
378.576	398.31
378.802	389.31
379.027	395.31
379.253	402.31
379.478	390.31
379.704	415.31
379.929	377.31
380.155	390.31
380.38	402.31
380.606	408.31
380.831	414.31
381.057	391.31
381.282	401.31
381.507	399.31
381.733	406.31
381.958	401.31
382.184	411.31
382.409	390.31
382.634	406.31
382.86	424.31
383.085	426.31
383.31	414.31
383.535	432.31
383.761	425.31
383.986	444.31
384.211	427.31
384.436	422.31
384.662	440.31
384.887	443.31
385.112	450.31
385.337	464.31
385.562	436.31
385.787	442.31
386.013	471.31
386.238	447.31
386.463	440.31
386.688	464.31
386.913	439.31
387.138	432.31
387.363	458.31
387.588	458.31
387.813	464.31
388.038	459.31
388.263	448.31
388.488	434.31
388.713	451.31
388.938	464.31
389.163	457.31
389.387	452.31
389.612	451.31
389.837	444.31
390.062	441.31
390.287	455.31
390.512	449.31
390.736	444.31
390.961	435.31
391.186	461.31
391.411	472.31
391.636	479.31
391.86	472.31
392.085	466.31
392.31	461.31
392.534	474.31
392.759	469.31
392.984	458.31
393.208	443.31
393.433	454.31
393.658	468.31
393.882	448.31
394.107	465.31
394.331	483.31
394.556	467.31
394.78	476.31
395.005	451.31
395.229	459.31
395.454	491.31
395.678	481.31
395.903	479.31
396.127	478.31
396.352	513.31
396.576	484.31
396.801	480.31
397.025	471.31
397.249	489.31
397.474	475.31
397.698	504.31
397.922	487.31
398.147	498.31
398.371	507.31
398.595	523.31
398.82	510.31
399.044	546.31
399.268	580.31
399.492	623.31
399.717	665.31
399.941	668.31
400.165	680.31
400.389	678.31
400.613	613.31
400.837	550.31
401.062	567.31
401.286	545.31
401.51	542.31
401.734	542.31
401.958	527.31
402.182	524.31
402.406	562.31
402.63	537.31
402.854	547.31
403.078	564.31
403.302	550.31
403.526	554.31
403.75	569.31
403.974	578.31
404.198	572.31
404.422	568.31
404.645	570.31
404.869	564.31
405.093	560.31
405.317	561.31
405.541	598.31
405.765	591.31
405.988	584.31
406.212	574.31
406.436	593.31
406.66	609.31
406.883	585.31
407.107	617.31
407.331	663.31
407.555	723.31
407.778	701.31
408.002	657.31
408.226	611.31
408.449	600.31
408.673	598.31
408.896	609.31
409.12	638.31
409.344	621.31
409.567	578.31
409.791	571.31
410.014	548.31
410.238	553.31
410.461	560.31
410.685	536.31
410.908	574.31
411.132	572.31
411.355	610.31
411.578	570.31
411.802	520.31
412.025	531.31
412.249	547.31
412.472	545.31
412.695	538.31
412.919	536.31
413.142	524.31
413.365	530.31
413.589	534.31
413.812	505.31
414.035	522.31
414.258	519.31
414.482	516.31
414.705	509.31
414.928	510.31
415.151	504.31
415.374	515.31
415.597	508.31
415.821	486.31
416.044	494.31
416.267	505.31
416.49	474.31
416.713	495.31
416.936	515.31
417.159	497.31
417.382	516.31
417.605	515.31
417.828	503.31
418.051	507.31
418.274	518.31
418.497	516.31
418.72	513.31
418.943	505.31
419.166	519.31
419.389	535.31
419.611	565.31
419.834	553.31
420.057	555.31
420.28	519.31
420.503	475.31
420.726	522.31
420.948	542.31
421.171	555.31
421.394	585.31
421.617	540.31
421.839	521.31
422.062	543.31
422.285	537.31
422.507	604.31
422.73	641.31
422.953	632.31
423.175	550.31
423.398	570.31
423.621	551.31
423.843	580.31
424.066	574.31
424.288	568.31
424.511	546.31
424.733	621.31
424.956	683.31
425.178	644.31
425.401	662.31
425.623	662.31
425.846	567.31
426.068	547.31
426.291	525.31
426.513	549.31
426.735	539.31
426.958	577.31
427.18	640.31
427.402	750.31
427.625	804.31
427.847	718.31
428.069	591.31
428.292	556.31
428.514	534.31
428.736	498.31
428.958	502.31
429.181	519.31
429.403	489.31
429.625	506.31
429.847	523.31
430.069	569.31
430.292	583.31
430.514	493.31
430.736	488.31
430.958	476.31
431.18	474.31
431.402	471.31
431.624	467.31
431.846	476.31
432.068	487.31
432.29	503.31
432.512	472.31
432.734	498.31
432.956	482.31
433.178	504.31
433.4	496.31
433.622	497.31
433.844	490.31
434.066	482.31
434.287	496.31
434.509	482.31
434.731	499.31
434.953	523.31
435.175	535.31
435.397	545.31
435.618	538.31
435.84	568.31
436.062	638.31
436.284	680.31
436.505	595.31
436.727	528.31
436.949	518.31
437.17	485.31
437.392	495.31
437.614	505.31
437.835	548.31
438.057	618.31
438.278	705.31
438.5	683.31
438.721	774.31
438.943	737.31
439.165	603.31
439.386	546.31
439.608	528.31
439.829	510.31
440.05	549.31
440.272	578.31
440.493	560.31
440.715	544.31
440.936	500.31
441.158	513.31
441.379	531.31
441.6	527.31
441.822	530.31
442.043	565.31
442.264	642.31
442.486	678.31
442.707	583.31
442.928	556.31
443.149	540.31
443.371	569.31
443.592	612.31
443.813	680.31
444.034	757.31
444.255	651.31
444.476	567.31
444.698	578.31
444.919	590.31
445.14	691.31
445.361	619.31
445.582	599.31
445.803	633.31
446.024	692.31
446.245	706.31
446.466	635.31
446.687	558.31
446.908	534.31
447.129	502.31
447.35	494.31
447.571	488.31
447.792	495.31
448.013	490.31
448.234	510.31
448.455	553.31
448.675	652.31
448.896	737.31
449.117	620.31
449.338	589.31
449.559	703.31
449.779	775.31
450	602.31
450.221	516.31
450.442	498.31
450.662	485.31
450.883	479.31
451.104	468.31
451.324	488.31
451.545	467.31
451.766	451.31
451.986	445.31
452.207	450.31
452.428	460.31
452.648	446.31
452.869	439.31
453.089	451.31
453.31	460.31
453.53	451.31
453.751	430.31
453.971	463.31
454.192	449.31
454.412	455.31
454.633	463.31
454.853	430.31
455.073	424.31
455.294	444.31
455.514	518.31
455.734	498.31
455.955	446.31
456.175	421.31
456.395	432.31
456.616	418.31
456.836	421.31
457.056	432.31
457.276	430.31
457.497	422.31
457.717	412.31
457.937	446.31
458.157	427.31
458.377	424.31
458.598	454.31
458.818	488.31
459.038	570.31
459.258	567.31
459.478	525.31
459.698	479.31
459.918	481.31
460.138	479.31
460.358	513.31
460.578	510.31
460.798	506.31
461.018	513.31
461.238	498.31
461.458	512.31
461.678	527.31
461.898	535.31
462.118	541.31
462.338	548.31
462.558	548.31
462.777	538.31
462.997	594.31
463.217	600.31
463.437	594.31
463.657	558.31
463.876	546.31
464.096	566.31
464.316	548.31
464.536	581.31
464.755	537.31
464.975	553.31
465.195	547.31
465.414	604.31
465.634	556.31
465.854	526.31
466.073	485.31
466.293	491.31
466.512	486.31
466.732	472.31
466.951	468.31
467.171	466.31
467.391	460.31
467.61	478.31
467.829	450.31
468.049	489.31
468.268	446.31
468.488	465.31
468.707	456.31
468.927	450.31
469.146	444.31
469.365	454.31
469.585	460.31
469.804	452.31
470.023	477.31
470.243	482.31
470.462	470.31
470.681	503.31
470.901	491.31
471.12	489.31
471.339	458.31
471.558	489.31
471.777	473.31
471.997	479.31
472.216	451.31
472.435	471.31
472.654	451.31
472.873	446.31
473.092	450.31
473.311	437.31
473.53	455.31
473.749	457.31
473.968	499.31
474.187	583.31
474.406	592.31
474.625	517.31
474.844	466.31
475.063	433.31
475.282	462.31
475.501	469.31
475.72	473.31
475.939	467.31
476.158	468.31
476.377	468.31
476.596	475.31
476.814	479.31
477.033	474.31
477.252	510.31
477.471	490.31
477.69	510.31
477.908	498.31
478.127	524.31
478.346	511.31
478.564	543.31
478.783	524.31
479.002	536.31
479.22	554.31
479.439	552.31
479.658	539.31
479.876	554.31
480.095	571.31
480.313	585.31
480.532	616.31
480.751	592.31
480.969	585.31
481.188	565.31
481.406	565.31
481.624	551.31
481.843	536.31
482.061	546.31
482.28	526.31
482.498	532.31
482.717	512.31
482.935	540.31
483.153	518.31
483.372	547.31
483.59	540.31
483.808	534.31
484.027	535.31
484.245	530.31
484.463	537.31
484.681	525.31
484.9	531.31
485.118	559.31
485.336	532.31
485.554	538.31
485.772	565.31
485.99	556.31
486.209	562.31
486.427	587.31
486.645	558.31
486.863	566.31
487.081	609.31
487.299	580.31
487.517	559.31
487.735	579.31
487.953	584.31
488.171	575.31
488.389	565.31
488.607	565.31
488.825	582.31
489.043	566.31
489.261	575.31
489.479	590.31
489.696	590.31
489.914	580.31
490.132	570.31
490.35	583.31
490.568	586.31
490.786	606.31
491.003	593.31
491.221	608.31
491.439	644.31
491.657	636.31
491.874	641.31
492.092	645.31
492.31	624.31
492.527	653.31
492.745	641.31
492.963	636.31
493.18	635.31
493.398	635.31
493.615	651.31
493.833	648.31
494.05	647.31
494.268	652.31
494.485	639.31
494.703	655.31
494.92	658.31
495.138	650.31
495.355	671.31
495.573	647.31
495.79	658.31
496.008	671.31
496.225	665.31
496.442	648.31
496.66	670.31
496.877	676.31
497.094	689.31
497.312	675.31
497.529	708.31
497.746	732.31
497.963	722.31
498.181	747.31
498.398	775.31
498.615	784.31
498.832	788.31
499.049	812.31
499.267	881.31
499.484	919.31
499.701	991.31
499.918	1010.31
500.135	1128.31
500.352	1154.31
500.569	1189.31
500.786	1179.31
501.003	1121.31
501.22	1083.31
501.437	1010.31
501.654	1002.31
501.871	931.31
