Data from 1985.PennyLincolnUp.Lamp.En5.5.200Scan.071819.P1_HRD10591_17-04-20-971.txt Node
Date: Thu Jul 18 17:04:20 EDT 2019
User: cochatt
Spectrometer: HR+D1059
Trigger mode: 1
Integration Time (sec): 1.000000E-1
Scans to average: 1
Electric dark correction enabled: true
Nonlinearity correction enabled: false
Boxcar width: 0
XAxis mode: Wavelengths
Number of Pixels in Spectrum: 2048
>>>>>Begin Spectral Data<<<<<
223.165	-15.56
223.4	-15.56
223.635	-15.56
223.869	-14.56
224.104	-23.56
224.338	-17.56
224.573	-14.56
224.808	-6.56
225.042	-17.56
225.277	13.44
225.511	6.44
225.746	-0.56
225.98	11.44
226.215	5.44
226.449	8.44
226.683	23.44
226.918	14.44
227.152	27.44
227.387	30.44
227.621	51.44
227.856	50.44
228.09	44.44
228.324	57.44
228.559	57.44
228.793	63.44
229.027	94.44
229.262	96.44
229.496	103.44
229.73	130.44
229.964	154.44
230.199	128.44
230.433	125.44
230.667	117.44
230.901	112.44
231.136	108.44
231.37	112.44
231.604	108.44
231.838	134.44
232.072	123.44
232.306	99.44
232.541	124.44
232.775	126.44
233.009	116.44
233.243	107.44
233.477	93.44
233.711	110.44
233.945	123.44
234.179	111.44
234.413	116.44
234.647	127.44
234.881	109.44
235.115	110.44
235.349	128.44
235.583	118.44
235.817	144.44
236.051	117.44
236.285	147.44
236.519	128.44
236.753	140.44
236.987	162.44
237.221	181.44
237.455	221.44
237.689	180.44
237.922	138.44
238.156	131.44
238.39	127.44
238.624	131.44
238.858	128.44
239.091	127.44
239.325	129.44
239.559	131.44
239.793	142.44
240.027	128.44
240.26	152.44
240.494	151.44
240.728	155.44
240.961	159.44
241.195	152.44
241.429	151.44
241.662	131.44
241.896	127.44
242.13	146.44
242.363	130.44
242.597	124.44
242.83	147.44
243.064	135.44
243.298	149.44
243.531	141.44
243.765	143.44
243.998	149.44
244.232	136.44
244.465	165.44
244.699	139.44
244.932	137.44
245.166	148.44
245.399	150.44
245.633	144.44
245.866	161.44
246.099	152.44
246.333	164.44
246.566	167.44
246.8	153.44
247.033	155.44
247.266	137.44
247.5	173.44
247.733	170.44
247.966	177.44
248.2	172.44
248.433	172.44
248.666	175.44
248.899	198.44
249.133	205.44
249.366	196.44
249.599	210.44
249.832	167.44
250.066	183.44
250.299	191.44
250.532	217.44
250.765	243.44
250.998	236.44
251.231	237.44
251.465	223.44
251.698	205.44
251.931	205.44
252.164	192.44
252.397	199.44
252.63	215.44
252.863	231.44
253.096	222.44
253.329	224.44
253.562	216.44
253.795	227.44
254.028	217.44
254.261	228.44
254.494	232.44
254.727	264.44
254.96	297.44
255.193	289.44
255.426	260.44
255.659	223.44
255.892	246.44
256.124	288.44
256.357	268.44
256.59	250.44
256.823	218.44
257.056	224.44
257.289	224.44
257.521	236.44
257.754	228.44
257.987	215.44
258.22	219.44
258.452	225.44
258.685	215.44
258.918	238.44
259.151	215.44
259.383	216.44
259.616	234.44
259.849	243.44
260.081	246.44
260.314	259.44
260.547	246.44
260.779	236.44
261.012	234.44
261.244	236.44
261.477	236.44
261.71	245.44
261.942	254.44
262.175	259.44
262.407	231.44
262.64	224.44
262.872	232.44
263.105	232.44
263.337	220.44
263.57	230.44
263.802	231.44
264.035	228.44
264.267	248.44
264.499	228.44
264.732	234.44
264.964	231.44
265.197	246.44
265.429	233.44
265.661	230.44
265.894	223.44
266.126	232.44
266.358	249.44
266.591	238.44
266.823	232.44
267.055	257.44
267.287	267.44
267.52	243.44
267.752	252.44
267.984	239.44
268.216	239.44
268.448	249.44
268.681	259.44
268.913	281.44
269.145	307.44
269.377	290.44
269.609	289.44
269.841	264.44
270.073	280.44
270.306	319.44
270.538	327.44
270.77	336.44
271.002	301.44
271.234	319.44
271.466	305.44
271.698	328.44
271.93	313.44
272.162	335.44
272.394	342.44
272.626	323.44
272.858	308.44
273.09	308.44
273.322	289.44
273.553	277.44
273.785	303.44
274.017	298.44
274.249	304.44
274.481	300.44
274.713	286.44
274.945	296.44
275.176	302.44
275.408	292.44
275.64	301.44
275.872	281.44
276.104	315.44
276.335	302.44
276.567	303.44
276.799	299.44
277.031	342.44
277.262	341.44
277.494	340.44
277.726	329.44
277.957	323.44
278.189	319.44
278.421	303.44
278.652	292.44
278.884	278.44
279.115	294.44
279.347	311.44
279.579	290.44
279.81	317.44
280.042	283.44
280.273	302.44
280.505	296.44
280.736	303.44
280.968	324.44
281.199	318.44
281.431	293.44
281.662	311.44
281.894	302.44
282.125	297.44
282.356	313.44
282.588	352.44
282.819	340.44
283.051	316.44
283.282	302.44
283.513	321.44
283.745	314.44
283.976	336.44
284.207	339.44
284.439	334.44
284.67	325.44
284.901	311.44
285.132	312.44
285.364	319.44
285.595	331.44
285.826	312.44
286.057	337.44
286.288	354.44
286.52	327.44
286.751	311.44
286.982	318.44
287.213	332.44
287.444	328.44
287.675	334.44
287.906	336.44
288.138	334.44
288.369	351.44
288.6	337.44
288.831	325.44
289.062	329.44
289.293	330.44
289.524	333.44
289.755	324.44
289.986	330.44
290.217	340.44
290.448	332.44
290.679	339.44
290.91	326.44
291.141	333.44
291.371	350.44
291.602	337.44
291.833	329.44
292.064	315.44
292.295	321.44
292.526	333.44
292.757	335.44
292.987	330.44
293.218	330.44
293.449	322.44
293.68	331.44
293.91	332.44
294.141	329.44
294.372	327.44
294.603	351.44
294.833	349.44
295.064	340.44
295.295	351.44
295.525	358.44
295.756	352.44
295.987	377.44
296.217	368.44
296.448	399.44
296.679	343.44
296.909	358.44
297.14	345.44
297.37	336.44
297.601	337.44
297.831	355.44
298.062	352.44
298.292	355.44
298.523	341.44
298.753	345.44
298.984	356.44
299.214	356.44
299.445	358.44
299.675	359.44
299.905	345.44
300.136	359.44
300.366	366.44
300.597	357.44
300.827	380.44
301.057	383.44
301.288	377.44
301.518	392.44
301.748	375.44
301.979	400.44
302.209	389.44
302.439	378.44
302.669	380.44
302.9	373.44
303.13	377.44
303.36	396.44
303.59	393.44
303.82	397.44
304.051	397.44
304.281	385.44
304.511	377.44
304.741	382.44
304.971	363.44
305.201	368.44
305.431	382.44
305.661	389.44
305.891	375.44
306.121	375.44
306.352	388.44
306.582	379.44
306.812	383.44
307.042	388.44
307.272	377.44
307.502	377.44
307.731	375.44
307.961	387.44
308.191	379.44
308.421	386.44
308.651	385.44
308.881	391.44
309.111	387.44
309.341	416.44
309.571	408.44
309.8	398.44
310.03	407.44
310.26	407.44
310.49	424.44
310.72	408.44
310.949	443.44
311.179	423.44
311.409	438.44
311.639	434.44
311.868	410.44
312.098	428.44
312.328	424.44
312.557	453.44
312.787	451.44
313.017	453.44
313.246	429.44
313.476	422.44
313.706	413.44
313.935	425.44
314.165	452.44
314.394	461.44
314.624	450.44
314.853	437.44
315.083	428.44
315.312	426.44
315.542	428.44
315.771	453.44
316.001	449.44
316.23	413.44
316.46	428.44
316.689	446.44
316.919	423.44
317.148	437.44
317.377	456.44
317.607	429.44
317.836	440.44
318.065	431.44
318.295	425.44
318.524	428.44
318.753	425.44
318.983	429.44
319.212	423.44
319.441	447.44
319.67	455.44
319.9	426.44
320.129	420.44
320.358	429.44
320.587	437.44
320.816	446.44
321.046	447.44
321.275	447.44
321.504	449.44
321.733	452.44
321.962	461.44
322.191	462.44
322.42	481.44
322.649	478.44
322.878	499.44
323.108	496.44
323.337	528.44
323.566	549.44
323.795	556.44
324.024	618.44
324.253	703.44
324.482	986.44
324.71	1486.44
324.939	2086.44
325.168	1780.44
325.397	957.44
325.626	672.44
325.855	580.44
326.084	566.44
326.313	544.44
326.542	542.44
326.77	587.44
326.999	690.44
327.228	900.44
327.457	1296.44
327.686	1608.44
327.914	1069.44
328.143	749.44
328.372	688.44
328.6	650.44
328.829	609.44
329.058	601.44
329.287	624.44
329.515	602.44
329.744	596.44
329.972	582.44
330.201	605.44
330.43	667.44
330.658	667.44
330.887	676.44
331.115	656.44
331.344	588.44
331.572	561.44
331.801	574.44
332.03	581.44
332.258	549.44
332.486	553.44
332.715	535.44
332.943	526.44
333.172	563.44
333.4	568.44
333.629	585.44
333.857	604.44
334.085	606.44
334.314	645.44
334.542	665.44
334.771	719.44
334.999	607.44
335.227	590.44
335.455	545.44
335.684	558.44
335.912	546.44
336.14	525.44
336.369	528.44
336.597	520.44
336.825	536.44
337.053	534.44
337.281	524.44
337.51	515.44
337.738	529.44
337.966	511.44
338.194	493.44
338.422	504.44
338.65	517.44
338.878	520.44
339.106	503.44
339.334	475.44
339.562	496.44
339.79	486.44
340.018	484.44
340.246	481.44
340.474	486.44
340.702	517.44
340.93	473.44
341.158	476.44
341.386	456.44
341.614	494.44
341.842	467.44
342.07	483.44
342.298	481.44
342.526	458.44
342.754	491.44
342.981	473.44
343.209	479.44
343.437	488.44
343.665	519.44
343.893	524.44
344.12	564.44
344.348	511.44
344.576	519.44
344.804	490.44
345.031	500.44
345.259	515.44
345.487	477.44
345.714	484.44
345.942	490.44
346.17	480.44
346.397	469.44
346.625	468.44
346.853	478.44
347.08	451.44
347.308	469.44
347.535	469.44
347.763	460.44
347.99	447.44
348.218	452.44
348.445	476.44
348.673	485.44
348.9	448.44
349.128	473.44
349.355	440.44
349.583	447.44
349.81	470.44
350.037	475.44
350.265	474.44
350.492	437.44
350.72	451.44
350.947	465.44
351.174	475.44
351.402	476.44
351.629	473.44
351.856	483.44
352.083	466.44
352.311	481.44
352.538	475.44
352.765	461.44
352.992	458.44
353.22	453.44
353.447	455.44
353.674	453.44
353.901	449.44
354.128	455.44
354.355	433.44
354.583	448.44
354.81	433.44
355.037	434.44
355.264	421.44
355.491	428.44
355.718	431.44
355.945	436.44
356.172	417.44
356.399	432.44
356.626	443.44
356.853	449.44
357.08	429.44
357.307	429.44
357.534	419.44
357.761	428.44
357.988	423.44
358.215	422.44
358.441	456.44
358.668	417.44
358.895	433.44
359.122	444.44
359.349	438.44
359.576	464.44
359.802	491.44
360.029	494.44
360.256	517.44
360.483	477.44
360.709	470.44
360.936	460.44
361.163	440.44
361.39	457.44
361.616	487.44
361.843	451.44
362.07	447.44
362.296	470.44
362.523	466.44
362.749	461.44
362.976	459.44
363.203	447.44
363.429	432.44
363.656	451.44
363.882	431.44
364.109	427.44
364.335	437.44
364.562	438.44
364.788	434.44
365.015	420.44
365.241	437.44
365.468	453.44
365.694	457.44
365.92	431.44
366.147	422.44
366.373	443.44
366.599	428.44
366.826	433.44
367.052	431.44
367.278	428.44
367.505	448.44
367.731	439.44
367.957	440.44
368.184	435.44
368.41	432.44
368.636	449.44
368.862	484.44
369.089	463.44
369.315	436.44
369.541	447.44
369.767	444.44
369.993	434.44
370.219	440.44
370.445	443.44
370.672	441.44
370.898	451.44
371.124	424.44
371.35	441.44
371.576	457.44
371.802	431.44
372.028	439.44
372.254	435.44
372.48	428.44
372.706	457.44
372.932	457.44
373.158	448.44
373.384	463.44
373.61	457.44
373.835	423.44
374.061	456.44
374.287	459.44
374.513	458.44
374.739	467.44
374.965	480.44
375.191	476.44
375.416	461.44
375.642	457.44
375.868	455.44
376.094	447.44
376.319	442.44
376.545	424.44
376.771	417.44
376.997	428.44
377.222	459.44
377.448	439.44
377.674	438.44
377.899	448.44
378.125	432.44
378.35	441.44
378.576	423.44
378.802	419.44
379.027	396.44
379.253	414.44
379.478	431.44
379.704	432.44
379.929	444.44
380.155	430.44
380.38	430.44
380.606	435.44
380.831	435.44
381.057	437.44
381.282	449.44
381.507	430.44
381.733	438.44
381.958	427.44
382.184	447.44
382.409	463.44
382.634	446.44
382.86	445.44
383.085	440.44
383.31	471.44
383.535	477.44
383.761	437.44
383.986	471.44
384.211	474.44
384.436	474.44
384.662	485.44
384.887	461.44
385.112	479.44
385.337	491.44
385.562	500.44
385.787	473.44
386.013	510.44
386.238	494.44
386.463	481.44
386.688	495.44
386.913	468.44
387.138	471.44
387.363	496.44
387.588	462.44
387.813	446.44
388.038	488.44
388.263	493.44
388.488	476.44
388.713	487.44
388.938	490.44
389.163	493.44
389.387	473.44
389.612	485.44
389.837	485.44
390.062	493.44
390.287	490.44
390.512	476.44
390.736	479.44
390.961	495.44
391.186	479.44
391.411	504.44
391.636	501.44
391.86	518.44
392.085	515.44
392.31	512.44
392.534	539.44
392.759	505.44
392.984	500.44
393.208	489.44
393.433	502.44
393.658	467.44
393.882	477.44
394.107	477.44
394.331	513.44
394.556	521.44
394.78	499.44
395.005	493.44
395.229	505.44
395.454	515.44
395.678	510.44
395.903	533.44
396.127	544.44
396.352	535.44
396.576	526.44
396.801	494.44
397.025	521.44
397.249	533.44
397.474	515.44
397.698	522.44
397.922	531.44
398.147	530.44
398.371	565.44
398.595	556.44
398.82	569.44
399.044	579.44
399.268	631.44
399.492	644.44
399.717	729.44
399.941	701.44
400.165	719.44
400.389	693.44
400.613	648.44
400.837	611.44
401.062	581.44
401.286	564.44
401.51	565.44
401.734	581.44
401.958	560.44
402.182	595.44
402.406	579.44
402.63	587.44
402.854	601.44
403.078	600.44
403.302	584.44
403.526	609.44
403.75	585.44
403.974	601.44
404.198	587.44
404.422	606.44
404.645	599.44
404.869	635.44
405.093	655.44
405.317	700.44
405.541	721.44
405.765	656.44
405.988	625.44
406.212	639.44
406.436	655.44
406.66	685.44
406.883	650.44
407.107	662.44
407.331	712.44
407.555	789.44
407.778	763.44
408.002	692.44
408.226	679.44
408.449	639.44
408.673	648.44
408.896	677.44
409.12	713.44
409.344	669.44
409.567	630.44
409.791	627.44
410.014	583.44
410.238	581.44
410.461	597.44
410.685	607.44
410.908	614.44
411.132	634.44
411.355	648.44
411.578	621.44
411.802	601.44
412.025	594.44
412.249	604.44
412.472	641.44
412.695	646.44
412.919	645.44
413.142	611.44
413.365	598.44
413.589	612.44
413.812	573.44
414.035	550.44
414.258	560.44
414.482	571.44
414.705	565.44
414.928	557.44
415.151	560.44
415.374	539.44
415.597	573.44
415.821	550.44
416.044	554.44
416.267	558.44
416.49	554.44
416.713	535.44
416.936	561.44
417.159	546.44
417.382	563.44
417.605	547.44
417.828	561.44
418.051	574.44
418.274	579.44
418.497	531.44
418.72	548.44
418.943	549.44
419.166	572.44
419.389	577.44
419.611	593.44
419.834	595.44
420.057	593.44
420.28	585.44
420.503	599.44
420.726	574.44
420.948	581.44
421.171	615.44
421.394	643.44
421.617	575.44
421.839	593.44
422.062	581.44
422.285	602.44
422.507	641.44
422.73	727.44
422.953	681.44
423.175	614.44
423.398	594.44
423.621	589.44
423.843	608.44
424.066	614.44
424.288	615.44
424.511	617.44
424.733	668.44
424.956	763.44
425.178	703.44
425.401	699.44
425.623	743.44
425.846	654.44
426.068	583.44
426.291	585.44
426.513	582.44
426.735	583.44
426.958	631.44
427.18	696.44
427.402	846.44
427.625	913.44
427.847	792.44
428.069	693.44
428.292	643.44
428.514	581.44
428.736	555.44
428.958	527.44
429.181	545.44
429.403	526.44
429.625	551.44
429.847	599.44
430.069	635.44
430.292	628.44
430.514	568.44
430.736	547.44
430.958	545.44
431.18	517.44
431.402	517.44
431.624	517.44
431.846	517.44
432.068	525.44
432.29	529.44
432.512	528.44
432.734	528.44
432.956	539.44
433.178	555.44
433.4	551.44
433.622	536.44
433.844	523.44
434.066	491.44
434.287	513.44
434.509	554.44
434.731	560.44
434.953	567.44
435.175	546.44
435.397	611.44
435.618	602.44
435.84	621.44
436.062	715.44
436.284	774.44
436.505	654.44
436.727	565.44
436.949	568.44
437.17	553.44
437.392	524.44
437.614	542.44
437.835	573.44
438.057	685.44
438.278	745.44
438.5	743.44
438.721	836.44
438.943	785.44
439.165	627.44
439.386	572.44
439.608	599.44
439.829	587.44
440.05	627.44
440.272	644.44
440.493	606.44
440.715	568.44
440.936	574.44
441.158	561.44
441.379	543.44
441.6	573.44
441.822	579.44
442.043	633.44
442.264	728.44
442.486	736.44
442.707	647.44
442.928	593.44
443.149	595.44
443.371	604.44
443.592	662.44
443.813	753.44
444.034	811.44
444.255	699.44
444.476	632.44
444.698	642.44
444.919	643.44
445.14	741.44
445.361	669.44
445.582	631.44
445.803	682.44
446.024	797.44
446.245	790.44
446.466	695.44
446.687	627.44
446.908	596.44
447.129	537.44
447.35	545.44
447.571	539.44
447.792	514.44
448.013	534.44
448.234	549.44
448.455	607.44
448.675	706.44
448.896	819.44
449.117	694.44
449.338	635.44
449.559	745.44
449.779	827.44
450	684.44
450.221	590.44
450.442	529.44
450.662	529.44
450.883	540.44
451.104	528.44
451.324	526.44
451.545	501.44
451.766	503.44
451.986	494.44
452.207	467.44
452.428	473.44
452.648	471.44
452.869	473.44
453.089	489.44
453.31	480.44
453.53	483.44
453.751	474.44
453.971	480.44
454.192	474.44
454.412	465.44
454.633	491.44
454.853	483.44
455.073	476.44
455.294	479.44
455.514	576.44
455.734	553.44
455.955	480.44
456.175	481.44
456.395	468.44
456.616	460.44
456.836	437.44
457.056	433.44
457.276	444.44
457.497	460.44
457.717	471.44
457.937	451.44
458.157	457.44
458.377	485.44
458.598	497.44
458.818	553.44
459.038	613.44
459.258	633.44
459.478	565.44
459.698	533.44
459.918	520.44
460.138	515.44
460.358	540.44
460.578	544.44
460.798	544.44
461.018	575.44
461.238	559.44
461.458	562.44
461.678	539.44
461.898	569.44
462.118	569.44
462.338	576.44
462.558	592.44
462.777	580.44
462.997	631.44
463.217	641.44
463.437	660.44
463.657	639.44
463.876	611.44
464.096	594.44
464.316	615.44
464.536	642.44
464.755	604.44
464.975	589.44
465.195	631.44
465.414	659.44
465.634	608.44
465.854	555.44
466.073	529.44
466.293	526.44
466.512	529.44
466.732	502.44
466.951	506.44
467.171	494.44
467.391	486.44
467.61	501.44
467.829	507.44
468.049	538.44
468.268	524.44
468.488	528.44
468.707	486.44
468.927	500.44
469.146	503.44
469.365	485.44
469.585	480.44
469.804	501.44
470.023	517.44
470.243	529.44
470.462	519.44
470.681	519.44
470.901	531.44
471.12	533.44
471.339	517.44
471.558	515.44
471.777	509.44
471.997	504.44
472.216	529.44
472.435	584.44
472.654	548.44
472.873	514.44
473.092	516.44
473.311	476.44
473.53	489.44
473.749	507.44
473.968	541.44
474.187	644.44
474.406	643.44
474.625	566.44
474.844	529.44
475.063	503.44
475.282	513.44
475.501	510.44
475.72	522.44
475.939	530.44
476.158	512.44
476.377	514.44
476.596	541.44
476.814	511.44
477.033	537.44
477.252	555.44
477.471	529.44
477.69	528.44
477.908	550.44
478.127	583.44
478.346	569.44
478.564	579.44
478.783	576.44
479.002	577.44
479.22	571.44
479.439	610.44
479.658	611.44
479.876	624.44
480.095	631.44
480.313	645.44
480.532	664.44
480.751	647.44
480.969	639.44
481.188	731.44
481.406	776.44
481.624	695.44
481.843	633.44
482.061	608.44
482.28	583.44
482.498	580.44
482.717	589.44
482.935	602.44
483.153	588.44
483.372	593.44
483.59	613.44
483.808	599.44
484.027	586.44
484.245	592.44
484.463	588.44
484.681	613.44
484.9	599.44
485.118	599.44
485.336	590.44
485.554	619.44
485.772	610.44
485.99	583.44
486.209	608.44
486.427	624.44
486.645	628.44
486.863	641.44
487.081	636.44
487.299	635.44
487.517	640.44
487.735	628.44
487.953	624.44
488.171	641.44
488.389	643.44
488.607	635.44
488.825	631.44
489.043	613.44
489.261	645.44
489.479	631.44
489.696	642.44
489.914	655.44
490.132	665.44
490.35	666.44
490.568	675.44
490.786	664.44
491.003	686.44
491.221	675.44
491.439	700.44
491.657	714.44
491.874	718.44
492.092	722.44
492.31	745.44
492.527	746.44
492.745	730.44
492.963	742.44
493.18	781.44
493.398	771.44
493.615	750.44
493.833	742.44
494.05	770.44
494.268	761.44
494.485	740.44
494.703	759.44
494.92	749.44
495.138	728.44
495.355	735.44
495.573	744.44
495.79	761.44
496.008	752.44
496.225	751.44
496.442	755.44
496.66	784.44
496.877	749.44
497.094	734.44
497.312	773.44
497.529	785.44
497.746	805.44
497.963	805.44
498.181	807.44
498.398	825.44
498.615	867.44
498.832	907.44
499.049	901.44
499.267	922.44
499.484	1011.44
499.701	1053.44
499.918	1097.44
500.135	1159.44
500.352	1248.44
500.569	1296.44
500.786	1297.44
501.003	1270.44
501.22	1139.44
501.437	1118.44
501.654	1053.44
501.871	1031.44
