Data from 1985.PennyLincolnUp.Lamp.En5.5.200Scan.071819.P1_HRD10591_17-02-52-970.txt Node
Date: Thu Jul 18 17:02:52 EDT 2019
User: cochatt
Spectrometer: HR+D1059
Trigger mode: 1
Integration Time (sec): 1.000000E-1
Scans to average: 1
Electric dark correction enabled: true
Nonlinearity correction enabled: false
Boxcar width: 0
XAxis mode: Wavelengths
Number of Pixels in Spectrum: 2048
>>>>>Begin Spectral Data<<<<<
223.165	-8.81
223.4	-8.81
223.635	-8.81
223.869	-16.81
224.104	-5.81
224.338	-27.81
224.573	0.19
224.808	-9.81
225.042	-9.81
225.277	-6.81
225.511	-4.81
225.746	1.19
225.98	1.19
226.215	5.19
226.449	10.19
226.683	9.19
226.918	28.19
227.152	35.19
227.387	27.19
227.621	32.19
227.856	40.19
228.09	41.19
228.324	43.19
228.559	54.19
228.793	61.19
229.027	96.19
229.262	101.19
229.496	101.19
229.73	133.19
229.964	141.19
230.199	137.19
230.433	98.19
230.667	118.19
230.901	106.19
231.136	107.19
231.37	102.19
231.604	121.19
231.838	107.19
232.072	124.19
232.306	116.19
232.541	106.19
232.775	103.19
233.009	96.19
233.243	124.19
233.477	108.19
233.711	113.19
233.945	114.19
234.179	115.19
234.413	116.19
234.647	135.19
234.881	112.19
235.115	120.19
235.349	122.19
235.583	112.19
235.817	114.19
236.051	131.19
236.285	138.19
236.519	129.19
236.753	129.19
236.987	155.19
237.221	176.19
237.455	233.19
237.689	167.19
237.922	134.19
238.156	142.19
238.39	130.19
238.624	130.19
238.858	131.19
239.091	116.19
239.325	120.19
239.559	132.19
239.793	113.19
240.027	128.19
240.26	132.19
240.494	151.19
240.728	157.19
240.961	157.19
241.195	140.19
241.429	123.19
241.662	149.19
241.896	134.19
242.13	130.19
242.363	137.19
242.597	122.19
242.83	140.19
243.064	132.19
243.298	128.19
243.531	137.19
243.765	134.19
243.998	118.19
244.232	143.19
244.465	134.19
244.699	157.19
244.932	142.19
245.166	139.19
245.399	123.19
245.633	145.19
245.866	151.19
246.099	153.19
246.333	161.19
246.566	152.19
246.8	150.19
247.033	169.19
247.266	160.19
247.5	168.19
247.733	157.19
247.966	163.19
248.2	164.19
248.433	156.19
248.666	185.19
248.899	164.19
249.133	187.19
249.366	200.19
249.599	182.19
249.832	187.19
250.066	180.19
250.299	183.19
250.532	178.19
250.765	193.19
250.998	212.19
251.231	215.19
251.465	206.19
251.698	203.19
251.931	188.19
252.164	184.19
252.397	191.19
252.63	182.19
252.863	206.19
253.096	215.19
253.329	213.19
253.562	228.19
253.795	214.19
254.028	224.19
254.261	221.19
254.494	226.19
254.727	248.19
254.96	276.19
255.193	262.19
255.426	252.19
255.659	225.19
255.892	215.19
256.124	218.19
256.357	230.19
256.59	212.19
256.823	210.19
257.056	220.19
257.289	190.19
257.521	210.19
257.754	193.19
257.987	207.19
258.22	213.19
258.452	211.19
258.685	201.19
258.918	207.19
259.151	220.19
259.383	217.19
259.616	217.19
259.849	212.19
260.081	228.19
260.314	242.19
260.547	261.19
260.779	236.19
261.012	244.19
261.244	230.19
261.477	228.19
261.71	221.19
261.942	225.19
262.175	235.19
262.407	225.19
262.64	216.19
262.872	220.19
263.105	209.19
263.337	215.19
263.57	218.19
263.802	221.19
264.035	216.19
264.267	216.19
264.499	220.19
264.732	222.19
264.964	241.19
265.197	226.19
265.429	217.19
265.661	203.19
265.894	219.19
266.126	235.19
266.358	219.19
266.591	217.19
266.823	231.19
267.055	232.19
267.287	233.19
267.52	221.19
267.752	234.19
267.984	242.19
268.216	245.19
268.448	228.19
268.681	235.19
268.913	264.19
269.145	268.19
269.377	289.19
269.609	280.19
269.841	260.19
270.073	267.19
270.306	292.19
270.538	316.19
270.77	315.19
271.002	284.19
271.234	296.19
271.466	315.19
271.698	326.19
271.93	306.19
272.162	338.19
272.394	316.19
272.626	293.19
272.858	294.19
273.09	287.19
273.322	268.19
273.553	288.19
273.785	284.19
274.017	275.19
274.249	265.19
274.481	279.19
274.713	263.19
274.945	276.19
275.176	281.19
275.408	260.19
275.64	289.19
275.872	279.19
276.104	263.19
276.335	289.19
276.567	298.19
276.799	289.19
277.031	310.19
277.262	313.19
277.494	327.19
277.726	316.19
277.957	293.19
278.189	299.19
278.421	295.19
278.652	286.19
278.884	292.19
279.115	283.19
279.347	280.19
279.579	285.19
279.81	277.19
280.042	273.19
280.273	285.19
280.505	274.19
280.736	296.19
280.968	285.19
281.199	263.19
281.431	264.19
281.662	283.19
281.894	299.19
282.125	297.19
282.356	314.19
282.588	321.19
282.819	317.19
283.051	288.19
283.282	302.19
283.513	275.19
283.745	313.19
283.976	294.19
284.207	313.19
284.439	287.19
284.67	298.19
284.901	301.19
285.132	299.19
285.364	295.19
285.595	290.19
285.826	300.19
286.057	301.19
286.288	317.19
286.52	289.19
286.751	299.19
286.982	301.19
287.213	308.19
287.444	296.19
287.675	312.19
287.906	313.19
288.138	325.19
288.369	323.19
288.6	347.19
288.831	328.19
289.062	323.19
289.293	314.19
289.524	316.19
289.755	321.19
289.986	311.19
290.217	325.19
290.448	304.19
290.679	322.19
290.91	330.19
291.141	309.19
291.371	317.19
291.602	311.19
291.833	314.19
292.064	320.19
292.295	308.19
292.526	301.19
292.757	325.19
292.987	328.19
293.218	306.19
293.449	320.19
293.68	318.19
293.91	318.19
294.141	308.19
294.372	321.19
294.603	314.19
294.833	315.19
295.064	307.19
295.295	317.19
295.525	320.19
295.756	313.19
295.987	336.19
296.217	361.19
296.448	368.19
296.679	333.19
296.909	327.19
297.14	320.19
297.37	318.19
297.601	329.19
297.831	330.19
298.062	344.19
298.292	363.19
298.523	345.19
298.753	334.19
298.984	323.19
299.214	321.19
299.445	344.19
299.675	346.19
299.905	350.19
300.136	334.19
300.366	350.19
300.597	333.19
300.827	352.19
301.057	359.19
301.288	363.19
301.518	366.19
301.748	368.19
301.979	372.19
302.209	349.19
302.439	360.19
302.669	364.19
302.9	362.19
303.13	353.19
303.36	352.19
303.59	376.19
303.82	371.19
304.051	371.19
304.281	370.19
304.511	357.19
304.741	362.19
304.971	364.19
305.201	368.19
305.431	350.19
305.661	364.19
305.891	356.19
306.121	347.19
306.352	355.19
306.582	362.19
306.812	355.19
307.042	354.19
307.272	379.19
307.502	376.19
307.731	373.19
307.961	363.19
308.191	357.19
308.421	385.19
308.651	390.19
308.881	366.19
309.111	373.19
309.341	377.19
309.571	390.19
309.8	401.19
310.03	380.19
310.26	411.19
310.49	429.19
310.72	416.19
310.949	418.19
311.179	414.19
311.409	425.19
311.639	408.19
311.868	410.19
312.098	416.19
312.328	421.19
312.557	406.19
312.787	457.19
313.017	410.19
313.246	394.19
313.476	393.19
313.706	428.19
313.935	415.19
314.165	429.19
314.394	426.19
314.624	443.19
314.853	410.19
315.083	422.19
315.312	415.19
315.542	424.19
315.771	391.19
316.001	402.19
316.23	418.19
316.46	410.19
316.689	409.19
316.919	409.19
317.148	420.19
317.377	440.19
317.607	412.19
317.836	402.19
318.065	411.19
318.295	397.19
318.524	403.19
318.753	417.19
318.983	400.19
319.212	405.19
319.441	417.19
319.67	414.19
319.9	405.19
320.129	434.19
320.358	423.19
320.587	411.19
320.816	444.19
321.046	423.19
321.275	405.19
321.504	447.19
321.733	444.19
321.962	427.19
322.191	444.19
322.42	451.19
322.649	477.19
322.878	476.19
323.108	474.19
323.337	505.19
323.566	523.19
323.795	560.19
324.024	589.19
324.253	681.19
324.482	950.19
324.71	1435.19
324.939	2054.19
325.168	1754.19
325.397	932.19
325.626	660.19
325.855	552.19
326.084	513.19
326.313	503.19
326.542	521.19
326.77	602.19
326.999	635.19
327.228	873.19
327.457	1298.19
327.686	1549.19
327.914	1030.19
328.143	692.19
328.372	625.19
328.6	624.19
328.829	599.19
329.058	596.19
329.287	609.19
329.515	575.19
329.744	517.19
329.972	528.19
330.201	532.19
330.43	561.19
330.658	614.19
330.887	624.19
331.115	613.19
331.344	541.19
331.572	511.19
331.801	516.19
332.03	515.19
332.258	517.19
332.486	506.19
332.715	496.19
332.943	491.19
333.172	518.19
333.4	484.19
333.629	533.19
333.857	513.19
334.085	530.19
334.314	539.19
334.542	536.19
334.771	554.19
334.999	526.19
335.227	541.19
335.455	496.19
335.684	485.19
335.912	480.19
336.14	492.19
336.369	479.19
336.597	493.19
336.825	496.19
337.053	487.19
337.281	497.19
337.51	452.19
337.738	467.19
337.966	489.19
338.194	483.19
338.422	466.19
338.65	460.19
338.878	478.19
339.106	471.19
339.334	482.19
339.562	464.19
339.79	470.19
340.018	438.19
340.246	456.19
340.474	487.19
340.702	459.19
340.93	460.19
341.158	466.19
341.386	460.19
341.614	452.19
341.842	468.19
342.07	459.19
342.298	434.19
342.526	453.19
342.754	453.19
342.981	440.19
343.209	436.19
343.437	468.19
343.665	474.19
343.893	467.19
344.12	491.19
344.348	492.19
344.576	470.19
344.804	461.19
345.031	483.19
345.259	501.19
345.487	470.19
345.714	462.19
345.942	445.19
346.17	451.19
346.397	461.19
346.625	435.19
346.853	437.19
347.08	425.19
347.308	451.19
347.535	448.19
347.763	452.19
347.99	453.19
348.218	464.19
348.445	460.19
348.673	453.19
348.9	437.19
349.128	440.19
349.355	413.19
349.583	450.19
349.81	406.19
350.037	408.19
350.265	421.19
350.492	435.19
350.72	422.19
350.947	444.19
351.174	433.19
351.402	456.19
351.629	449.19
351.856	443.19
352.083	434.19
352.311	453.19
352.538	425.19
352.765	459.19
352.992	446.19
353.22	446.19
353.447	445.19
353.674	438.19
353.901	420.19
354.128	412.19
354.355	412.19
354.583	432.19
354.81	427.19
355.037	422.19
355.264	425.19
355.491	410.19
355.718	415.19
355.945	402.19
356.172	399.19
356.399	394.19
356.626	412.19
356.853	404.19
357.08	388.19
357.307	409.19
357.534	406.19
357.761	396.19
357.988	409.19
358.215	415.19
358.441	418.19
358.668	419.19
358.895	406.19
359.122	421.19
359.349	415.19
359.576	426.19
359.802	450.19
360.029	472.19
360.256	493.19
360.483	454.19
360.709	429.19
360.936	434.19
361.163	442.19
361.39	449.19
361.616	409.19
361.843	422.19
362.07	437.19
362.296	442.19
362.523	446.19
362.749	438.19
362.976	425.19
363.203	439.19
363.429	429.19
363.656	421.19
363.882	414.19
364.109	403.19
364.335	426.19
364.562	418.19
364.788	404.19
365.015	421.19
365.241	422.19
365.468	429.19
365.694	420.19
365.92	440.19
366.147	425.19
366.373	423.19
366.599	392.19
366.826	409.19
367.052	417.19
367.278	433.19
367.505	430.19
367.731	407.19
367.957	397.19
368.184	430.19
368.41	408.19
368.636	432.19
368.862	436.19
369.089	425.19
369.315	432.19
369.541	429.19
369.767	407.19
369.993	395.19
370.219	409.19
370.445	398.19
370.672	421.19
370.898	424.19
371.124	426.19
371.35	407.19
371.576	421.19
371.802	412.19
372.028	403.19
372.254	436.19
372.48	402.19
372.706	427.19
372.932	428.19
373.158	432.19
373.384	426.19
373.61	395.19
373.835	429.19
374.061	420.19
374.287	413.19
374.513	424.19
374.739	435.19
374.965	429.19
375.191	440.19
375.416	418.19
375.642	437.19
375.868	422.19
376.094	420.19
376.319	417.19
376.545	409.19
376.771	405.19
376.997	406.19
377.222	405.19
377.448	420.19
377.674	422.19
377.899	409.19
378.125	412.19
378.35	421.19
378.576	412.19
378.802	411.19
379.027	394.19
379.253	406.19
379.478	418.19
379.704	423.19
379.929	416.19
380.155	420.19
380.38	402.19
380.606	438.19
380.831	406.19
381.057	445.19
381.282	416.19
381.507	418.19
381.733	416.19
381.958	438.19
382.184	423.19
382.409	416.19
382.634	421.19
382.86	424.19
383.085	420.19
383.31	415.19
383.535	412.19
383.761	452.19
383.986	435.19
384.211	450.19
384.436	458.19
384.662	481.19
384.887	475.19
385.112	460.19
385.337	450.19
385.562	474.19
385.787	441.19
386.013	477.19
386.238	482.19
386.463	473.19
386.688	475.19
386.913	457.19
387.138	430.19
387.363	450.19
387.588	448.19
387.813	451.19
388.038	464.19
388.263	448.19
388.488	472.19
388.713	474.19
388.938	453.19
389.163	471.19
389.387	456.19
389.612	446.19
389.837	483.19
390.062	474.19
390.287	475.19
390.512	429.19
390.736	456.19
390.961	462.19
391.186	468.19
391.411	468.19
391.636	488.19
391.86	496.19
392.085	488.19
392.31	476.19
392.534	482.19
392.759	461.19
392.984	500.19
393.208	485.19
393.433	466.19
393.658	486.19
393.882	453.19
394.107	467.19
394.331	488.19
394.556	483.19
394.78	488.19
395.005	456.19
395.229	484.19
395.454	474.19
395.678	493.19
395.903	510.19
396.127	515.19
396.352	509.19
396.576	468.19
396.801	482.19
397.025	488.19
397.249	477.19
397.474	497.19
397.698	482.19
397.922	502.19
398.147	514.19
398.371	536.19
398.595	532.19
398.82	548.19
399.044	540.19
399.268	591.19
399.492	637.19
399.717	670.19
399.941	662.19
400.165	678.19
400.389	688.19
400.613	620.19
400.837	556.19
401.062	561.19
401.286	547.19
401.51	533.19
401.734	569.19
401.958	528.19
402.182	539.19
402.406	560.19
402.63	560.19
402.854	565.19
403.078	560.19
403.302	562.19
403.526	568.19
403.75	579.19
403.974	558.19
404.198	541.19
404.422	593.19
404.645	578.19
404.869	578.19
405.093	593.19
405.317	619.19
405.541	637.19
405.765	616.19
405.988	580.19
406.212	612.19
406.436	619.19
406.66	653.19
406.883	600.19
407.107	650.19
407.331	713.19
407.555	714.19
407.778	726.19
408.002	681.19
408.226	614.19
408.449	619.19
408.673	594.19
408.896	615.19
409.12	674.19
409.344	632.19
409.567	603.19
409.791	557.19
410.014	552.19
410.238	561.19
410.461	560.19
410.685	566.19
410.908	550.19
411.132	605.19
411.355	606.19
411.578	585.19
411.802	554.19
412.025	578.19
412.249	560.19
412.472	566.19
412.695	592.19
412.919	574.19
413.142	524.19
413.365	526.19
413.589	529.19
413.812	533.19
414.035	536.19
414.258	530.19
414.482	519.19
414.705	532.19
414.928	544.19
415.151	521.19
415.374	521.19
415.597	533.19
415.821	512.19
416.044	512.19
416.267	526.19
416.49	516.19
416.713	528.19
416.936	521.19
417.159	503.19
417.382	509.19
417.605	512.19
417.828	525.19
418.051	549.19
418.274	572.19
418.497	519.19
418.72	546.19
418.943	521.19
419.166	521.19
419.389	567.19
419.611	564.19
419.834	544.19
420.057	538.19
420.28	538.19
420.503	530.19
420.726	522.19
420.948	550.19
421.171	590.19
421.394	615.19
421.617	545.19
421.839	531.19
422.062	540.19
422.285	533.19
422.507	600.19
422.73	653.19
422.953	633.19
423.175	584.19
423.398	554.19
423.621	576.19
423.843	584.19
424.066	600.19
424.288	563.19
424.511	586.19
424.733	623.19
424.956	709.19
425.178	701.19
425.401	676.19
425.623	700.19
425.846	630.19
426.068	574.19
426.291	574.19
426.513	561.19
426.735	593.19
426.958	624.19
427.18	668.19
427.402	772.19
427.625	872.19
427.847	747.19
428.069	649.19
428.292	592.19
428.514	571.19
428.736	520.19
428.958	551.19
429.181	515.19
429.403	517.19
429.625	524.19
429.847	564.19
430.069	606.19
430.292	586.19
430.514	523.19
430.736	513.19
430.958	516.19
431.18	484.19
431.402	486.19
431.624	484.19
431.846	498.19
432.068	487.19
432.29	488.19
432.512	501.19
432.734	492.19
432.956	517.19
433.178	516.19
433.4	504.19
433.622	506.19
433.844	469.19
434.066	508.19
434.287	480.19
434.509	515.19
434.731	517.19
434.953	539.19
435.175	556.19
435.397	552.19
435.618	543.19
435.84	595.19
436.062	680.19
436.284	725.19
436.505	616.19
436.727	564.19
436.949	536.19
437.17	527.19
437.392	520.19
437.614	522.19
437.835	561.19
438.057	649.19
438.278	712.19
438.5	718.19
438.721	797.19
438.943	772.19
439.165	591.19
439.386	566.19
439.608	565.19
439.829	562.19
440.05	574.19
440.272	605.19
440.493	576.19
440.715	545.19
440.936	534.19
441.158	539.19
441.379	537.19
441.6	541.19
441.822	573.19
442.043	615.19
442.264	677.19
442.486	729.19
442.707	632.19
442.928	581.19
443.149	584.19
443.371	616.19
443.592	654.19
443.813	726.19
444.034	756.19
444.255	635.19
444.476	630.19
444.698	594.19
444.919	578.19
445.14	725.19
445.361	645.19
445.582	634.19
445.803	681.19
446.024	749.19
446.245	753.19
446.466	692.19
446.687	599.19
446.908	547.19
447.129	534.19
447.35	521.19
447.571	510.19
447.792	498.19
448.013	500.19
448.234	519.19
448.455	583.19
448.675	691.19
448.896	793.19
449.117	668.19
449.338	657.19
449.559	725.19
449.779	811.19
450	632.19
450.221	562.19
450.442	537.19
450.662	493.19
450.883	496.19
451.104	532.19
451.324	521.19
451.545	497.19
451.766	477.19
451.986	472.19
452.207	460.19
452.428	459.19
452.648	451.19
452.869	458.19
453.089	457.19
453.31	487.19
453.53	461.19
453.751	471.19
453.971	460.19
454.192	494.19
454.412	477.19
454.633	444.19
454.853	457.19
455.073	450.19
455.294	452.19
455.514	509.19
455.734	520.19
455.955	456.19
456.175	443.19
456.395	426.19
456.616	447.19
456.836	438.19
457.056	437.19
457.276	418.19
457.497	435.19
457.717	423.19
457.937	445.19
458.157	456.19
458.377	441.19
458.598	481.19
458.818	540.19
459.038	612.19
459.258	632.19
459.478	536.19
459.698	517.19
459.918	498.19
460.138	510.19
460.358	513.19
460.578	526.19
460.798	550.19
461.018	532.19
461.238	535.19
461.458	544.19
461.678	522.19
461.898	540.19
462.118	522.19
462.338	549.19
462.558	576.19
462.777	537.19
462.997	570.19
463.217	600.19
463.437	621.19
463.657	588.19
463.876	577.19
464.096	597.19
464.316	568.19
464.536	583.19
464.755	576.19
464.975	577.19
465.195	602.19
465.414	652.19
465.634	580.19
465.854	526.19
466.073	522.19
466.293	489.19
466.512	475.19
466.732	476.19
466.951	480.19
467.171	484.19
467.391	496.19
467.61	473.19
467.829	503.19
468.049	473.19
468.268	490.19
468.488	465.19
468.707	449.19
468.927	465.19
469.146	455.19
469.365	472.19
469.585	464.19
469.804	480.19
470.023	488.19
470.243	475.19
470.462	497.19
470.681	516.19
470.901	496.19
471.12	499.19
471.339	500.19
471.558	475.19
471.777	488.19
471.997	476.19
472.216	489.19
472.435	476.19
472.654	489.19
472.873	480.19
473.092	466.19
473.311	462.19
473.53	464.19
473.749	491.19
473.968	525.19
474.187	612.19
474.406	620.19
474.625	552.19
474.844	496.19
475.063	484.19
475.282	480.19
475.501	483.19
475.72	470.19
475.939	481.19
476.158	500.19
476.377	491.19
476.596	476.19
476.814	494.19
477.033	503.19
477.252	508.19
477.471	515.19
477.69	489.19
477.908	517.19
478.127	570.19
478.346	523.19
478.564	535.19
478.783	565.19
479.002	553.19
479.22	550.19
479.439	583.19
479.658	602.19
479.876	579.19
480.095	591.19
480.313	635.19
480.532	618.19
480.751	603.19
480.969	610.19
481.188	605.19
481.406	615.19
481.624	587.19
481.843	577.19
482.061	578.19
482.28	556.19
482.498	547.19
482.717	557.19
482.935	537.19
483.153	549.19
483.372	565.19
483.59	569.19
483.808	572.19
484.027	549.19
484.245	554.19
484.463	583.19
484.681	595.19
484.9	585.19
485.118	571.19
485.336	550.19
485.554	572.19
485.772	570.19
485.99	578.19
486.209	567.19
486.427	584.19
486.645	585.19
486.863	598.19
487.081	595.19
487.299	566.19
487.517	572.19
487.735	572.19
487.953	579.19
488.171	583.19
488.389	594.19
488.607	609.19
488.825	594.19
489.043	603.19
489.261	596.19
489.479	590.19
489.696	609.19
489.914	613.19
490.132	619.19
490.35	617.19
490.568	605.19
490.786	631.19
491.003	646.19
491.221	654.19
491.439	670.19
491.657	666.19
491.874	663.19
492.092	672.19
492.31	672.19
492.527	666.19
492.745	656.19
492.963	671.19
493.18	675.19
493.398	679.19
493.615	696.19
493.833	685.19
494.05	678.19
494.268	700.19
494.485	717.19
494.703	702.19
494.92	680.19
495.138	672.19
495.355	700.19
495.573	693.19
495.79	684.19
496.008	696.19
496.225	686.19
496.442	689.19
496.66	704.19
496.877	669.19
497.094	695.19
497.312	719.19
497.529	740.19
497.746	757.19
497.963	772.19
498.181	786.19
498.398	803.19
498.615	838.19
498.832	827.19
499.049	873.19
499.267	880.19
499.484	936.19
499.701	965.19
499.918	1034.19
500.135	1070.19
500.352	1184.19
500.569	1215.19
500.786	1189.19
501.003	1156.19
501.22	1115.19
501.437	1051.19
501.654	996.19
501.871	976.19
