Data from 1985.PennyLincolnUp.Lamp.En5.5.200Scan.071819.P1_HRD10591_17-03-33-970.txt Node
Date: Thu Jul 18 17:03:33 EDT 2019
User: cochatt
Spectrometer: HR+D1059
Trigger mode: 1
Integration Time (sec): 1.000000E-1
Scans to average: 1
Electric dark correction enabled: true
Nonlinearity correction enabled: false
Boxcar width: 0
XAxis mode: Wavelengths
Number of Pixels in Spectrum: 2048
>>>>>Begin Spectral Data<<<<<
223.165	-1.25
223.4	-1.25
223.635	-1.25
223.869	-7.25
224.104	-22.25
224.338	-11.25
224.573	-24.25
224.808	-14.25
225.042	-9.25
225.277	-4.25
225.511	-10.25
225.746	11.75
225.98	-5.25
226.215	7.75
226.449	20.75
226.683	26.75
226.918	19.75
227.152	22.75
227.387	31.75
227.621	47.75
227.856	48.75
228.09	52.75
228.324	53.75
228.559	64.75
228.793	60.75
229.027	101.75
229.262	98.75
229.496	104.75
229.73	125.75
229.964	143.75
230.199	123.75
230.433	112.75
230.667	116.75
230.901	118.75
231.136	108.75
231.37	111.75
231.604	109.75
231.838	109.75
232.072	110.75
232.306	113.75
232.541	108.75
232.775	111.75
233.009	111.75
233.243	121.75
233.477	133.75
233.711	107.75
233.945	119.75
234.179	113.75
234.413	131.75
234.647	129.75
234.881	127.75
235.115	120.75
235.349	121.75
235.583	127.75
235.817	124.75
236.051	125.75
236.285	112.75
236.519	137.75
236.753	121.75
236.987	153.75
237.221	172.75
237.455	214.75
237.689	169.75
237.922	155.75
238.156	123.75
238.39	132.75
238.624	131.75
238.858	119.75
239.091	127.75
239.325	120.75
239.559	135.75
239.793	138.75
240.027	133.75
240.26	154.75
240.494	151.75
240.728	144.75
240.961	157.75
241.195	129.75
241.429	152.75
241.662	143.75
241.896	135.75
242.13	126.75
242.363	139.75
242.597	135.75
242.83	140.75
243.064	135.75
243.298	133.75
243.531	136.75
243.765	136.75
243.998	141.75
244.232	169.75
244.465	146.75
244.699	156.75
244.932	155.75
245.166	143.75
245.399	153.75
245.633	157.75
245.866	161.75
246.099	150.75
246.333	162.75
246.566	156.75
246.8	157.75
247.033	163.75
247.266	163.75
247.5	164.75
247.733	171.75
247.966	171.75
248.2	165.75
248.433	180.75
248.666	168.75
248.899	184.75
249.133	204.75
249.366	206.75
249.599	221.75
249.832	175.75
250.066	196.75
250.299	185.75
250.532	204.75
250.765	226.75
250.998	225.75
251.231	236.75
251.465	196.75
251.698	212.75
251.931	195.75
252.164	187.75
252.397	198.75
252.63	212.75
252.863	194.75
253.096	205.75
253.329	243.75
253.562	220.75
253.795	209.75
254.028	233.75
254.261	220.75
254.494	220.75
254.727	260.75
254.96	273.75
255.193	263.75
255.426	229.75
255.659	224.75
255.892	230.75
256.124	255.75
256.357	248.75
256.59	257.75
256.823	221.75
257.056	222.75
257.289	215.75
257.521	229.75
257.754	221.75
257.987	204.75
258.22	218.75
258.452	219.75
258.685	195.75
258.918	206.75
259.151	232.75
259.383	201.75
259.616	229.75
259.849	220.75
260.081	240.75
260.314	257.75
260.547	268.75
260.779	258.75
261.012	232.75
261.244	211.75
261.477	231.75
261.71	224.75
261.942	235.75
262.175	243.75
262.407	240.75
262.64	216.75
262.872	240.75
263.105	222.75
263.337	222.75
263.57	228.75
263.802	228.75
264.035	217.75
264.267	222.75
264.499	218.75
264.732	216.75
264.964	231.75
265.197	260.75
265.429	217.75
265.661	217.75
265.894	244.75
266.126	224.75
266.358	217.75
266.591	232.75
266.823	233.75
267.055	249.75
267.287	242.75
267.52	228.75
267.752	250.75
267.984	250.75
268.216	237.75
268.448	231.75
268.681	248.75
268.913	277.75
269.145	267.75
269.377	295.75
269.609	286.75
269.841	301.75
270.073	307.75
270.306	296.75
270.538	312.75
270.77	318.75
271.002	309.75
271.234	307.75
271.466	302.75
271.698	328.75
271.93	329.75
272.162	326.75
272.394	342.75
272.626	309.75
272.858	307.75
273.09	294.75
273.322	283.75
273.553	291.75
273.785	277.75
274.017	284.75
274.249	281.75
274.481	296.75
274.713	279.75
274.945	305.75
275.176	285.75
275.408	276.75
275.64	284.75
275.872	277.75
276.104	286.75
276.335	279.75
276.567	299.75
276.799	301.75
277.031	317.75
277.262	364.75
277.494	331.75
277.726	333.75
277.957	310.75
278.189	301.75
278.421	302.75
278.652	286.75
278.884	293.75
279.115	290.75
279.347	296.75
279.579	286.75
279.81	296.75
280.042	297.75
280.273	272.75
280.505	294.75
280.736	300.75
280.968	292.75
281.199	288.75
281.431	291.75
281.662	297.75
281.894	299.75
282.125	304.75
282.356	310.75
282.588	315.75
282.819	324.75
283.051	307.75
283.282	294.75
283.513	314.75
283.745	305.75
283.976	316.75
284.207	309.75
284.439	324.75
284.67	321.75
284.901	300.75
285.132	313.75
285.364	313.75
285.595	327.75
285.826	304.75
286.057	300.75
286.288	316.75
286.52	313.75
286.751	315.75
286.982	313.75
287.213	318.75
287.444	330.75
287.675	319.75
287.906	355.75
288.138	337.75
288.369	342.75
288.6	333.75
288.831	342.75
289.062	347.75
289.293	319.75
289.524	315.75
289.755	327.75
289.986	322.75
290.217	303.75
290.448	330.75
290.679	339.75
290.91	336.75
291.141	321.75
291.371	331.75
291.602	323.75
291.833	321.75
292.064	312.75
292.295	323.75
292.526	326.75
292.757	323.75
292.987	329.75
293.218	337.75
293.449	319.75
293.68	331.75
293.91	313.75
294.141	328.75
294.372	334.75
294.603	341.75
294.833	313.75
295.064	332.75
295.295	339.75
295.525	336.75
295.756	336.75
295.987	365.75
296.217	365.75
296.448	380.75
296.679	345.75
296.909	333.75
297.14	348.75
297.37	368.75
297.601	355.75
297.831	341.75
298.062	370.75
298.292	366.75
298.523	341.75
298.753	356.75
298.984	330.75
299.214	367.75
299.445	356.75
299.675	345.75
299.905	323.75
300.136	339.75
300.366	361.75
300.597	366.75
300.827	354.75
301.057	344.75
301.288	379.75
301.518	371.75
301.748	354.75
301.979	376.75
302.209	360.75
302.439	366.75
302.669	359.75
302.9	374.75
303.13	372.75
303.36	370.75
303.59	382.75
303.82	377.75
304.051	379.75
304.281	393.75
304.511	383.75
304.741	348.75
304.971	357.75
305.201	380.75
305.431	383.75
305.661	380.75
305.891	376.75
306.121	372.75
306.352	378.75
306.582	377.75
306.812	388.75
307.042	377.75
307.272	375.75
307.502	361.75
307.731	385.75
307.961	387.75
308.191	362.75
308.421	384.75
308.651	389.75
308.881	381.75
309.111	397.75
309.341	382.75
309.571	421.75
309.8	394.75
310.03	389.75
310.26	420.75
310.49	424.75
310.72	425.75
310.949	437.75
311.179	429.75
311.409	412.75
311.639	421.75
311.868	425.75
312.098	413.75
312.328	425.75
312.557	425.75
312.787	461.75
313.017	453.75
313.246	432.75
313.476	404.75
313.706	419.75
313.935	430.75
314.165	440.75
314.394	439.75
314.624	430.75
314.853	433.75
315.083	431.75
315.312	423.75
315.542	425.75
315.771	408.75
316.001	411.75
316.23	412.75
316.46	394.75
316.689	437.75
316.919	426.75
317.148	426.75
317.377	429.75
317.607	417.75
317.836	432.75
318.065	420.75
318.295	413.75
318.524	441.75
318.753	423.75
318.983	429.75
319.212	421.75
319.441	427.75
319.67	429.75
319.9	432.75
320.129	428.75
320.358	412.75
320.587	422.75
320.816	460.75
321.046	439.75
321.275	460.75
321.504	439.75
321.733	437.75
321.962	446.75
322.191	469.75
322.42	459.75
322.649	477.75
322.878	492.75
323.108	506.75
323.337	536.75
323.566	530.75
323.795	556.75
324.024	594.75
324.253	721.75
324.482	975.75
324.71	1468.75
324.939	2081.75
325.168	1762.75
325.397	944.75
325.626	685.75
325.855	563.75
326.084	551.75
326.313	529.75
326.542	560.75
326.77	603.75
326.999	673.75
327.228	907.75
327.457	1277.75
327.686	1545.75
327.914	1047.75
328.143	716.75
328.372	638.75
328.6	631.75
328.829	583.75
329.058	596.75
329.287	631.75
329.515	572.75
329.744	551.75
329.972	540.75
330.201	564.75
330.43	585.75
330.658	610.75
330.887	637.75
331.115	627.75
331.344	545.75
331.572	548.75
331.801	523.75
332.03	548.75
332.258	524.75
332.486	527.75
332.715	512.75
332.943	529.75
333.172	523.75
333.4	544.75
333.629	564.75
333.857	553.75
334.085	559.75
334.314	582.75
334.542	606.75
334.771	615.75
334.999	559.75
335.227	512.75
335.455	533.75
335.684	523.75
335.912	509.75
336.14	515.75
336.369	499.75
336.597	508.75
336.825	546.75
337.053	521.75
337.281	493.75
337.51	489.75
337.738	487.75
337.966	491.75
338.194	511.75
338.422	487.75
338.65	511.75
338.878	491.75
339.106	475.75
339.334	483.75
339.562	484.75
339.79	496.75
340.018	490.75
340.246	460.75
340.474	490.75
340.702	477.75
340.93	464.75
341.158	467.75
341.386	481.75
341.614	498.75
341.842	472.75
342.07	453.75
342.298	467.75
342.526	479.75
342.754	489.75
342.981	445.75
343.209	475.75
343.437	512.75
343.665	490.75
343.893	482.75
344.12	502.75
344.348	537.75
344.576	503.75
344.804	497.75
345.031	504.75
345.259	492.75
345.487	492.75
345.714	473.75
345.942	473.75
346.17	460.75
346.397	451.75
346.625	449.75
346.853	452.75
347.08	467.75
347.308	466.75
347.535	462.75
347.763	469.75
347.99	461.75
348.218	466.75
348.445	460.75
348.673	465.75
348.9	447.75
349.128	436.75
349.355	443.75
349.583	429.75
349.81	454.75
350.037	440.75
350.265	427.75
350.492	416.75
350.72	426.75
350.947	447.75
351.174	472.75
351.402	468.75
351.629	463.75
351.856	447.75
352.083	445.75
352.311	477.75
352.538	467.75
352.765	472.75
352.992	468.75
353.22	446.75
353.447	433.75
353.674	469.75
353.901	453.75
354.128	444.75
354.355	414.75
354.583	443.75
354.81	421.75
355.037	427.75
355.264	425.75
355.491	438.75
355.718	416.75
355.945	421.75
356.172	439.75
356.399	426.75
356.626	440.75
356.853	426.75
357.08	422.75
357.307	440.75
357.534	403.75
357.761	436.75
357.988	435.75
358.215	426.75
358.441	427.75
358.668	422.75
358.895	422.75
359.122	413.75
359.349	459.75
359.576	459.75
359.802	472.75
360.029	487.75
360.256	496.75
360.483	484.75
360.709	447.75
360.936	469.75
361.163	435.75
361.39	431.75
361.616	455.75
361.843	451.75
362.07	464.75
362.296	431.75
362.523	450.75
362.749	436.75
362.976	428.75
363.203	446.75
363.429	428.75
363.656	422.75
363.882	435.75
364.109	425.75
364.335	428.75
364.562	431.75
364.788	437.75
365.015	433.75
365.241	419.75
365.468	433.75
365.694	437.75
365.92	455.75
366.147	436.75
366.373	437.75
366.599	419.75
366.826	434.75
367.052	418.75
367.278	411.75
367.505	421.75
367.731	435.75
367.957	402.75
368.184	426.75
368.41	455.75
368.636	447.75
368.862	433.75
369.089	453.75
369.315	422.75
369.541	432.75
369.767	440.75
369.993	426.75
370.219	426.75
370.445	434.75
370.672	435.75
370.898	430.75
371.124	419.75
371.35	420.75
371.576	439.75
371.802	446.75
372.028	445.75
372.254	433.75
372.48	427.75
372.706	414.75
372.932	437.75
373.158	444.75
373.384	420.75
373.61	429.75
373.835	437.75
374.061	424.75
374.287	446.75
374.513	459.75
374.739	432.75
374.965	436.75
375.191	450.75
375.416	440.75
375.642	444.75
375.868	446.75
376.094	454.75
376.319	435.75
376.545	423.75
376.771	448.75
376.997	414.75
377.222	420.75
377.448	439.75
377.674	437.75
377.899	415.75
378.125	437.75
378.35	440.75
378.576	435.75
378.802	409.75
379.027	432.75
379.253	413.75
379.478	427.75
379.704	426.75
379.929	428.75
380.155	431.75
380.38	413.75
380.606	435.75
380.831	445.75
381.057	441.75
381.282	397.75
381.507	421.75
381.733	418.75
381.958	435.75
382.184	451.75
382.409	417.75
382.634	428.75
382.86	439.75
383.085	458.75
383.31	447.75
383.535	421.75
383.761	439.75
383.986	463.75
384.211	453.75
384.436	452.75
384.662	440.75
384.887	461.75
385.112	452.75
385.337	476.75
385.562	472.75
385.787	482.75
386.013	502.75
386.238	484.75
386.463	469.75
386.688	492.75
386.913	470.75
387.138	464.75
387.363	461.75
387.588	464.75
387.813	475.75
388.038	464.75
388.263	464.75
388.488	468.75
388.713	492.75
388.938	501.75
389.163	488.75
389.387	467.75
389.612	476.75
389.837	465.75
390.062	456.75
390.287	466.75
390.512	489.75
390.736	475.75
390.961	465.75
391.186	480.75
391.411	478.75
391.636	492.75
391.86	503.75
392.085	523.75
392.31	474.75
392.534	524.75
392.759	496.75
392.984	478.75
393.208	482.75
393.433	499.75
393.658	486.75
393.882	461.75
394.107	464.75
394.331	496.75
394.556	468.75
394.78	489.75
395.005	487.75
395.229	487.75
395.454	490.75
395.678	504.75
395.903	522.75
396.127	529.75
396.352	537.75
396.576	509.75
396.801	481.75
397.025	501.75
397.249	518.75
397.474	520.75
397.698	516.75
397.922	530.75
398.147	536.75
398.371	540.75
398.595	546.75
398.82	548.75
399.044	580.75
399.268	588.75
399.492	620.75
399.717	687.75
399.941	744.75
400.165	704.75
400.389	704.75
400.613	632.75
400.837	594.75
401.062	553.75
401.286	554.75
401.51	567.75
401.734	542.75
401.958	571.75
402.182	564.75
402.406	559.75
402.63	614.75
402.854	588.75
403.078	584.75
403.302	588.75
403.526	592.75
403.75	571.75
403.974	569.75
404.198	598.75
404.422	593.75
404.645	598.75
404.869	606.75
405.093	621.75
405.317	663.75
405.541	677.75
405.765	638.75
405.988	611.75
406.212	615.75
406.436	640.75
406.66	651.75
406.883	632.75
407.107	646.75
407.331	700.75
407.555	765.75
407.778	723.75
408.002	691.75
408.226	644.75
408.449	640.75
408.673	644.75
408.896	650.75
409.12	679.75
409.344	654.75
409.567	613.75
409.791	578.75
410.014	584.75
410.238	575.75
410.461	581.75
410.685	563.75
410.908	567.75
411.132	614.75
411.355	633.75
411.578	634.75
411.802	579.75
412.025	580.75
412.249	600.75
412.472	611.75
412.695	642.75
412.919	601.75
413.142	592.75
413.365	559.75
413.589	567.75
413.812	536.75
414.035	532.75
414.258	538.75
414.482	535.75
414.705	568.75
414.928	558.75
415.151	525.75
415.374	547.75
415.597	543.75
415.821	524.75
416.044	528.75
416.267	513.75
416.49	522.75
416.713	522.75
416.936	523.75
417.159	525.75
417.382	535.75
417.605	538.75
417.828	571.75
418.051	566.75
418.274	557.75
418.497	542.75
418.72	558.75
418.943	541.75
419.166	563.75
419.389	564.75
419.611	587.75
419.834	546.75
420.057	565.75
420.28	581.75
420.503	579.75
420.726	566.75
420.948	561.75
421.171	585.75
421.394	602.75
421.617	557.75
421.839	544.75
422.062	575.75
422.285	569.75
422.507	618.75
422.73	693.75
422.953	657.75
423.175	600.75
423.398	583.75
423.621	571.75
423.843	603.75
424.066	611.75
424.288	609.75
424.511	621.75
424.733	644.75
424.956	717.75
425.178	693.75
425.401	707.75
425.623	708.75
425.846	615.75
426.068	599.75
426.291	579.75
426.513	581.75
426.735	595.75
426.958	590.75
427.18	689.75
427.402	833.75
427.625	910.75
427.847	778.75
428.069	663.75
428.292	608.75
428.514	583.75
428.736	519.75
428.958	552.75
429.181	515.75
429.403	543.75
429.625	546.75
429.847	567.75
430.069	655.75
430.292	625.75
430.514	566.75
430.736	523.75
430.958	539.75
431.18	516.75
431.402	502.75
431.624	503.75
431.846	483.75
432.068	494.75
432.29	509.75
432.512	531.75
432.734	526.75
432.956	527.75
433.178	516.75
433.4	525.75
433.622	520.75
433.844	521.75
434.066	509.75
434.287	523.75
434.509	535.75
434.731	536.75
434.953	545.75
435.175	544.75
435.397	548.75
435.618	568.75
435.84	611.75
436.062	708.75
436.284	731.75
436.505	630.75
436.727	563.75
436.949	549.75
437.17	525.75
437.392	557.75
437.614	566.75
437.835	559.75
438.057	650.75
438.278	729.75
438.5	731.75
438.721	821.75
438.943	780.75
439.165	624.75
439.386	595.75
439.608	566.75
439.829	563.75
440.05	588.75
440.272	650.75
440.493	601.75
440.715	543.75
440.936	536.75
441.158	541.75
441.379	545.75
441.6	550.75
441.822	595.75
442.043	610.75
442.264	689.75
442.486	747.75
442.707	631.75
442.928	594.75
443.149	593.75
443.371	587.75
443.592	668.75
443.813	743.75
444.034	804.75
444.255	689.75
444.476	611.75
444.698	618.75
444.919	606.75
445.14	757.75
445.361	651.75
445.582	634.75
445.803	674.75
446.024	751.75
446.245	757.75
446.466	685.75
446.687	617.75
446.908	574.75
447.129	533.75
447.35	517.75
447.571	530.75
447.792	529.75
448.013	519.75
448.234	541.75
448.455	589.75
448.675	683.75
448.896	765.75
449.117	693.75
449.338	617.75
449.559	745.75
449.779	800.75
450	660.75
450.221	545.75
450.442	534.75
450.662	507.75
450.883	515.75
451.104	524.75
451.324	523.75
451.545	496.75
451.766	483.75
451.986	476.75
452.207	492.75
452.428	452.75
452.648	459.75
452.869	461.75
453.089	492.75
453.31	483.75
453.53	486.75
453.751	473.75
453.971	484.75
454.192	495.75
454.412	485.75
454.633	456.75
454.853	452.75
455.073	470.75
455.294	480.75
455.514	545.75
455.734	550.75
455.955	460.75
456.175	458.75
456.395	464.75
456.616	453.75
456.836	452.75
457.056	429.75
457.276	438.75
457.497	465.75
457.717	451.75
457.937	449.75
458.157	469.75
458.377	460.75
458.598	473.75
458.818	559.75
459.038	627.75
459.258	636.75
459.478	561.75
459.698	535.75
459.918	528.75
460.138	547.75
460.358	549.75
460.578	519.75
460.798	537.75
461.018	527.75
461.238	558.75
461.458	553.75
461.678	544.75
461.898	538.75
462.118	532.75
462.338	557.75
462.558	576.75
462.777	601.75
462.997	632.75
463.217	641.75
463.437	620.75
463.657	606.75
463.876	581.75
464.096	581.75
464.316	582.75
464.536	575.75
464.755	588.75
464.975	587.75
465.195	597.75
465.414	653.75
465.634	591.75
465.854	556.75
466.073	534.75
466.293	517.75
466.512	507.75
466.732	494.75
466.951	501.75
467.171	478.75
467.391	484.75
467.61	513.75
467.829	524.75
468.049	516.75
468.268	497.75
468.488	492.75
468.707	468.75
468.927	465.75
469.146	478.75
469.365	488.75
469.585	470.75
469.804	505.75
470.023	513.75
470.243	523.75
470.462	515.75
470.681	529.75
470.901	517.75
471.12	513.75
471.339	512.75
471.558	497.75
471.777	506.75
471.997	489.75
472.216	506.75
472.435	503.75
472.654	526.75
472.873	509.75
473.092	514.75
473.311	483.75
473.53	490.75
473.749	497.75
473.968	511.75
474.187	638.75
474.406	657.75
474.625	545.75
474.844	500.75
475.063	488.75
475.282	509.75
475.501	490.75
475.72	529.75
475.939	491.75
476.158	493.75
476.377	514.75
476.596	487.75
476.814	545.75
477.033	540.75
477.252	540.75
477.471	538.75
477.69	520.75
477.908	533.75
478.127	524.75
478.346	537.75
478.564	551.75
478.783	547.75
479.002	572.75
479.22	575.75
479.439	602.75
479.658	593.75
479.876	613.75
480.095	611.75
480.313	643.75
480.532	671.75
480.751	634.75
480.969	645.75
481.188	675.75
481.406	687.75
481.624	630.75
481.843	577.75
482.061	605.75
482.28	580.75
482.498	568.75
482.717	568.75
482.935	576.75
483.153	563.75
483.372	571.75
483.59	583.75
483.808	591.75
484.027	584.75
484.245	589.75
484.463	585.75
484.681	581.75
484.9	577.75
485.118	588.75
485.336	586.75
485.554	588.75
485.772	613.75
485.99	586.75
486.209	603.75
486.427	593.75
486.645	628.75
486.863	617.75
487.081	607.75
487.299	597.75
487.517	622.75
487.735	613.75
487.953	594.75
488.171	621.75
488.389	616.75
488.607	607.75
488.825	624.75
489.043	604.75
489.261	604.75
489.479	632.75
489.696	615.75
489.914	619.75
490.132	660.75
490.35	635.75
490.568	617.75
490.786	656.75
491.003	647.75
491.221	677.75
491.439	660.75
491.657	660.75
491.874	711.75
492.092	691.75
492.31	708.75
492.527	699.75
492.745	688.75
492.963	708.75
493.18	713.75
493.398	728.75
493.615	710.75
493.833	752.75
494.05	720.75
494.268	721.75
494.485	712.75
494.703	711.75
494.92	701.75
495.138	708.75
495.355	698.75
495.573	700.75
495.79	721.75
496.008	748.75
496.225	723.75
496.442	700.75
496.66	716.75
496.877	743.75
497.094	737.75
497.312	729.75
497.529	733.75
497.746	756.75
497.963	775.75
498.181	811.75
498.398	825.75
498.615	868.75
498.832	885.75
499.049	895.75
499.267	961.75
499.484	973.75
499.701	999.75
499.918	1053.75
500.135	1137.75
500.352	1213.75
500.569	1222.75
500.786	1232.75
501.003	1217.75
501.22	1136.75
501.437	1077.75
501.654	1019.75
501.871	987.75
