Data from 1985.PennyLincolnUp.Lamp.En5.5.200Scan.071819.P1_HRD10591_17-01-35-969.txt Node
Date: Thu Jul 18 17:01:35 EDT 2019
User: cochatt
Spectrometer: HR+D1059
Trigger mode: 1
Integration Time (sec): 1.000000E-1
Scans to average: 1
Electric dark correction enabled: true
Nonlinearity correction enabled: false
Boxcar width: 0
XAxis mode: Wavelengths
Number of Pixels in Spectrum: 2048
>>>>>Begin Spectral Data<<<<<
223.165	-16.06
223.4	-16.06
223.635	-16.06
223.869	-16.06
224.104	-6.06
224.338	-10.06
224.573	-0.06
224.808	-13.06
225.042	-7.06
225.277	-9.06
225.511	7.94
225.746	-7.06
225.98	-2.06
226.215	-3.06
226.449	4.94
226.683	13.94
226.918	33.94
227.152	28.94
227.387	27.94
227.621	28.94
227.856	41.94
228.09	43.94
228.324	53.94
228.559	45.94
228.793	56.94
229.027	93.94
229.262	106.94
229.496	98.94
229.73	107.94
229.964	125.94
230.199	102.94
230.433	105.94
230.667	89.94
230.901	96.94
231.136	107.94
231.37	102.94
231.604	104.94
231.838	117.94
232.072	111.94
232.306	110.94
232.541	116.94
232.775	122.94
233.009	110.94
233.243	102.94
233.477	111.94
233.711	106.94
233.945	97.94
234.179	90.94
234.413	116.94
234.647	100.94
234.881	99.94
235.115	119.94
235.349	101.94
235.583	118.94
235.817	115.94
236.051	117.94
236.285	111.94
236.519	119.94
236.753	119.94
236.987	105.94
237.221	151.94
237.455	202.94
237.689	157.94
237.922	126.94
238.156	129.94
238.39	127.94
238.624	135.94
238.858	113.94
239.091	108.94
239.325	120.94
239.559	112.94
239.793	114.94
240.027	116.94
240.26	130.94
240.494	135.94
240.728	129.94
240.961	137.94
241.195	145.94
241.429	114.94
241.662	132.94
241.896	131.94
242.13	130.94
242.363	128.94
242.597	140.94
242.83	140.94
243.064	135.94
243.298	112.94
243.531	125.94
243.765	136.94
243.998	138.94
244.232	142.94
244.465	122.94
244.699	132.94
244.932	148.94
245.166	142.94
245.399	154.94
245.633	138.94
245.866	149.94
246.099	139.94
246.333	155.94
246.566	143.94
246.8	152.94
247.033	142.94
247.266	162.94
247.5	151.94
247.733	161.94
247.966	167.94
248.2	168.94
248.433	148.94
248.666	167.94
248.899	179.94
249.133	182.94
249.366	183.94
249.599	177.94
249.832	156.94
250.066	169.94
250.299	161.94
250.532	176.94
250.765	152.94
250.998	204.94
251.231	201.94
251.465	176.94
251.698	190.94
251.931	193.94
252.164	185.94
252.397	175.94
252.63	169.94
252.863	188.94
253.096	197.94
253.329	208.94
253.562	208.94
253.795	208.94
254.028	206.94
254.261	199.94
254.494	212.94
254.727	238.94
254.96	264.94
255.193	239.94
255.426	234.94
255.659	212.94
255.892	212.94
256.124	201.94
256.357	209.94
256.59	189.94
256.823	210.94
257.056	185.94
257.289	183.94
257.521	205.94
257.754	200.94
257.987	179.94
258.22	200.94
258.452	205.94
258.685	197.94
258.918	201.94
259.151	200.94
259.383	211.94
259.616	199.94
259.849	214.94
260.081	226.94
260.314	222.94
260.547	224.94
260.779	234.94
261.012	218.94
261.244	211.94
261.477	214.94
261.71	222.94
261.942	218.94
262.175	217.94
262.407	230.94
262.64	222.94
262.872	205.94
263.105	214.94
263.337	191.94
263.57	201.94
263.802	212.94
264.035	215.94
264.267	213.94
264.499	210.94
264.732	207.94
264.964	207.94
265.197	202.94
265.429	212.94
265.661	229.94
265.894	213.94
266.126	230.94
266.358	228.94
266.591	231.94
266.823	226.94
267.055	221.94
267.287	238.94
267.52	220.94
267.752	234.94
267.984	221.94
268.216	229.94
268.448	240.94
268.681	243.94
268.913	249.94
269.145	258.94
269.377	291.94
269.609	257.94
269.841	266.94
270.073	269.94
270.306	285.94
270.538	308.94
270.77	296.94
271.002	292.94
271.234	271.94
271.466	286.94
271.698	298.94
271.93	306.94
272.162	312.94
272.394	301.94
272.626	306.94
272.858	265.94
273.09	271.94
273.322	269.94
273.553	265.94
273.785	273.94
274.017	263.94
274.249	257.94
274.481	263.94
274.713	273.94
274.945	273.94
275.176	271.94
275.408	282.94
275.64	261.94
275.872	276.94
276.104	263.94
276.335	257.94
276.567	248.94
276.799	278.94
277.031	297.94
277.262	312.94
277.494	317.94
277.726	286.94
277.957	283.94
278.189	279.94
278.421	293.94
278.652	291.94
278.884	272.94
279.115	268.94
279.347	281.94
279.579	268.94
279.81	277.94
280.042	282.94
280.273	270.94
280.505	286.94
280.736	272.94
280.968	302.94
281.199	279.94
281.431	269.94
281.662	284.94
281.894	276.94
282.125	285.94
282.356	296.94
282.588	287.94
282.819	306.94
283.051	303.94
283.282	284.94
283.513	295.94
283.745	282.94
283.976	296.94
284.207	284.94
284.439	291.94
284.67	281.94
284.901	287.94
285.132	302.94
285.364	297.94
285.595	283.94
285.826	304.94
286.057	303.94
286.288	300.94
286.52	283.94
286.751	294.94
286.982	291.94
287.213	306.94
287.444	308.94
287.675	297.94
287.906	305.94
288.138	306.94
288.369	315.94
288.6	317.94
288.831	321.94
289.062	306.94
289.293	316.94
289.524	318.94
289.755	305.94
289.986	306.94
290.217	322.94
290.448	321.94
290.679	307.94
290.91	299.94
291.141	302.94
291.371	312.94
291.602	320.94
291.833	321.94
292.064	311.94
292.295	298.94
292.526	312.94
292.757	305.94
292.987	304.94
293.218	303.94
293.449	326.94
293.68	314.94
293.91	314.94
294.141	308.94
294.372	315.94
294.603	296.94
294.833	322.94
295.064	312.94
295.295	309.94
295.525	323.94
295.756	332.94
295.987	322.94
296.217	347.94
296.448	351.94
296.679	331.94
296.909	321.94
297.14	311.94
297.37	313.94
297.601	350.94
297.831	322.94
298.062	311.94
298.292	325.94
298.523	337.94
298.753	322.94
298.984	337.94
299.214	341.94
299.445	356.94
299.675	320.94
299.905	334.94
300.136	343.94
300.366	341.94
300.597	340.94
300.827	335.94
301.057	356.94
301.288	337.94
301.518	335.94
301.748	341.94
301.979	346.94
302.209	341.94
302.439	366.94
302.669	366.94
302.9	351.94
303.13	367.94
303.36	356.94
303.59	361.94
303.82	353.94
304.051	355.94
304.281	352.94
304.511	355.94
304.741	357.94
304.971	346.94
305.201	343.94
305.431	358.94
305.661	372.94
305.891	355.94
306.121	360.94
306.352	361.94
306.582	356.94
306.812	349.94
307.042	351.94
307.272	353.94
307.502	356.94
307.731	360.94
307.961	368.94
308.191	357.94
308.421	334.94
308.651	365.94
308.881	386.94
309.111	367.94
309.341	380.94
309.571	356.94
309.8	387.94
310.03	371.94
310.26	378.94
310.49	381.94
310.72	388.94
310.949	395.94
311.179	398.94
311.409	389.94
311.639	383.94
311.868	381.94
312.098	381.94
312.328	390.94
312.557	378.94
312.787	407.94
313.017	416.94
313.246	403.94
313.476	383.94
313.706	409.94
313.935	402.94
314.165	415.94
314.394	397.94
314.624	431.94
314.853	406.94
315.083	403.94
315.312	403.94
315.542	402.94
315.771	374.94
316.001	389.94
316.23	407.94
316.46	392.94
316.689	394.94
316.919	402.94
317.148	406.94
317.377	392.94
317.607	384.94
317.836	411.94
318.065	381.94
318.295	399.94
318.524	400.94
318.753	413.94
318.983	388.94
319.212	402.94
319.441	409.94
319.67	389.94
319.9	391.94
320.129	395.94
320.358	401.94
320.587	397.94
320.816	417.94
321.046	413.94
321.275	419.94
321.504	419.94
321.733	399.94
321.962	389.94
322.191	448.94
322.42	430.94
322.649	448.94
322.878	455.94
323.108	448.94
323.337	465.94
323.566	466.94
323.795	508.94
324.024	529.94
324.253	618.94
324.482	795.94
324.71	1173.94
324.939	1656.94
325.168	1398.94
325.397	782.94
325.626	590.94
325.855	520.94
326.084	485.94
326.313	478.94
326.542	483.94
326.77	519.94
326.999	595.94
327.228	729.94
327.457	1064.94
327.686	1253.94
327.914	873.94
328.143	601.94
328.372	555.94
328.6	536.94
328.829	517.94
329.058	541.94
329.287	533.94
329.515	513.94
329.744	474.94
329.972	469.94
330.201	494.94
330.43	490.94
330.658	522.94
330.887	564.94
331.115	535.94
331.344	491.94
331.572	475.94
331.801	492.94
332.03	499.94
332.258	478.94
332.486	495.94
332.715	478.94
332.943	487.94
333.172	500.94
333.4	469.94
333.629	485.94
333.857	486.94
334.085	499.94
334.314	511.94
334.542	518.94
334.771	510.94
334.999	510.94
335.227	500.94
335.455	480.94
335.684	472.94
335.912	507.94
336.14	475.94
336.369	478.94
336.597	457.94
336.825	487.94
337.053	474.94
337.281	450.94
337.51	465.94
337.738	469.94
337.966	459.94
338.194	448.94
338.422	454.94
338.65	481.94
338.878	461.94
339.106	437.94
339.334	446.94
339.562	464.94
339.79	449.94
340.018	464.94
340.246	454.94
340.474	437.94
340.702	439.94
340.93	441.94
341.158	442.94
341.386	427.94
341.614	450.94
341.842	463.94
342.07	447.94
342.298	455.94
342.526	442.94
342.754	434.94
342.981	452.94
343.209	422.94
343.437	447.94
343.665	469.94
343.893	495.94
344.12	470.94
344.348	470.94
344.576	457.94
344.804	455.94
345.031	455.94
345.259	488.94
345.487	450.94
345.714	454.94
345.942	449.94
346.17	456.94
346.397	425.94
346.625	408.94
346.853	425.94
347.08	422.94
347.308	424.94
347.535	425.94
347.763	430.94
347.99	421.94
348.218	430.94
348.445	451.94
348.673	428.94
348.9	424.94
349.128	431.94
349.355	424.94
349.583	425.94
349.81	437.94
350.037	430.94
350.265	415.94
350.492	410.94
350.72	418.94
350.947	404.94
351.174	425.94
351.402	431.94
351.629	425.94
351.856	410.94
352.083	453.94
352.311	425.94
352.538	431.94
352.765	415.94
352.992	418.94
353.22	442.94
353.447	416.94
353.674	401.94
353.901	413.94
354.128	406.94
354.355	404.94
354.583	398.94
354.81	411.94
355.037	394.94
355.264	388.94
355.491	400.94
355.718	393.94
355.945	401.94
356.172	401.94
356.399	400.94
356.626	404.94
356.853	410.94
357.08	396.94
357.307	416.94
357.534	401.94
357.761	397.94
357.988	391.94
358.215	398.94
358.441	386.94
358.668	410.94
358.895	420.94
359.122	404.94
359.349	392.94
359.576	414.94
359.802	421.94
360.029	442.94
360.256	433.94
360.483	437.94
360.709	424.94
360.936	436.94
361.163	422.94
361.39	430.94
361.616	430.94
361.843	420.94
362.07	419.94
362.296	400.94
362.523	411.94
362.749	412.94
362.976	418.94
363.203	410.94
363.429	407.94
363.656	415.94
363.882	425.94
364.109	419.94
364.335	397.94
364.562	410.94
364.788	413.94
365.015	418.94
365.241	380.94
365.468	405.94
365.694	401.94
365.92	422.94
366.147	404.94
366.373	398.94
366.599	431.94
366.826	410.94
367.052	400.94
367.278	405.94
367.505	414.94
367.731	413.94
367.957	404.94
368.184	399.94
368.41	428.94
368.636	421.94
368.862	420.94
369.089	424.94
369.315	408.94
369.541	408.94
369.767	430.94
369.993	423.94
370.219	417.94
370.445	403.94
370.672	402.94
370.898	403.94
371.124	411.94
371.35	414.94
371.576	403.94
371.802	405.94
372.028	403.94
372.254	401.94
372.48	402.94
372.706	424.94
372.932	429.94
373.158	424.94
373.384	420.94
373.61	417.94
373.835	425.94
374.061	399.94
374.287	414.94
374.513	422.94
374.739	420.94
374.965	403.94
375.191	429.94
375.416	421.94
375.642	397.94
375.868	421.94
376.094	401.94
376.319	421.94
376.545	433.94
376.771	396.94
376.997	407.94
377.222	420.94
377.448	397.94
377.674	422.94
377.899	403.94
378.125	399.94
378.35	380.94
378.576	422.94
378.802	394.94
379.027	400.94
379.253	403.94
379.478	398.94
379.704	394.94
379.929	403.94
380.155	407.94
380.38	408.94
380.606	399.94
380.831	416.94
381.057	406.94
381.282	395.94
381.507	415.94
381.733	410.94
381.958	434.94
382.184	416.94
382.409	410.94
382.634	409.94
382.86	426.94
383.085	417.94
383.31	428.94
383.535	423.94
383.761	420.94
383.986	455.94
384.211	444.94
384.436	441.94
384.662	438.94
384.887	432.94
385.112	455.94
385.337	446.94
385.562	443.94
385.787	456.94
386.013	461.94
386.238	460.94
386.463	455.94
386.688	467.94
386.913	451.94
387.138	442.94
387.363	452.94
387.588	439.94
387.813	432.94
388.038	462.94
388.263	471.94
388.488	469.94
388.713	463.94
388.938	446.94
389.163	463.94
389.387	467.94
389.612	442.94
389.837	453.94
390.062	423.94
390.287	438.94
390.512	450.94
390.736	444.94
390.961	445.94
391.186	444.94
391.411	469.94
391.636	465.94
391.86	478.94
392.085	472.94
392.31	467.94
392.534	473.94
392.759	459.94
392.984	478.94
393.208	462.94
393.433	466.94
393.658	474.94
393.882	478.94
394.107	453.94
394.331	461.94
394.556	459.94
394.78	468.94
395.005	456.94
395.229	466.94
395.454	490.94
395.678	496.94
395.903	465.94
396.127	487.94
396.352	498.94
396.576	498.94
396.801	459.94
397.025	479.94
397.249	477.94
397.474	523.94
397.698	494.94
397.922	489.94
398.147	505.94
398.371	515.94
398.595	521.94
398.82	539.94
399.044	535.94
399.268	570.94
399.492	628.94
399.717	665.94
399.941	683.94
400.165	675.94
400.389	660.94
400.613	602.94
400.837	554.94
401.062	545.94
401.286	527.94
401.51	539.94
401.734	529.94
401.958	547.94
402.182	550.94
402.406	561.94
402.63	552.94
402.854	551.94
403.078	532.94
403.302	542.94
403.526	564.94
403.75	572.94
403.974	596.94
404.198	552.94
404.422	559.94
404.645	570.94
404.869	551.94
405.093	563.94
405.317	582.94
405.541	596.94
405.765	581.94
405.988	566.94
406.212	586.94
406.436	606.94
406.66	600.94
406.883	611.94
407.107	632.94
407.331	690.94
407.555	693.94
407.778	704.94
408.002	691.94
408.226	605.94
408.449	618.94
408.673	600.94
408.896	618.94
409.12	631.94
409.344	612.94
409.567	569.94
409.791	544.94
410.014	541.94
410.238	576.94
410.461	537.94
410.685	543.94
410.908	566.94
411.132	621.94
411.355	605.94
411.578	593.94
411.802	536.94
412.025	529.94
412.249	535.94
412.472	524.94
412.695	539.94
412.919	538.94
413.142	537.94
413.365	513.94
413.589	526.94
413.812	501.94
414.035	493.94
414.258	532.94
414.482	523.94
414.705	516.94
414.928	522.94
415.151	501.94
415.374	486.94
415.597	501.94
415.821	491.94
416.044	504.94
416.267	517.94
416.49	479.94
416.713	520.94
416.936	516.94
417.159	502.94
417.382	531.94
417.605	504.94
417.828	528.94
418.051	550.94
418.274	499.94
418.497	518.94
418.72	509.94
418.943	529.94
419.166	541.94
419.389	550.94
419.611	542.94
419.834	549.94
420.057	540.94
420.28	531.94
420.503	525.94
420.726	508.94
420.948	527.94
421.171	559.94
421.394	602.94
421.617	530.94
421.839	529.94
422.062	551.94
422.285	535.94
422.507	571.94
422.73	650.94
422.953	635.94
423.175	580.94
423.398	549.94
423.621	538.94
423.843	573.94
424.066	565.94
424.288	551.94
424.511	573.94
424.733	605.94
424.956	687.94
425.178	664.94
425.401	651.94
425.623	682.94
425.846	584.94
426.068	525.94
426.291	551.94
426.513	571.94
426.735	566.94
426.958	570.94
427.18	644.94
427.402	750.94
427.625	814.94
427.847	701.94
428.069	611.94
428.292	550.94
428.514	527.94
428.736	512.94
428.958	493.94
429.181	487.94
429.403	491.94
429.625	505.94
429.847	548.94
430.069	586.94
430.292	573.94
430.514	494.94
430.736	495.94
430.958	496.94
431.18	503.94
431.402	492.94
431.624	474.94
431.846	475.94
432.068	489.94
432.29	491.94
432.512	493.94
432.734	476.94
432.956	468.94
433.178	493.94
433.4	503.94
433.622	483.94
433.844	483.94
434.066	476.94
434.287	490.94
434.509	482.94
434.731	513.94
434.953	516.94
435.175	523.94
435.397	521.94
435.618	549.94
435.84	561.94
436.062	658.94
436.284	713.94
436.505	595.94
436.727	533.94
436.949	519.94
437.17	518.94
437.392	507.94
437.614	496.94
437.835	528.94
438.057	610.94
438.278	667.94
438.5	694.94
438.721	747.94
438.943	721.94
439.165	583.94
439.386	541.94
439.608	539.94
439.829	538.94
440.05	558.94
440.272	587.94
440.493	558.94
440.715	525.94
440.936	530.94
441.158	509.94
441.379	525.94
441.6	543.94
441.822	553.94
442.043	579.94
442.264	651.94
442.486	665.94
442.707	592.94
442.928	539.94
443.149	568.94
443.371	574.94
443.592	621.94
443.813	680.94
444.034	769.94
444.255	633.94
444.476	600.94
444.698	586.94
444.919	601.94
445.14	671.94
445.361	635.94
445.582	591.94
445.803	657.94
446.024	711.94
446.245	702.94
446.466	649.94
446.687	581.94
446.908	498.94
447.129	516.94
447.35	511.94
447.571	494.94
447.792	495.94
448.013	501.94
448.234	485.94
448.455	552.94
448.675	630.94
448.896	745.94
449.117	631.94
449.338	591.94
449.559	706.94
449.779	755.94
450	639.94
450.221	532.94
450.442	487.94
450.662	476.94
450.883	490.94
451.104	503.94
451.324	479.94
451.545	459.94
451.766	462.94
451.986	449.94
452.207	445.94
452.428	443.94
452.648	447.94
452.869	459.94
453.089	459.94
453.31	470.94
453.53	450.94
453.751	427.94
453.971	426.94
454.192	448.94
454.412	462.94
454.633	431.94
454.853	438.94
455.073	448.94
455.294	468.94
455.514	535.94
455.734	493.94
455.955	448.94
456.175	426.94
456.395	410.94
456.616	420.94
456.836	446.94
457.056	434.94
457.276	410.94
457.497	418.94
457.717	418.94
457.937	438.94
458.157	415.94
458.377	433.94
458.598	457.94
458.818	509.94
459.038	544.94
459.258	587.94
459.478	516.94
459.698	510.94
459.918	489.94
460.138	499.94
460.358	504.94
460.578	515.94
460.798	509.94
461.018	542.94
461.238	503.94
461.458	514.94
461.678	496.94
461.898	519.94
462.118	513.94
462.338	521.94
462.558	535.94
462.777	552.94
462.997	567.94
463.217	608.94
463.437	603.94
463.657	568.94
463.876	576.94
464.096	572.94
464.316	551.94
464.536	574.94
464.755	558.94
464.975	553.94
465.195	586.94
465.414	611.94
465.634	527.94
465.854	516.94
466.073	489.94
466.293	468.94
466.512	482.94
466.732	459.94
466.951	488.94
467.171	484.94
467.391	483.94
467.61	482.94
467.829	466.94
468.049	465.94
468.268	459.94
468.488	443.94
468.707	466.94
468.927	466.94
469.146	452.94
469.365	453.94
469.585	457.94
469.804	484.94
470.023	502.94
470.243	483.94
470.462	487.94
470.681	480.94
470.901	502.94
471.12	472.94
471.339	482.94
471.558	467.94
471.777	458.94
471.997	451.94
472.216	470.94
472.435	453.94
472.654	460.94
472.873	474.94
473.092	475.94
473.311	467.94
473.53	459.94
473.749	465.94
473.968	495.94
474.187	572.94
474.406	589.94
474.625	486.94
474.844	483.94
475.063	474.94
475.282	459.94
475.501	457.94
475.72	473.94
475.939	479.94
476.158	473.94
476.377	480.94
476.596	500.94
476.814	484.94
477.033	474.94
477.252	517.94
477.471	511.94
477.69	514.94
477.908	509.94
478.127	505.94
478.346	511.94
478.564	514.94
478.783	535.94
479.002	533.94
479.22	556.94
479.439	553.94
479.658	595.94
479.876	592.94
480.095	568.94
480.313	609.94
480.532	616.94
480.751	633.94
480.969	563.94
481.188	556.94
481.406	566.94
481.624	545.94
481.843	537.94
482.061	560.94
482.28	533.94
482.498	539.94
482.717	537.94
482.935	549.94
483.153	550.94
483.372	542.94
483.59	556.94
483.808	541.94
484.027	550.94
484.245	550.94
484.463	545.94
484.681	576.94
484.9	546.94
485.118	560.94
485.336	532.94
485.554	549.94
485.772	546.94
485.99	554.94
486.209	560.94
486.427	571.94
486.645	576.94
486.863	564.94
487.081	569.94
487.299	579.94
487.517	578.94
487.735	567.94
487.953	592.94
488.171	563.94
488.389	582.94
488.607	579.94
488.825	563.94
489.043	575.94
489.261	575.94
489.479	590.94
489.696	609.94
489.914	591.94
490.132	567.94
490.35	591.94
490.568	596.94
490.786	610.94
491.003	622.94
491.221	641.94
491.439	628.94
491.657	631.94
491.874	638.94
492.092	639.94
492.31	645.94
492.527	634.94
492.745	621.94
492.963	637.94
493.18	632.94
493.398	652.94
493.615	669.94
493.833	643.94
494.05	687.94
494.268	672.94
494.485	671.94
494.703	651.94
494.92	662.94
495.138	646.94
495.355	661.94
495.573	701.94
495.79	660.94
496.008	674.94
496.225	661.94
496.442	677.94
496.66	662.94
496.877	686.94
497.094	670.94
497.312	687.94
497.529	717.94
497.746	726.94
497.963	746.94
498.181	765.94
498.398	779.94
498.615	791.94
498.832	800.94
499.049	819.94
499.267	845.94
499.484	901.94
499.701	970.94
499.918	1013.94
500.135	1088.94
500.352	1160.94
500.569	1216.94
500.786	1230.94
501.003	1142.94
501.22	1099.94
501.437	1022.94
501.654	975.94
501.871	938.94
