Data from 1985.PennyLincolnUp.Lamp.En5.5.200Scan.071819.P1_HRD10591_17-02-46-971.txt Node
Date: Thu Jul 18 17:02:46 EDT 2019
User: cochatt
Spectrometer: HR+D1059
Trigger mode: 1
Integration Time (sec): 1.000000E-1
Scans to average: 1
Electric dark correction enabled: true
Nonlinearity correction enabled: false
Boxcar width: 0
XAxis mode: Wavelengths
Number of Pixels in Spectrum: 2048
>>>>>Begin Spectral Data<<<<<
223.165	-8.94
223.4	-8.94
223.635	-8.94
223.869	-20.94
224.104	-8.94
224.338	-14.94
224.573	-28.94
224.808	-10.94
225.042	-22.94
225.277	-8.94
225.511	4.06
225.746	9.06
225.98	-0.94
226.215	14.06
226.449	14.06
226.683	21.06
226.918	23.06
227.152	41.06
227.387	29.06
227.621	34.06
227.856	58.06
228.09	53.06
228.324	46.06
228.559	65.06
228.793	57.06
229.027	88.06
229.262	109.06
229.496	118.06
229.73	124.06
229.964	134.06
230.199	126.06
230.433	109.06
230.667	115.06
230.901	125.06
231.136	113.06
231.37	117.06
231.604	113.06
231.838	98.06
232.072	100.06
232.306	98.06
232.541	119.06
232.775	119.06
233.009	117.06
233.243	115.06
233.477	115.06
233.711	109.06
233.945	125.06
234.179	122.06
234.413	125.06
234.647	118.06
234.881	122.06
235.115	123.06
235.349	114.06
235.583	124.06
235.817	121.06
236.051	123.06
236.285	121.06
236.519	129.06
236.753	131.06
236.987	142.06
237.221	178.06
237.455	213.06
237.689	169.06
237.922	142.06
238.156	145.06
238.39	131.06
238.624	105.06
238.858	137.06
239.091	130.06
239.325	135.06
239.559	129.06
239.793	138.06
240.027	136.06
240.26	137.06
240.494	152.06
240.728	142.06
240.961	141.06
241.195	135.06
241.429	133.06
241.662	135.06
241.896	130.06
242.13	129.06
242.363	149.06
242.597	145.06
242.83	129.06
243.064	127.06
243.298	138.06
243.531	137.06
243.765	134.06
243.998	132.06
244.232	149.06
244.465	152.06
244.699	146.06
244.932	137.06
245.166	159.06
245.399	161.06
245.633	145.06
245.866	157.06
246.099	158.06
246.333	153.06
246.566	153.06
246.8	169.06
247.033	157.06
247.266	151.06
247.5	148.06
247.733	161.06
247.966	155.06
248.2	168.06
248.433	179.06
248.666	170.06
248.899	189.06
249.133	201.06
249.366	203.06
249.599	199.06
249.832	177.06
250.066	183.06
250.299	187.06
250.532	202.06
250.765	191.06
250.998	223.06
251.231	230.06
251.465	197.06
251.698	189.06
251.931	183.06
252.164	192.06
252.397	205.06
252.63	203.06
252.863	204.06
253.096	204.06
253.329	221.06
253.562	219.06
253.795	216.06
254.028	219.06
254.261	217.06
254.494	224.06
254.727	236.06
254.96	281.06
255.193	294.06
255.426	252.06
255.659	233.06
255.892	214.06
256.124	219.06
256.357	224.06
256.59	218.06
256.823	214.06
257.056	204.06
257.289	199.06
257.521	205.06
257.754	206.06
257.987	213.06
258.22	217.06
258.452	207.06
258.685	204.06
258.918	213.06
259.151	207.06
259.383	212.06
259.616	221.06
259.849	219.06
260.081	236.06
260.314	265.06
260.547	253.06
260.779	259.06
261.012	245.06
261.244	246.06
261.477	229.06
261.71	220.06
261.942	238.06
262.175	248.06
262.407	230.06
262.64	203.06
262.872	233.06
263.105	236.06
263.337	229.06
263.57	231.06
263.802	221.06
264.035	218.06
264.267	232.06
264.499	243.06
264.732	236.06
264.964	230.06
265.197	206.06
265.429	228.06
265.661	214.06
265.894	231.06
266.126	226.06
266.358	231.06
266.591	225.06
266.823	225.06
267.055	243.06
267.287	230.06
267.52	247.06
267.752	262.06
267.984	246.06
268.216	263.06
268.448	248.06
268.681	245.06
268.913	248.06
269.145	286.06
269.377	302.06
269.609	312.06
269.841	277.06
270.073	290.06
270.306	301.06
270.538	335.06
270.77	304.06
271.002	317.06
271.234	295.06
271.466	300.06
271.698	323.06
271.93	338.06
272.162	326.06
272.394	322.06
272.626	315.06
272.858	305.06
273.09	273.06
273.322	272.06
273.553	278.06
273.785	290.06
274.017	289.06
274.249	279.06
274.481	289.06
274.713	279.06
274.945	290.06
275.176	287.06
275.408	297.06
275.64	289.06
275.872	284.06
276.104	280.06
276.335	277.06
276.567	294.06
276.799	310.06
277.031	312.06
277.262	332.06
277.494	335.06
277.726	298.06
277.957	295.06
278.189	297.06
278.421	309.06
278.652	298.06
278.884	304.06
279.115	290.06
279.347	300.06
279.579	293.06
279.81	302.06
280.042	295.06
280.273	295.06
280.505	284.06
280.736	280.06
280.968	278.06
281.199	277.06
281.431	290.06
281.662	300.06
281.894	299.06
282.125	309.06
282.356	317.06
282.588	324.06
282.819	313.06
283.051	312.06
283.282	303.06
283.513	306.06
283.745	293.06
283.976	304.06
284.207	297.06
284.439	319.06
284.67	300.06
284.901	303.06
285.132	329.06
285.364	313.06
285.595	306.06
285.826	301.06
286.057	313.06
286.288	301.06
286.52	318.06
286.751	288.06
286.982	307.06
287.213	308.06
287.444	289.06
287.675	320.06
287.906	335.06
288.138	341.06
288.369	360.06
288.6	328.06
288.831	341.06
289.062	334.06
289.293	346.06
289.524	334.06
289.755	323.06
289.986	334.06
290.217	303.06
290.448	335.06
290.679	307.06
290.91	323.06
291.141	316.06
291.371	333.06
291.602	337.06
291.833	323.06
292.064	324.06
292.295	331.06
292.526	322.06
292.757	320.06
292.987	298.06
293.218	318.06
293.449	353.06
293.68	355.06
293.91	330.06
294.141	351.06
294.372	323.06
294.603	323.06
294.833	331.06
295.064	327.06
295.295	334.06
295.525	311.06
295.756	335.06
295.987	351.06
296.217	367.06
296.448	375.06
296.679	347.06
296.909	338.06
297.14	336.06
297.37	371.06
297.601	330.06
297.831	348.06
298.062	348.06
298.292	347.06
298.523	353.06
298.753	345.06
298.984	355.06
299.214	350.06
299.445	355.06
299.675	361.06
299.905	366.06
300.136	344.06
300.366	345.06
300.597	355.06
300.827	356.06
301.057	367.06
301.288	376.06
301.518	369.06
301.748	364.06
301.979	381.06
302.209	381.06
302.439	387.06
302.669	386.06
302.9	379.06
303.13	367.06
303.36	359.06
303.59	358.06
303.82	391.06
304.051	383.06
304.281	367.06
304.511	367.06
304.741	374.06
304.971	369.06
305.201	385.06
305.431	373.06
305.661	384.06
305.891	374.06
306.121	360.06
306.352	370.06
306.582	371.06
306.812	398.06
307.042	362.06
307.272	364.06
307.502	369.06
307.731	387.06
307.961	382.06
308.191	390.06
308.421	386.06
308.651	395.06
308.881	366.06
309.111	405.06
309.341	388.06
309.571	377.06
309.8	381.06
310.03	424.06
310.26	393.06
310.49	397.06
310.72	425.06
310.949	420.06
311.179	434.06
311.409	411.06
311.639	403.06
311.868	434.06
312.098	431.06
312.328	404.06
312.557	427.06
312.787	451.06
313.017	428.06
313.246	407.06
313.476	412.06
313.706	415.06
313.935	433.06
314.165	452.06
314.394	413.06
314.624	431.06
314.853	451.06
315.083	420.06
315.312	421.06
315.542	418.06
315.771	418.06
316.001	399.06
316.23	427.06
316.46	403.06
316.689	427.06
316.919	428.06
317.148	438.06
317.377	420.06
317.607	417.06
317.836	428.06
318.065	425.06
318.295	433.06
318.524	416.06
318.753	412.06
318.983	425.06
319.212	426.06
319.441	424.06
319.67	459.06
319.9	418.06
320.129	432.06
320.358	422.06
320.587	417.06
320.816	429.06
321.046	417.06
321.275	449.06
321.504	444.06
321.733	446.06
321.962	445.06
322.191	448.06
322.42	473.06
322.649	478.06
322.878	481.06
323.108	509.06
323.337	508.06
323.566	521.06
323.795	557.06
324.024	564.06
324.253	719.06
324.482	967.06
324.71	1423.06
324.939	1995.06
325.168	1741.06
325.397	912.06
325.626	633.06
325.855	582.06
326.084	541.06
326.313	521.06
326.542	541.06
326.77	593.06
326.999	637.06
327.228	866.06
327.457	1262.06
327.686	1493.06
327.914	1005.06
328.143	688.06
328.372	628.06
328.6	583.06
328.829	564.06
329.058	584.06
329.287	613.06
329.515	564.06
329.744	535.06
329.972	527.06
330.201	513.06
330.43	547.06
330.658	574.06
330.887	604.06
331.115	605.06
331.344	558.06
331.572	538.06
331.801	542.06
332.03	526.06
332.258	507.06
332.486	528.06
332.715	521.06
332.943	519.06
333.172	504.06
333.4	515.06
333.629	538.06
333.857	552.06
334.085	558.06
334.314	546.06
334.542	550.06
334.771	560.06
334.999	546.06
335.227	544.06
335.455	527.06
335.684	526.06
335.912	498.06
336.14	517.06
336.369	518.06
336.597	507.06
336.825	503.06
337.053	509.06
337.281	492.06
337.51	499.06
337.738	499.06
337.966	514.06
338.194	501.06
338.422	504.06
338.65	493.06
338.878	492.06
339.106	499.06
339.334	469.06
339.562	451.06
339.79	473.06
340.018	493.06
340.246	469.06
340.474	479.06
340.702	481.06
340.93	486.06
341.158	464.06
341.386	474.06
341.614	469.06
341.842	475.06
342.07	474.06
342.298	455.06
342.526	488.06
342.754	465.06
342.981	459.06
343.209	460.06
343.437	473.06
343.665	483.06
343.893	519.06
344.12	497.06
344.348	494.06
344.576	478.06
344.804	486.06
345.031	485.06
345.259	482.06
345.487	487.06
345.714	479.06
345.942	466.06
346.17	483.06
346.397	481.06
346.625	444.06
346.853	464.06
347.08	428.06
347.308	443.06
347.535	449.06
347.763	476.06
347.99	460.06
348.218	453.06
348.445	455.06
348.673	462.06
348.9	437.06
349.128	463.06
349.355	438.06
349.583	444.06
349.81	451.06
350.037	437.06
350.265	414.06
350.492	456.06
350.72	451.06
350.947	427.06
351.174	456.06
351.402	468.06
351.629	439.06
351.856	455.06
352.083	474.06
352.311	456.06
352.538	461.06
352.765	489.06
352.992	431.06
353.22	452.06
353.447	436.06
353.674	444.06
353.901	438.06
354.128	427.06
354.355	422.06
354.583	449.06
354.81	445.06
355.037	431.06
355.264	404.06
355.491	433.06
355.718	420.06
355.945	417.06
356.172	421.06
356.399	417.06
356.626	431.06
356.853	426.06
357.08	405.06
357.307	419.06
357.534	416.06
357.761	419.06
357.988	441.06
358.215	431.06
358.441	427.06
358.668	427.06
358.895	423.06
359.122	434.06
359.349	460.06
359.576	438.06
359.802	458.06
360.029	482.06
360.256	475.06
360.483	485.06
360.709	450.06
360.936	450.06
361.163	430.06
361.39	455.06
361.616	444.06
361.843	455.06
362.07	430.06
362.296	418.06
362.523	439.06
362.749	436.06
362.976	436.06
363.203	453.06
363.429	435.06
363.656	437.06
363.882	431.06
364.109	422.06
364.335	430.06
364.562	431.06
364.788	438.06
365.015	412.06
365.241	425.06
365.468	422.06
365.694	427.06
365.92	437.06
366.147	423.06
366.373	428.06
366.599	415.06
366.826	426.06
367.052	435.06
367.278	415.06
367.505	430.06
367.731	422.06
367.957	425.06
368.184	442.06
368.41	423.06
368.636	455.06
368.862	447.06
369.089	441.06
369.315	414.06
369.541	430.06
369.767	425.06
369.993	413.06
370.219	427.06
370.445	423.06
370.672	422.06
370.898	439.06
371.124	425.06
371.35	410.06
371.576	434.06
371.802	431.06
372.028	404.06
372.254	440.06
372.48	457.06
372.706	406.06
372.932	431.06
373.158	426.06
373.384	415.06
373.61	430.06
373.835	429.06
374.061	440.06
374.287	433.06
374.513	453.06
374.739	437.06
374.965	435.06
375.191	448.06
375.416	456.06
375.642	435.06
375.868	441.06
376.094	444.06
376.319	451.06
376.545	420.06
376.771	435.06
376.997	437.06
377.222	431.06
377.448	427.06
377.674	407.06
377.899	404.06
378.125	428.06
378.35	414.06
378.576	429.06
378.802	415.06
379.027	430.06
379.253	413.06
379.478	433.06
379.704	419.06
379.929	435.06
380.155	413.06
380.38	413.06
380.606	435.06
380.831	416.06
381.057	440.06
381.282	422.06
381.507	427.06
381.733	421.06
381.958	428.06
382.184	417.06
382.409	441.06
382.634	455.06
382.86	442.06
383.085	431.06
383.31	431.06
383.535	452.06
383.761	437.06
383.986	471.06
384.211	447.06
384.436	461.06
384.662	472.06
384.887	454.06
385.112	457.06
385.337	467.06
385.562	465.06
385.787	461.06
386.013	481.06
386.238	482.06
386.463	468.06
386.688	456.06
386.913	465.06
387.138	466.06
387.363	491.06
387.588	471.06
387.813	478.06
388.038	461.06
388.263	476.06
388.488	467.06
388.713	459.06
388.938	468.06
389.163	490.06
389.387	486.06
389.612	453.06
389.837	489.06
390.062	457.06
390.287	478.06
390.512	463.06
390.736	472.06
390.961	464.06
391.186	478.06
391.411	475.06
391.636	501.06
391.86	507.06
392.085	507.06
392.31	490.06
392.534	489.06
392.759	497.06
392.984	475.06
393.208	472.06
393.433	487.06
393.658	475.06
393.882	469.06
394.107	495.06
394.331	511.06
394.556	494.06
394.78	491.06
395.005	468.06
395.229	467.06
395.454	499.06
395.678	510.06
395.903	511.06
396.127	530.06
396.352	505.06
396.576	517.06
396.801	499.06
397.025	517.06
397.249	522.06
397.474	506.06
397.698	510.06
397.922	523.06
398.147	534.06
398.371	547.06
398.595	547.06
398.82	545.06
399.044	566.06
399.268	618.06
399.492	669.06
399.717	687.06
399.941	685.06
400.165	732.06
400.389	686.06
400.613	627.06
400.837	627.06
401.062	578.06
401.286	541.06
401.51	577.06
401.734	542.06
401.958	542.06
402.182	559.06
402.406	576.06
402.63	577.06
402.854	574.06
403.078	579.06
403.302	562.06
403.526	597.06
403.75	587.06
403.974	601.06
404.198	568.06
404.422	600.06
404.645	600.06
404.869	605.06
405.093	614.06
405.317	637.06
405.541	661.06
405.765	598.06
405.988	609.06
406.212	587.06
406.436	651.06
406.66	664.06
406.883	649.06
407.107	663.06
407.331	699.06
407.555	770.06
407.778	743.06
408.002	680.06
408.226	641.06
408.449	642.06
408.673	641.06
408.896	662.06
409.12	665.06
409.344	636.06
409.567	620.06
409.791	591.06
410.014	580.06
410.238	583.06
410.461	585.06
410.685	582.06
410.908	590.06
411.132	614.06
411.355	651.06
411.578	618.06
411.802	565.06
412.025	529.06
412.249	567.06
412.472	581.06
412.695	605.06
412.919	566.06
413.142	540.06
413.365	547.06
413.589	554.06
413.812	536.06
414.035	533.06
414.258	538.06
414.482	502.06
414.705	534.06
414.928	544.06
415.151	557.06
415.374	539.06
415.597	532.06
415.821	522.06
416.044	528.06
416.267	516.06
416.49	534.06
416.713	511.06
416.936	502.06
417.159	545.06
417.382	521.06
417.605	526.06
417.828	556.06
418.051	538.06
418.274	573.06
418.497	522.06
418.72	548.06
418.943	549.06
419.166	553.06
419.389	587.06
419.611	586.06
419.834	567.06
420.057	560.06
420.28	584.06
420.503	557.06
420.726	543.06
420.948	589.06
421.171	591.06
421.394	635.06
421.617	563.06
421.839	560.06
422.062	550.06
422.285	548.06
422.507	618.06
422.73	668.06
422.953	662.06
423.175	596.06
423.398	575.06
423.621	597.06
423.843	599.06
424.066	573.06
424.288	584.06
424.511	592.06
424.733	650.06
424.956	734.06
425.178	706.06
425.401	697.06
425.623	716.06
425.846	613.06
426.068	582.06
426.291	575.06
426.513	577.06
426.735	573.06
426.958	632.06
427.18	702.06
427.402	796.06
427.625	886.06
427.847	783.06
428.069	636.06
428.292	614.06
428.514	557.06
428.736	553.06
428.958	543.06
429.181	524.06
429.403	532.06
429.625	531.06
429.847	569.06
430.069	619.06
430.292	603.06
430.514	568.06
430.736	542.06
430.958	522.06
431.18	489.06
431.402	511.06
431.624	465.06
431.846	515.06
432.068	505.06
432.29	521.06
432.512	497.06
432.734	518.06
432.956	519.06
433.178	523.06
433.4	526.06
433.622	523.06
433.844	499.06
434.066	522.06
434.287	518.06
434.509	514.06
434.731	538.06
434.953	564.06
435.175	552.06
435.397	594.06
435.618	576.06
435.84	616.06
436.062	699.06
436.284	745.06
436.505	637.06
436.727	587.06
436.949	523.06
437.17	523.06
437.392	525.06
437.614	551.06
437.835	567.06
438.057	660.06
438.278	715.06
438.5	730.06
438.721	793.06
438.943	776.06
439.165	616.06
439.386	554.06
439.608	583.06
439.829	560.06
440.05	605.06
440.272	652.06
440.493	595.06
440.715	553.06
440.936	577.06
441.158	548.06
441.379	555.06
441.6	549.06
441.822	579.06
442.043	633.06
442.264	708.06
442.486	701.06
442.707	607.06
442.928	595.06
443.149	589.06
443.371	616.06
443.592	655.06
443.813	727.06
444.034	786.06
444.255	667.06
444.476	618.06
444.698	598.06
444.919	627.06
445.14	747.06
445.361	682.06
445.582	640.06
445.803	665.06
446.024	766.06
446.245	771.06
446.466	690.06
446.687	613.06
446.908	557.06
447.129	538.06
447.35	541.06
447.571	515.06
447.792	510.06
448.013	523.06
448.234	546.06
448.455	578.06
448.675	701.06
448.896	783.06
449.117	667.06
449.338	615.06
449.559	733.06
449.779	843.06
450	673.06
450.221	557.06
450.442	545.06
450.662	494.06
450.883	520.06
451.104	526.06
451.324	508.06
451.545	493.06
451.766	489.06
451.986	473.06
452.207	491.06
452.428	475.06
452.648	451.06
452.869	461.06
453.089	491.06
453.31	463.06
453.53	471.06
453.751	472.06
453.971	477.06
454.192	499.06
454.412	492.06
454.633	460.06
454.853	475.06
455.073	449.06
455.294	480.06
455.514	539.06
455.734	561.06
455.955	493.06
456.175	475.06
456.395	427.06
456.616	458.06
456.836	463.06
457.056	428.06
457.276	435.06
457.497	449.06
457.717	441.06
457.937	460.06
458.157	453.06
458.377	465.06
458.598	486.06
458.818	519.06
459.038	609.06
459.258	625.06
459.478	555.06
459.698	547.06
459.918	523.06
460.138	512.06
460.358	526.06
460.578	528.06
460.798	547.06
461.018	550.06
461.238	531.06
461.458	525.06
461.678	547.06
461.898	529.06
462.118	554.06
462.338	582.06
462.558	549.06
462.777	571.06
462.997	605.06
463.217	638.06
463.437	621.06
463.657	609.06
463.876	583.06
464.096	594.06
464.316	611.06
464.536	590.06
464.755	588.06
464.975	592.06
465.195	625.06
465.414	648.06
465.634	574.06
465.854	551.06
466.073	510.06
466.293	492.06
466.512	481.06
466.732	491.06
466.951	510.06
467.171	493.06
467.391	486.06
467.61	494.06
467.829	490.06
468.049	484.06
468.268	472.06
468.488	477.06
468.707	470.06
468.927	482.06
469.146	464.06
469.365	465.06
469.585	468.06
469.804	478.06
470.023	502.06
470.243	509.06
470.462	506.06
470.681	517.06
470.901	509.06
471.12	488.06
471.339	509.06
471.558	480.06
471.777	482.06
471.997	483.06
472.216	495.06
472.435	501.06
472.654	491.06
472.873	503.06
473.092	515.06
473.311	465.06
473.53	456.06
473.749	498.06
473.968	531.06
474.187	614.06
474.406	634.06
474.625	529.06
474.844	505.06
475.063	499.06
475.282	483.06
475.501	463.06
475.72	491.06
475.939	498.06
476.158	494.06
476.377	517.06
476.596	497.06
476.814	498.06
477.033	508.06
477.252	515.06
477.471	523.06
477.69	520.06
477.908	525.06
478.127	571.06
478.346	555.06
478.564	554.06
478.783	539.06
479.002	550.06
479.22	573.06
479.439	581.06
479.658	607.06
479.876	587.06
480.095	607.06
480.313	632.06
480.532	622.06
480.751	627.06
480.969	617.06
481.188	627.06
481.406	636.06
481.624	591.06
481.843	577.06
482.061	547.06
482.28	574.06
482.498	593.06
482.717	566.06
482.935	564.06
483.153	543.06
483.372	543.06
483.59	575.06
483.808	581.06
484.027	550.06
484.245	567.06
484.463	567.06
484.681	570.06
484.9	572.06
485.118	586.06
485.336	561.06
485.554	589.06
485.772	582.06
485.99	573.06
486.209	583.06
486.427	587.06
486.645	608.06
486.863	609.06
487.081	624.06
487.299	607.06
487.517	618.06
487.735	591.06
487.953	599.06
488.171	603.06
488.389	590.06
488.607	599.06
488.825	595.06
489.043	588.06
489.261	612.06
489.479	621.06
489.696	617.06
489.914	629.06
490.132	621.06
490.35	624.06
490.568	645.06
490.786	642.06
491.003	642.06
491.221	652.06
491.439	655.06
491.657	654.06
491.874	680.06
492.092	683.06
492.31	693.06
492.527	684.06
492.745	692.06
492.963	699.06
493.18	677.06
493.398	684.06
493.615	707.06
493.833	693.06
494.05	702.06
494.268	707.06
494.485	727.06
494.703	686.06
494.92	706.06
495.138	685.06
495.355	702.06
495.573	711.06
495.79	730.06
496.008	710.06
496.225	713.06
496.442	760.06
496.66	721.06
496.877	716.06
497.094	729.06
497.312	734.06
497.529	757.06
497.746	758.06
497.963	775.06
498.181	804.06
498.398	782.06
498.615	833.06
498.832	843.06
499.049	860.06
499.267	905.06
499.484	951.06
499.701	1027.06
499.918	1068.06
500.135	1150.06
500.352	1211.06
500.569	1226.06
500.786	1237.06
501.003	1211.06
501.22	1134.06
501.437	1077.06
501.654	1061.06
501.871	1000.06
