Data from 1985.PennyLincolnUp.Lamp.En5.5.200Scan.071819.P1_HRD10591_17-01-19-969.txt Node
Date: Thu Jul 18 17:01:19 EDT 2019
User: cochatt
Spectrometer: HR+D1059
Trigger mode: 1
Integration Time (sec): 1.000000E-1
Scans to average: 1
Electric dark correction enabled: true
Nonlinearity correction enabled: false
Boxcar width: 0
XAxis mode: Wavelengths
Number of Pixels in Spectrum: 2048
>>>>>Begin Spectral Data<<<<<
223.165	-16.81
223.4	-16.81
223.635	-16.81
223.869	-5.81
224.104	-25.81
224.338	-18.81
224.573	-27.81
224.808	-13.81
225.042	0.19
225.277	-11.81
225.511	0.19
225.746	11.19
225.98	11.19
226.215	12.19
226.449	1.19
226.683	28.19
226.918	20.19
227.152	36.19
227.387	33.19
227.621	47.19
227.856	53.19
228.09	40.19
228.324	52.19
228.559	45.19
228.793	67.19
229.027	80.19
229.262	101.19
229.496	97.19
229.73	111.19
229.964	119.19
230.199	106.19
230.433	109.19
230.667	117.19
230.901	99.19
231.136	107.19
231.37	120.19
231.604	128.19
231.838	109.19
232.072	112.19
232.306	102.19
232.541	112.19
232.775	92.19
233.009	112.19
233.243	114.19
233.477	117.19
233.711	107.19
233.945	107.19
234.179	101.19
234.413	119.19
234.647	120.19
234.881	117.19
235.115	110.19
235.349	102.19
235.583	109.19
235.817	121.19
236.051	122.19
236.285	124.19
236.519	117.19
236.753	128.19
236.987	131.19
237.221	146.19
237.455	200.19
237.689	167.19
237.922	134.19
238.156	128.19
238.39	114.19
238.624	117.19
238.858	102.19
239.091	112.19
239.325	110.19
239.559	117.19
239.793	122.19
240.027	124.19
240.26	147.19
240.494	140.19
240.728	163.19
240.961	144.19
241.195	145.19
241.429	134.19
241.662	138.19
241.896	133.19
242.13	121.19
242.363	145.19
242.597	131.19
242.83	124.19
243.064	136.19
243.298	143.19
243.531	122.19
243.765	132.19
243.998	137.19
244.232	132.19
244.465	136.19
244.699	132.19
244.932	142.19
245.166	142.19
245.399	150.19
245.633	153.19
245.866	133.19
246.099	132.19
246.333	141.19
246.566	153.19
246.8	166.19
247.033	128.19
247.266	142.19
247.5	141.19
247.733	156.19
247.966	166.19
248.2	172.19
248.433	168.19
248.666	167.19
248.899	155.19
249.133	181.19
249.366	183.19
249.599	171.19
249.832	169.19
250.066	170.19
250.299	170.19
250.532	172.19
250.765	190.19
250.998	207.19
251.231	210.19
251.465	182.19
251.698	179.19
251.931	184.19
252.164	156.19
252.397	172.19
252.63	185.19
252.863	200.19
253.096	186.19
253.329	207.19
253.562	204.19
253.795	200.19
254.028	186.19
254.261	209.19
254.494	204.19
254.727	214.19
254.96	230.19
255.193	238.19
255.426	216.19
255.659	211.19
255.892	200.19
256.124	193.19
256.357	184.19
256.59	206.19
256.823	205.19
257.056	192.19
257.289	183.19
257.521	195.19
257.754	185.19
257.987	192.19
258.22	194.19
258.452	220.19
258.685	184.19
258.918	194.19
259.151	204.19
259.383	200.19
259.616	193.19
259.849	220.19
260.081	224.19
260.314	222.19
260.547	234.19
260.779	229.19
261.012	203.19
261.244	220.19
261.477	224.19
261.71	202.19
261.942	204.19
262.175	218.19
262.407	212.19
262.64	211.19
262.872	209.19
263.105	197.19
263.337	205.19
263.57	205.19
263.802	205.19
264.035	217.19
264.267	207.19
264.499	205.19
264.732	220.19
264.964	211.19
265.197	196.19
265.429	224.19
265.661	216.19
265.894	213.19
266.126	229.19
266.358	213.19
266.591	211.19
266.823	212.19
267.055	227.19
267.287	203.19
267.52	229.19
267.752	234.19
267.984	212.19
268.216	237.19
268.448	218.19
268.681	227.19
268.913	235.19
269.145	250.19
269.377	262.19
269.609	244.19
269.841	260.19
270.073	252.19
270.306	292.19
270.538	290.19
270.77	284.19
271.002	269.19
271.234	279.19
271.466	274.19
271.698	272.19
271.93	302.19
272.162	294.19
272.394	297.19
272.626	298.19
272.858	281.19
273.09	274.19
273.322	261.19
273.553	259.19
273.785	262.19
274.017	265.19
274.249	258.19
274.481	263.19
274.713	273.19
274.945	256.19
275.176	255.19
275.408	269.19
275.64	241.19
275.872	270.19
276.104	269.19
276.335	284.19
276.567	251.19
276.799	268.19
277.031	314.19
277.262	294.19
277.494	308.19
277.726	272.19
277.957	281.19
278.189	264.19
278.421	275.19
278.652	271.19
278.884	266.19
279.115	260.19
279.347	264.19
279.579	278.19
279.81	281.19
280.042	286.19
280.273	267.19
280.505	283.19
280.736	285.19
280.968	283.19
281.199	269.19
281.431	275.19
281.662	284.19
281.894	273.19
282.125	278.19
282.356	290.19
282.588	292.19
282.819	310.19
283.051	309.19
283.282	270.19
283.513	288.19
283.745	276.19
283.976	298.19
284.207	286.19
284.439	302.19
284.67	276.19
284.901	274.19
285.132	279.19
285.364	286.19
285.595	277.19
285.826	284.19
286.057	264.19
286.288	266.19
286.52	303.19
286.751	292.19
286.982	291.19
287.213	303.19
287.444	312.19
287.675	298.19
287.906	324.19
288.138	308.19
288.369	308.19
288.6	326.19
288.831	310.19
289.062	308.19
289.293	304.19
289.524	306.19
289.755	299.19
289.986	306.19
290.217	312.19
290.448	318.19
290.679	323.19
290.91	315.19
291.141	298.19
291.371	307.19
291.602	298.19
291.833	312.19
292.064	330.19
292.295	309.19
292.526	301.19
292.757	290.19
292.987	299.19
293.218	313.19
293.449	295.19
293.68	299.19
293.91	320.19
294.141	301.19
294.372	300.19
294.603	299.19
294.833	318.19
295.064	317.19
295.295	324.19
295.525	308.19
295.756	300.19
295.987	317.19
296.217	335.19
296.448	327.19
296.679	334.19
296.909	320.19
297.14	320.19
297.37	327.19
297.601	314.19
297.831	304.19
298.062	322.19
298.292	341.19
298.523	330.19
298.753	340.19
298.984	326.19
299.214	321.19
299.445	328.19
299.675	317.19
299.905	346.19
300.136	342.19
300.366	340.19
300.597	340.19
300.827	338.19
301.057	336.19
301.288	356.19
301.518	346.19
301.748	328.19
301.979	340.19
302.209	356.19
302.439	343.19
302.669	326.19
302.9	338.19
303.13	354.19
303.36	345.19
303.59	352.19
303.82	363.19
304.051	359.19
304.281	349.19
304.511	353.19
304.741	361.19
304.971	358.19
305.201	340.19
305.431	345.19
305.661	361.19
305.891	350.19
306.121	339.19
306.352	357.19
306.582	340.19
306.812	339.19
307.042	370.19
307.272	345.19
307.502	343.19
307.731	356.19
307.961	365.19
308.191	356.19
308.421	364.19
308.651	385.19
308.881	355.19
309.111	364.19
309.341	341.19
309.571	388.19
309.8	375.19
310.03	390.19
310.26	382.19
310.49	365.19
310.72	382.19
310.949	390.19
311.179	405.19
311.409	368.19
311.639	375.19
311.868	374.19
312.098	390.19
312.328	375.19
312.557	392.19
312.787	404.19
313.017	410.19
313.246	383.19
313.476	376.19
313.706	378.19
313.935	390.19
314.165	402.19
314.394	399.19
314.624	380.19
314.853	391.19
315.083	386.19
315.312	371.19
315.542	412.19
315.771	392.19
316.001	401.19
316.23	390.19
316.46	392.19
316.689	374.19
316.919	375.19
317.148	386.19
317.377	407.19
317.607	390.19
317.836	382.19
318.065	382.19
318.295	378.19
318.524	388.19
318.753	380.19
318.983	391.19
319.212	398.19
319.441	395.19
319.67	387.19
319.9	377.19
320.129	383.19
320.358	380.19
320.587	411.19
320.816	396.19
321.046	394.19
321.275	417.19
321.504	406.19
321.733	387.19
321.962	416.19
322.191	418.19
322.42	413.19
322.649	434.19
322.878	413.19
323.108	430.19
323.337	438.19
323.566	458.19
323.795	460.19
324.024	504.19
324.253	561.19
324.482	692.19
324.71	1020.19
324.939	1431.19
325.168	1210.19
325.397	688.19
325.626	522.19
325.855	472.19
326.084	457.19
326.313	444.19
326.542	453.19
326.77	491.19
326.999	549.19
327.228	670.19
327.457	934.19
327.686	1096.19
327.914	742.19
328.143	563.19
328.372	527.19
328.6	483.19
328.829	484.19
329.058	504.19
329.287	500.19
329.515	474.19
329.744	472.19
329.972	430.19
330.201	467.19
330.43	469.19
330.658	483.19
330.887	512.19
331.115	524.19
331.344	467.19
331.572	472.19
331.801	461.19
332.03	470.19
332.258	455.19
332.486	459.19
332.715	470.19
332.943	487.19
333.172	498.19
333.4	471.19
333.629	487.19
333.857	481.19
334.085	494.19
334.314	481.19
334.542	481.19
334.771	485.19
334.999	500.19
335.227	493.19
335.455	501.19
335.684	471.19
335.912	471.19
336.14	465.19
336.369	457.19
336.597	453.19
336.825	488.19
337.053	481.19
337.281	469.19
337.51	476.19
337.738	470.19
337.966	451.19
338.194	467.19
338.422	455.19
338.65	448.19
338.878	458.19
339.106	445.19
339.334	438.19
339.562	437.19
339.79	466.19
340.018	446.19
340.246	436.19
340.474	440.19
340.702	440.19
340.93	434.19
341.158	435.19
341.386	433.19
341.614	462.19
341.842	457.19
342.07	426.19
342.298	433.19
342.526	456.19
342.754	443.19
342.981	427.19
343.209	425.19
343.437	457.19
343.665	449.19
343.893	458.19
344.12	478.19
344.348	491.19
344.576	453.19
344.804	458.19
345.031	455.19
345.259	437.19
345.487	450.19
345.714	455.19
345.942	428.19
346.17	426.19
346.397	414.19
346.625	426.19
346.853	441.19
347.08	422.19
347.308	426.19
347.535	422.19
347.763	422.19
347.99	406.19
348.218	439.19
348.445	432.19
348.673	413.19
348.9	404.19
349.128	411.19
349.355	392.19
349.583	406.19
349.81	406.19
350.037	407.19
350.265	402.19
350.492	404.19
350.72	425.19
350.947	429.19
351.174	422.19
351.402	429.19
351.629	435.19
351.856	420.19
352.083	399.19
352.311	438.19
352.538	406.19
352.765	419.19
352.992	440.19
353.22	410.19
353.447	422.19
353.674	411.19
353.901	403.19
354.128	395.19
354.355	402.19
354.583	401.19
354.81	387.19
355.037	401.19
355.264	394.19
355.491	389.19
355.718	392.19
355.945	397.19
356.172	397.19
356.399	373.19
356.626	395.19
356.853	404.19
357.08	420.19
357.307	401.19
357.534	405.19
357.761	418.19
357.988	415.19
358.215	409.19
358.441	392.19
358.668	406.19
358.895	402.19
359.122	406.19
359.349	401.19
359.576	405.19
359.802	414.19
360.029	429.19
360.256	439.19
360.483	422.19
360.709	409.19
360.936	397.19
361.163	403.19
361.39	398.19
361.616	412.19
361.843	413.19
362.07	401.19
362.296	403.19
362.523	387.19
362.749	393.19
362.976	409.19
363.203	399.19
363.429	413.19
363.656	395.19
363.882	406.19
364.109	395.19
364.335	411.19
364.562	387.19
364.788	380.19
365.015	390.19
365.241	402.19
365.468	402.19
365.694	396.19
365.92	421.19
366.147	410.19
366.373	399.19
366.599	410.19
366.826	399.19
367.052	406.19
367.278	406.19
367.505	397.19
367.731	416.19
367.957	403.19
368.184	403.19
368.41	411.19
368.636	400.19
368.862	414.19
369.089	412.19
369.315	394.19
369.541	388.19
369.767	397.19
369.993	398.19
370.219	393.19
370.445	404.19
370.672	404.19
370.898	397.19
371.124	408.19
371.35	417.19
371.576	406.19
371.802	400.19
372.028	409.19
372.254	411.19
372.48	408.19
372.706	410.19
372.932	413.19
373.158	424.19
373.384	423.19
373.61	429.19
373.835	403.19
374.061	392.19
374.287	422.19
374.513	432.19
374.739	445.19
374.965	446.19
375.191	419.19
375.416	416.19
375.642	416.19
375.868	425.19
376.094	409.19
376.319	404.19
376.545	383.19
376.771	417.19
376.997	385.19
377.222	386.19
377.448	398.19
377.674	407.19
377.899	402.19
378.125	393.19
378.35	409.19
378.576	407.19
378.802	396.19
379.027	403.19
379.253	404.19
379.478	409.19
379.704	390.19
379.929	406.19
380.155	414.19
380.38	402.19
380.606	410.19
380.831	411.19
381.057	417.19
381.282	395.19
381.507	402.19
381.733	413.19
381.958	411.19
382.184	408.19
382.409	418.19
382.634	422.19
382.86	424.19
383.085	399.19
383.31	427.19
383.535	432.19
383.761	428.19
383.986	428.19
384.211	429.19
384.436	457.19
384.662	457.19
384.887	449.19
385.112	470.19
385.337	446.19
385.562	468.19
385.787	481.19
386.013	466.19
386.238	457.19
386.463	469.19
386.688	465.19
386.913	444.19
387.138	451.19
387.363	460.19
387.588	478.19
387.813	454.19
388.038	448.19
388.263	443.19
388.488	462.19
388.713	473.19
388.938	453.19
389.163	433.19
389.387	442.19
389.612	447.19
389.837	451.19
390.062	437.19
390.287	438.19
390.512	448.19
390.736	436.19
390.961	458.19
391.186	485.19
391.411	470.19
391.636	470.19
391.86	467.19
392.085	492.19
392.31	488.19
392.534	489.19
392.759	468.19
392.984	474.19
393.208	468.19
393.433	464.19
393.658	461.19
393.882	475.19
394.107	446.19
394.331	473.19
394.556	449.19
394.78	466.19
395.005	477.19
395.229	465.19
395.454	526.19
395.678	476.19
395.903	476.19
396.127	488.19
396.352	500.19
396.576	473.19
396.801	488.19
397.025	473.19
397.249	474.19
397.474	490.19
397.698	482.19
397.922	499.19
398.147	520.19
398.371	543.19
398.595	523.19
398.82	528.19
399.044	553.19
399.268	600.19
399.492	630.19
399.717	662.19
399.941	694.19
400.165	666.19
400.389	661.19
400.613	596.19
400.837	560.19
401.062	560.19
401.286	550.19
401.51	523.19
401.734	550.19
401.958	555.19
402.182	552.19
402.406	545.19
402.63	555.19
402.854	547.19
403.078	544.19
403.302	547.19
403.526	564.19
403.75	560.19
403.974	550.19
404.198	548.19
404.422	567.19
404.645	584.19
404.869	553.19
405.093	569.19
405.317	599.19
405.541	577.19
405.765	564.19
405.988	573.19
406.212	580.19
406.436	570.19
406.66	592.19
406.883	589.19
407.107	624.19
407.331	659.19
407.555	668.19
407.778	720.19
408.002	653.19
408.226	584.19
408.449	613.19
408.673	587.19
408.896	634.19
409.12	651.19
409.344	628.19
409.567	580.19
409.791	562.19
410.014	539.19
410.238	541.19
410.461	541.19
410.685	539.19
410.908	552.19
411.132	583.19
411.355	605.19
411.578	571.19
411.802	551.19
412.025	522.19
412.249	533.19
412.472	532.19
412.695	557.19
412.919	520.19
413.142	514.19
413.365	525.19
413.589	522.19
413.812	523.19
414.035	515.19
414.258	502.19
414.482	518.19
414.705	525.19
414.928	530.19
415.151	531.19
415.374	533.19
415.597	525.19
415.821	511.19
416.044	508.19
416.267	497.19
416.49	494.19
416.713	497.19
416.936	500.19
417.159	503.19
417.382	501.19
417.605	492.19
417.828	530.19
418.051	518.19
418.274	530.19
418.497	514.19
418.72	521.19
418.943	524.19
419.166	526.19
419.389	566.19
419.611	520.19
419.834	544.19
420.057	529.19
420.28	530.19
420.503	490.19
420.726	533.19
420.948	521.19
421.171	565.19
421.394	570.19
421.617	523.19
421.839	515.19
422.062	496.19
422.285	534.19
422.507	601.19
422.73	650.19
422.953	628.19
423.175	561.19
423.398	530.19
423.621	526.19
423.843	559.19
424.066	556.19
424.288	548.19
424.511	572.19
424.733	630.19
424.956	676.19
425.178	654.19
425.401	641.19
425.623	637.19
425.846	578.19
426.068	562.19
426.291	520.19
426.513	521.19
426.735	542.19
426.958	574.19
427.18	630.19
427.402	744.19
427.625	806.19
427.847	683.19
428.069	581.19
428.292	552.19
428.514	520.19
428.736	498.19
428.958	510.19
429.181	491.19
429.403	489.19
429.625	500.19
429.847	542.19
430.069	586.19
430.292	574.19
430.514	517.19
430.736	501.19
430.958	495.19
431.18	468.19
431.402	484.19
431.624	457.19
431.846	461.19
432.068	490.19
432.29	496.19
432.512	492.19
432.734	480.19
432.956	490.19
433.178	503.19
433.4	506.19
433.622	471.19
433.844	482.19
434.066	498.19
434.287	500.19
434.509	503.19
434.731	518.19
434.953	519.19
435.175	523.19
435.397	536.19
435.618	543.19
435.84	587.19
436.062	628.19
436.284	679.19
436.505	563.19
436.727	526.19
436.949	518.19
437.17	521.19
437.392	495.19
437.614	533.19
437.835	550.19
438.057	610.19
438.278	666.19
438.5	683.19
438.721	734.19
438.943	714.19
439.165	569.19
439.386	529.19
439.608	535.19
439.829	522.19
440.05	524.19
440.272	576.19
440.493	551.19
440.715	524.19
440.936	503.19
441.158	511.19
441.379	525.19
441.6	553.19
441.822	539.19
442.043	575.19
442.264	624.19
442.486	650.19
442.707	548.19
442.928	549.19
443.149	556.19
443.371	556.19
443.592	590.19
443.813	681.19
444.034	702.19
444.255	634.19
444.476	578.19
444.698	580.19
444.919	580.19
445.14	683.19
445.361	628.19
445.582	584.19
445.803	628.19
446.024	695.19
446.245	700.19
446.466	627.19
446.687	547.19
446.908	524.19
447.129	488.19
447.35	486.19
447.571	480.19
447.792	478.19
448.013	484.19
448.234	504.19
448.455	545.19
448.675	625.19
448.896	729.19
449.117	616.19
449.338	576.19
449.559	670.19
449.779	758.19
450	588.19
450.221	519.19
450.442	468.19
450.662	468.19
450.883	466.19
451.104	486.19
451.324	500.19
451.545	436.19
451.766	447.19
451.986	436.19
452.207	421.19
452.428	421.19
452.648	441.19
452.869	450.19
453.089	440.19
453.31	480.19
453.53	423.19
453.751	440.19
453.971	442.19
454.192	466.19
454.412	463.19
454.633	438.19
454.853	442.19
455.073	444.19
455.294	460.19
455.514	503.19
455.734	498.19
455.955	431.19
456.175	416.19
456.395	404.19
456.616	437.19
456.836	420.19
457.056	415.19
457.276	413.19
457.497	424.19
457.717	443.19
457.937	423.19
458.157	439.19
458.377	442.19
458.598	458.19
458.818	481.19
459.038	542.19
459.258	593.19
459.478	510.19
459.698	488.19
459.918	496.19
460.138	497.19
460.358	498.19
460.578	522.19
460.798	500.19
461.018	526.19
461.238	513.19
461.458	521.19
461.678	515.19
461.898	512.19
462.118	525.19
462.338	537.19
462.558	528.19
462.777	551.19
462.997	562.19
463.217	605.19
463.437	597.19
463.657	585.19
463.876	560.19
464.096	561.19
464.316	561.19
464.536	566.19
464.755	549.19
464.975	541.19
465.195	576.19
465.414	583.19
465.634	541.19
465.854	511.19
466.073	495.19
466.293	479.19
466.512	454.19
466.732	451.19
466.951	461.19
467.171	478.19
467.391	491.19
467.61	472.19
467.829	471.19
468.049	470.19
468.268	436.19
468.488	443.19
468.707	441.19
468.927	450.19
469.146	451.19
469.365	464.19
469.585	453.19
469.804	462.19
470.023	474.19
470.243	459.19
470.462	464.19
470.681	466.19
470.901	476.19
471.12	467.19
471.339	489.19
471.558	477.19
471.777	455.19
471.997	458.19
472.216	465.19
472.435	474.19
472.654	449.19
472.873	465.19
473.092	469.19
473.311	461.19
473.53	444.19
473.749	429.19
473.968	503.19
474.187	568.19
474.406	582.19
474.625	488.19
474.844	467.19
475.063	475.19
475.282	474.19
475.501	462.19
475.72	469.19
475.939	478.19
476.158	472.19
476.377	480.19
476.596	485.19
476.814	494.19
477.033	485.19
477.252	484.19
477.471	503.19
477.69	501.19
477.908	519.19
478.127	536.19
478.346	520.19
478.564	534.19
478.783	508.19
479.002	566.19
479.22	537.19
479.439	566.19
479.658	560.19
479.876	557.19
480.095	570.19
480.313	582.19
480.532	593.19
480.751	570.19
480.969	569.19
481.188	566.19
481.406	573.19
481.624	554.19
481.843	545.19
482.061	561.19
482.28	540.19
482.498	525.19
482.717	537.19
482.935	546.19
483.153	504.19
483.372	518.19
483.59	545.19
483.808	545.19
484.027	534.19
484.245	537.19
484.463	535.19
484.681	561.19
484.9	573.19
485.118	564.19
485.336	566.19
485.554	557.19
485.772	560.19
485.99	560.19
486.209	554.19
486.427	550.19
486.645	562.19
486.863	593.19
487.081	571.19
487.299	582.19
487.517	566.19
487.735	569.19
487.953	564.19
488.171	597.19
488.389	567.19
488.607	563.19
488.825	573.19
489.043	572.19
489.261	600.19
489.479	552.19
489.696	578.19
489.914	573.19
490.132	579.19
490.35	573.19
490.568	602.19
490.786	603.19
491.003	624.19
491.221	607.19
491.439	626.19
491.657	619.19
491.874	640.19
492.092	628.19
492.31	640.19
492.527	627.19
492.745	643.19
492.963	634.19
493.18	634.19
493.398	636.19
493.615	642.19
493.833	644.19
494.05	670.19
494.268	662.19
494.485	660.19
494.703	656.19
494.92	650.19
495.138	632.19
495.355	648.19
495.573	658.19
495.79	650.19
496.008	663.19
496.225	652.19
496.442	666.19
496.66	672.19
496.877	660.19
497.094	671.19
497.312	693.19
497.529	699.19
497.746	721.19
497.963	719.19
498.181	786.19
498.398	776.19
498.615	770.19
498.832	794.19
499.049	865.19
499.267	877.19
499.484	894.19
499.701	950.19
499.918	1007.19
500.135	1118.19
500.352	1155.19
500.569	1182.19
500.786	1198.19
501.003	1132.19
501.22	1099.19
501.437	1033.19
501.654	954.19
501.871	928.19
