Data from 1985.PennyLincolnUp.Lamp.En5.5.200Scan.071819.P1_HRD10591_17-03-18-970.txt Node
Date: Thu Jul 18 17:03:18 EDT 2019
User: cochatt
Spectrometer: HR+D1059
Trigger mode: 1
Integration Time (sec): 1.000000E-1
Scans to average: 1
Electric dark correction enabled: true
Nonlinearity correction enabled: false
Boxcar width: 0
XAxis mode: Wavelengths
Number of Pixels in Spectrum: 2048
>>>>>Begin Spectral Data<<<<<
223.165	-19.56
223.4	-19.56
223.635	-19.56
223.869	-24.56
224.104	-23.56
224.338	-17.56
224.573	-11.56
224.808	-15.56
225.042	-15.56
225.277	7.44
225.511	1.44
225.746	8.44
225.98	6.44
226.215	14.44
226.449	14.44
226.683	20.44
226.918	20.44
227.152	34.44
227.387	40.44
227.621	35.44
227.856	49.44
228.09	55.44
228.324	66.44
228.559	59.44
228.793	71.44
229.027	98.44
229.262	114.44
229.496	132.44
229.73	123.44
229.964	144.44
230.199	126.44
230.433	124.44
230.667	122.44
230.901	117.44
231.136	109.44
231.37	123.44
231.604	104.44
231.838	126.44
232.072	122.44
232.306	112.44
232.541	129.44
232.775	112.44
233.009	123.44
233.243	133.44
233.477	113.44
233.711	122.44
233.945	127.44
234.179	123.44
234.413	109.44
234.647	121.44
234.881	119.44
235.115	133.44
235.349	131.44
235.583	141.44
235.817	121.44
236.051	138.44
236.285	123.44
236.519	126.44
236.753	138.44
236.987	159.44
237.221	176.44
237.455	224.44
237.689	170.44
237.922	156.44
238.156	133.44
238.39	141.44
238.624	133.44
238.858	129.44
239.091	129.44
239.325	148.44
239.559	136.44
239.793	133.44
240.027	153.44
240.26	142.44
240.494	145.44
240.728	161.44
240.961	158.44
241.195	135.44
241.429	151.44
241.662	162.44
241.896	142.44
242.13	141.44
242.363	143.44
242.597	140.44
242.83	136.44
243.064	143.44
243.298	146.44
243.531	141.44
243.765	139.44
243.998	147.44
244.232	141.44
244.465	164.44
244.699	151.44
244.932	156.44
245.166	145.44
245.399	154.44
245.633	146.44
245.866	148.44
246.099	176.44
246.333	151.44
246.566	165.44
246.8	158.44
247.033	165.44
247.266	161.44
247.5	179.44
247.733	179.44
247.966	171.44
248.2	182.44
248.433	169.44
248.666	176.44
248.899	176.44
249.133	192.44
249.366	217.44
249.599	203.44
249.832	193.44
250.066	182.44
250.299	187.44
250.532	189.44
250.765	217.44
250.998	230.44
251.231	239.44
251.465	233.44
251.698	222.44
251.931	194.44
252.164	197.44
252.397	216.44
252.63	213.44
252.863	222.44
253.096	216.44
253.329	231.44
253.562	225.44
253.795	219.44
254.028	215.44
254.261	219.44
254.494	237.44
254.727	239.44
254.96	283.44
255.193	281.44
255.426	239.44
255.659	229.44
255.892	226.44
256.124	243.44
256.357	237.44
256.59	225.44
256.823	216.44
257.056	222.44
257.289	211.44
257.521	225.44
257.754	220.44
257.987	223.44
258.22	209.44
258.452	204.44
258.685	209.44
258.918	210.44
259.151	226.44
259.383	207.44
259.616	232.44
259.849	225.44
260.081	231.44
260.314	257.44
260.547	265.44
260.779	254.44
261.012	249.44
261.244	234.44
261.477	229.44
261.71	238.44
261.942	232.44
262.175	249.44
262.407	257.44
262.64	224.44
262.872	239.44
263.105	223.44
263.337	216.44
263.57	232.44
263.802	216.44
264.035	228.44
264.267	234.44
264.499	232.44
264.732	225.44
264.964	229.44
265.197	232.44
265.429	220.44
265.661	221.44
265.894	246.44
266.126	221.44
266.358	236.44
266.591	230.44
266.823	235.44
267.055	238.44
267.287	243.44
267.52	239.44
267.752	245.44
267.984	244.44
268.216	248.44
268.448	265.44
268.681	252.44
268.913	262.44
269.145	283.44
269.377	310.44
269.609	295.44
269.841	283.44
270.073	269.44
270.306	308.44
270.538	329.44
270.77	343.44
271.002	287.44
271.234	295.44
271.466	325.44
271.698	314.44
271.93	310.44
272.162	310.44
272.394	318.44
272.626	326.44
272.858	319.44
273.09	291.44
273.322	294.44
273.553	281.44
273.785	281.44
274.017	279.44
274.249	278.44
274.481	306.44
274.713	289.44
274.945	291.44
275.176	293.44
275.408	282.44
275.64	286.44
275.872	296.44
276.104	291.44
276.335	296.44
276.567	293.44
276.799	316.44
277.031	338.44
277.262	331.44
277.494	348.44
277.726	327.44
277.957	307.44
278.189	304.44
278.421	301.44
278.652	304.44
278.884	304.44
279.115	272.44
279.347	299.44
279.579	306.44
279.81	281.44
280.042	286.44
280.273	279.44
280.505	283.44
280.736	295.44
280.968	301.44
281.199	305.44
281.431	289.44
281.662	313.44
281.894	291.44
282.125	322.44
282.356	328.44
282.588	323.44
282.819	329.44
283.051	309.44
283.282	296.44
283.513	307.44
283.745	328.44
283.976	319.44
284.207	331.44
284.439	325.44
284.67	314.44
284.901	319.44
285.132	319.44
285.364	332.44
285.595	325.44
285.826	307.44
286.057	314.44
286.288	329.44
286.52	311.44
286.751	318.44
286.982	322.44
287.213	320.44
287.444	316.44
287.675	337.44
287.906	337.44
288.138	335.44
288.369	331.44
288.6	341.44
288.831	347.44
289.062	322.44
289.293	345.44
289.524	318.44
289.755	318.44
289.986	318.44
290.217	321.44
290.448	338.44
290.679	324.44
290.91	340.44
291.141	315.44
291.371	337.44
291.602	324.44
291.833	329.44
292.064	345.44
292.295	343.44
292.526	345.44
292.757	330.44
292.987	325.44
293.218	322.44
293.449	339.44
293.68	343.44
293.91	322.44
294.141	331.44
294.372	303.44
294.603	330.44
294.833	356.44
295.064	325.44
295.295	329.44
295.525	322.44
295.756	363.44
295.987	357.44
296.217	360.44
296.448	364.44
296.679	356.44
296.909	342.44
297.14	346.44
297.37	357.44
297.601	368.44
297.831	341.44
298.062	343.44
298.292	350.44
298.523	375.44
298.753	358.44
298.984	357.44
299.214	351.44
299.445	368.44
299.675	352.44
299.905	366.44
300.136	362.44
300.366	374.44
300.597	357.44
300.827	367.44
301.057	378.44
301.288	379.44
301.518	366.44
301.748	359.44
301.979	385.44
302.209	384.44
302.439	393.44
302.669	385.44
302.9	390.44
303.13	384.44
303.36	366.44
303.59	369.44
303.82	372.44
304.051	393.44
304.281	380.44
304.511	383.44
304.741	360.44
304.971	385.44
305.201	362.44
305.431	368.44
305.661	359.44
305.891	394.44
306.121	377.44
306.352	392.44
306.582	386.44
306.812	380.44
307.042	391.44
307.272	390.44
307.502	379.44
307.731	376.44
307.961	367.44
308.191	373.44
308.421	363.44
308.651	377.44
308.881	400.44
309.111	374.44
309.341	393.44
309.571	390.44
309.8	402.44
310.03	414.44
310.26	423.44
310.49	416.44
310.72	414.44
310.949	450.44
311.179	453.44
311.409	441.44
311.639	402.44
311.868	419.44
312.098	442.44
312.328	426.44
312.557	444.44
312.787	455.44
313.017	439.44
313.246	409.44
313.476	418.44
313.706	446.44
313.935	418.44
314.165	433.44
314.394	460.44
314.624	429.44
314.853	430.44
315.083	451.44
315.312	453.44
315.542	411.44
315.771	425.44
316.001	416.44
316.23	443.44
316.46	421.44
316.689	444.44
316.919	417.44
317.148	419.44
317.377	438.44
317.607	422.44
317.836	452.44
318.065	433.44
318.295	410.44
318.524	429.44
318.753	432.44
318.983	422.44
319.212	442.44
319.441	439.44
319.67	445.44
319.9	429.44
320.129	407.44
320.358	432.44
320.587	459.44
320.816	423.44
321.046	428.44
321.275	434.44
321.504	432.44
321.733	436.44
321.962	462.44
322.191	464.44
322.42	491.44
322.649	511.44
322.878	485.44
323.108	498.44
323.337	498.44
323.566	547.44
323.795	565.44
324.024	585.44
324.253	693.44
324.482	972.44
324.71	1488.44
324.939	2093.44
325.168	1741.44
325.397	920.44
325.626	647.44
325.855	579.44
326.084	544.44
326.313	522.44
326.542	527.44
326.77	577.44
326.999	671.44
327.228	892.44
327.457	1295.44
327.686	1536.44
327.914	1039.44
328.143	708.44
328.372	647.44
328.6	630.44
328.829	598.44
329.058	601.44
329.287	616.44
329.515	595.44
329.744	557.44
329.972	541.44
330.201	548.44
330.43	592.44
330.658	602.44
330.887	615.44
331.115	626.44
331.344	574.44
331.572	543.44
331.801	560.44
332.03	538.44
332.258	543.44
332.486	514.44
332.715	516.44
332.943	535.44
333.172	533.44
333.4	543.44
333.629	552.44
333.857	561.44
334.085	574.44
334.314	547.44
334.542	573.44
334.771	594.44
334.999	563.44
335.227	538.44
335.455	549.44
335.684	514.44
335.912	523.44
336.14	501.44
336.369	529.44
336.597	530.44
336.825	510.44
337.053	521.44
337.281	486.44
337.51	501.44
337.738	519.44
337.966	502.44
338.194	489.44
338.422	498.44
338.65	497.44
338.878	482.44
339.106	473.44
339.334	483.44
339.562	495.44
339.79	492.44
340.018	480.44
340.246	482.44
340.474	511.44
340.702	488.44
340.93	484.44
341.158	496.44
341.386	469.44
341.614	485.44
341.842	487.44
342.07	472.44
342.298	451.44
342.526	492.44
342.754	488.44
342.981	463.44
343.209	470.44
343.437	465.44
343.665	469.44
343.893	510.44
344.12	503.44
344.348	526.44
344.576	506.44
344.804	504.44
345.031	486.44
345.259	498.44
345.487	499.44
345.714	499.44
345.942	476.44
346.17	490.44
346.397	449.44
346.625	456.44
346.853	451.44
347.08	435.44
347.308	463.44
347.535	453.44
347.763	479.44
347.99	448.44
348.218	480.44
348.445	489.44
348.673	472.44
348.9	459.44
349.128	443.44
349.355	428.44
349.583	437.44
349.81	419.44
350.037	439.44
350.265	455.44
350.492	434.44
350.72	439.44
350.947	438.44
351.174	456.44
351.402	464.44
351.629	463.44
351.856	452.44
352.083	468.44
352.311	462.44
352.538	476.44
352.765	470.44
352.992	478.44
353.22	451.44
353.447	453.44
353.674	457.44
353.901	446.44
354.128	447.44
354.355	443.44
354.583	429.44
354.81	431.44
355.037	416.44
355.264	437.44
355.491	414.44
355.718	440.44
355.945	423.44
356.172	428.44
356.399	418.44
356.626	458.44
356.853	434.44
357.08	419.44
357.307	422.44
357.534	420.44
357.761	422.44
357.988	434.44
358.215	446.44
358.441	426.44
358.668	414.44
358.895	438.44
359.122	421.44
359.349	429.44
359.576	440.44
359.802	467.44
360.029	516.44
360.256	494.44
360.483	503.44
360.709	473.44
360.936	464.44
361.163	469.44
361.39	454.44
361.616	461.44
361.843	451.44
362.07	444.44
362.296	475.44
362.523	435.44
362.749	432.44
362.976	456.44
363.203	437.44
363.429	427.44
363.656	445.44
363.882	440.44
364.109	448.44
364.335	443.44
364.562	430.44
364.788	431.44
365.015	444.44
365.241	443.44
365.468	444.44
365.694	442.44
365.92	449.44
366.147	438.44
366.373	427.44
366.599	445.44
366.826	434.44
367.052	438.44
367.278	428.44
367.505	428.44
367.731	432.44
367.957	437.44
368.184	453.44
368.41	437.44
368.636	438.44
368.862	433.44
369.089	451.44
369.315	417.44
369.541	423.44
369.767	417.44
369.993	430.44
370.219	433.44
370.445	432.44
370.672	438.44
370.898	432.44
371.124	418.44
371.35	434.44
371.576	438.44
371.802	442.44
372.028	447.44
372.254	437.44
372.48	445.44
372.706	443.44
372.932	431.44
373.158	441.44
373.384	440.44
373.61	428.44
373.835	449.44
374.061	435.44
374.287	439.44
374.513	437.44
374.739	445.44
374.965	449.44
375.191	452.44
375.416	474.44
375.642	432.44
375.868	427.44
376.094	447.44
376.319	438.44
376.545	429.44
376.771	434.44
376.997	431.44
377.222	439.44
377.448	423.44
377.674	426.44
377.899	430.44
378.125	426.44
378.35	434.44
378.576	422.44
378.802	403.44
379.027	428.44
379.253	436.44
379.478	424.44
379.704	422.44
379.929	429.44
380.155	439.44
380.38	427.44
380.606	433.44
380.831	448.44
381.057	450.44
381.282	449.44
381.507	443.44
381.733	451.44
381.958	428.44
382.184	441.44
382.409	440.44
382.634	443.44
382.86	458.44
383.085	435.44
383.31	434.44
383.535	466.44
383.761	446.44
383.986	465.44
384.211	439.44
384.436	484.44
384.662	472.44
384.887	488.44
385.112	473.44
385.337	469.44
385.562	473.44
385.787	485.44
386.013	503.44
386.238	487.44
386.463	486.44
386.688	489.44
386.913	465.44
387.138	460.44
387.363	470.44
387.588	469.44
387.813	489.44
388.038	468.44
388.263	484.44
388.488	498.44
388.713	487.44
388.938	494.44
389.163	487.44
389.387	467.44
389.612	491.44
389.837	486.44
390.062	465.44
390.287	479.44
390.512	484.44
390.736	478.44
390.961	488.44
391.186	478.44
391.411	502.44
391.636	482.44
391.86	525.44
392.085	499.44
392.31	510.44
392.534	495.44
392.759	501.44
392.984	494.44
393.208	519.44
393.433	490.44
393.658	491.44
393.882	483.44
394.107	470.44
394.331	471.44
394.556	488.44
394.78	497.44
395.005	486.44
395.229	485.44
395.454	524.44
395.678	515.44
395.903	504.44
396.127	537.44
396.352	549.44
396.576	519.44
396.801	504.44
397.025	516.44
397.249	482.44
397.474	523.44
397.698	528.44
397.922	530.44
398.147	524.44
398.371	554.44
398.595	550.44
398.82	566.44
399.044	556.44
399.268	603.44
399.492	656.44
399.717	698.44
399.941	726.44
400.165	733.44
400.389	708.44
400.613	640.44
400.837	633.44
401.062	586.44
401.286	599.44
401.51	555.44
401.734	567.44
401.958	570.44
402.182	582.44
402.406	576.44
402.63	595.44
402.854	581.44
403.078	579.44
403.302	585.44
403.526	597.44
403.75	608.44
403.974	586.44
404.198	584.44
404.422	603.44
404.645	609.44
404.869	595.44
405.093	628.44
405.317	645.44
405.541	691.44
405.765	655.44
405.988	623.44
406.212	592.44
406.436	645.44
406.66	649.44
406.883	603.44
407.107	669.44
407.331	698.44
407.555	780.44
407.778	752.44
408.002	694.44
408.226	642.44
408.449	648.44
408.673	664.44
408.896	650.44
409.12	669.44
409.344	662.44
409.567	614.44
409.791	582.44
410.014	580.44
410.238	573.44
410.461	552.44
410.685	586.44
410.908	596.44
411.132	608.44
411.355	646.44
411.578	634.44
411.802	592.44
412.025	562.44
412.249	578.44
412.472	612.44
412.695	628.44
412.919	599.44
413.142	585.44
413.365	562.44
413.589	548.44
413.812	557.44
414.035	551.44
414.258	516.44
414.482	561.44
414.705	540.44
414.928	537.44
415.151	551.44
415.374	538.44
415.597	529.44
415.821	561.44
416.044	542.44
416.267	568.44
416.49	544.44
416.713	522.44
416.936	544.44
417.159	532.44
417.382	537.44
417.605	549.44
417.828	550.44
418.051	569.44
418.274	586.44
418.497	538.44
418.72	551.44
418.943	518.44
419.166	563.44
419.389	594.44
419.611	579.44
419.834	574.44
420.057	565.44
420.28	574.44
420.503	567.44
420.726	571.44
420.948	589.44
421.171	594.44
421.394	647.44
421.617	569.44
421.839	548.44
422.062	576.44
422.285	583.44
422.507	626.44
422.73	681.44
422.953	666.44
423.175	598.44
423.398	592.44
423.621	593.44
423.843	600.44
424.066	606.44
424.288	616.44
424.511	596.44
424.733	685.44
424.956	742.44
425.178	704.44
425.401	709.44
425.623	735.44
425.846	629.44
426.068	585.44
426.291	570.44
426.513	585.44
426.735	614.44
426.958	624.44
427.18	701.44
427.402	838.44
427.625	891.44
427.847	781.44
428.069	667.44
428.292	619.44
428.514	542.44
428.736	559.44
428.958	543.44
429.181	524.44
429.403	532.44
429.625	545.44
429.847	573.44
430.069	615.44
430.292	635.44
430.514	537.44
430.736	529.44
430.958	533.44
431.18	523.44
431.402	534.44
431.624	508.44
431.846	509.44
432.068	513.44
432.29	492.44
432.512	489.44
432.734	515.44
432.956	507.44
433.178	521.44
433.4	538.44
433.622	531.44
433.844	524.44
434.066	512.44
434.287	514.44
434.509	537.44
434.731	528.44
434.953	545.44
435.175	552.44
435.397	573.44
435.618	579.44
435.84	619.44
436.062	688.44
436.284	769.44
436.505	652.44
436.727	590.44
436.949	568.44
437.17	558.44
437.392	536.44
437.614	533.44
437.835	569.44
438.057	653.44
438.278	751.44
438.5	738.44
438.721	809.44
438.943	768.44
439.165	631.44
439.386	588.44
439.608	568.44
439.829	571.44
440.05	598.44
440.272	626.44
440.493	604.44
440.715	573.44
440.936	540.44
441.158	556.44
441.379	542.44
441.6	581.44
441.822	603.44
442.043	610.44
442.264	718.44
442.486	737.44
442.707	623.44
442.928	588.44
443.149	597.44
443.371	614.44
443.592	671.44
443.813	739.44
444.034	813.44
444.255	695.44
444.476	651.44
444.698	619.44
444.919	618.44
445.14	751.44
445.361	701.44
445.582	659.44
445.803	679.44
446.024	765.44
446.245	775.44
446.466	701.44
446.687	621.44
446.908	574.44
447.129	543.44
447.35	522.44
447.571	522.44
447.792	534.44
448.013	509.44
448.234	535.44
448.455	617.44
448.675	714.44
448.896	759.44
449.117	673.44
449.338	639.44
449.559	745.44
449.779	859.44
450	665.44
450.221	553.44
450.442	530.44
450.662	532.44
450.883	510.44
451.104	526.44
451.324	545.44
451.545	489.44
451.766	519.44
451.986	473.44
452.207	474.44
452.428	481.44
452.648	494.44
452.869	487.44
453.089	509.44
453.31	501.44
453.53	469.44
453.751	474.44
453.971	485.44
454.192	478.44
454.412	486.44
454.633	476.44
454.853	473.44
455.073	476.44
455.294	492.44
455.514	549.44
455.734	552.44
455.955	466.44
456.175	465.44
456.395	452.44
456.616	444.44
456.836	440.44
457.056	442.44
457.276	438.44
457.497	454.44
457.717	432.44
457.937	460.44
458.157	477.44
458.377	488.44
458.598	504.44
458.818	560.44
459.038	616.44
459.258	635.44
459.478	578.44
459.698	531.44
459.918	535.44
460.138	531.44
460.358	557.44
460.578	560.44
460.798	557.44
461.018	542.44
461.238	543.44
461.458	534.44
461.678	524.44
461.898	535.44
462.118	554.44
462.338	557.44
462.558	571.44
462.777	584.44
462.997	616.44
463.217	647.44
463.437	664.44
463.657	608.44
463.876	577.44
464.096	614.44
464.316	567.44
464.536	621.44
464.755	587.44
464.975	598.44
465.195	630.44
465.414	660.44
465.634	597.44
465.854	559.44
466.073	525.44
466.293	519.44
466.512	505.44
466.732	483.44
466.951	495.44
467.171	474.44
467.391	493.44
467.61	517.44
467.829	521.44
468.049	517.44
468.268	486.44
468.488	493.44
468.707	493.44
468.927	490.44
469.146	471.44
469.365	494.44
469.585	475.44
469.804	493.44
470.023	521.44
470.243	519.44
470.462	505.44
470.681	532.44
470.901	527.44
471.12	515.44
471.339	497.44
471.558	506.44
471.777	494.44
471.997	477.44
472.216	486.44
472.435	512.44
472.654	530.44
472.873	489.44
473.092	467.44
473.311	481.44
473.53	498.44
473.749	495.44
473.968	534.44
474.187	625.44
474.406	643.44
474.625	562.44
474.844	521.44
475.063	498.44
475.282	478.44
475.501	501.44
475.72	527.44
475.939	510.44
476.158	505.44
476.377	491.44
476.596	501.44
476.814	494.44
477.033	524.44
477.252	537.44
477.471	536.44
477.69	551.44
477.908	559.44
478.127	550.44
478.346	559.44
478.564	566.44
478.783	541.44
479.002	568.44
479.22	605.44
479.439	621.44
479.658	598.44
479.876	630.44
480.095	603.44
480.313	641.44
480.532	618.44
480.751	620.44
480.969	618.44
481.188	656.44
481.406	674.44
481.624	626.44
481.843	583.44
482.061	604.44
482.28	592.44
482.498	577.44
482.717	577.44
482.935	574.44
483.153	561.44
483.372	592.44
483.59	581.44
483.808	584.44
484.027	575.44
484.245	589.44
484.463	578.44
484.681	598.44
484.9	581.44
485.118	581.44
485.336	598.44
485.554	593.44
485.772	601.44
485.99	602.44
486.209	608.44
486.427	610.44
486.645	623.44
486.863	606.44
487.081	600.44
487.299	633.44
487.517	614.44
487.735	613.44
487.953	624.44
488.171	613.44
488.389	620.44
488.607	629.44
488.825	609.44
489.043	597.44
489.261	622.44
489.479	626.44
489.696	655.44
489.914	629.44
490.132	643.44
490.35	630.44
490.568	661.44
490.786	651.44
491.003	667.44
491.221	679.44
491.439	684.44
491.657	677.44
491.874	710.44
492.092	696.44
492.31	677.44
492.527	715.44
492.745	712.44
492.963	710.44
493.18	707.44
493.398	722.44
493.615	719.44
493.833	703.44
494.05	726.44
494.268	736.44
494.485	732.44
494.703	707.44
494.92	715.44
495.138	725.44
495.355	729.44
495.573	718.44
495.79	725.44
496.008	737.44
496.225	707.44
496.442	721.44
496.66	738.44
496.877	728.44
497.094	729.44
497.312	752.44
497.529	741.44
497.746	783.44
497.963	798.44
498.181	827.44
498.398	834.44
498.615	859.44
498.832	854.44
499.049	919.44
499.267	942.44
499.484	966.44
499.701	1042.44
499.918	1061.44
500.135	1145.44
500.352	1221.44
500.569	1230.44
500.786	1258.44
501.003	1201.44
501.22	1154.44
501.437	1084.44
501.654	1029.44
501.871	1002.44
