Data from 1985.PennyLincolnUp.Lamp.En5.5.200Scan.071819.P1_HRD10591_17-02-16-970.txt Node
Date: Thu Jul 18 17:02:16 EDT 2019
User: cochatt
Spectrometer: HR+D1059
Trigger mode: 1
Integration Time (sec): 1.000000E-1
Scans to average: 1
Electric dark correction enabled: true
Nonlinearity correction enabled: false
Boxcar width: 0
XAxis mode: Wavelengths
Number of Pixels in Spectrum: 2048
>>>>>Begin Spectral Data<<<<<
223.165	-7.38
223.4	-7.38
223.635	-7.38
223.869	-14.38
224.104	-25.38
224.338	-9.38
224.573	-10.38
224.808	-16.38
225.042	-10.38
225.277	-11.38
225.511	0.62
225.746	2.62
225.98	-8.38
226.215	9.62
226.449	22.62
226.683	23.62
226.918	25.62
227.152	28.62
227.387	26.62
227.621	33.62
227.856	34.62
228.09	41.62
228.324	46.62
228.559	49.62
228.793	76.62
229.027	74.62
229.262	95.62
229.496	119.62
229.73	141.62
229.964	144.62
230.199	125.62
230.433	99.62
230.667	112.62
230.901	107.62
231.136	89.62
231.37	98.62
231.604	120.62
231.838	107.62
232.072	110.62
232.306	104.62
232.541	122.62
232.775	107.62
233.009	136.62
233.243	107.62
233.477	120.62
233.711	121.62
233.945	111.62
234.179	113.62
234.413	122.62
234.647	125.62
234.881	113.62
235.115	129.62
235.349	122.62
235.583	132.62
235.817	134.62
236.051	141.62
236.285	142.62
236.519	129.62
236.753	141.62
236.987	131.62
237.221	166.62
237.455	220.62
237.689	181.62
237.922	123.62
238.156	146.62
238.39	144.62
238.624	122.62
238.858	115.62
239.091	116.62
239.325	120.62
239.559	134.62
239.793	113.62
240.027	125.62
240.26	137.62
240.494	154.62
240.728	148.62
240.961	141.62
241.195	133.62
241.429	121.62
241.662	130.62
241.896	124.62
242.13	131.62
242.363	122.62
242.597	142.62
242.83	132.62
243.064	149.62
243.298	127.62
243.531	157.62
243.765	145.62
243.998	145.62
244.232	144.62
244.465	132.62
244.699	126.62
244.932	145.62
245.166	137.62
245.399	137.62
245.633	165.62
245.866	147.62
246.099	134.62
246.333	130.62
246.566	150.62
246.8	155.62
247.033	151.62
247.266	163.62
247.5	138.62
247.733	157.62
247.966	161.62
248.2	170.62
248.433	162.62
248.666	139.62
248.899	185.62
249.133	200.62
249.366	200.62
249.599	194.62
249.832	170.62
250.066	174.62
250.299	177.62
250.532	189.62
250.765	193.62
250.998	212.62
251.231	198.62
251.465	203.62
251.698	189.62
251.931	187.62
252.164	190.62
252.397	183.62
252.63	195.62
252.863	212.62
253.096	216.62
253.329	222.62
253.562	207.62
253.795	205.62
254.028	203.62
254.261	228.62
254.494	211.62
254.727	251.62
254.96	263.62
255.193	251.62
255.426	231.62
255.659	216.62
255.892	220.62
256.124	217.62
256.357	215.62
256.59	191.62
256.823	205.62
257.056	209.62
257.289	201.62
257.521	187.62
257.754	198.62
257.987	198.62
258.22	194.62
258.452	193.62
258.685	208.62
258.918	216.62
259.151	219.62
259.383	210.62
259.616	215.62
259.849	206.62
260.081	229.62
260.314	250.62
260.547	267.62
260.779	242.62
261.012	240.62
261.244	223.62
261.477	228.62
261.71	235.62
261.942	217.62
262.175	232.62
262.407	242.62
262.64	213.62
262.872	211.62
263.105	211.62
263.337	209.62
263.57	234.62
263.802	213.62
264.035	227.62
264.267	201.62
264.499	227.62
264.732	219.62
264.964	227.62
265.197	219.62
265.429	228.62
265.661	228.62
265.894	231.62
266.126	225.62
266.358	230.62
266.591	221.62
266.823	217.62
267.055	242.62
267.287	233.62
267.52	214.62
267.752	219.62
267.984	238.62
268.216	234.62
268.448	240.62
268.681	230.62
268.913	246.62
269.145	279.62
269.377	281.62
269.609	274.62
269.841	250.62
270.073	281.62
270.306	288.62
270.538	317.62
270.77	321.62
271.002	324.62
271.234	284.62
271.466	294.62
271.698	319.62
271.93	299.62
272.162	301.62
272.394	299.62
272.626	316.62
272.858	301.62
273.09	269.62
273.322	280.62
273.553	274.62
273.785	277.62
274.017	246.62
274.249	276.62
274.481	273.62
274.713	262.62
274.945	265.62
275.176	277.62
275.408	259.62
275.64	269.62
275.872	282.62
276.104	269.62
276.335	269.62
276.567	291.62
276.799	287.62
277.031	306.62
277.262	294.62
277.494	318.62
277.726	327.62
277.957	299.62
278.189	287.62
278.421	284.62
278.652	280.62
278.884	284.62
279.115	283.62
279.347	263.62
279.579	281.62
279.81	281.62
280.042	293.62
280.273	297.62
280.505	270.62
280.736	285.62
280.968	276.62
281.199	275.62
281.431	289.62
281.662	285.62
281.894	282.62
282.125	288.62
282.356	295.62
282.588	313.62
282.819	331.62
283.051	296.62
283.282	302.62
283.513	307.62
283.745	299.62
283.976	281.62
284.207	310.62
284.439	303.62
284.67	284.62
284.901	297.62
285.132	318.62
285.364	275.62
285.595	293.62
285.826	302.62
286.057	301.62
286.288	302.62
286.52	293.62
286.751	308.62
286.982	305.62
287.213	316.62
287.444	317.62
287.675	314.62
287.906	305.62
288.138	317.62
288.369	332.62
288.6	331.62
288.831	329.62
289.062	326.62
289.293	317.62
289.524	325.62
289.755	312.62
289.986	322.62
290.217	302.62
290.448	315.62
290.679	307.62
290.91	312.62
291.141	302.62
291.371	324.62
291.602	324.62
291.833	320.62
292.064	322.62
292.295	302.62
292.526	314.62
292.757	301.62
292.987	323.62
293.218	314.62
293.449	300.62
293.68	333.62
293.91	314.62
294.141	303.62
294.372	316.62
294.603	310.62
294.833	305.62
295.064	328.62
295.295	331.62
295.525	309.62
295.756	286.62
295.987	317.62
296.217	343.62
296.448	330.62
296.679	343.62
296.909	330.62
297.14	327.62
297.37	330.62
297.601	320.62
297.831	332.62
298.062	331.62
298.292	348.62
298.523	323.62
298.753	334.62
298.984	333.62
299.214	334.62
299.445	334.62
299.675	331.62
299.905	339.62
300.136	341.62
300.366	349.62
300.597	342.62
300.827	378.62
301.057	332.62
301.288	365.62
301.518	349.62
301.748	376.62
301.979	371.62
302.209	374.62
302.439	348.62
302.669	357.62
302.9	377.62
303.13	348.62
303.36	348.62
303.59	358.62
303.82	377.62
304.051	379.62
304.281	371.62
304.511	369.62
304.741	361.62
304.971	369.62
305.201	353.62
305.431	364.62
305.661	343.62
305.891	349.62
306.121	367.62
306.352	370.62
306.582	385.62
306.812	354.62
307.042	352.62
307.272	355.62
307.502	370.62
307.731	378.62
307.961	359.62
308.191	363.62
308.421	358.62
308.651	362.62
308.881	368.62
309.111	375.62
309.341	368.62
309.571	379.62
309.8	385.62
310.03	381.62
310.26	380.62
310.49	387.62
310.72	405.62
310.949	427.62
311.179	434.62
311.409	407.62
311.639	387.62
311.868	390.62
312.098	400.62
312.328	397.62
312.557	394.62
312.787	454.62
313.017	419.62
313.246	413.62
313.476	390.62
313.706	405.62
313.935	426.62
314.165	411.62
314.394	415.62
314.624	449.62
314.853	405.62
315.083	411.62
315.312	412.62
315.542	405.62
315.771	405.62
316.001	393.62
316.23	389.62
316.46	394.62
316.689	416.62
316.919	409.62
317.148	418.62
317.377	418.62
317.607	418.62
317.836	403.62
318.065	389.62
318.295	410.62
318.524	405.62
318.753	398.62
318.983	434.62
319.212	395.62
319.441	409.62
319.67	427.62
319.9	421.62
320.129	393.62
320.358	411.62
320.587	418.62
320.816	396.62
321.046	440.62
321.275	428.62
321.504	429.62
321.733	445.62
321.962	427.62
322.191	427.62
322.42	456.62
322.649	452.62
322.878	476.62
323.108	471.62
323.337	499.62
323.566	518.62
323.795	532.62
324.024	587.62
324.253	661.62
324.482	913.62
324.71	1346.62
324.939	1925.62
325.168	1588.62
325.397	873.62
325.626	643.62
325.855	547.62
326.084	519.62
326.313	498.62
326.542	517.62
326.77	538.62
326.999	630.62
327.228	831.62
327.457	1222.62
327.686	1423.62
327.914	980.62
328.143	671.62
328.372	612.62
328.6	575.62
328.829	554.62
329.058	585.62
329.287	583.62
329.515	511.62
329.744	498.62
329.972	495.62
330.201	519.62
330.43	533.62
330.658	567.62
330.887	587.62
331.115	596.62
331.344	545.62
331.572	507.62
331.801	509.62
332.03	508.62
332.258	501.62
332.486	486.62
332.715	491.62
332.943	509.62
333.172	479.62
333.4	515.62
333.629	507.62
333.857	539.62
334.085	521.62
334.314	514.62
334.542	502.62
334.771	521.62
334.999	502.62
335.227	521.62
335.455	482.62
335.684	500.62
335.912	491.62
336.14	489.62
336.369	469.62
336.597	499.62
336.825	489.62
337.053	487.62
337.281	460.62
337.51	457.62
337.738	463.62
337.966	469.62
338.194	492.62
338.422	466.62
338.65	461.62
338.878	464.62
339.106	464.62
339.334	486.62
339.562	479.62
339.79	464.62
340.018	471.62
340.246	466.62
340.474	473.62
340.702	473.62
340.93	453.62
341.158	451.62
341.386	446.62
341.614	466.62
341.842	454.62
342.07	425.62
342.298	450.62
342.526	431.62
342.754	446.62
342.981	445.62
343.209	433.62
343.437	444.62
343.665	460.62
343.893	470.62
344.12	492.62
344.348	463.62
344.576	467.62
344.804	476.62
345.031	476.62
345.259	470.62
345.487	482.62
345.714	469.62
345.942	463.62
346.17	458.62
346.397	443.62
346.625	442.62
346.853	441.62
347.08	427.62
347.308	453.62
347.535	443.62
347.763	458.62
347.99	469.62
348.218	417.62
348.445	435.62
348.673	438.62
348.9	448.62
349.128	424.62
349.355	421.62
349.583	405.62
349.81	425.62
350.037	429.62
350.265	419.62
350.492	405.62
350.72	437.62
350.947	438.62
351.174	427.62
351.402	447.62
351.629	424.62
351.856	439.62
352.083	443.62
352.311	449.62
352.538	446.62
352.765	434.62
352.992	444.62
353.22	441.62
353.447	439.62
353.674	445.62
353.901	411.62
354.128	418.62
354.355	421.62
354.583	420.62
354.81	408.62
355.037	415.62
355.264	411.62
355.491	413.62
355.718	398.62
355.945	413.62
356.172	417.62
356.399	416.62
356.626	413.62
356.853	431.62
357.08	407.62
357.307	410.62
357.534	428.62
357.761	423.62
357.988	414.62
358.215	418.62
358.441	427.62
358.668	422.62
358.895	417.62
359.122	420.62
359.349	423.62
359.576	431.62
359.802	429.62
360.029	449.62
360.256	471.62
360.483	455.62
360.709	431.62
360.936	446.62
361.163	427.62
361.39	428.62
361.616	423.62
361.843	417.62
362.07	430.62
362.296	423.62
362.523	419.62
362.749	425.62
362.976	428.62
363.203	415.62
363.429	404.62
363.656	424.62
363.882	418.62
364.109	421.62
364.335	419.62
364.562	387.62
364.788	395.62
365.015	406.62
365.241	427.62
365.468	434.62
365.694	428.62
365.92	433.62
366.147	419.62
366.373	419.62
366.599	405.62
366.826	395.62
367.052	406.62
367.278	411.62
367.505	409.62
367.731	420.62
367.957	425.62
368.184	427.62
368.41	416.62
368.636	422.62
368.862	422.62
369.089	407.62
369.315	419.62
369.541	411.62
369.767	412.62
369.993	417.62
370.219	413.62
370.445	439.62
370.672	421.62
370.898	409.62
371.124	409.62
371.35	417.62
371.576	414.62
371.802	395.62
372.028	414.62
372.254	422.62
372.48	421.62
372.706	424.62
372.932	421.62
373.158	413.62
373.384	433.62
373.61	422.62
373.835	407.62
374.061	422.62
374.287	427.62
374.513	417.62
374.739	433.62
374.965	422.62
375.191	426.62
375.416	436.62
375.642	422.62
375.868	429.62
376.094	419.62
376.319	404.62
376.545	406.62
376.771	416.62
376.997	407.62
377.222	425.62
377.448	395.62
377.674	421.62
377.899	406.62
378.125	402.62
378.35	399.62
378.576	406.62
378.802	406.62
379.027	417.62
379.253	418.62
379.478	412.62
379.704	419.62
379.929	425.62
380.155	414.62
380.38	416.62
380.606	412.62
380.831	417.62
381.057	413.62
381.282	421.62
381.507	411.62
381.733	430.62
381.958	418.62
382.184	424.62
382.409	433.62
382.634	436.62
382.86	399.62
383.085	414.62
383.31	422.62
383.535	444.62
383.761	435.62
383.986	426.62
384.211	435.62
384.436	450.62
384.662	455.62
384.887	451.62
385.112	479.62
385.337	460.62
385.562	444.62
385.787	461.62
386.013	470.62
386.238	475.62
386.463	462.62
386.688	462.62
386.913	459.62
387.138	439.62
387.363	463.62
387.588	461.62
387.813	459.62
388.038	471.62
388.263	449.62
388.488	479.62
388.713	470.62
388.938	471.62
389.163	445.62
389.387	421.62
389.612	441.62
389.837	455.62
390.062	477.62
390.287	469.62
390.512	435.62
390.736	466.62
390.961	461.62
391.186	443.62
391.411	477.62
391.636	483.62
391.86	497.62
392.085	511.62
392.31	482.62
392.534	465.62
392.759	471.62
392.984	481.62
393.208	463.62
393.433	491.62
393.658	471.62
393.882	451.62
394.107	457.62
394.331	482.62
394.556	449.62
394.78	466.62
395.005	472.62
395.229	487.62
395.454	492.62
395.678	486.62
395.903	492.62
396.127	522.62
396.352	510.62
396.576	502.62
396.801	471.62
397.025	473.62
397.249	485.62
397.474	481.62
397.698	510.62
397.922	502.62
398.147	513.62
398.371	521.62
398.595	522.62
398.82	539.62
399.044	568.62
399.268	579.62
399.492	635.62
399.717	645.62
399.941	675.62
400.165	692.62
400.389	668.62
400.613	616.62
400.837	575.62
401.062	545.62
401.286	560.62
401.51	536.62
401.734	546.62
401.958	552.62
402.182	551.62
402.406	572.62
402.63	569.62
402.854	561.62
403.078	553.62
403.302	555.62
403.526	570.62
403.75	563.62
403.974	574.62
404.198	553.62
404.422	595.62
404.645	584.62
404.869	578.62
405.093	581.62
405.317	599.62
405.541	636.62
405.765	606.62
405.988	590.62
406.212	572.62
406.436	592.62
406.66	645.62
406.883	595.62
407.107	622.62
407.331	659.62
407.555	730.62
407.778	734.62
408.002	690.62
408.226	622.62
408.449	613.62
408.673	617.62
408.896	630.62
409.12	638.62
409.344	638.62
409.567	549.62
409.791	563.62
410.014	559.62
410.238	563.62
410.461	539.62
410.685	557.62
410.908	590.62
411.132	575.62
411.355	599.62
411.578	604.62
411.802	546.62
412.025	537.62
412.249	554.62
412.472	561.62
412.695	571.62
412.919	549.62
413.142	529.62
413.365	528.62
413.589	520.62
413.812	513.62
414.035	533.62
414.258	516.62
414.482	537.62
414.705	517.62
414.928	510.62
415.151	510.62
415.374	505.62
415.597	515.62
415.821	518.62
416.044	510.62
416.267	513.62
416.49	529.62
416.713	514.62
416.936	518.62
417.159	505.62
417.382	519.62
417.605	517.62
417.828	508.62
418.051	529.62
418.274	542.62
418.497	520.62
418.72	525.62
418.943	503.62
419.166	539.62
419.389	559.62
419.611	580.62
419.834	531.62
420.057	549.62
420.28	523.62
420.503	542.62
420.726	527.62
420.948	561.62
421.171	555.62
421.394	590.62
421.617	557.62
421.839	517.62
422.062	521.62
422.285	534.62
422.507	603.62
422.73	643.62
422.953	645.62
423.175	587.62
423.398	552.62
423.621	550.62
423.843	574.62
424.066	586.62
424.288	554.62
424.511	583.62
424.733	650.62
424.956	670.62
425.178	672.62
425.401	669.62
425.623	695.62
425.846	609.62
426.068	570.62
426.291	554.62
426.513	561.62
426.735	578.62
426.958	566.62
427.18	671.62
427.402	797.62
427.625	861.62
427.847	749.62
428.069	626.62
428.292	558.62
428.514	550.62
428.736	523.62
428.958	517.62
429.181	519.62
429.403	495.62
429.625	528.62
429.847	543.62
430.069	603.62
430.292	595.62
430.514	526.62
430.736	485.62
430.958	505.62
431.18	489.62
431.402	500.62
431.624	505.62
431.846	494.62
432.068	472.62
432.29	501.62
432.512	499.62
432.734	517.62
432.956	489.62
433.178	489.62
433.4	482.62
433.622	496.62
433.844	508.62
434.066	489.62
434.287	515.62
434.509	525.62
434.731	517.62
434.953	532.62
435.175	539.62
435.397	571.62
435.618	554.62
435.84	590.62
436.062	698.62
436.284	758.62
436.505	616.62
436.727	539.62
436.949	498.62
437.17	507.62
437.392	515.62
437.614	506.62
437.835	561.62
438.057	628.62
438.278	729.62
438.5	753.62
438.721	792.62
438.943	722.62
439.165	611.62
439.386	564.62
439.608	534.62
439.829	567.62
440.05	569.62
440.272	607.62
440.493	565.62
440.715	533.62
440.936	522.62
441.158	538.62
441.379	524.62
441.6	548.62
441.822	550.62
442.043	611.62
442.264	652.62
442.486	697.62
442.707	597.62
442.928	570.62
443.149	570.62
443.371	600.62
443.592	636.62
443.813	718.62
444.034	781.62
444.255	651.62
444.476	589.62
444.698	577.62
444.919	567.62
445.14	699.62
445.361	638.62
445.582	608.62
445.803	664.62
446.024	758.62
446.245	742.62
446.466	657.62
446.687	567.62
446.908	534.62
447.129	522.62
447.35	504.62
447.571	493.62
447.792	501.62
448.013	521.62
448.234	502.62
448.455	570.62
448.675	704.62
448.896	778.62
449.117	645.62
449.338	605.62
449.559	725.62
449.779	795.62
450	635.62
450.221	548.62
450.442	508.62
450.662	472.62
450.883	482.62
451.104	511.62
451.324	517.62
451.545	505.62
451.766	474.62
451.986	458.62
452.207	447.62
452.428	466.62
452.648	464.62
452.869	481.62
453.089	485.62
453.31	453.62
453.53	457.62
453.751	465.62
453.971	461.62
454.192	448.62
454.412	468.62
454.633	452.62
454.853	449.62
455.073	446.62
455.294	457.62
455.514	537.62
455.734	513.62
455.955	455.62
456.175	452.62
456.395	424.62
456.616	423.62
456.836	453.62
457.056	424.62
457.276	424.62
457.497	437.62
457.717	430.62
457.937	462.62
458.157	456.62
458.377	459.62
458.598	500.62
458.818	526.62
459.038	583.62
459.258	607.62
459.478	545.62
459.698	485.62
459.918	520.62
460.138	543.62
460.358	530.62
460.578	516.62
460.798	524.62
461.018	514.62
461.238	517.62
461.458	532.62
461.678	526.62
461.898	535.62
462.118	550.62
462.338	552.62
462.558	546.62
462.777	574.62
462.997	582.62
463.217	598.62
463.437	613.62
463.657	587.62
463.876	570.62
464.096	577.62
464.316	553.62
464.536	570.62
464.755	564.62
464.975	548.62
465.195	573.62
465.414	655.62
465.634	571.62
465.854	524.62
466.073	505.62
466.293	492.62
466.512	483.62
466.732	491.62
466.951	462.62
467.171	473.62
467.391	483.62
467.61	479.62
467.829	487.62
468.049	477.62
468.268	458.62
468.488	449.62
468.707	459.62
468.927	464.62
469.146	446.62
469.365	468.62
469.585	453.62
469.804	482.62
470.023	471.62
470.243	468.62
470.462	494.62
470.681	509.62
470.901	491.62
471.12	473.62
471.339	482.62
471.558	474.62
471.777	465.62
471.997	463.62
472.216	455.62
472.435	474.62
472.654	440.62
472.873	469.62
473.092	470.62
473.311	471.62
473.53	453.62
473.749	489.62
473.968	497.62
474.187	590.62
474.406	611.62
474.625	527.62
474.844	480.62
475.063	487.62
475.282	447.62
475.501	473.62
475.72	481.62
475.939	478.62
476.158	480.62
476.377	477.62
476.596	497.62
476.814	489.62
477.033	498.62
477.252	491.62
477.471	491.62
477.69	519.62
477.908	523.62
478.127	522.62
478.346	514.62
478.564	545.62
478.783	547.62
479.002	535.62
479.22	573.62
479.439	571.62
479.658	563.62
479.876	588.62
480.095	586.62
480.313	626.62
480.532	609.62
480.751	598.62
480.969	596.62
481.188	582.62
481.406	581.62
481.624	567.62
481.843	564.62
482.061	542.62
482.28	561.62
482.498	543.62
482.717	541.62
482.935	535.62
483.153	558.62
483.372	539.62
483.59	554.62
483.808	552.62
484.027	567.62
484.245	567.62
484.463	545.62
484.681	575.62
484.9	561.62
485.118	585.62
485.336	573.62
485.554	554.62
485.772	580.62
485.99	564.62
486.209	579.62
486.427	558.62
486.645	579.62
486.863	578.62
487.081	591.62
487.299	601.62
487.517	600.62
487.735	578.62
487.953	598.62
488.171	580.62
488.389	588.62
488.607	590.62
488.825	594.62
489.043	564.62
489.261	591.62
489.479	581.62
489.696	601.62
489.914	608.62
490.132	591.62
490.35	567.62
490.568	610.62
490.786	609.62
491.003	610.62
491.221	641.62
491.439	639.62
491.657	623.62
491.874	658.62
492.092	628.62
492.31	644.62
492.527	656.62
492.745	654.62
492.963	675.62
493.18	638.62
493.398	665.62
493.615	673.62
493.833	661.62
494.05	690.62
494.268	674.62
494.485	659.62
494.703	658.62
494.92	671.62
495.138	667.62
495.355	700.62
495.573	721.62
495.79	697.62
496.008	673.62
496.225	723.62
496.442	688.62
496.66	704.62
496.877	690.62
497.094	685.62
497.312	700.62
497.529	737.62
497.746	744.62
497.963	739.62
498.181	754.62
498.398	763.62
498.615	792.62
498.832	831.62
499.049	853.62
499.267	876.62
499.484	906.62
499.701	974.62
499.918	1039.62
500.135	1100.62
500.352	1156.62
500.569	1163.62
500.786	1165.62
501.003	1160.62
501.22	1110.62
501.437	1046.62
501.654	987.62
501.871	978.62
