Data from 1985.PennyLincolnUp.Lamp.En5.5.200Scan.071819.P1_HRD10591_17-03-23-971.txt Node
Date: Thu Jul 18 17:03:23 EDT 2019
User: cochatt
Spectrometer: HR+D1059
Trigger mode: 1
Integration Time (sec): 1.000000E-1
Scans to average: 1
Electric dark correction enabled: true
Nonlinearity correction enabled: false
Boxcar width: 0
XAxis mode: Wavelengths
Number of Pixels in Spectrum: 2048
>>>>>Begin Spectral Data<<<<<
223.165	-20.44
223.4	-20.44
223.635	-20.44
223.869	-15.44
224.104	-16.44
224.338	-17.44
224.573	-16.44
224.808	-23.44
225.042	-23.44
225.277	3.56
225.511	12.56
225.746	8.56
225.98	5.56
226.215	9.56
226.449	17.56
226.683	14.56
226.918	25.56
227.152	35.56
227.387	24.56
227.621	36.56
227.856	39.56
228.09	53.56
228.324	51.56
228.559	68.56
228.793	71.56
229.027	88.56
229.262	94.56
229.496	110.56
229.73	121.56
229.964	138.56
230.199	132.56
230.433	122.56
230.667	116.56
230.901	123.56
231.136	99.56
231.37	109.56
231.604	106.56
231.838	125.56
232.072	124.56
232.306	107.56
232.541	115.56
232.775	106.56
233.009	125.56
233.243	110.56
233.477	106.56
233.711	114.56
233.945	131.56
234.179	119.56
234.413	127.56
234.647	122.56
234.881	114.56
235.115	117.56
235.349	114.56
235.583	108.56
235.817	124.56
236.051	128.56
236.285	124.56
236.519	119.56
236.753	102.56
236.987	137.56
237.221	175.56
237.455	227.56
237.689	191.56
237.922	141.56
238.156	137.56
238.39	136.56
238.624	129.56
238.858	142.56
239.091	125.56
239.325	124.56
239.559	132.56
239.793	126.56
240.027	131.56
240.26	136.56
240.494	164.56
240.728	153.56
240.961	145.56
241.195	137.56
241.429	133.56
241.662	122.56
241.896	147.56
242.13	135.56
242.363	141.56
242.597	144.56
242.83	149.56
243.064	142.56
243.298	132.56
243.531	148.56
243.765	130.56
243.998	149.56
244.232	162.56
244.465	138.56
244.699	148.56
244.932	161.56
245.166	156.56
245.399	141.56
245.633	139.56
245.866	148.56
246.099	147.56
246.333	147.56
246.566	161.56
246.8	158.56
247.033	156.56
247.266	155.56
247.5	167.56
247.733	149.56
247.966	155.56
248.2	172.56
248.433	152.56
248.666	161.56
248.899	182.56
249.133	193.56
249.366	206.56
249.599	198.56
249.832	178.56
250.066	182.56
250.299	183.56
250.532	187.56
250.765	203.56
250.998	212.56
251.231	216.56
251.465	204.56
251.698	207.56
251.931	200.56
252.164	201.56
252.397	189.56
252.63	174.56
252.863	220.56
253.096	217.56
253.329	226.56
253.562	230.56
253.795	218.56
254.028	207.56
254.261	216.56
254.494	227.56
254.727	230.56
254.96	271.56
255.193	257.56
255.426	254.56
255.659	221.56
255.892	234.56
256.124	253.56
256.357	236.56
256.59	224.56
256.823	204.56
257.056	214.56
257.289	214.56
257.521	189.56
257.754	208.56
257.987	207.56
258.22	233.56
258.452	226.56
258.685	201.56
258.918	215.56
259.151	220.56
259.383	215.56
259.616	209.56
259.849	222.56
260.081	235.56
260.314	250.56
260.547	253.56
260.779	234.56
261.012	234.56
261.244	240.56
261.477	234.56
261.71	243.56
261.942	222.56
262.175	245.56
262.407	230.56
262.64	224.56
262.872	231.56
263.105	212.56
263.337	191.56
263.57	218.56
263.802	214.56
264.035	225.56
264.267	222.56
264.499	230.56
264.732	230.56
264.964	220.56
265.197	225.56
265.429	234.56
265.661	213.56
265.894	232.56
266.126	213.56
266.358	231.56
266.591	214.56
266.823	230.56
267.055	244.56
267.287	230.56
267.52	223.56
267.752	237.56
267.984	238.56
268.216	243.56
268.448	222.56
268.681	245.56
268.913	261.56
269.145	259.56
269.377	289.56
269.609	272.56
269.841	271.56
270.073	270.56
270.306	317.56
270.538	330.56
270.77	315.56
271.002	321.56
271.234	298.56
271.466	301.56
271.698	302.56
271.93	325.56
272.162	320.56
272.394	315.56
272.626	298.56
272.858	303.56
273.09	273.56
273.322	298.56
273.553	278.56
273.785	277.56
274.017	279.56
274.249	262.56
274.481	282.56
274.713	300.56
274.945	279.56
275.176	283.56
275.408	275.56
275.64	275.56
275.872	286.56
276.104	289.56
276.335	278.56
276.567	287.56
276.799	319.56
277.031	322.56
277.262	319.56
277.494	346.56
277.726	339.56
277.957	311.56
278.189	294.56
278.421	291.56
278.652	299.56
278.884	295.56
279.115	280.56
279.347	283.56
279.579	290.56
279.81	273.56
280.042	283.56
280.273	286.56
280.505	275.56
280.736	284.56
280.968	306.56
281.199	305.56
281.431	295.56
281.662	284.56
281.894	283.56
282.125	285.56
282.356	311.56
282.588	302.56
282.819	330.56
283.051	294.56
283.282	295.56
283.513	324.56
283.745	306.56
283.976	306.56
284.207	324.56
284.439	307.56
284.67	314.56
284.901	312.56
285.132	302.56
285.364	324.56
285.595	329.56
285.826	313.56
286.057	324.56
286.288	313.56
286.52	302.56
286.751	307.56
286.982	321.56
287.213	318.56
287.444	311.56
287.675	319.56
287.906	323.56
288.138	323.56
288.369	315.56
288.6	335.56
288.831	327.56
289.062	325.56
289.293	313.56
289.524	336.56
289.755	325.56
289.986	311.56
290.217	318.56
290.448	330.56
290.679	323.56
290.91	318.56
291.141	320.56
291.371	315.56
291.602	316.56
291.833	297.56
292.064	319.56
292.295	319.56
292.526	314.56
292.757	329.56
292.987	322.56
293.218	305.56
293.449	315.56
293.68	351.56
293.91	318.56
294.141	319.56
294.372	326.56
294.603	342.56
294.833	318.56
295.064	338.56
295.295	326.56
295.525	331.56
295.756	325.56
295.987	349.56
296.217	355.56
296.448	356.56
296.679	337.56
296.909	323.56
297.14	328.56
297.37	342.56
297.601	334.56
297.831	335.56
298.062	348.56
298.292	343.56
298.523	331.56
298.753	357.56
298.984	349.56
299.214	350.56
299.445	360.56
299.675	341.56
299.905	361.56
300.136	360.56
300.366	349.56
300.597	332.56
300.827	380.56
301.057	363.56
301.288	341.56
301.518	354.56
301.748	348.56
301.979	363.56
302.209	380.56
302.439	376.56
302.669	372.56
302.9	376.56
303.13	379.56
303.36	373.56
303.59	371.56
303.82	379.56
304.051	380.56
304.281	383.56
304.511	363.56
304.741	373.56
304.971	365.56
305.201	337.56
305.431	382.56
305.661	365.56
305.891	347.56
306.121	352.56
306.352	383.56
306.582	371.56
306.812	373.56
307.042	382.56
307.272	369.56
307.502	357.56
307.731	371.56
307.961	379.56
308.191	364.56
308.421	383.56
308.651	382.56
308.881	366.56
309.111	365.56
309.341	377.56
309.571	392.56
309.8	398.56
310.03	399.56
310.26	402.56
310.49	405.56
310.72	396.56
310.949	418.56
311.179	405.56
311.409	411.56
311.639	431.56
311.868	405.56
312.098	404.56
312.328	423.56
312.557	403.56
312.787	443.56
313.017	437.56
313.246	411.56
313.476	408.56
313.706	411.56
313.935	420.56
314.165	419.56
314.394	418.56
314.624	436.56
314.853	422.56
315.083	423.56
315.312	405.56
315.542	424.56
315.771	418.56
316.001	414.56
316.23	414.56
316.46	409.56
316.689	421.56
316.919	395.56
317.148	442.56
317.377	422.56
317.607	410.56
317.836	409.56
318.065	411.56
318.295	416.56
318.524	392.56
318.753	419.56
318.983	405.56
319.212	411.56
319.441	429.56
319.67	430.56
319.9	426.56
320.129	424.56
320.358	434.56
320.587	431.56
320.816	426.56
321.046	426.56
321.275	421.56
321.504	448.56
321.733	439.56
321.962	434.56
322.191	475.56
322.42	445.56
322.649	464.56
322.878	497.56
323.108	487.56
323.337	502.56
323.566	545.56
323.795	561.56
324.024	571.56
324.253	682.56
324.482	950.56
324.71	1417.56
324.939	2038.56
325.168	1736.56
325.397	930.56
325.626	665.56
325.855	563.56
326.084	515.56
326.313	546.56
326.542	531.56
326.77	589.56
326.999	639.56
327.228	862.56
327.457	1268.56
327.686	1541.56
327.914	1051.56
328.143	726.56
328.372	623.56
328.6	612.56
328.829	600.56
329.058	594.56
329.287	632.56
329.515	557.56
329.744	551.56
329.972	544.56
330.201	548.56
330.43	578.56
330.658	600.56
330.887	622.56
331.115	603.56
331.344	543.56
331.572	525.56
331.801	541.56
332.03	534.56
332.258	490.56
332.486	500.56
332.715	498.56
332.943	502.56
333.172	532.56
333.4	548.56
333.629	533.56
333.857	566.56
334.085	579.56
334.314	551.56
334.542	590.56
334.771	558.56
334.999	568.56
335.227	522.56
335.455	520.56
335.684	533.56
335.912	493.56
336.14	491.56
336.369	497.56
336.597	506.56
336.825	544.56
337.053	488.56
337.281	498.56
337.51	508.56
337.738	503.56
337.966	479.56
338.194	477.56
338.422	472.56
338.65	494.56
338.878	487.56
339.106	476.56
339.334	460.56
339.562	491.56
339.79	467.56
340.018	454.56
340.246	451.56
340.474	476.56
340.702	465.56
340.93	465.56
341.158	461.56
341.386	455.56
341.614	458.56
341.842	471.56
342.07	459.56
342.298	485.56
342.526	454.56
342.754	438.56
342.981	458.56
343.209	455.56
343.437	468.56
343.665	465.56
343.893	474.56
344.12	513.56
344.348	498.56
344.576	467.56
344.804	468.56
345.031	481.56
345.259	491.56
345.487	482.56
345.714	460.56
345.942	436.56
346.17	444.56
346.397	461.56
346.625	457.56
346.853	448.56
347.08	445.56
347.308	453.56
347.535	448.56
347.763	456.56
347.99	438.56
348.218	454.56
348.445	430.56
348.673	459.56
348.9	448.56
349.128	445.56
349.355	437.56
349.583	431.56
349.81	421.56
350.037	442.56
350.265	441.56
350.492	431.56
350.72	430.56
350.947	412.56
351.174	463.56
351.402	455.56
351.629	434.56
351.856	436.56
352.083	458.56
352.311	463.56
352.538	448.56
352.765	465.56
352.992	425.56
353.22	449.56
353.447	451.56
353.674	451.56
353.901	429.56
354.128	441.56
354.355	413.56
354.583	444.56
354.81	440.56
355.037	445.56
355.264	426.56
355.491	407.56
355.718	419.56
355.945	414.56
356.172	419.56
356.399	412.56
356.626	418.56
356.853	405.56
357.08	397.56
357.307	430.56
357.534	421.56
357.761	419.56
357.988	430.56
358.215	431.56
358.441	405.56
358.668	421.56
358.895	399.56
359.122	413.56
359.349	437.56
359.576	425.56
359.802	451.56
360.029	492.56
360.256	488.56
360.483	477.56
360.709	446.56
360.936	439.56
361.163	418.56
361.39	427.56
361.616	459.56
361.843	468.56
362.07	445.56
362.296	435.56
362.523	445.56
362.749	428.56
362.976	429.56
363.203	443.56
363.429	422.56
363.656	447.56
363.882	435.56
364.109	414.56
364.335	435.56
364.562	423.56
364.788	426.56
365.015	415.56
365.241	427.56
365.468	421.56
365.694	440.56
365.92	415.56
366.147	423.56
366.373	431.56
366.599	417.56
366.826	426.56
367.052	412.56
367.278	439.56
367.505	429.56
367.731	418.56
367.957	440.56
368.184	423.56
368.41	415.56
368.636	413.56
368.862	428.56
369.089	420.56
369.315	421.56
369.541	426.56
369.767	433.56
369.993	415.56
370.219	413.56
370.445	436.56
370.672	443.56
370.898	420.56
371.124	425.56
371.35	430.56
371.576	429.56
371.802	434.56
372.028	433.56
372.254	406.56
372.48	435.56
372.706	429.56
372.932	415.56
373.158	435.56
373.384	438.56
373.61	436.56
373.835	457.56
374.061	418.56
374.287	425.56
374.513	436.56
374.739	450.56
374.965	448.56
375.191	442.56
375.416	435.56
375.642	433.56
375.868	426.56
376.094	422.56
376.319	423.56
376.545	428.56
376.771	413.56
376.997	431.56
377.222	421.56
377.448	438.56
377.674	425.56
377.899	408.56
378.125	418.56
378.35	425.56
378.576	439.56
378.802	416.56
379.027	426.56
379.253	432.56
379.478	428.56
379.704	421.56
379.929	438.56
380.155	414.56
380.38	418.56
380.606	412.56
380.831	414.56
381.057	437.56
381.282	416.56
381.507	419.56
381.733	411.56
381.958	412.56
382.184	430.56
382.409	447.56
382.634	445.56
382.86	429.56
383.085	440.56
383.31	443.56
383.535	442.56
383.761	447.56
383.986	449.56
384.211	441.56
384.436	451.56
384.662	459.56
384.887	453.56
385.112	459.56
385.337	461.56
385.562	437.56
385.787	474.56
386.013	472.56
386.238	477.56
386.463	466.56
386.688	512.56
386.913	448.56
387.138	452.56
387.363	465.56
387.588	459.56
387.813	476.56
388.038	451.56
388.263	463.56
388.488	448.56
388.713	465.56
388.938	468.56
389.163	471.56
389.387	471.56
389.612	449.56
389.837	456.56
390.062	450.56
390.287	446.56
390.512	465.56
390.736	448.56
390.961	481.56
391.186	486.56
391.411	465.56
391.636	474.56
391.86	489.56
392.085	503.56
392.31	512.56
392.534	499.56
392.759	482.56
392.984	456.56
393.208	471.56
393.433	475.56
393.658	478.56
393.882	479.56
394.107	463.56
394.331	466.56
394.556	490.56
394.78	482.56
395.005	495.56
395.229	474.56
395.454	501.56
395.678	501.56
395.903	511.56
396.127	529.56
396.352	531.56
396.576	514.56
396.801	462.56
397.025	468.56
397.249	486.56
397.474	493.56
397.698	509.56
397.922	532.56
398.147	542.56
398.371	546.56
398.595	553.56
398.82	525.56
399.044	564.56
399.268	618.56
399.492	637.56
399.717	675.56
399.941	699.56
400.165	699.56
400.389	690.56
400.613	625.56
400.837	580.56
401.062	543.56
401.286	524.56
401.51	561.56
401.734	574.56
401.958	567.56
402.182	559.56
402.406	553.56
402.63	572.56
402.854	576.56
403.078	578.56
403.302	570.56
403.526	556.56
403.75	584.56
403.974	599.56
404.198	571.56
404.422	579.56
404.645	587.56
404.869	579.56
405.093	636.56
405.317	623.56
405.541	673.56
405.765	601.56
405.988	593.56
406.212	610.56
406.436	619.56
406.66	632.56
406.883	609.56
407.107	646.56
407.331	691.56
407.555	739.56
407.778	772.56
408.002	714.56
408.226	632.56
408.449	641.56
408.673	601.56
408.896	654.56
409.12	657.56
409.344	631.56
409.567	595.56
409.791	586.56
410.014	572.56
410.238	558.56
410.461	581.56
410.685	575.56
410.908	589.56
411.132	617.56
411.355	642.56
411.578	589.56
411.802	573.56
412.025	570.56
412.249	557.56
412.472	579.56
412.695	604.56
412.919	616.56
413.142	555.56
413.365	553.56
413.589	538.56
413.812	526.56
414.035	540.56
414.258	527.56
414.482	531.56
414.705	529.56
414.928	531.56
415.151	511.56
415.374	520.56
415.597	515.56
415.821	534.56
416.044	549.56
416.267	523.56
416.49	538.56
416.713	516.56
416.936	506.56
417.159	511.56
417.382	510.56
417.605	530.56
417.828	554.56
418.051	559.56
418.274	565.56
418.497	524.56
418.72	532.56
418.943	516.56
419.166	550.56
419.389	579.56
419.611	565.56
419.834	568.56
420.057	569.56
420.28	565.56
420.503	565.56
420.726	567.56
420.948	593.56
421.171	579.56
421.394	636.56
421.617	555.56
421.839	541.56
422.062	540.56
422.285	554.56
422.507	609.56
422.73	689.56
422.953	649.56
423.175	583.56
423.398	561.56
423.621	574.56
423.843	605.56
424.066	575.56
424.288	595.56
424.511	587.56
424.733	647.56
424.956	707.56
425.178	684.56
425.401	685.56
425.623	701.56
425.846	626.56
426.068	583.56
426.291	571.56
426.513	589.56
426.735	567.56
426.958	606.56
427.18	698.56
427.402	807.56
427.625	885.56
427.847	769.56
428.069	663.56
428.292	594.56
428.514	550.56
428.736	541.56
428.958	542.56
429.181	525.56
429.403	515.56
429.625	513.56
429.847	556.56
430.069	634.56
430.292	612.56
430.514	552.56
430.736	527.56
430.958	528.56
431.18	497.56
431.402	509.56
431.624	481.56
431.846	494.56
432.068	488.56
432.29	526.56
432.512	511.56
432.734	517.56
432.956	502.56
433.178	506.56
433.4	506.56
433.622	517.56
433.844	513.56
434.066	490.56
434.287	514.56
434.509	516.56
434.731	549.56
434.953	531.56
435.175	562.56
435.397	562.56
435.618	578.56
435.84	581.56
436.062	705.56
436.284	783.56
436.505	619.56
436.727	549.56
436.949	511.56
437.17	538.56
437.392	523.56
437.614	522.56
437.835	547.56
438.057	645.56
438.278	742.56
438.5	730.56
438.721	791.56
438.943	774.56
439.165	602.56
439.386	581.56
439.608	577.56
439.829	577.56
440.05	580.56
440.272	619.56
440.493	587.56
440.715	534.56
440.936	526.56
441.158	517.56
441.379	521.56
441.6	559.56
441.822	585.56
442.043	606.56
442.264	680.56
442.486	723.56
442.707	618.56
442.928	591.56
443.149	617.56
443.371	577.56
443.592	635.56
443.813	730.56
444.034	796.56
444.255	659.56
444.476	626.56
444.698	589.56
444.919	629.56
445.14	734.56
445.361	643.56
445.582	634.56
445.803	667.56
446.024	741.56
446.245	759.56
446.466	699.56
446.687	591.56
446.908	556.56
447.129	547.56
447.35	509.56
447.571	523.56
447.792	508.56
448.013	512.56
448.234	524.56
448.455	580.56
448.675	688.56
448.896	793.56
449.117	655.56
449.338	655.56
449.559	732.56
449.779	818.56
450	650.56
450.221	563.56
450.442	524.56
450.662	516.56
450.883	524.56
451.104	510.56
451.324	527.56
451.545	487.56
451.766	485.56
451.986	482.56
452.207	452.56
452.428	450.56
452.648	473.56
452.869	467.56
453.089	483.56
453.31	486.56
453.53	483.56
453.751	476.56
453.971	461.56
454.192	475.56
454.412	458.56
454.633	445.56
454.853	457.56
455.073	467.56
455.294	486.56
455.514	527.56
455.734	522.56
455.955	439.56
456.175	433.56
456.395	430.56
456.616	442.56
456.836	445.56
457.056	426.56
457.276	451.56
457.497	451.56
457.717	450.56
457.937	461.56
458.157	448.56
458.377	449.56
458.598	485.56
458.818	505.56
459.038	599.56
459.258	623.56
459.478	521.56
459.698	517.56
459.918	499.56
460.138	534.56
460.358	529.56
460.578	510.56
460.798	540.56
461.018	518.56
461.238	537.56
461.458	514.56
461.678	531.56
461.898	524.56
462.118	548.56
462.338	535.56
462.558	566.56
462.777	583.56
462.997	603.56
463.217	639.56
463.437	602.56
463.657	590.56
463.876	578.56
464.096	591.56
464.316	593.56
464.536	590.56
464.755	586.56
464.975	567.56
465.195	587.56
465.414	651.56
465.634	570.56
465.854	548.56
466.073	509.56
466.293	501.56
466.512	499.56
466.732	485.56
466.951	488.56
467.171	492.56
467.391	483.56
467.61	502.56
467.829	505.56
468.049	477.56
468.268	488.56
468.488	477.56
468.707	461.56
468.927	485.56
469.146	479.56
469.365	442.56
469.585	449.56
469.804	464.56
470.023	497.56
470.243	481.56
470.462	497.56
470.681	522.56
470.901	523.56
471.12	497.56
471.339	490.56
471.558	501.56
471.777	498.56
471.997	481.56
472.216	485.56
472.435	493.56
472.654	520.56
472.873	489.56
473.092	468.56
473.311	492.56
473.53	478.56
473.749	467.56
473.968	541.56
474.187	619.56
474.406	629.56
474.625	541.56
474.844	486.56
475.063	493.56
475.282	483.56
475.501	490.56
475.72	492.56
475.939	495.56
476.158	492.56
476.377	487.56
476.596	490.56
476.814	521.56
477.033	507.56
477.252	515.56
477.471	522.56
477.69	528.56
477.908	522.56
478.127	526.56
478.346	568.56
478.564	569.56
478.783	556.56
479.002	550.56
479.22	572.56
479.439	571.56
479.658	604.56
479.876	580.56
480.095	609.56
480.313	630.56
480.532	620.56
480.751	633.56
480.969	614.56
481.188	647.56
481.406	665.56
481.624	604.56
481.843	584.56
482.061	569.56
482.28	588.56
482.498	575.56
482.717	570.56
482.935	558.56
483.153	564.56
483.372	550.56
483.59	551.56
483.808	574.56
484.027	561.56
484.245	561.56
484.463	536.56
484.681	574.56
484.9	580.56
485.118	570.56
485.336	535.56
485.554	581.56
485.772	571.56
485.99	571.56
486.209	588.56
486.427	607.56
486.645	591.56
486.863	600.56
487.081	626.56
487.299	609.56
487.517	589.56
487.735	574.56
487.953	625.56
488.171	587.56
488.389	595.56
488.607	617.56
488.825	608.56
489.043	606.56
489.261	586.56
489.479	613.56
489.696	611.56
489.914	606.56
490.132	636.56
490.35	626.56
490.568	645.56
490.786	626.56
491.003	659.56
491.221	629.56
491.439	656.56
491.657	663.56
491.874	691.56
492.092	686.56
492.31	679.56
492.527	685.56
492.745	683.56
492.963	692.56
493.18	706.56
493.398	706.56
493.615	682.56
493.833	712.56
494.05	697.56
494.268	707.56
494.485	706.56
494.703	707.56
494.92	708.56
495.138	728.56
495.355	678.56
495.573	702.56
495.79	707.56
496.008	724.56
496.225	695.56
496.442	723.56
496.66	700.56
496.877	719.56
497.094	702.56
497.312	721.56
497.529	730.56
497.746	771.56
497.963	762.56
498.181	793.56
498.398	801.56
498.615	830.56
498.832	843.56
499.049	871.56
499.267	911.56
499.484	953.56
499.701	965.56
499.918	1028.56
500.135	1100.56
500.352	1183.56
500.569	1233.56
500.786	1235.56
501.003	1188.56
501.22	1119.56
501.437	1066.56
501.654	1039.56
501.871	976.56
