Data from 1985.PennyLincolnUp.Lamp.En5.5.200Scan.071819.P1_HRD10591_17-03-21-971.txt Node
Date: Thu Jul 18 17:03:21 EDT 2019
User: cochatt
Spectrometer: HR+D1059
Trigger mode: 1
Integration Time (sec): 1.000000E-1
Scans to average: 1
Electric dark correction enabled: true
Nonlinearity correction enabled: false
Boxcar width: 0
XAxis mode: Wavelengths
Number of Pixels in Spectrum: 2048
>>>>>Begin Spectral Data<<<<<
223.165	-11.44
223.4	-11.44
223.635	-11.44
223.869	-7.44
224.104	-10.44
224.338	-22.44
224.573	-23.44
224.808	-11.44
225.042	-8.44
225.277	-18.44
225.511	-3.44
225.746	6.56
225.98	0.56
226.215	9.56
226.449	14.56
226.683	22.56
226.918	27.56
227.152	35.56
227.387	36.56
227.621	32.56
227.856	29.56
228.09	52.56
228.324	50.56
228.559	57.56
228.793	69.56
229.027	105.56
229.262	103.56
229.496	102.56
229.73	121.56
229.964	151.56
230.199	128.56
230.433	123.56
230.667	112.56
230.901	109.56
231.136	116.56
231.37	106.56
231.604	125.56
231.838	120.56
232.072	111.56
232.306	118.56
232.541	128.56
232.775	116.56
233.009	117.56
233.243	125.56
233.477	119.56
233.711	120.56
233.945	106.56
234.179	128.56
234.413	119.56
234.647	112.56
234.881	128.56
235.115	108.56
235.349	118.56
235.583	108.56
235.817	133.56
236.051	127.56
236.285	129.56
236.519	128.56
236.753	136.56
236.987	158.56
237.221	186.56
237.455	215.56
237.689	183.56
237.922	149.56
238.156	138.56
238.39	135.56
238.624	132.56
238.858	123.56
239.091	113.56
239.325	127.56
239.559	130.56
239.793	132.56
240.027	162.56
240.26	142.56
240.494	146.56
240.728	149.56
240.961	150.56
241.195	147.56
241.429	146.56
241.662	149.56
241.896	128.56
242.13	129.56
242.363	122.56
242.597	138.56
242.83	151.56
243.064	144.56
243.298	146.56
243.531	146.56
243.765	151.56
243.998	163.56
244.232	144.56
244.465	141.56
244.699	158.56
244.932	146.56
245.166	151.56
245.399	148.56
245.633	165.56
245.866	145.56
246.099	151.56
246.333	132.56
246.566	153.56
246.8	156.56
247.033	145.56
247.266	155.56
247.5	169.56
247.733	163.56
247.966	175.56
248.2	184.56
248.433	180.56
248.666	184.56
248.899	204.56
249.133	200.56
249.366	202.56
249.599	193.56
249.832	171.56
250.066	180.56
250.299	189.56
250.532	207.56
250.765	205.56
250.998	218.56
251.231	217.56
251.465	223.56
251.698	222.56
251.931	185.56
252.164	184.56
252.397	191.56
252.63	189.56
252.863	215.56
253.096	213.56
253.329	216.56
253.562	223.56
253.795	226.56
254.028	221.56
254.261	199.56
254.494	222.56
254.727	265.56
254.96	268.56
255.193	272.56
255.426	231.56
255.659	214.56
255.892	232.56
256.124	246.56
256.357	239.56
256.59	236.56
256.823	209.56
257.056	210.56
257.289	216.56
257.521	221.56
257.754	210.56
257.987	214.56
258.22	222.56
258.452	211.56
258.685	209.56
258.918	222.56
259.151	217.56
259.383	218.56
259.616	199.56
259.849	226.56
260.081	224.56
260.314	269.56
260.547	239.56
260.779	244.56
261.012	228.56
261.244	228.56
261.477	236.56
261.71	221.56
261.942	220.56
262.175	237.56
262.407	230.56
262.64	225.56
262.872	224.56
263.105	221.56
263.337	236.56
263.57	218.56
263.802	231.56
264.035	212.56
264.267	230.56
264.499	224.56
264.732	226.56
264.964	214.56
265.197	222.56
265.429	228.56
265.661	239.56
265.894	241.56
266.126	233.56
266.358	234.56
266.591	247.56
266.823	228.56
267.055	239.56
267.287	238.56
267.52	223.56
267.752	242.56
267.984	232.56
268.216	239.56
268.448	257.56
268.681	250.56
268.913	263.56
269.145	284.56
269.377	294.56
269.609	278.56
269.841	278.56
270.073	288.56
270.306	310.56
270.538	331.56
270.77	325.56
271.002	321.56
271.234	298.56
271.466	312.56
271.698	326.56
271.93	324.56
272.162	321.56
272.394	330.56
272.626	313.56
272.858	316.56
273.09	282.56
273.322	290.56
273.553	270.56
273.785	289.56
274.017	279.56
274.249	297.56
274.481	273.56
274.713	274.56
274.945	272.56
275.176	305.56
275.408	282.56
275.64	288.56
275.872	286.56
276.104	280.56
276.335	285.56
276.567	281.56
276.799	301.56
277.031	326.56
277.262	330.56
277.494	314.56
277.726	325.56
277.957	321.56
278.189	298.56
278.421	300.56
278.652	297.56
278.884	303.56
279.115	298.56
279.347	297.56
279.579	297.56
279.81	284.56
280.042	294.56
280.273	300.56
280.505	278.56
280.736	293.56
280.968	289.56
281.199	284.56
281.431	290.56
281.662	297.56
281.894	300.56
282.125	310.56
282.356	326.56
282.588	318.56
282.819	315.56
283.051	301.56
283.282	308.56
283.513	314.56
283.745	308.56
283.976	316.56
284.207	318.56
284.439	309.56
284.67	320.56
284.901	316.56
285.132	310.56
285.364	305.56
285.595	313.56
285.826	299.56
286.057	310.56
286.288	298.56
286.52	292.56
286.751	299.56
286.982	306.56
287.213	301.56
287.444	328.56
287.675	320.56
287.906	327.56
288.138	331.56
288.369	328.56
288.6	332.56
288.831	316.56
289.062	344.56
289.293	332.56
289.524	315.56
289.755	333.56
289.986	321.56
290.217	314.56
290.448	303.56
290.679	325.56
290.91	326.56
291.141	322.56
291.371	324.56
291.602	309.56
291.833	324.56
292.064	319.56
292.295	321.56
292.526	309.56
292.757	318.56
292.987	316.56
293.218	327.56
293.449	324.56
293.68	336.56
293.91	334.56
294.141	318.56
294.372	331.56
294.603	324.56
294.833	338.56
295.064	330.56
295.295	322.56
295.525	326.56
295.756	344.56
295.987	344.56
296.217	374.56
296.448	372.56
296.679	324.56
296.909	338.56
297.14	335.56
297.37	334.56
297.601	336.56
297.831	344.56
298.062	354.56
298.292	338.56
298.523	350.56
298.753	340.56
298.984	351.56
299.214	337.56
299.445	335.56
299.675	339.56
299.905	350.56
300.136	334.56
300.366	341.56
300.597	352.56
300.827	371.56
301.057	378.56
301.288	380.56
301.518	384.56
301.748	366.56
301.979	384.56
302.209	390.56
302.439	372.56
302.669	361.56
302.9	361.56
303.13	376.56
303.36	383.56
303.59	368.56
303.82	384.56
304.051	386.56
304.281	377.56
304.511	342.56
304.741	370.56
304.971	362.56
305.201	362.56
305.431	363.56
305.661	376.56
305.891	362.56
306.121	378.56
306.352	386.56
306.582	372.56
306.812	381.56
307.042	362.56
307.272	380.56
307.502	380.56
307.731	371.56
307.961	369.56
308.191	378.56
308.421	376.56
308.651	401.56
308.881	377.56
309.111	411.56
309.341	396.56
309.571	405.56
309.8	399.56
310.03	411.56
310.26	413.56
310.49	407.56
310.72	416.56
310.949	429.56
311.179	420.56
311.409	406.56
311.639	402.56
311.868	418.56
312.098	415.56
312.328	417.56
312.557	448.56
312.787	449.56
313.017	449.56
313.246	436.56
313.476	415.56
313.706	410.56
313.935	421.56
314.165	441.56
314.394	449.56
314.624	450.56
314.853	445.56
315.083	400.56
315.312	435.56
315.542	431.56
315.771	418.56
316.001	424.56
316.23	405.56
316.46	409.56
316.689	412.56
316.919	422.56
317.148	433.56
317.377	434.56
317.607	413.56
317.836	421.56
318.065	422.56
318.295	423.56
318.524	426.56
318.753	434.56
318.983	429.56
319.212	424.56
319.441	428.56
319.67	423.56
319.9	430.56
320.129	442.56
320.358	442.56
320.587	450.56
320.816	432.56
321.046	443.56
321.275	433.56
321.504	441.56
321.733	452.56
321.962	453.56
322.191	456.56
322.42	465.56
322.649	465.56
322.878	496.56
323.108	477.56
323.337	520.56
323.566	543.56
323.795	573.56
324.024	589.56
324.253	706.56
324.482	956.56
324.71	1440.56
324.939	2072.56
325.168	1761.56
325.397	930.56
325.626	649.56
325.855	570.56
326.084	531.56
326.313	521.56
326.542	514.56
326.77	572.56
326.999	679.56
327.228	879.56
327.457	1292.56
327.686	1586.56
327.914	1030.56
328.143	722.56
328.372	641.56
328.6	618.56
328.829	584.56
329.058	583.56
329.287	612.56
329.515	581.56
329.744	557.56
329.972	554.56
330.201	544.56
330.43	572.56
330.658	609.56
330.887	624.56
331.115	619.56
331.344	537.56
331.572	530.56
331.801	539.56
332.03	533.56
332.258	521.56
332.486	512.56
332.715	517.56
332.943	488.56
333.172	522.56
333.4	524.56
333.629	561.56
333.857	558.56
334.085	566.56
334.314	576.56
334.542	592.56
334.771	565.56
334.999	538.56
335.227	542.56
335.455	529.56
335.684	493.56
335.912	512.56
336.14	498.56
336.369	510.56
336.597	519.56
336.825	497.56
337.053	481.56
337.281	503.56
337.51	475.56
337.738	497.56
337.966	495.56
338.194	483.56
338.422	509.56
338.65	478.56
338.878	493.56
339.106	484.56
339.334	488.56
339.562	476.56
339.79	488.56
340.018	479.56
340.246	471.56
340.474	473.56
340.702	477.56
340.93	496.56
341.158	465.56
341.386	475.56
341.614	483.56
341.842	471.56
342.07	483.56
342.298	445.56
342.526	456.56
342.754	443.56
342.981	446.56
343.209	481.56
343.437	454.56
343.665	496.56
343.893	496.56
344.12	517.56
344.348	532.56
344.576	494.56
344.804	500.56
345.031	489.56
345.259	512.56
345.487	485.56
345.714	467.56
345.942	463.56
346.17	447.56
346.397	456.56
346.625	455.56
346.853	463.56
347.08	444.56
347.308	463.56
347.535	465.56
347.763	481.56
347.99	469.56
348.218	463.56
348.445	469.56
348.673	451.56
348.9	471.56
349.128	437.56
349.355	422.56
349.583	445.56
349.81	431.56
350.037	423.56
350.265	450.56
350.492	454.56
350.72	456.56
350.947	439.56
351.174	465.56
351.402	465.56
351.629	431.56
351.856	426.56
352.083	449.56
352.311	461.56
352.538	468.56
352.765	466.56
352.992	468.56
353.22	454.56
353.447	443.56
353.674	455.56
353.901	434.56
354.128	433.56
354.355	422.56
354.583	427.56
354.81	438.56
355.037	438.56
355.264	427.56
355.491	430.56
355.718	413.56
355.945	416.56
356.172	412.56
356.399	417.56
356.626	415.56
356.853	411.56
357.08	412.56
357.307	406.56
357.534	432.56
357.761	437.56
357.988	430.56
358.215	420.56
358.441	439.56
358.668	417.56
358.895	441.56
359.122	448.56
359.349	450.56
359.576	453.56
359.802	472.56
360.029	470.56
360.256	491.56
360.483	480.56
360.709	432.56
360.936	440.56
361.163	447.56
361.39	445.56
361.616	432.56
361.843	440.56
362.07	466.56
362.296	459.56
362.523	443.56
362.749	443.56
362.976	451.56
363.203	435.56
363.429	431.56
363.656	434.56
363.882	426.56
364.109	426.56
364.335	432.56
364.562	457.56
364.788	429.56
365.015	452.56
365.241	435.56
365.468	445.56
365.694	442.56
365.92	422.56
366.147	444.56
366.373	446.56
366.599	415.56
366.826	416.56
367.052	423.56
367.278	416.56
367.505	424.56
367.731	418.56
367.957	432.56
368.184	423.56
368.41	428.56
368.636	452.56
368.862	452.56
369.089	442.56
369.315	444.56
369.541	454.56
369.767	418.56
369.993	442.56
370.219	426.56
370.445	438.56
370.672	422.56
370.898	411.56
371.124	429.56
371.35	429.56
371.576	444.56
371.802	412.56
372.028	424.56
372.254	424.56
372.48	425.56
372.706	428.56
372.932	428.56
373.158	431.56
373.384	457.56
373.61	428.56
373.835	427.56
374.061	421.56
374.287	433.56
374.513	442.56
374.739	452.56
374.965	454.56
375.191	450.56
375.416	445.56
375.642	434.56
375.868	443.56
376.094	438.56
376.319	422.56
376.545	430.56
376.771	432.56
376.997	422.56
377.222	432.56
377.448	438.56
377.674	424.56
377.899	420.56
378.125	407.56
378.35	430.56
378.576	406.56
378.802	411.56
379.027	412.56
379.253	405.56
379.478	432.56
379.704	421.56
379.929	416.56
380.155	417.56
380.38	437.56
380.606	433.56
380.831	428.56
381.057	414.56
381.282	432.56
381.507	414.56
381.733	416.56
381.958	432.56
382.184	436.56
382.409	440.56
382.634	438.56
382.86	439.56
383.085	457.56
383.31	451.56
383.535	444.56
383.761	463.56
383.986	440.56
384.211	464.56
384.436	474.56
384.662	480.56
384.887	473.56
385.112	461.56
385.337	470.56
385.562	441.56
385.787	475.56
386.013	486.56
386.238	498.56
386.463	469.56
386.688	476.56
386.913	444.56
387.138	484.56
387.363	502.56
387.588	473.56
387.813	477.56
388.038	457.56
388.263	464.56
388.488	463.56
388.713	458.56
388.938	449.56
389.163	472.56
389.387	461.56
389.612	466.56
389.837	469.56
390.062	465.56
390.287	470.56
390.512	467.56
390.736	475.56
390.961	485.56
391.186	468.56
391.411	468.56
391.636	484.56
391.86	485.56
392.085	504.56
392.31	482.56
392.534	475.56
392.759	470.56
392.984	488.56
393.208	484.56
393.433	477.56
393.658	475.56
393.882	490.56
394.107	481.56
394.331	498.56
394.556	472.56
394.78	477.56
395.005	495.56
395.229	495.56
395.454	503.56
395.678	489.56
395.903	516.56
396.127	519.56
396.352	516.56
396.576	490.56
396.801	497.56
397.025	509.56
397.249	524.56
397.474	518.56
397.698	526.56
397.922	501.56
398.147	543.56
398.371	551.56
398.595	542.56
398.82	556.56
399.044	589.56
399.268	596.56
399.492	649.56
399.717	694.56
399.941	720.56
400.165	720.56
400.389	700.56
400.613	631.56
400.837	588.56
401.062	573.56
401.286	584.56
401.51	524.56
401.734	559.56
401.958	565.56
402.182	580.56
402.406	559.56
402.63	568.56
402.854	565.56
403.078	566.56
403.302	579.56
403.526	585.56
403.75	577.56
403.974	567.56
404.198	581.56
404.422	594.56
404.645	600.56
404.869	584.56
405.093	617.56
405.317	637.56
405.541	668.56
405.765	622.56
405.988	600.56
406.212	614.56
406.436	644.56
406.66	652.56
406.883	631.56
407.107	658.56
407.331	674.56
407.555	780.56
407.778	748.56
408.002	689.56
408.226	642.56
408.449	633.56
408.673	619.56
408.896	654.56
409.12	684.56
409.344	660.56
409.567	608.56
409.791	593.56
410.014	575.56
410.238	571.56
410.461	571.56
410.685	580.56
410.908	568.56
411.132	607.56
411.355	640.56
411.578	608.56
411.802	554.56
412.025	554.56
412.249	565.56
412.472	584.56
412.695	624.56
412.919	603.56
413.142	576.56
413.365	548.56
413.589	559.56
413.812	516.56
414.035	525.56
414.258	548.56
414.482	525.56
414.705	519.56
414.928	519.56
415.151	519.56
415.374	550.56
415.597	550.56
415.821	530.56
416.044	544.56
416.267	548.56
416.49	526.56
416.713	542.56
416.936	536.56
417.159	513.56
417.382	529.56
417.605	545.56
417.828	538.56
418.051	552.56
418.274	537.56
418.497	524.56
418.72	536.56
418.943	552.56
419.166	536.56
419.389	590.56
419.611	568.56
419.834	572.56
420.057	538.56
420.28	573.56
420.503	541.56
420.726	554.56
420.948	579.56
421.171	603.56
421.394	626.56
421.617	584.56
421.839	560.56
422.062	549.56
422.285	576.56
422.507	621.56
422.73	677.56
422.953	641.56
423.175	592.56
423.398	594.56
423.621	583.56
423.843	579.56
424.066	587.56
424.288	616.56
424.511	601.56
424.733	652.56
424.956	744.56
425.178	694.56
425.401	697.56
425.623	721.56
425.846	610.56
426.068	588.56
426.291	570.56
426.513	568.56
426.735	574.56
426.958	600.56
427.18	704.56
427.402	807.56
427.625	884.56
427.847	760.56
428.069	690.56
428.292	617.56
428.514	559.56
428.736	544.56
428.958	527.56
429.181	521.56
429.403	536.56
429.625	502.56
429.847	571.56
430.069	624.56
430.292	612.56
430.514	526.56
430.736	506.56
430.958	505.56
431.18	496.56
431.402	496.56
431.624	506.56
431.846	521.56
432.068	511.56
432.29	518.56
432.512	502.56
432.734	548.56
432.956	504.56
433.178	518.56
433.4	505.56
433.622	506.56
433.844	513.56
434.066	525.56
434.287	486.56
434.509	508.56
434.731	547.56
434.953	534.56
435.175	560.56
435.397	599.56
435.618	565.56
435.84	620.56
436.062	682.56
436.284	761.56
436.505	621.56
436.727	566.56
436.949	560.56
437.17	535.56
437.392	517.56
437.614	549.56
437.835	551.56
438.057	649.56
438.278	774.56
438.5	749.56
438.721	785.56
438.943	784.56
439.165	633.56
439.386	584.56
439.608	580.56
439.829	594.56
440.05	588.56
440.272	639.56
440.493	600.56
440.715	554.56
440.936	550.56
441.158	531.56
441.379	502.56
441.6	566.56
441.822	570.56
442.043	605.56
442.264	676.56
442.486	730.56
442.707	641.56
442.928	600.56
443.149	596.56
443.371	624.56
443.592	681.56
443.813	754.56
444.034	798.56
444.255	676.56
444.476	605.56
444.698	572.56
444.919	608.56
445.14	717.56
445.361	670.56
445.582	628.56
445.803	666.56
446.024	758.56
446.245	760.56
446.466	707.56
446.687	598.56
446.908	555.56
447.129	551.56
447.35	534.56
447.571	538.56
447.792	534.56
448.013	508.56
448.234	544.56
448.455	591.56
448.675	688.56
448.896	799.56
449.117	682.56
449.338	616.56
449.559	728.56
449.779	834.56
450	668.56
450.221	566.56
450.442	554.56
450.662	514.56
450.883	530.56
451.104	506.56
451.324	525.56
451.545	505.56
451.766	479.56
451.986	485.56
452.207	464.56
452.428	454.56
452.648	487.56
452.869	449.56
453.089	478.56
453.31	486.56
453.53	488.56
453.751	465.56
453.971	472.56
454.192	477.56
454.412	485.56
454.633	485.56
454.853	453.56
455.073	477.56
455.294	477.56
455.514	551.56
455.734	544.56
455.955	461.56
456.175	464.56
456.395	461.56
456.616	444.56
456.836	456.56
457.056	450.56
457.276	427.56
457.497	452.56
457.717	433.56
457.937	440.56
458.157	450.56
458.377	477.56
458.598	466.56
458.818	540.56
459.038	612.56
459.258	644.56
459.478	550.56
459.698	509.56
459.918	517.56
460.138	514.56
460.358	542.56
460.578	521.56
460.798	531.56
461.018	550.56
461.238	542.56
461.458	523.56
461.678	528.56
461.898	539.56
462.118	541.56
462.338	560.56
462.558	567.56
462.777	566.56
462.997	602.56
463.217	621.56
463.437	622.56
463.657	607.56
463.876	586.56
464.096	580.56
464.316	586.56
464.536	589.56
464.755	589.56
464.975	590.56
465.195	584.56
465.414	653.56
465.634	598.56
465.854	542.56
466.073	512.56
466.293	518.56
466.512	494.56
466.732	493.56
466.951	495.56
467.171	473.56
467.391	486.56
467.61	490.56
467.829	502.56
468.049	484.56
468.268	491.56
468.488	464.56
468.707	475.56
468.927	446.56
469.146	466.56
469.365	492.56
469.585	496.56
469.804	498.56
470.023	493.56
470.243	490.56
470.462	505.56
470.681	540.56
470.901	527.56
471.12	505.56
471.339	516.56
471.558	489.56
471.777	493.56
471.997	474.56
472.216	484.56
472.435	501.56
472.654	487.56
472.873	477.56
473.092	468.56
473.311	494.56
473.53	476.56
473.749	500.56
473.968	550.56
474.187	642.56
474.406	646.56
474.625	542.56
474.844	479.56
475.063	474.56
475.282	474.56
475.501	485.56
475.72	504.56
475.939	486.56
476.158	514.56
476.377	492.56
476.596	509.56
476.814	480.56
477.033	519.56
477.252	504.56
477.471	520.56
477.69	528.56
477.908	542.56
478.127	526.56
478.346	551.56
478.564	570.56
478.783	550.56
479.002	572.56
479.22	568.56
479.439	596.56
479.658	592.56
479.876	584.56
480.095	599.56
480.313	640.56
480.532	634.56
480.751	613.56
480.969	609.56
481.188	658.56
481.406	652.56
481.624	593.56
481.843	564.56
482.061	559.56
482.28	588.56
482.498	559.56
482.717	588.56
482.935	580.56
483.153	574.56
483.372	577.56
483.59	568.56
483.808	558.56
484.027	556.56
484.245	556.56
484.463	566.56
484.681	569.56
484.9	569.56
485.118	601.56
485.336	585.56
485.554	580.56
485.772	582.56
485.99	598.56
486.209	612.56
486.427	598.56
486.645	599.56
486.863	624.56
487.081	623.56
487.299	602.56
487.517	604.56
487.735	627.56
487.953	608.56
488.171	603.56
488.389	605.56
488.607	608.56
488.825	600.56
489.043	610.56
489.261	615.56
489.479	623.56
489.696	615.56
489.914	616.56
490.132	602.56
490.35	615.56
490.568	639.56
490.786	650.56
491.003	624.56
491.221	667.56
491.439	678.56
491.657	685.56
491.874	680.56
492.092	696.56
492.31	710.56
492.527	678.56
492.745	677.56
492.963	697.56
493.18	717.56
493.398	705.56
493.615	713.56
493.833	692.56
494.05	710.56
494.268	711.56
494.485	723.56
494.703	719.56
494.92	732.56
495.138	721.56
495.355	729.56
495.573	729.56
495.79	698.56
496.008	718.56
496.225	704.56
496.442	708.56
496.66	714.56
496.877	731.56
497.094	712.56
497.312	709.56
497.529	750.56
497.746	733.56
497.963	778.56
498.181	811.56
498.398	812.56
498.615	854.56
498.832	869.56
499.049	901.56
499.267	900.56
499.484	966.56
499.701	1000.56
499.918	1046.56
500.135	1137.56
500.352	1191.56
500.569	1226.56
500.786	1221.56
501.003	1202.56
501.22	1112.56
501.437	1047.56
501.654	1032.56
501.871	984.56
