Data from 1985.PennyLincolnUp.Lamp.En5.5.200Scan.071819.P1_HRD10591_17-03-08-971.txt Node
Date: Thu Jul 18 17:03:08 EDT 2019
User: cochatt
Spectrometer: HR+D1059
Trigger mode: 1
Integration Time (sec): 1.000000E-1
Scans to average: 1
Electric dark correction enabled: true
Nonlinearity correction enabled: false
Boxcar width: 0
XAxis mode: Wavelengths
Number of Pixels in Spectrum: 2048
>>>>>Begin Spectral Data<<<<<
223.165	-13.5
223.4	-13.5
223.635	-13.5
223.869	-17.5
224.104	-7.5
224.338	-20.5
224.573	-3.5
224.808	-23.5
225.042	-9.5
225.277	-7.5
225.511	0.5
225.746	5.5
225.98	7.5
226.215	2.5
226.449	20.5
226.683	10.5
226.918	20.5
227.152	35.5
227.387	39.5
227.621	18.5
227.856	41.5
228.09	43.5
228.324	48.5
228.559	52.5
228.793	64.5
229.027	94.5
229.262	84.5
229.496	106.5
229.73	121.5
229.964	147.5
230.199	114.5
230.433	116.5
230.667	124.5
230.901	104.5
231.136	110.5
231.37	125.5
231.604	116.5
231.838	116.5
232.072	95.5
232.306	121.5
232.541	105.5
232.775	103.5
233.009	106.5
233.243	115.5
233.477	119.5
233.711	114.5
233.945	117.5
234.179	133.5
234.413	125.5
234.647	104.5
234.881	96.5
235.115	116.5
235.349	112.5
235.583	124.5
235.817	125.5
236.051	120.5
236.285	133.5
236.519	130.5
236.753	120.5
236.987	156.5
237.221	160.5
237.455	216.5
237.689	169.5
237.922	130.5
238.156	122.5
238.39	124.5
238.624	120.5
238.858	108.5
239.091	119.5
239.325	124.5
239.559	121.5
239.793	145.5
240.027	132.5
240.26	161.5
240.494	146.5
240.728	148.5
240.961	141.5
241.195	138.5
241.429	149.5
241.662	130.5
241.896	142.5
242.13	124.5
242.363	125.5
242.597	146.5
242.83	148.5
243.064	143.5
243.298	129.5
243.531	137.5
243.765	155.5
243.998	142.5
244.232	138.5
244.465	162.5
244.699	159.5
244.932	146.5
245.166	144.5
245.399	152.5
245.633	143.5
245.866	126.5
246.099	150.5
246.333	147.5
246.566	136.5
246.8	151.5
247.033	160.5
247.266	158.5
247.5	154.5
247.733	161.5
247.966	165.5
248.2	183.5
248.433	156.5
248.666	174.5
248.899	180.5
249.133	184.5
249.366	213.5
249.599	194.5
249.832	168.5
250.066	177.5
250.299	189.5
250.532	184.5
250.765	190.5
250.998	224.5
251.231	211.5
251.465	204.5
251.698	196.5
251.931	202.5
252.164	217.5
252.397	201.5
252.63	185.5
252.863	204.5
253.096	203.5
253.329	220.5
253.562	208.5
253.795	207.5
254.028	210.5
254.261	223.5
254.494	246.5
254.727	243.5
254.96	259.5
255.193	256.5
255.426	253.5
255.659	236.5
255.892	230.5
256.124	209.5
256.357	231.5
256.59	223.5
256.823	229.5
257.056	217.5
257.289	209.5
257.521	213.5
257.754	202.5
257.987	216.5
258.22	223.5
258.452	213.5
258.685	212.5
258.918	204.5
259.151	197.5
259.383	220.5
259.616	218.5
259.849	211.5
260.081	233.5
260.314	240.5
260.547	257.5
260.779	260.5
261.012	233.5
261.244	226.5
261.477	227.5
261.71	238.5
261.942	229.5
262.175	229.5
262.407	221.5
262.64	196.5
262.872	209.5
263.105	220.5
263.337	218.5
263.57	214.5
263.802	226.5
264.035	219.5
264.267	212.5
264.499	221.5
264.732	222.5
264.964	222.5
265.197	203.5
265.429	224.5
265.661	226.5
265.894	228.5
266.126	223.5
266.358	229.5
266.591	248.5
266.823	233.5
267.055	237.5
267.287	241.5
267.52	224.5
267.752	234.5
267.984	239.5
268.216	248.5
268.448	247.5
268.681	254.5
268.913	267.5
269.145	272.5
269.377	281.5
269.609	274.5
269.841	276.5
270.073	293.5
270.306	304.5
270.538	318.5
270.77	322.5
271.002	309.5
271.234	299.5
271.466	311.5
271.698	314.5
271.93	327.5
272.162	316.5
272.394	315.5
272.626	301.5
272.858	300.5
273.09	287.5
273.322	288.5
273.553	284.5
273.785	274.5
274.017	264.5
274.249	290.5
274.481	277.5
274.713	280.5
274.945	286.5
275.176	280.5
275.408	284.5
275.64	297.5
275.872	291.5
276.104	283.5
276.335	280.5
276.567	283.5
276.799	309.5
277.031	322.5
277.262	348.5
277.494	343.5
277.726	322.5
277.957	306.5
278.189	293.5
278.421	298.5
278.652	294.5
278.884	304.5
279.115	299.5
279.347	278.5
279.579	299.5
279.81	271.5
280.042	296.5
280.273	292.5
280.505	293.5
280.736	271.5
280.968	277.5
281.199	281.5
281.431	295.5
281.662	289.5
281.894	295.5
282.125	299.5
282.356	307.5
282.588	320.5
282.819	306.5
283.051	300.5
283.282	299.5
283.513	292.5
283.745	310.5
283.976	300.5
284.207	296.5
284.439	291.5
284.67	288.5
284.901	308.5
285.132	311.5
285.364	323.5
285.595	310.5
285.826	297.5
286.057	309.5
286.288	300.5
286.52	322.5
286.751	315.5
286.982	317.5
287.213	308.5
287.444	324.5
287.675	333.5
287.906	314.5
288.138	349.5
288.369	322.5
288.6	333.5
288.831	325.5
289.062	325.5
289.293	332.5
289.524	322.5
289.755	329.5
289.986	316.5
290.217	330.5
290.448	311.5
290.679	313.5
290.91	315.5
291.141	329.5
291.371	326.5
291.602	312.5
291.833	312.5
292.064	313.5
292.295	316.5
292.526	333.5
292.757	321.5
292.987	324.5
293.218	319.5
293.449	330.5
293.68	330.5
293.91	325.5
294.141	329.5
294.372	317.5
294.603	313.5
294.833	336.5
295.064	323.5
295.295	328.5
295.525	323.5
295.756	325.5
295.987	331.5
296.217	364.5
296.448	368.5
296.679	347.5
296.909	336.5
297.14	334.5
297.37	330.5
297.601	342.5
297.831	349.5
298.062	348.5
298.292	331.5
298.523	343.5
298.753	340.5
298.984	338.5
299.214	349.5
299.445	339.5
299.675	342.5
299.905	355.5
300.136	342.5
300.366	369.5
300.597	351.5
300.827	368.5
301.057	376.5
301.288	341.5
301.518	380.5
301.748	370.5
301.979	384.5
302.209	384.5
302.439	363.5
302.669	374.5
302.9	386.5
303.13	362.5
303.36	378.5
303.59	374.5
303.82	376.5
304.051	380.5
304.281	368.5
304.511	375.5
304.741	356.5
304.971	354.5
305.201	394.5
305.431	365.5
305.661	358.5
305.891	372.5
306.121	380.5
306.352	386.5
306.582	373.5
306.812	376.5
307.042	368.5
307.272	358.5
307.502	364.5
307.731	375.5
307.961	366.5
308.191	370.5
308.421	374.5
308.651	394.5
308.881	390.5
309.111	382.5
309.341	377.5
309.571	393.5
309.8	392.5
310.03	402.5
310.26	404.5
310.49	418.5
310.72	424.5
310.949	420.5
311.179	437.5
311.409	434.5
311.639	399.5
311.868	402.5
312.098	399.5
312.328	409.5
312.557	404.5
312.787	430.5
313.017	446.5
313.246	428.5
313.476	405.5
313.706	418.5
313.935	427.5
314.165	426.5
314.394	445.5
314.624	438.5
314.853	433.5
315.083	446.5
315.312	416.5
315.542	390.5
315.771	412.5
316.001	412.5
316.23	405.5
316.46	386.5
316.689	425.5
316.919	416.5
317.148	419.5
317.377	422.5
317.607	412.5
317.836	426.5
318.065	407.5
318.295	432.5
318.524	413.5
318.753	420.5
318.983	407.5
319.212	430.5
319.441	434.5
319.67	439.5
319.9	421.5
320.129	414.5
320.358	416.5
320.587	424.5
320.816	411.5
321.046	437.5
321.275	450.5
321.504	434.5
321.733	439.5
321.962	440.5
322.191	460.5
322.42	478.5
322.649	475.5
322.878	481.5
323.108	488.5
323.337	504.5
323.566	523.5
323.795	536.5
324.024	601.5
324.253	701.5
324.482	982.5
324.71	1417.5
324.939	2050.5
325.168	1718.5
325.397	926.5
325.626	645.5
325.855	557.5
326.084	545.5
326.313	539.5
326.542	519.5
326.77	578.5
326.999	662.5
327.228	870.5
327.457	1306.5
327.686	1539.5
327.914	1028.5
328.143	711.5
328.372	628.5
328.6	602.5
328.829	578.5
329.058	589.5
329.287	600.5
329.515	576.5
329.744	533.5
329.972	516.5
330.201	526.5
330.43	561.5
330.658	614.5
330.887	601.5
331.115	618.5
331.344	536.5
331.572	520.5
331.801	540.5
332.03	525.5
332.258	526.5
332.486	509.5
332.715	501.5
332.943	505.5
333.172	499.5
333.4	517.5
333.629	530.5
333.857	555.5
334.085	560.5
334.314	542.5
334.542	564.5
334.771	582.5
334.999	537.5
335.227	544.5
335.455	538.5
335.684	496.5
335.912	498.5
336.14	498.5
336.369	484.5
336.597	515.5
336.825	510.5
337.053	517.5
337.281	489.5
337.51	481.5
337.738	491.5
337.966	474.5
338.194	482.5
338.422	484.5
338.65	485.5
338.878	475.5
339.106	474.5
339.334	488.5
339.562	484.5
339.79	448.5
340.018	463.5
340.246	467.5
340.474	474.5
340.702	458.5
340.93	499.5
341.158	480.5
341.386	467.5
341.614	480.5
341.842	445.5
342.07	446.5
342.298	453.5
342.526	452.5
342.754	458.5
342.981	464.5
343.209	456.5
343.437	470.5
343.665	485.5
343.893	498.5
344.12	496.5
344.348	516.5
344.576	493.5
344.804	474.5
345.031	493.5
345.259	478.5
345.487	491.5
345.714	486.5
345.942	458.5
346.17	459.5
346.397	464.5
346.625	448.5
346.853	453.5
347.08	457.5
347.308	446.5
347.535	452.5
347.763	460.5
347.99	474.5
348.218	454.5
348.445	477.5
348.673	473.5
348.9	446.5
349.128	444.5
349.355	451.5
349.583	425.5
349.81	449.5
350.037	444.5
350.265	454.5
350.492	456.5
350.72	449.5
350.947	456.5
351.174	456.5
351.402	458.5
351.629	445.5
351.856	461.5
352.083	446.5
352.311	457.5
352.538	454.5
352.765	458.5
352.992	460.5
353.22	451.5
353.447	460.5
353.674	416.5
353.901	423.5
354.128	425.5
354.355	427.5
354.583	426.5
354.81	422.5
355.037	422.5
355.264	402.5
355.491	422.5
355.718	416.5
355.945	429.5
356.172	435.5
356.399	418.5
356.626	411.5
356.853	416.5
357.08	408.5
357.307	401.5
357.534	388.5
357.761	416.5
357.988	424.5
358.215	413.5
358.441	420.5
358.668	422.5
358.895	430.5
359.122	424.5
359.349	435.5
359.576	445.5
359.802	451.5
360.029	501.5
360.256	479.5
360.483	463.5
360.709	432.5
360.936	432.5
361.163	437.5
361.39	453.5
361.616	446.5
361.843	444.5
362.07	435.5
362.296	445.5
362.523	450.5
362.749	438.5
362.976	434.5
363.203	429.5
363.429	421.5
363.656	451.5
363.882	430.5
364.109	429.5
364.335	431.5
364.562	427.5
364.788	426.5
365.015	437.5
365.241	436.5
365.468	416.5
365.694	444.5
365.92	434.5
366.147	430.5
366.373	415.5
366.599	428.5
366.826	427.5
367.052	421.5
367.278	426.5
367.505	425.5
367.731	437.5
367.957	436.5
368.184	446.5
368.41	431.5
368.636	441.5
368.862	440.5
369.089	419.5
369.315	428.5
369.541	429.5
369.767	425.5
369.993	433.5
370.219	416.5
370.445	428.5
370.672	419.5
370.898	415.5
371.124	439.5
371.35	441.5
371.576	419.5
371.802	430.5
372.028	405.5
372.254	424.5
372.48	409.5
372.706	414.5
372.932	425.5
373.158	422.5
373.384	440.5
373.61	427.5
373.835	429.5
374.061	424.5
374.287	402.5
374.513	444.5
374.739	438.5
374.965	442.5
375.191	442.5
375.416	439.5
375.642	438.5
375.868	419.5
376.094	428.5
376.319	410.5
376.545	424.5
376.771	434.5
376.997	435.5
377.222	429.5
377.448	413.5
377.674	437.5
377.899	421.5
378.125	408.5
378.35	408.5
378.576	432.5
378.802	412.5
379.027	432.5
379.253	412.5
379.478	428.5
379.704	411.5
379.929	402.5
380.155	410.5
380.38	414.5
380.606	414.5
380.831	414.5
381.057	419.5
381.282	411.5
381.507	427.5
381.733	426.5
381.958	427.5
382.184	449.5
382.409	438.5
382.634	453.5
382.86	430.5
383.085	437.5
383.31	436.5
383.535	460.5
383.761	438.5
383.986	439.5
384.211	448.5
384.436	467.5
384.662	460.5
384.887	453.5
385.112	460.5
385.337	466.5
385.562	464.5
385.787	468.5
386.013	487.5
386.238	466.5
386.463	480.5
386.688	502.5
386.913	466.5
387.138	464.5
387.363	475.5
387.588	474.5
387.813	484.5
388.038	478.5
388.263	464.5
388.488	460.5
388.713	474.5
388.938	456.5
389.163	474.5
389.387	470.5
389.612	468.5
389.837	465.5
390.062	459.5
390.287	479.5
390.512	462.5
390.736	458.5
390.961	474.5
391.186	451.5
391.411	465.5
391.636	513.5
391.86	474.5
392.085	487.5
392.31	490.5
392.534	496.5
392.759	492.5
392.984	486.5
393.208	479.5
393.433	482.5
393.658	480.5
393.882	462.5
394.107	485.5
394.331	473.5
394.556	481.5
394.78	487.5
395.005	486.5
395.229	483.5
395.454	459.5
395.678	514.5
395.903	528.5
396.127	510.5
396.352	525.5
396.576	519.5
396.801	491.5
397.025	498.5
397.249	492.5
397.474	506.5
397.698	506.5
397.922	529.5
398.147	528.5
398.371	540.5
398.595	527.5
398.82	533.5
399.044	554.5
399.268	603.5
399.492	612.5
399.717	706.5
399.941	700.5
400.165	708.5
400.389	690.5
400.613	649.5
400.837	588.5
401.062	564.5
401.286	548.5
401.51	561.5
401.734	538.5
401.958	531.5
402.182	574.5
402.406	569.5
402.63	575.5
402.854	568.5
403.078	582.5
403.302	567.5
403.526	592.5
403.75	591.5
403.974	601.5
404.198	587.5
404.422	600.5
404.645	602.5
404.869	617.5
405.093	611.5
405.317	659.5
405.541	674.5
405.765	636.5
405.988	588.5
406.212	584.5
406.436	616.5
406.66	653.5
406.883	617.5
407.107	628.5
407.331	675.5
407.555	757.5
407.778	758.5
408.002	697.5
408.226	642.5
408.449	628.5
408.673	627.5
408.896	650.5
409.12	681.5
409.344	634.5
409.567	566.5
409.791	576.5
410.014	586.5
410.238	562.5
410.461	593.5
410.685	546.5
410.908	585.5
411.132	605.5
411.355	655.5
411.578	611.5
411.802	580.5
412.025	574.5
412.249	564.5
412.472	577.5
412.695	597.5
412.919	564.5
413.142	542.5
413.365	550.5
413.589	546.5
413.812	548.5
414.035	547.5
414.258	526.5
414.482	549.5
414.705	544.5
414.928	522.5
415.151	534.5
415.374	530.5
415.597	535.5
415.821	522.5
416.044	550.5
416.267	526.5
416.49	520.5
416.713	531.5
416.936	538.5
417.159	523.5
417.382	546.5
417.605	524.5
417.828	534.5
418.051	549.5
418.274	527.5
418.497	530.5
418.72	517.5
418.943	550.5
419.166	552.5
419.389	586.5
419.611	582.5
419.834	540.5
420.057	568.5
420.28	554.5
420.503	553.5
420.726	538.5
420.948	567.5
421.171	599.5
421.394	600.5
421.617	544.5
421.839	554.5
422.062	566.5
422.285	557.5
422.507	617.5
422.73	679.5
422.953	636.5
423.175	584.5
423.398	572.5
423.621	577.5
423.843	576.5
424.066	589.5
424.288	590.5
424.511	620.5
424.733	634.5
424.956	730.5
425.178	696.5
425.401	708.5
425.623	714.5
425.846	621.5
426.068	586.5
426.291	557.5
426.513	587.5
426.735	570.5
426.958	605.5
427.18	674.5
427.402	820.5
427.625	888.5
427.847	741.5
428.069	654.5
428.292	580.5
428.514	551.5
428.736	519.5
428.958	535.5
429.181	504.5
429.403	521.5
429.625	525.5
429.847	576.5
430.069	612.5
430.292	617.5
430.514	536.5
430.736	516.5
430.958	512.5
431.18	500.5
431.402	521.5
431.624	501.5
431.846	482.5
432.068	524.5
432.29	493.5
432.512	506.5
432.734	496.5
432.956	501.5
433.178	516.5
433.4	534.5
433.622	518.5
433.844	502.5
434.066	510.5
434.287	491.5
434.509	520.5
434.731	525.5
434.953	542.5
435.175	562.5
435.397	569.5
435.618	587.5
435.84	598.5
436.062	682.5
436.284	760.5
436.505	625.5
436.727	572.5
436.949	534.5
437.17	540.5
437.392	541.5
437.614	526.5
437.835	562.5
438.057	656.5
438.278	745.5
438.5	739.5
438.721	820.5
438.943	794.5
439.165	624.5
439.386	560.5
439.608	572.5
439.829	555.5
440.05	590.5
440.272	622.5
440.493	586.5
440.715	565.5
440.936	520.5
441.158	560.5
441.379	521.5
441.6	564.5
441.822	584.5
442.043	626.5
442.264	685.5
442.486	705.5
442.707	629.5
442.928	554.5
443.149	586.5
443.371	625.5
443.592	670.5
443.813	722.5
444.034	781.5
444.255	654.5
444.476	590.5
444.698	596.5
444.919	616.5
445.14	756.5
445.361	664.5
445.582	625.5
445.803	672.5
446.024	748.5
446.245	759.5
446.466	705.5
446.687	609.5
446.908	562.5
447.129	516.5
447.35	496.5
447.571	510.5
447.792	522.5
448.013	522.5
448.234	553.5
448.455	595.5
448.675	704.5
448.896	790.5
449.117	675.5
449.338	631.5
449.559	716.5
449.779	830.5
450	690.5
450.221	543.5
450.442	512.5
450.662	506.5
450.883	502.5
451.104	539.5
451.324	530.5
451.545	488.5
451.766	492.5
451.986	466.5
452.207	474.5
452.428	475.5
452.648	449.5
452.869	450.5
453.089	480.5
453.31	461.5
453.53	484.5
453.751	468.5
453.971	466.5
454.192	488.5
454.412	482.5
454.633	474.5
454.853	452.5
455.073	464.5
455.294	490.5
455.514	541.5
455.734	541.5
455.955	475.5
456.175	456.5
456.395	436.5
456.616	433.5
456.836	448.5
457.056	436.5
457.276	432.5
457.497	432.5
457.717	433.5
457.937	443.5
458.157	454.5
458.377	453.5
458.598	488.5
458.818	545.5
459.038	612.5
459.258	635.5
459.478	530.5
459.698	537.5
459.918	512.5
460.138	548.5
460.358	545.5
460.578	535.5
460.798	554.5
461.018	535.5
461.238	534.5
461.458	540.5
461.678	532.5
461.898	548.5
462.118	543.5
462.338	555.5
462.558	576.5
462.777	582.5
462.997	589.5
463.217	621.5
463.437	625.5
463.657	596.5
463.876	581.5
464.096	575.5
464.316	598.5
464.536	594.5
464.755	601.5
464.975	573.5
465.195	612.5
465.414	658.5
465.634	596.5
465.854	553.5
466.073	540.5
466.293	498.5
466.512	512.5
466.732	499.5
466.951	499.5
467.171	486.5
467.391	488.5
467.61	493.5
467.829	499.5
468.049	497.5
468.268	488.5
468.488	491.5
468.707	493.5
468.927	471.5
469.146	473.5
469.365	459.5
469.585	452.5
469.804	499.5
470.023	525.5
470.243	490.5
470.462	484.5
470.681	475.5
470.901	509.5
471.12	503.5
471.339	505.5
471.558	520.5
471.777	482.5
471.997	477.5
472.216	490.5
472.435	494.5
472.654	480.5
472.873	479.5
473.092	491.5
473.311	459.5
473.53	472.5
473.749	475.5
473.968	513.5
474.187	612.5
474.406	632.5
474.625	556.5
474.844	477.5
475.063	474.5
475.282	468.5
475.501	489.5
475.72	480.5
475.939	501.5
476.158	481.5
476.377	499.5
476.596	499.5
476.814	521.5
477.033	518.5
477.252	506.5
477.471	519.5
477.69	507.5
477.908	521.5
478.127	534.5
478.346	537.5
478.564	556.5
478.783	571.5
479.002	553.5
479.22	551.5
479.439	564.5
479.658	586.5
479.876	595.5
480.095	571.5
480.313	623.5
480.532	618.5
480.751	628.5
480.969	610.5
481.188	623.5
481.406	650.5
481.624	606.5
481.843	579.5
482.061	572.5
482.28	565.5
482.498	564.5
482.717	575.5
482.935	564.5
483.153	560.5
483.372	574.5
483.59	540.5
483.808	562.5
484.027	578.5
484.245	550.5
484.463	543.5
484.681	568.5
484.9	568.5
485.118	561.5
485.336	584.5
485.554	568.5
485.772	579.5
485.99	570.5
486.209	572.5
486.427	594.5
486.645	575.5
486.863	611.5
487.081	608.5
487.299	608.5
487.517	615.5
487.735	618.5
487.953	594.5
488.171	580.5
488.389	603.5
488.607	611.5
488.825	602.5
489.043	584.5
489.261	607.5
489.479	614.5
489.696	630.5
489.914	630.5
490.132	616.5
490.35	666.5
490.568	654.5
490.786	643.5
491.003	638.5
491.221	632.5
491.439	652.5
491.657	658.5
491.874	670.5
492.092	673.5
492.31	688.5
492.527	685.5
492.745	688.5
492.963	693.5
493.18	705.5
493.398	686.5
493.615	715.5
493.833	719.5
494.05	696.5
494.268	694.5
494.485	711.5
494.703	694.5
494.92	707.5
495.138	695.5
495.355	719.5
495.573	695.5
495.79	714.5
496.008	722.5
496.225	692.5
496.442	692.5
496.66	705.5
496.877	724.5
497.094	729.5
497.312	743.5
497.529	732.5
497.746	755.5
497.963	755.5
498.181	789.5
498.398	789.5
498.615	781.5
498.832	843.5
499.049	887.5
499.267	914.5
499.484	950.5
499.701	978.5
499.918	1048.5
500.135	1132.5
500.352	1186.5
500.569	1248.5
500.786	1211.5
501.003	1208.5
501.22	1120.5
501.437	1058.5
501.654	1034.5
501.871	1001.5
502.088	946.5
502.305	866.5
502.522	865.5
502.739	838.5
502.956	818.5
503.172	793.5
503.389	762.5
503.606	780.5
503.823	775.5
504.04	740.5
504.256	749.5
504.473	747.5
504.69	730.5
504.907	742.5
505.123	716.5
505.34	705.5
505.557	704.5
505.773	684.5
505.99	664.5
506.207	708.5
506.423	692.5
506.64	653.5
506.856	673.5
507.073	656.5
507.289	626.5
507.506	638.5
507.722	668.5
507.939	672.5
508.155	664.5
508.372	642.5
508.588	650.5
508.805	638.5
509.021	632.5
509.238	634.5
509.454	654.5
509.67	647.5
509.887	629.5
510.103	630.5
510.319	640.5
510.536	715.5
510.752	1184.5
510.968	954.5
511.184	662.5
511.401	621.5
511.617	624.5
511.833	596.5
512.049	594.5
512.265	599.5
512.481	586.5
512.698	585.5
512.914	586.5
513.13	599.5
513.346	585.5
513.562	602.5
513.778	606.5
513.994	590.5
514.21	611.5
514.426	614.5
514.642	656.5
514.858	694.5
515.074	713.5
515.29	816.5
515.506	1240.5
515.721	1057.5
515.937	731.5
516.153	688.5
516.369	642.5
516.585	641.5
516.801	628.5
517.016	650.5
517.232	672.5
517.448	654.5
517.664	656.5
517.879	658.5
518.095	653.5
518.311	684.5
518.527	636.5
518.742	637.5
518.958	649.5
519.173	643.5
519.389	624.5
519.605	618.5
519.82	606.5
