Data from 1985.PennyLincolnUp.Lamp.En5.5.200Scan.071819.P1_HRD10591_17-04-15-971.txt Node
Date: Thu Jul 18 17:04:15 EDT 2019
User: cochatt
Spectrometer: HR+D1059
Trigger mode: 1
Integration Time (sec): 1.000000E-1
Scans to average: 1
Electric dark correction enabled: true
Nonlinearity correction enabled: false
Boxcar width: 0
XAxis mode: Wavelengths
Number of Pixels in Spectrum: 2048
>>>>>Begin Spectral Data<<<<<
223.165	-13.06
223.4	-13.06
223.635	-13.06
223.869	-14.06
224.104	-17.06
224.338	-5.06
224.573	-26.06
224.808	-18.06
225.042	-1.06
225.277	-9.06
225.511	-4.06
225.746	8.94
225.98	12.94
226.215	13.94
226.449	11.94
226.683	14.94
226.918	21.94
227.152	22.94
227.387	36.94
227.621	31.94
227.856	43.94
228.09	46.94
228.324	56.94
228.559	58.94
228.793	64.94
229.027	117.94
229.262	106.94
229.496	104.94
229.73	115.94
229.964	141.94
230.199	128.94
230.433	129.94
230.667	109.94
230.901	117.94
231.136	94.94
231.37	111.94
231.604	119.94
231.838	137.94
232.072	111.94
232.306	120.94
232.541	115.94
232.775	123.94
233.009	125.94
233.243	121.94
233.477	113.94
233.711	109.94
233.945	115.94
234.179	106.94
234.413	129.94
234.647	119.94
234.881	108.94
235.115	110.94
235.349	121.94
235.583	113.94
235.817	122.94
236.051	120.94
236.285	128.94
236.519	120.94
236.753	135.94
236.987	139.94
237.221	180.94
237.455	225.94
237.689	164.94
237.922	128.94
238.156	138.94
238.39	142.94
238.624	123.94
238.858	122.94
239.091	118.94
239.325	144.94
239.559	134.94
239.793	125.94
240.027	135.94
240.26	139.94
240.494	152.94
240.728	159.94
240.961	144.94
241.195	144.94
241.429	146.94
241.662	131.94
241.896	146.94
242.13	141.94
242.363	125.94
242.597	134.94
242.83	147.94
243.064	141.94
243.298	134.94
243.531	142.94
243.765	150.94
243.998	152.94
244.232	148.94
244.465	137.94
244.699	157.94
244.932	163.94
245.166	152.94
245.399	152.94
245.633	155.94
245.866	144.94
246.099	149.94
246.333	163.94
246.566	159.94
246.8	160.94
247.033	153.94
247.266	161.94
247.5	156.94
247.733	150.94
247.966	192.94
248.2	172.94
248.433	162.94
248.666	184.94
248.899	176.94
249.133	200.94
249.366	206.94
249.599	199.94
249.832	177.94
250.066	187.94
250.299	189.94
250.532	200.94
250.765	238.94
250.998	236.94
251.231	210.94
251.465	214.94
251.698	207.94
251.931	213.94
252.164	195.94
252.397	215.94
252.63	209.94
252.863	188.94
253.096	232.94
253.329	242.94
253.562	229.94
253.795	212.94
254.028	225.94
254.261	221.94
254.494	233.94
254.727	247.94
254.96	284.94
255.193	281.94
255.426	265.94
255.659	249.94
255.892	240.94
256.124	267.94
256.357	265.94
256.59	245.94
256.823	231.94
257.056	220.94
257.289	219.94
257.521	213.94
257.754	222.94
257.987	217.94
258.22	232.94
258.452	218.94
258.685	205.94
258.918	204.94
259.151	200.94
259.383	218.94
259.616	221.94
259.849	215.94
260.081	227.94
260.314	252.94
260.547	264.94
260.779	263.94
261.012	247.94
261.244	242.94
261.477	229.94
261.71	220.94
261.942	223.94
262.175	221.94
262.407	232.94
262.64	245.94
262.872	224.94
263.105	221.94
263.337	219.94
263.57	229.94
263.802	232.94
264.035	227.94
264.267	223.94
264.499	207.94
264.732	220.94
264.964	221.94
265.197	203.94
265.429	222.94
265.661	241.94
265.894	240.94
266.126	241.94
266.358	221.94
266.591	218.94
266.823	238.94
267.055	241.94
267.287	238.94
267.52	235.94
267.752	246.94
267.984	233.94
268.216	243.94
268.448	237.94
268.681	243.94
268.913	265.94
269.145	285.94
269.377	284.94
269.609	264.94
269.841	281.94
270.073	289.94
270.306	286.94
270.538	305.94
270.77	312.94
271.002	296.94
271.234	302.94
271.466	296.94
271.698	301.94
271.93	322.94
272.162	319.94
272.394	320.94
272.626	285.94
272.858	310.94
273.09	299.94
273.322	291.94
273.553	280.94
273.785	278.94
274.017	297.94
274.249	285.94
274.481	275.94
274.713	289.94
274.945	270.94
275.176	269.94
275.408	271.94
275.64	304.94
275.872	297.94
276.104	281.94
276.335	281.94
276.567	295.94
276.799	294.94
277.031	313.94
277.262	342.94
277.494	333.94
277.726	299.94
277.957	318.94
278.189	292.94
278.421	306.94
278.652	289.94
278.884	305.94
279.115	303.94
279.347	290.94
279.579	296.94
279.81	292.94
280.042	284.94
280.273	277.94
280.505	291.94
280.736	305.94
280.968	293.94
281.199	292.94
281.431	292.94
281.662	292.94
281.894	296.94
282.125	290.94
282.356	315.94
282.588	317.94
282.819	324.94
283.051	316.94
283.282	296.94
283.513	291.94
283.745	317.94
283.976	306.94
284.207	332.94
284.439	301.94
284.67	314.94
284.901	305.94
285.132	327.94
285.364	316.94
285.595	302.94
285.826	315.94
286.057	308.94
286.288	316.94
286.52	320.94
286.751	333.94
286.982	311.94
287.213	294.94
287.444	311.94
287.675	319.94
287.906	312.94
288.138	326.94
288.369	336.94
288.6	329.94
288.831	321.94
289.062	317.94
289.293	344.94
289.524	305.94
289.755	315.94
289.986	319.94
290.217	321.94
290.448	310.94
290.679	325.94
290.91	335.94
291.141	323.94
291.371	301.94
291.602	302.94
291.833	314.94
292.064	317.94
292.295	323.94
292.526	321.94
292.757	331.94
292.987	321.94
293.218	319.94
293.449	332.94
293.68	321.94
293.91	329.94
294.141	325.94
294.372	322.94
294.603	343.94
294.833	332.94
295.064	347.94
295.295	349.94
295.525	327.94
295.756	339.94
295.987	345.94
296.217	374.94
296.448	356.94
296.679	349.94
296.909	346.94
297.14	338.94
297.37	351.94
297.601	332.94
297.831	339.94
298.062	337.94
298.292	338.94
298.523	351.94
298.753	350.94
298.984	357.94
299.214	342.94
299.445	352.94
299.675	361.94
299.905	349.94
300.136	367.94
300.366	353.94
300.597	373.94
300.827	382.94
301.057	377.94
301.288	376.94
301.518	346.94
301.748	358.94
301.979	382.94
302.209	374.94
302.439	374.94
302.669	366.94
302.9	350.94
303.13	371.94
303.36	358.94
303.59	377.94
303.82	369.94
304.051	380.94
304.281	366.94
304.511	379.94
304.741	389.94
304.971	374.94
305.201	374.94
305.431	394.94
305.661	375.94
305.891	370.94
306.121	371.94
306.352	384.94
306.582	393.94
306.812	371.94
307.042	382.94
307.272	381.94
307.502	362.94
307.731	387.94
307.961	371.94
308.191	373.94
308.421	366.94
308.651	376.94
308.881	388.94
309.111	395.94
309.341	380.94
309.571	379.94
309.8	415.94
310.03	412.94
310.26	409.94
310.49	403.94
310.72	424.94
310.949	421.94
311.179	438.94
311.409	418.94
311.639	406.94
311.868	420.94
312.098	427.94
312.328	445.94
312.557	462.94
312.787	467.94
313.017	439.94
313.246	438.94
313.476	419.94
313.706	400.94
313.935	414.94
314.165	433.94
314.394	405.94
314.624	433.94
314.853	419.94
315.083	410.94
315.312	426.94
315.542	431.94
315.771	421.94
316.001	404.94
316.23	405.94
316.46	412.94
316.689	416.94
316.919	417.94
317.148	446.94
317.377	438.94
317.607	420.94
317.836	425.94
318.065	443.94
318.295	400.94
318.524	425.94
318.753	412.94
318.983	413.94
319.212	429.94
319.441	411.94
319.67	422.94
319.9	447.94
320.129	424.94
320.358	421.94
320.587	460.94
320.816	445.94
321.046	435.94
321.275	467.94
321.504	444.94
321.733	448.94
321.962	449.94
322.191	454.94
322.42	465.94
322.649	467.94
322.878	479.94
323.108	474.94
323.337	530.94
323.566	524.94
323.795	565.94
324.024	592.94
324.253	704.94
324.482	962.94
324.71	1437.94
324.939	1989.94
325.168	1710.94
325.397	921.94
325.626	635.94
325.855	583.94
326.084	556.94
326.313	531.94
326.542	535.94
326.77	603.94
326.999	664.94
327.228	870.94
327.457	1259.94
327.686	1486.94
327.914	1043.94
328.143	715.94
328.372	664.94
328.6	607.94
328.829	581.94
329.058	579.94
329.287	609.94
329.515	561.94
329.744	590.94
329.972	575.94
330.201	607.94
330.43	659.94
330.658	647.94
330.887	653.94
331.115	628.94
331.344	558.94
331.572	549.94
331.801	555.94
332.03	530.94
332.258	538.94
332.486	511.94
332.715	535.94
332.943	539.94
333.172	545.94
333.4	552.94
333.629	563.94
333.857	579.94
334.085	579.94
334.314	613.94
334.542	673.94
334.771	690.94
334.999	616.94
335.227	568.94
335.455	537.94
335.684	548.94
335.912	521.94
336.14	513.94
336.369	502.94
336.597	513.94
336.825	541.94
337.053	521.94
337.281	494.94
337.51	502.94
337.738	493.94
337.966	487.94
338.194	481.94
338.422	507.94
338.65	490.94
338.878	476.94
339.106	472.94
339.334	473.94
339.562	461.94
339.79	460.94
340.018	469.94
340.246	456.94
340.474	473.94
340.702	491.94
340.93	482.94
341.158	463.94
341.386	494.94
341.614	470.94
341.842	460.94
342.07	457.94
342.298	455.94
342.526	474.94
342.754	461.94
342.981	479.94
343.209	458.94
343.437	484.94
343.665	486.94
343.893	486.94
344.12	520.94
344.348	503.94
344.576	515.94
344.804	478.94
345.031	487.94
345.259	501.94
345.487	473.94
345.714	474.94
345.942	462.94
346.17	456.94
346.397	451.94
346.625	456.94
346.853	473.94
347.08	451.94
347.308	483.94
347.535	454.94
347.763	456.94
347.99	459.94
348.218	476.94
348.445	447.94
348.673	463.94
348.9	448.94
349.128	439.94
349.355	454.94
349.583	449.94
349.81	446.94
350.037	439.94
350.265	441.94
350.492	422.94
350.72	427.94
350.947	435.94
351.174	466.94
351.402	451.94
351.629	441.94
351.856	465.94
352.083	467.94
352.311	444.94
352.538	462.94
352.765	441.94
352.992	455.94
353.22	469.94
353.447	455.94
353.674	441.94
353.901	428.94
354.128	441.94
354.355	419.94
354.583	429.94
354.81	423.94
355.037	412.94
355.264	418.94
355.491	406.94
355.718	414.94
355.945	421.94
356.172	412.94
356.399	418.94
356.626	417.94
356.853	429.94
357.08	436.94
357.307	435.94
357.534	413.94
357.761	423.94
357.988	437.94
358.215	443.94
358.441	427.94
358.668	419.94
358.895	429.94
359.122	451.94
359.349	414.94
359.576	447.94
359.802	468.94
360.029	477.94
360.256	484.94
360.483	468.94
360.709	447.94
360.936	439.94
361.163	452.94
361.39	429.94
361.616	446.94
361.843	452.94
362.07	431.94
362.296	439.94
362.523	427.94
362.749	424.94
362.976	455.94
363.203	425.94
363.429	428.94
363.656	430.94
363.882	455.94
364.109	424.94
364.335	410.94
364.562	422.94
364.788	426.94
365.015	431.94
365.241	433.94
365.468	429.94
365.694	444.94
365.92	421.94
366.147	409.94
366.373	421.94
366.599	415.94
366.826	410.94
367.052	425.94
367.278	418.94
367.505	426.94
367.731	424.94
367.957	428.94
368.184	434.94
368.41	433.94
368.636	444.94
368.862	447.94
369.089	414.94
369.315	421.94
369.541	450.94
369.767	457.94
369.993	426.94
370.219	428.94
370.445	438.94
370.672	435.94
370.898	420.94
371.124	414.94
371.35	456.94
371.576	443.94
371.802	429.94
372.028	411.94
372.254	421.94
372.48	443.94
372.706	444.94
372.932	426.94
373.158	423.94
373.384	417.94
373.61	436.94
373.835	441.94
374.061	425.94
374.287	429.94
374.513	438.94
374.739	444.94
374.965	449.94
375.191	448.94
375.416	440.94
375.642	445.94
375.868	445.94
376.094	434.94
376.319	432.94
376.545	421.94
376.771	422.94
376.997	410.94
377.222	437.94
377.448	439.94
377.674	426.94
377.899	407.94
378.125	418.94
378.35	403.94
378.576	429.94
378.802	431.94
379.027	419.94
379.253	415.94
379.478	430.94
379.704	419.94
379.929	418.94
380.155	426.94
380.38	400.94
380.606	398.94
380.831	437.94
381.057	427.94
381.282	431.94
381.507	400.94
381.733	417.94
381.958	438.94
382.184	434.94
382.409	414.94
382.634	439.94
382.86	457.94
383.085	457.94
383.31	446.94
383.535	446.94
383.761	437.94
383.986	449.94
384.211	447.94
384.436	462.94
384.662	469.94
384.887	467.94
385.112	463.94
385.337	449.94
385.562	449.94
385.787	476.94
386.013	479.94
386.238	472.94
386.463	477.94
386.688	460.94
386.913	474.94
387.138	478.94
387.363	479.94
387.588	470.94
387.813	466.94
388.038	450.94
388.263	447.94
388.488	470.94
388.713	490.94
388.938	479.94
389.163	473.94
389.387	469.94
389.612	460.94
389.837	478.94
390.062	473.94
390.287	463.94
390.512	457.94
390.736	470.94
390.961	478.94
391.186	474.94
391.411	476.94
391.636	500.94
391.86	482.94
392.085	511.94
392.31	513.94
392.534	511.94
392.759	482.94
392.984	485.94
393.208	479.94
393.433	493.94
393.658	470.94
393.882	478.94
394.107	468.94
394.331	479.94
394.556	473.94
394.78	481.94
395.005	468.94
395.229	461.94
395.454	530.94
395.678	509.94
395.903	515.94
396.127	543.94
396.352	528.94
396.576	492.94
396.801	504.94
397.025	507.94
397.249	483.94
397.474	518.94
397.698	502.94
397.922	512.94
398.147	535.94
398.371	545.94
398.595	528.94
398.82	555.94
399.044	545.94
399.268	583.94
399.492	629.94
399.717	687.94
399.941	693.94
400.165	707.94
400.389	680.94
400.613	606.94
400.837	567.94
401.062	572.94
401.286	552.94
401.51	555.94
401.734	562.94
401.958	579.94
402.182	559.94
402.406	585.94
402.63	567.94
402.854	566.94
403.078	559.94
403.302	573.94
403.526	586.94
403.75	584.94
403.974	584.94
404.198	565.94
404.422	599.94
404.645	587.94
404.869	597.94
405.093	623.94
405.317	653.94
405.541	694.94
405.765	637.94
405.988	615.94
406.212	625.94
406.436	631.94
406.66	642.94
406.883	642.94
407.107	647.94
407.331	675.94
407.555	736.94
407.778	732.94
408.002	672.94
408.226	654.94
408.449	630.94
408.673	611.94
408.896	635.94
409.12	675.94
409.344	649.94
409.567	586.94
409.791	578.94
410.014	571.94
410.238	585.94
410.461	577.94
410.685	554.94
410.908	575.94
411.132	601.94
411.355	642.94
411.578	625.94
411.802	563.94
412.025	554.94
412.249	562.94
412.472	613.94
412.695	642.94
412.919	643.94
413.142	595.94
413.365	573.94
413.589	550.94
413.812	549.94
414.035	535.94
414.258	547.94
414.482	538.94
414.705	550.94
414.928	543.94
415.151	507.94
415.374	538.94
415.597	530.94
415.821	537.94
416.044	527.94
416.267	535.94
416.49	531.94
416.713	540.94
416.936	521.94
417.159	535.94
417.382	547.94
417.605	562.94
417.828	541.94
418.051	563.94
418.274	557.94
418.497	549.94
418.72	530.94
418.943	516.94
419.166	558.94
419.389	583.94
419.611	562.94
419.834	592.94
420.057	575.94
420.28	567.94
420.503	567.94
420.726	581.94
420.948	561.94
421.171	587.94
421.394	609.94
421.617	574.94
421.839	563.94
422.062	568.94
422.285	560.94
422.507	618.94
422.73	653.94
422.953	661.94
423.175	584.94
423.398	589.94
423.621	597.94
423.843	583.94
424.066	605.94
424.288	593.94
424.511	600.94
424.733	666.94
424.956	719.94
425.178	673.94
425.401	685.94
425.623	674.94
425.846	606.94
426.068	589.94
426.291	573.94
426.513	558.94
426.735	564.94
426.958	638.94
427.18	697.94
427.402	809.94
427.625	872.94
427.847	760.94
428.069	682.94
428.292	632.94
428.514	585.94
428.736	556.94
428.958	547.94
429.181	521.94
429.403	535.94
429.625	526.94
429.847	537.94
430.069	621.94
430.292	625.94
430.514	541.94
430.736	503.94
430.958	518.94
431.18	502.94
431.402	509.94
431.624	501.94
431.846	487.94
432.068	516.94
432.29	506.94
432.512	522.94
432.734	514.94
432.956	508.94
433.178	524.94
433.4	501.94
433.622	524.94
433.844	506.94
434.066	510.94
434.287	496.94
434.509	528.94
434.731	533.94
434.953	539.94
435.175	569.94
435.397	563.94
435.618	584.94
435.84	631.94
436.062	672.94
436.284	750.94
436.505	615.94
436.727	566.94
436.949	537.94
437.17	522.94
437.392	547.94
437.614	533.94
437.835	561.94
438.057	631.94
438.278	739.94
438.5	715.94
438.721	802.94
438.943	750.94
439.165	636.94
439.386	566.94
439.608	578.94
439.829	568.94
440.05	583.94
440.272	603.94
440.493	589.94
440.715	542.94
440.936	540.94
441.158	559.94
441.379	533.94
441.6	582.94
441.822	585.94
442.043	608.94
442.264	686.94
442.486	691.94
442.707	620.94
442.928	573.94
443.149	569.94
443.371	636.94
443.592	646.94
443.813	741.94
444.034	765.94
444.255	680.94
444.476	598.94
444.698	620.94
444.919	578.94
445.14	713.94
445.361	661.94
445.582	617.94
445.803	663.94
446.024	740.94
446.245	745.94
446.466	709.94
446.687	601.94
446.908	537.94
447.129	546.94
447.35	510.94
447.571	507.94
447.792	524.94
448.013	515.94
448.234	536.94
448.455	587.94
448.675	671.94
448.896	779.94
449.117	675.94
449.338	630.94
449.559	713.94
449.779	831.94
450	653.94
450.221	561.94
450.442	521.94
450.662	477.94
450.883	502.94
451.104	506.94
451.324	508.94
451.545	483.94
451.766	487.94
451.986	455.94
452.207	446.94
452.428	461.94
452.648	469.94
452.869	463.94
453.089	473.94
453.31	484.94
453.53	469.94
453.751	477.94
453.971	492.94
454.192	484.94
454.412	454.94
454.633	455.94
454.853	452.94
455.073	462.94
455.294	495.94
455.514	539.94
455.734	535.94
455.955	467.94
456.175	459.94
456.395	439.94
456.616	451.94
456.836	427.94
457.056	430.94
457.276	411.94
457.497	463.94
457.717	440.94
457.937	451.94
458.157	453.94
458.377	459.94
458.598	487.94
458.818	537.94
459.038	595.94
459.258	627.94
459.478	535.94
459.698	543.94
459.918	529.94
460.138	548.94
460.358	522.94
460.578	522.94
460.798	545.94
461.018	534.94
461.238	525.94
461.458	518.94
461.678	541.94
461.898	559.94
462.118	535.94
462.338	559.94
462.558	546.94
462.777	575.94
462.997	596.94
463.217	618.94
463.437	627.94
463.657	617.94
463.876	591.94
464.096	585.94
464.316	571.94
464.536	585.94
464.755	602.94
464.975	568.94
465.195	603.94
465.414	659.94
465.634	570.94
465.854	535.94
466.073	524.94
466.293	488.94
466.512	475.94
466.732	497.94
466.951	493.94
467.171	501.94
467.391	495.94
467.61	500.94
467.829	487.94
468.049	483.94
468.268	504.94
468.488	501.94
468.707	472.94
468.927	469.94
469.146	469.94
469.365	493.94
469.585	491.94
469.804	501.94
470.023	528.94
470.243	483.94
470.462	517.94
470.681	510.94
470.901	521.94
471.12	502.94
471.339	471.94
471.558	494.94
471.777	506.94
471.997	499.94
472.216	498.94
472.435	557.94
472.654	537.94
472.873	492.94
473.092	511.94
473.311	478.94
473.53	486.94
473.749	496.94
473.968	541.94
474.187	602.94
474.406	637.94
474.625	524.94
474.844	494.94
475.063	490.94
475.282	494.94
475.501	486.94
475.72	500.94
475.939	488.94
476.158	503.94
476.377	515.94
476.596	523.94
476.814	524.94
477.033	516.94
477.252	523.94
477.471	519.94
477.69	531.94
477.908	553.94
478.127	554.94
478.346	519.94
478.564	561.94
478.783	546.94
479.002	565.94
479.22	572.94
479.439	594.94
479.658	590.94
479.876	609.94
480.095	598.94
480.313	628.94
480.532	641.94
480.751	600.94
480.969	628.94
481.188	684.94
481.406	765.94
481.624	664.94
481.843	602.94
482.061	604.94
482.28	561.94
482.498	582.94
482.717	572.94
482.935	573.94
483.153	564.94
483.372	571.94
483.59	572.94
483.808	565.94
484.027	562.94
484.245	575.94
484.463	567.94
484.681	571.94
484.9	573.94
485.118	578.94
485.336	569.94
485.554	607.94
485.772	585.94
485.99	595.94
486.209	617.94
486.427	612.94
486.645	588.94
486.863	632.94
487.081	604.94
487.299	589.94
487.517	594.94
487.735	597.94
487.953	613.94
488.171	626.94
488.389	590.94
488.607	591.94
488.825	648.94
489.043	612.94
489.261	611.94
489.479	628.94
489.696	615.94
489.914	632.94
490.132	631.94
490.35	636.94
490.568	656.94
490.786	640.94
491.003	663.94
491.221	675.94
491.439	673.94
491.657	694.94
491.874	704.94
492.092	716.94
492.31	689.94
492.527	715.94
492.745	724.94
492.963	714.94
493.18	709.94
493.398	719.94
493.615	735.94
493.833	737.94
494.05	736.94
494.268	755.94
494.485	733.94
494.703	711.94
494.92	735.94
495.138	722.94
495.355	726.94
495.573	732.94
495.79	719.94
496.008	722.94
496.225	739.94
496.442	722.94
496.66	716.94
496.877	733.94
497.094	719.94
497.312	722.94
497.529	746.94
497.746	793.94
497.963	798.94
498.181	805.94
498.398	814.94
498.615	847.94
498.832	869.94
499.049	887.94
499.267	909.94
499.484	934.94
499.701	994.94
499.918	1058.94
500.135	1144.94
500.352	1194.94
500.569	1233.94
500.786	1253.94
501.003	1221.94
501.22	1128.94
501.437	1067.94
501.654	1029.94
501.871	1013.94
