Data from 1985.PennyLincolnUp.Lamp.En5.5.200Scan.071819.P1_HRD10591_17-03-26-970.txt Node
Date: Thu Jul 18 17:03:26 EDT 2019
User: cochatt
Spectrometer: HR+D1059
Trigger mode: 1
Integration Time (sec): 1.000000E-1
Scans to average: 1
Electric dark correction enabled: true
Nonlinearity correction enabled: false
Boxcar width: 0
XAxis mode: Wavelengths
Number of Pixels in Spectrum: 2048
>>>>>Begin Spectral Data<<<<<
223.165	-10.94
223.4	-10.94
223.635	-10.94
223.869	-18.94
224.104	-18.94
224.338	-8.94
224.573	-8.94
224.808	2.06
225.042	-10.94
225.277	-0.94
225.511	-8.94
225.746	6.06
225.98	3.06
226.215	9.06
226.449	14.06
226.683	20.06
226.918	10.06
227.152	23.06
227.387	29.06
227.621	35.06
227.856	41.06
228.09	49.06
228.324	59.06
228.559	55.06
228.793	60.06
229.027	94.06
229.262	109.06
229.496	110.06
229.73	138.06
229.964	153.06
230.199	119.06
230.433	107.06
230.667	119.06
230.901	110.06
231.136	113.06
231.37	121.06
231.604	112.06
231.838	114.06
232.072	118.06
232.306	115.06
232.541	109.06
232.775	111.06
233.009	118.06
233.243	106.06
233.477	145.06
233.711	118.06
233.945	109.06
234.179	115.06
234.413	121.06
234.647	117.06
234.881	111.06
235.115	115.06
235.349	115.06
235.583	123.06
235.817	121.06
236.051	134.06
236.285	106.06
236.519	122.06
236.753	133.06
236.987	141.06
237.221	188.06
237.455	218.06
237.689	167.06
237.922	149.06
238.156	134.06
238.39	145.06
238.624	119.06
238.858	118.06
239.091	122.06
239.325	133.06
239.559	129.06
239.793	137.06
240.027	138.06
240.26	141.06
240.494	150.06
240.728	160.06
240.961	156.06
241.195	152.06
241.429	132.06
241.662	120.06
241.896	135.06
242.13	124.06
242.363	124.06
242.597	143.06
242.83	147.06
243.064	148.06
243.298	144.06
243.531	135.06
243.765	141.06
243.998	168.06
244.232	134.06
244.465	156.06
244.699	151.06
244.932	149.06
245.166	138.06
245.399	145.06
245.633	147.06
245.866	142.06
246.099	146.06
246.333	151.06
246.566	158.06
246.8	156.06
247.033	156.06
247.266	169.06
247.5	171.06
247.733	170.06
247.966	201.06
248.2	185.06
248.433	168.06
248.666	182.06
248.899	170.06
249.133	193.06
249.366	194.06
249.599	206.06
249.832	189.06
250.066	206.06
250.299	183.06
250.532	212.06
250.765	206.06
250.998	216.06
251.231	221.06
251.465	203.06
251.698	213.06
251.931	208.06
252.164	213.06
252.397	195.06
252.63	212.06
252.863	204.06
253.096	214.06
253.329	243.06
253.562	215.06
253.795	203.06
254.028	216.06
254.261	212.06
254.494	233.06
254.727	248.06
254.96	286.06
255.193	277.06
255.426	269.06
255.659	228.06
255.892	239.06
256.124	250.06
256.357	226.06
256.59	234.06
256.823	232.06
257.056	228.06
257.289	207.06
257.521	211.06
257.754	208.06
257.987	191.06
258.22	216.06
258.452	212.06
258.685	214.06
258.918	200.06
259.151	209.06
259.383	224.06
259.616	236.06
259.849	226.06
260.081	232.06
260.314	262.06
260.547	269.06
260.779	245.06
261.012	241.06
261.244	242.06
261.477	237.06
261.71	229.06
261.942	247.06
262.175	245.06
262.407	231.06
262.64	220.06
262.872	206.06
263.105	215.06
263.337	217.06
263.57	226.06
263.802	219.06
264.035	221.06
264.267	230.06
264.499	232.06
264.732	246.06
264.964	214.06
265.197	226.06
265.429	226.06
265.661	230.06
265.894	226.06
266.126	237.06
266.358	220.06
266.591	238.06
266.823	226.06
267.055	241.06
267.287	255.06
267.52	227.06
267.752	220.06
267.984	245.06
268.216	261.06
268.448	256.06
268.681	244.06
268.913	256.06
269.145	284.06
269.377	281.06
269.609	291.06
269.841	271.06
270.073	269.06
270.306	290.06
270.538	330.06
270.77	322.06
271.002	321.06
271.234	313.06
271.466	321.06
271.698	328.06
271.93	327.06
272.162	321.06
272.394	326.06
272.626	317.06
272.858	313.06
273.09	291.06
273.322	284.06
273.553	285.06
273.785	259.06
274.017	285.06
274.249	269.06
274.481	287.06
274.713	289.06
274.945	291.06
275.176	283.06
275.408	309.06
275.64	303.06
275.872	255.06
276.104	285.06
276.335	288.06
276.567	291.06
276.799	315.06
277.031	333.06
277.262	339.06
277.494	334.06
277.726	322.06
277.957	313.06
278.189	297.06
278.421	287.06
278.652	279.06
278.884	299.06
279.115	305.06
279.347	294.06
279.579	312.06
279.81	290.06
280.042	306.06
280.273	296.06
280.505	271.06
280.736	294.06
280.968	282.06
281.199	288.06
281.431	313.06
281.662	283.06
281.894	310.06
282.125	298.06
282.356	335.06
282.588	330.06
282.819	322.06
283.051	327.06
283.282	311.06
283.513	284.06
283.745	296.06
283.976	309.06
284.207	315.06
284.439	318.06
284.67	325.06
284.901	302.06
285.132	315.06
285.364	315.06
285.595	306.06
285.826	317.06
286.057	331.06
286.288	312.06
286.52	331.06
286.751	341.06
286.982	326.06
287.213	333.06
287.444	341.06
287.675	322.06
287.906	333.06
288.138	338.06
288.369	333.06
288.6	337.06
288.831	339.06
289.062	323.06
289.293	337.06
289.524	349.06
289.755	325.06
289.986	312.06
290.217	338.06
290.448	333.06
290.679	333.06
290.91	333.06
291.141	328.06
291.371	341.06
291.602	323.06
291.833	324.06
292.064	336.06
292.295	337.06
292.526	337.06
292.757	335.06
292.987	339.06
293.218	316.06
293.449	323.06
293.68	329.06
293.91	335.06
294.141	322.06
294.372	352.06
294.603	338.06
294.833	335.06
295.064	342.06
295.295	337.06
295.525	341.06
295.756	349.06
295.987	369.06
296.217	373.06
296.448	363.06
296.679	343.06
296.909	325.06
297.14	352.06
297.37	334.06
297.601	353.06
297.831	337.06
298.062	340.06
298.292	340.06
298.523	348.06
298.753	328.06
298.984	341.06
299.214	347.06
299.445	355.06
299.675	347.06
299.905	369.06
300.136	349.06
300.366	343.06
300.597	352.06
300.827	355.06
301.057	358.06
301.288	371.06
301.518	374.06
301.748	367.06
301.979	359.06
302.209	358.06
302.439	371.06
302.669	373.06
302.9	376.06
303.13	383.06
303.36	387.06
303.59	381.06
303.82	391.06
304.051	390.06
304.281	387.06
304.511	375.06
304.741	358.06
304.971	373.06
305.201	383.06
305.431	383.06
305.661	367.06
305.891	381.06
306.121	371.06
306.352	372.06
306.582	379.06
306.812	371.06
307.042	364.06
307.272	391.06
307.502	405.06
307.731	385.06
307.961	359.06
308.191	370.06
308.421	379.06
308.651	395.06
308.881	385.06
309.111	378.06
309.341	401.06
309.571	382.06
309.8	407.06
310.03	430.06
310.26	400.06
310.49	411.06
310.72	442.06
310.949	441.06
311.179	439.06
311.409	419.06
311.639	434.06
311.868	430.06
312.098	422.06
312.328	448.06
312.557	444.06
312.787	445.06
313.017	446.06
313.246	438.06
313.476	420.06
313.706	414.06
313.935	431.06
314.165	447.06
314.394	445.06
314.624	437.06
314.853	436.06
315.083	420.06
315.312	446.06
315.542	436.06
315.771	435.06
316.001	412.06
316.23	433.06
316.46	416.06
316.689	427.06
316.919	427.06
317.148	419.06
317.377	422.06
317.607	426.06
317.836	441.06
318.065	415.06
318.295	422.06
318.524	425.06
318.753	435.06
318.983	409.06
319.212	436.06
319.441	437.06
319.67	433.06
319.9	442.06
320.129	413.06
320.358	427.06
320.587	447.06
320.816	443.06
321.046	455.06
321.275	463.06
321.504	439.06
321.733	451.06
321.962	447.06
322.191	456.06
322.42	469.06
322.649	465.06
322.878	493.06
323.108	517.06
323.337	521.06
323.566	554.06
323.795	566.06
324.024	573.06
324.253	733.06
324.482	970.06
324.71	1493.06
324.939	2138.06
325.168	1816.06
325.397	925.06
325.626	669.06
325.855	598.06
326.084	558.06
326.313	538.06
326.542	545.06
326.77	610.06
326.999	660.06
327.228	909.06
327.457	1377.06
327.686	1582.06
327.914	1039.06
328.143	696.06
328.372	645.06
328.6	635.06
328.829	602.06
329.058	589.06
329.287	631.06
329.515	596.06
329.744	556.06
329.972	579.06
330.201	575.06
330.43	584.06
330.658	632.06
330.887	656.06
331.115	635.06
331.344	563.06
331.572	547.06
331.801	529.06
332.03	543.06
332.258	515.06
332.486	535.06
332.715	511.06
332.943	524.06
333.172	540.06
333.4	551.06
333.629	533.06
333.857	567.06
334.085	575.06
334.314	558.06
334.542	577.06
334.771	595.06
334.999	575.06
335.227	563.06
335.455	548.06
335.684	519.06
335.912	519.06
336.14	504.06
336.369	503.06
336.597	510.06
336.825	502.06
337.053	514.06
337.281	498.06
337.51	502.06
337.738	511.06
337.966	524.06
338.194	507.06
338.422	515.06
338.65	479.06
338.878	500.06
339.106	470.06
339.334	488.06
339.562	475.06
339.79	458.06
340.018	465.06
340.246	468.06
340.474	491.06
340.702	481.06
340.93	469.06
341.158	483.06
341.386	501.06
341.614	486.06
341.842	491.06
342.07	477.06
342.298	482.06
342.526	485.06
342.754	461.06
342.981	447.06
343.209	473.06
343.437	496.06
343.665	506.06
343.893	518.06
344.12	520.06
344.348	521.06
344.576	500.06
344.804	494.06
345.031	516.06
345.259	524.06
345.487	499.06
345.714	495.06
345.942	465.06
346.17	473.06
346.397	462.06
346.625	481.06
346.853	456.06
347.08	465.06
347.308	471.06
347.535	464.06
347.763	475.06
347.99	466.06
348.218	471.06
348.445	459.06
348.673	475.06
348.9	460.06
349.128	457.06
349.355	455.06
349.583	461.06
349.81	475.06
350.037	443.06
350.265	438.06
350.492	466.06
350.72	452.06
350.947	444.06
351.174	446.06
351.402	478.06
351.629	466.06
351.856	455.06
352.083	470.06
352.311	464.06
352.538	485.06
352.765	487.06
352.992	458.06
353.22	461.06
353.447	440.06
353.674	443.06
353.901	430.06
354.128	426.06
354.355	447.06
354.583	451.06
354.81	426.06
355.037	427.06
355.264	437.06
355.491	426.06
355.718	433.06
355.945	437.06
356.172	420.06
356.399	433.06
356.626	427.06
356.853	433.06
357.08	419.06
357.307	431.06
357.534	410.06
357.761	425.06
357.988	430.06
358.215	416.06
358.441	418.06
358.668	429.06
358.895	443.06
359.122	419.06
359.349	444.06
359.576	443.06
359.802	490.06
360.029	500.06
360.256	522.06
360.483	479.06
360.709	448.06
360.936	463.06
361.163	446.06
361.39	484.06
361.616	451.06
361.843	475.06
362.07	430.06
362.296	444.06
362.523	433.06
362.749	449.06
362.976	446.06
363.203	447.06
363.429	423.06
363.656	442.06
363.882	416.06
364.109	436.06
364.335	428.06
364.562	437.06
364.788	422.06
365.015	417.06
365.241	421.06
365.468	428.06
365.694	417.06
365.92	444.06
366.147	417.06
366.373	425.06
366.599	433.06
366.826	413.06
367.052	433.06
367.278	421.06
367.505	426.06
367.731	451.06
367.957	444.06
368.184	425.06
368.41	423.06
368.636	439.06
368.862	454.06
369.089	419.06
369.315	433.06
369.541	453.06
369.767	451.06
369.993	439.06
370.219	427.06
370.445	419.06
370.672	414.06
370.898	444.06
371.124	422.06
371.35	439.06
371.576	428.06
371.802	426.06
372.028	440.06
372.254	444.06
372.48	441.06
372.706	459.06
372.932	440.06
373.158	431.06
373.384	433.06
373.61	437.06
373.835	441.06
374.061	433.06
374.287	446.06
374.513	435.06
374.739	439.06
374.965	454.06
375.191	439.06
375.416	459.06
375.642	439.06
375.868	444.06
376.094	439.06
376.319	446.06
376.545	435.06
376.771	441.06
376.997	437.06
377.222	434.06
377.448	425.06
377.674	438.06
377.899	419.06
378.125	435.06
378.35	433.06
378.576	432.06
378.802	411.06
379.027	411.06
379.253	436.06
379.478	425.06
379.704	422.06
379.929	423.06
380.155	422.06
380.38	435.06
380.606	437.06
380.831	437.06
381.057	443.06
381.282	425.06
381.507	438.06
381.733	445.06
381.958	433.06
382.184	438.06
382.409	445.06
382.634	438.06
382.86	445.06
383.085	466.06
383.31	453.06
383.535	437.06
383.761	450.06
383.986	446.06
384.211	463.06
384.436	446.06
384.662	461.06
384.887	473.06
385.112	466.06
385.337	474.06
385.562	486.06
385.787	458.06
386.013	502.06
386.238	511.06
386.463	494.06
386.688	473.06
386.913	487.06
387.138	503.06
387.363	485.06
387.588	485.06
387.813	495.06
388.038	461.06
388.263	478.06
388.488	480.06
388.713	488.06
388.938	495.06
389.163	467.06
389.387	472.06
389.612	504.06
389.837	477.06
390.062	499.06
390.287	482.06
390.512	476.06
390.736	489.06
390.961	476.06
391.186	489.06
391.411	507.06
391.636	485.06
391.86	512.06
392.085	513.06
392.31	522.06
392.534	489.06
392.759	495.06
392.984	497.06
393.208	472.06
393.433	473.06
393.658	505.06
393.882	476.06
394.107	477.06
394.331	487.06
394.556	471.06
394.78	499.06
395.005	499.06
395.229	514.06
395.454	499.06
395.678	510.06
395.903	522.06
396.127	517.06
396.352	538.06
396.576	492.06
396.801	507.06
397.025	517.06
397.249	533.06
397.474	523.06
397.698	522.06
397.922	526.06
398.147	533.06
398.371	566.06
398.595	545.06
398.82	555.06
399.044	571.06
399.268	585.06
399.492	658.06
399.717	683.06
399.941	722.06
400.165	707.06
400.389	717.06
400.613	633.06
400.837	572.06
401.062	582.06
401.286	572.06
401.51	570.06
401.734	541.06
401.958	555.06
402.182	573.06
402.406	575.06
402.63	584.06
402.854	585.06
403.078	584.06
403.302	577.06
403.526	597.06
403.75	585.06
403.974	600.06
404.198	589.06
404.422	608.06
404.645	600.06
404.869	599.06
405.093	630.06
405.317	659.06
405.541	710.06
405.765	649.06
405.988	611.06
406.212	623.06
406.436	642.06
406.66	670.06
406.883	628.06
407.107	639.06
407.331	694.06
407.555	781.06
407.778	769.06
408.002	687.06
408.226	649.06
408.449	630.06
408.673	643.06
408.896	659.06
409.12	719.06
409.344	649.06
409.567	597.06
409.791	592.06
410.014	599.06
410.238	573.06
410.461	578.06
410.685	576.06
410.908	594.06
411.132	633.06
411.355	639.06
411.578	623.06
411.802	597.06
412.025	585.06
412.249	578.06
412.472	607.06
412.695	618.06
412.919	614.06
413.142	581.06
413.365	556.06
413.589	534.06
413.812	558.06
414.035	512.06
414.258	539.06
414.482	555.06
414.705	561.06
414.928	545.06
415.151	557.06
415.374	540.06
415.597	530.06
415.821	542.06
416.044	527.06
416.267	540.06
416.49	529.06
416.713	509.06
416.936	549.06
417.159	550.06
417.382	552.06
417.605	526.06
417.828	525.06
418.051	574.06
418.274	579.06
418.497	549.06
418.72	541.06
418.943	539.06
419.166	565.06
419.389	579.06
419.611	570.06
419.834	582.06
420.057	581.06
420.28	580.06
420.503	580.06
420.726	574.06
420.948	589.06
421.171	622.06
421.394	638.06
421.617	586.06
421.839	584.06
422.062	574.06
422.285	592.06
422.507	609.06
422.73	681.06
422.953	653.06
423.175	603.06
423.398	587.06
423.621	576.06
423.843	593.06
424.066	588.06
424.288	607.06
424.511	647.06
424.733	685.06
424.956	748.06
425.178	674.06
425.401	709.06
425.623	715.06
425.846	627.06
426.068	599.06
426.291	589.06
426.513	579.06
426.735	582.06
426.958	625.06
427.18	699.06
427.402	823.06
427.625	931.06
427.847	792.06
428.069	673.06
428.292	589.06
428.514	586.06
428.736	555.06
428.958	519.06
429.181	539.06
429.403	521.06
429.625	549.06
429.847	566.06
430.069	651.06
430.292	605.06
430.514	545.06
430.736	524.06
430.958	532.06
431.18	508.06
431.402	508.06
431.624	537.06
431.846	497.06
432.068	501.06
432.29	515.06
432.512	503.06
432.734	515.06
432.956	506.06
433.178	537.06
433.4	528.06
433.622	520.06
433.844	521.06
434.066	506.06
434.287	515.06
434.509	521.06
434.731	547.06
434.953	580.06
435.175	552.06
435.397	569.06
435.618	581.06
435.84	611.06
436.062	710.06
436.284	747.06
436.505	643.06
436.727	578.06
436.949	569.06
437.17	563.06
437.392	559.06
437.614	537.06
437.835	583.06
438.057	667.06
438.278	771.06
438.5	742.06
438.721	825.06
438.943	775.06
439.165	630.06
439.386	579.06
439.608	571.06
439.829	582.06
440.05	591.06
440.272	629.06
440.493	639.06
440.715	570.06
440.936	555.06
441.158	527.06
441.379	558.06
441.6	554.06
441.822	590.06
442.043	637.06
442.264	693.06
442.486	725.06
442.707	630.06
442.928	593.06
443.149	593.06
443.371	643.06
443.592	673.06
443.813	772.06
444.034	805.06
444.255	669.06
444.476	622.06
444.698	605.06
444.919	622.06
445.14	757.06
445.361	670.06
445.582	660.06
445.803	680.06
446.024	816.06
446.245	782.06
446.466	715.06
446.687	625.06
446.908	580.06
447.129	553.06
447.35	531.06
447.571	538.06
447.792	527.06
448.013	532.06
448.234	533.06
448.455	598.06
448.675	700.06
448.896	782.06
449.117	667.06
449.338	630.06
449.559	754.06
449.779	862.06
450	681.06
450.221	576.06
450.442	521.06
450.662	540.06
450.883	519.06
451.104	551.06
451.324	510.06
451.545	504.06
451.766	485.06
451.986	470.06
452.207	508.06
452.428	461.06
452.648	475.06
452.869	460.06
453.089	478.06
453.31	494.06
453.53	514.06
453.751	493.06
453.971	485.06
454.192	476.06
454.412	481.06
454.633	468.06
454.853	459.06
455.073	445.06
455.294	500.06
455.514	559.06
455.734	533.06
455.955	459.06
456.175	469.06
456.395	456.06
456.616	457.06
456.836	438.06
457.056	433.06
457.276	437.06
457.497	442.06
457.717	446.06
457.937	463.06
458.157	468.06
458.377	477.06
458.598	475.06
458.818	540.06
459.038	601.06
459.258	632.06
459.478	558.06
459.698	546.06
459.918	531.06
460.138	529.06
460.358	547.06
460.578	549.06
460.798	547.06
461.018	569.06
461.238	555.06
461.458	543.06
461.678	520.06
461.898	537.06
462.118	547.06
462.338	563.06
462.558	584.06
462.777	584.06
462.997	602.06
463.217	630.06
463.437	605.06
463.657	585.06
463.876	594.06
464.096	599.06
464.316	585.06
464.536	605.06
464.755	602.06
464.975	595.06
465.195	599.06
465.414	674.06
465.634	590.06
465.854	539.06
466.073	519.06
466.293	498.06
466.512	500.06
466.732	492.06
466.951	506.06
467.171	493.06
467.391	499.06
467.61	510.06
467.829	520.06
468.049	489.06
468.268	481.06
468.488	491.06
468.707	491.06
468.927	481.06
469.146	463.06
469.365	471.06
469.585	482.06
469.804	508.06
470.023	513.06
470.243	526.06
470.462	516.06
470.681	514.06
470.901	532.06
471.12	501.06
471.339	513.06
471.558	485.06
471.777	501.06
471.997	496.06
472.216	511.06
472.435	526.06
472.654	511.06
472.873	507.06
473.092	516.06
473.311	494.06
473.53	497.06
473.749	499.06
473.968	570.06
474.187	633.06
474.406	663.06
474.625	541.06
474.844	529.06
475.063	500.06
475.282	507.06
475.501	491.06
475.72	507.06
475.939	513.06
476.158	504.06
476.377	527.06
476.596	523.06
476.814	525.06
477.033	524.06
477.252	532.06
477.471	521.06
477.69	525.06
477.908	554.06
478.127	557.06
478.346	555.06
478.564	574.06
478.783	558.06
479.002	595.06
479.22	616.06
479.439	581.06
479.658	591.06
479.876	591.06
480.095	592.06
480.313	635.06
480.532	631.06
480.751	600.06
480.969	619.06
481.188	652.06
481.406	690.06
481.624	621.06
481.843	575.06
482.061	579.06
482.28	575.06
482.498	574.06
482.717	556.06
482.935	564.06
483.153	558.06
483.372	588.06
483.59	596.06
483.808	574.06
484.027	573.06
484.245	572.06
484.463	568.06
484.681	596.06
484.9	589.06
485.118	607.06
485.336	587.06
485.554	589.06
485.772	562.06
485.99	603.06
486.209	596.06
486.427	599.06
486.645	602.06
486.863	619.06
487.081	615.06
487.299	623.06
487.517	609.06
487.735	601.06
487.953	598.06
488.171	602.06
488.389	597.06
488.607	592.06
488.825	622.06
489.043	626.06
489.261	633.06
489.479	635.06
489.696	612.06
489.914	631.06
490.132	652.06
490.35	638.06
490.568	660.06
490.786	660.06
491.003	664.06
491.221	675.06
491.439	697.06
491.657	681.06
491.874	705.06
492.092	711.06
492.31	723.06
492.527	734.06
492.745	713.06
492.963	711.06
493.18	711.06
493.398	722.06
493.615	721.06
493.833	716.06
494.05	732.06
494.268	733.06
494.485	732.06
494.703	729.06
494.92	723.06
495.138	721.06
495.355	718.06
495.573	731.06
495.79	715.06
496.008	743.06
496.225	753.06
496.442	746.06
496.66	757.06
496.877	741.06
497.094	732.06
497.312	747.06
497.529	763.06
497.746	773.06
497.963	794.06
498.181	821.06
498.398	830.06
498.615	870.06
498.832	872.06
499.049	925.06
499.267	917.06
499.484	956.06
499.701	1014.06
499.918	1076.06
500.135	1158.06
500.352	1201.06
500.569	1246.06
500.786	1243.06
501.003	1207.06
501.22	1163.06
501.437	1083.06
501.654	1041.06
501.871	1009.06
