Data from 1985.PennyLincolnUp.Lamp.En5.5.200Scan.071819.P1_HRD10591_17-03-41-971.txt Node
Date: Thu Jul 18 17:03:41 EDT 2019
User: cochatt
Spectrometer: HR+D1059
Trigger mode: 1
Integration Time (sec): 1.000000E-1
Scans to average: 1
Electric dark correction enabled: true
Nonlinearity correction enabled: false
Boxcar width: 0
XAxis mode: Wavelengths
Number of Pixels in Spectrum: 2048
>>>>>Begin Spectral Data<<<<<
223.165	-12.38
223.4	-12.38
223.635	-12.38
223.869	-26.38
224.104	-13.38
224.338	-6.38
224.573	-21.38
224.808	-17.38
225.042	-9.38
225.277	-9.38
225.511	-3.38
225.746	12.62
225.98	9.62
226.215	11.62
226.449	22.62
226.683	12.62
226.918	26.62
227.152	23.62
227.387	33.62
227.621	17.62
227.856	42.62
228.09	43.62
228.324	43.62
228.559	58.62
228.793	71.62
229.027	100.62
229.262	102.62
229.496	112.62
229.73	118.62
229.964	129.62
230.199	120.62
230.433	114.62
230.667	112.62
230.901	108.62
231.136	112.62
231.37	130.62
231.604	110.62
231.838	115.62
232.072	113.62
232.306	111.62
232.541	118.62
232.775	104.62
233.009	112.62
233.243	102.62
233.477	111.62
233.711	122.62
233.945	105.62
234.179	114.62
234.413	101.62
234.647	120.62
234.881	115.62
235.115	123.62
235.349	117.62
235.583	127.62
235.817	133.62
236.051	138.62
236.285	127.62
236.519	122.62
236.753	124.62
236.987	147.62
237.221	186.62
237.455	224.62
237.689	174.62
237.922	143.62
238.156	143.62
238.39	136.62
238.624	134.62
238.858	126.62
239.091	118.62
239.325	118.62
239.559	130.62
239.793	122.62
240.027	133.62
240.26	161.62
240.494	151.62
240.728	150.62
240.961	151.62
241.195	141.62
241.429	140.62
241.662	156.62
241.896	128.62
242.13	129.62
242.363	137.62
242.597	146.62
242.83	130.62
243.064	146.62
243.298	139.62
243.531	133.62
243.765	142.62
243.998	139.62
244.232	147.62
244.465	149.62
244.699	146.62
244.932	146.62
245.166	146.62
245.399	155.62
245.633	140.62
245.866	150.62
246.099	145.62
246.333	149.62
246.566	160.62
246.8	153.62
247.033	154.62
247.266	155.62
247.5	164.62
247.733	171.62
247.966	166.62
248.2	150.62
248.433	163.62
248.666	171.62
248.899	180.62
249.133	198.62
249.366	204.62
249.599	199.62
249.832	170.62
250.066	169.62
250.299	190.62
250.532	198.62
250.765	208.62
250.998	233.62
251.231	216.62
251.465	209.62
251.698	195.62
251.931	194.62
252.164	203.62
252.397	210.62
252.63	197.62
252.863	200.62
253.096	203.62
253.329	227.62
253.562	221.62
253.795	219.62
254.028	219.62
254.261	199.62
254.494	228.62
254.727	262.62
254.96	282.62
255.193	248.62
255.426	235.62
255.659	215.62
255.892	211.62
256.124	235.62
256.357	248.62
256.59	229.62
256.823	218.62
257.056	222.62
257.289	225.62
257.521	221.62
257.754	204.62
257.987	208.62
258.22	219.62
258.452	216.62
258.685	217.62
258.918	203.62
259.151	214.62
259.383	206.62
259.616	227.62
259.849	224.62
260.081	238.62
260.314	259.62
260.547	271.62
260.779	234.62
261.012	240.62
261.244	232.62
261.477	226.62
261.71	223.62
261.942	230.62
262.175	244.62
262.407	240.62
262.64	204.62
262.872	214.62
263.105	208.62
263.337	231.62
263.57	224.62
263.802	223.62
264.035	217.62
264.267	222.62
264.499	216.62
264.732	218.62
264.964	226.62
265.197	226.62
265.429	232.62
265.661	227.62
265.894	223.62
266.126	226.62
266.358	225.62
266.591	237.62
266.823	254.62
267.055	235.62
267.287	233.62
267.52	243.62
267.752	265.62
267.984	260.62
268.216	240.62
268.448	256.62
268.681	250.62
268.913	252.62
269.145	281.62
269.377	285.62
269.609	301.62
269.841	304.62
270.073	285.62
270.306	294.62
270.538	298.62
270.77	331.62
271.002	309.62
271.234	303.62
271.466	286.62
271.698	315.62
271.93	314.62
272.162	311.62
272.394	316.62
272.626	324.62
272.858	314.62
273.09	305.62
273.322	298.62
273.553	286.62
273.785	275.62
274.017	261.62
274.249	279.62
274.481	301.62
274.713	275.62
274.945	297.62
275.176	275.62
275.408	269.62
275.64	275.62
275.872	261.62
276.104	295.62
276.335	286.62
276.567	296.62
276.799	311.62
277.031	324.62
277.262	330.62
277.494	341.62
277.726	326.62
277.957	306.62
278.189	307.62
278.421	288.62
278.652	288.62
278.884	296.62
279.115	292.62
279.347	290.62
279.579	275.62
279.81	295.62
280.042	288.62
280.273	296.62
280.505	305.62
280.736	300.62
280.968	296.62
281.199	298.62
281.431	305.62
281.662	303.62
281.894	307.62
282.125	302.62
282.356	298.62
282.588	340.62
282.819	327.62
283.051	314.62
283.282	313.62
283.513	288.62
283.745	306.62
283.976	322.62
284.207	312.62
284.439	317.62
284.67	300.62
284.901	302.62
285.132	300.62
285.364	310.62
285.595	315.62
285.826	331.62
286.057	303.62
286.288	319.62
286.52	322.62
286.751	322.62
286.982	313.62
287.213	315.62
287.444	330.62
287.675	325.62
287.906	325.62
288.138	325.62
288.369	340.62
288.6	331.62
288.831	338.62
289.062	328.62
289.293	304.62
289.524	314.62
289.755	307.62
289.986	288.62
290.217	304.62
290.448	324.62
290.679	314.62
290.91	333.62
291.141	306.62
291.371	330.62
291.602	339.62
291.833	331.62
292.064	328.62
292.295	336.62
292.526	323.62
292.757	314.62
292.987	315.62
293.218	319.62
293.449	332.62
293.68	346.62
293.91	321.62
294.141	340.62
294.372	328.62
294.603	319.62
294.833	332.62
295.064	336.62
295.295	323.62
295.525	318.62
295.756	340.62
295.987	331.62
296.217	359.62
296.448	377.62
296.679	342.62
296.909	332.62
297.14	330.62
297.37	354.62
297.601	343.62
297.831	361.62
298.062	374.62
298.292	352.62
298.523	345.62
298.753	363.62
298.984	352.62
299.214	339.62
299.445	353.62
299.675	341.62
299.905	389.62
300.136	362.62
300.366	357.62
300.597	364.62
300.827	352.62
301.057	352.62
301.288	362.62
301.518	358.62
301.748	352.62
301.979	381.62
302.209	380.62
302.439	368.62
302.669	389.62
302.9	368.62
303.13	353.62
303.36	384.62
303.59	388.62
303.82	405.62
304.051	394.62
304.281	374.62
304.511	381.62
304.741	376.62
304.971	366.62
305.201	380.62
305.431	382.62
305.661	372.62
305.891	390.62
306.121	362.62
306.352	375.62
306.582	382.62
306.812	378.62
307.042	361.62
307.272	397.62
307.502	348.62
307.731	376.62
307.961	389.62
308.191	385.62
308.421	386.62
308.651	378.62
308.881	363.62
309.111	374.62
309.341	398.62
309.571	397.62
309.8	386.62
310.03	387.62
310.26	387.62
310.49	415.62
310.72	405.62
310.949	443.62
311.179	442.62
311.409	421.62
311.639	426.62
311.868	433.62
312.098	433.62
312.328	434.62
312.557	434.62
312.787	451.62
313.017	449.62
313.246	435.62
313.476	438.62
313.706	430.62
313.935	417.62
314.165	445.62
314.394	435.62
314.624	447.62
314.853	424.62
315.083	417.62
315.312	392.62
315.542	427.62
315.771	414.62
316.001	424.62
316.23	403.62
316.46	410.62
316.689	416.62
316.919	411.62
317.148	428.62
317.377	436.62
317.607	430.62
317.836	432.62
318.065	438.62
318.295	431.62
318.524	420.62
318.753	432.62
318.983	423.62
319.212	400.62
319.441	407.62
319.67	425.62
319.9	425.62
320.129	435.62
320.358	408.62
320.587	418.62
320.816	440.62
321.046	449.62
321.275	442.62
321.504	450.62
321.733	436.62
321.962	446.62
322.191	461.62
322.42	462.62
322.649	473.62
322.878	490.62
323.108	494.62
323.337	516.62
323.566	540.62
323.795	554.62
324.024	588.62
324.253	696.62
324.482	964.62
324.71	1454.62
324.939	2124.62
325.168	1758.62
325.397	938.62
325.626	674.62
325.855	598.62
326.084	575.62
326.313	513.62
326.542	542.62
326.77	590.62
326.999	695.62
327.228	883.62
327.457	1314.62
327.686	1572.62
327.914	1060.62
328.143	750.62
328.372	638.62
328.6	590.62
328.829	593.62
329.058	612.62
329.287	605.62
329.515	595.62
329.744	576.62
329.972	570.62
330.201	578.62
330.43	609.62
330.658	609.62
330.887	638.62
331.115	627.62
331.344	568.62
331.572	552.62
331.801	536.62
332.03	541.62
332.258	543.62
332.486	521.62
332.715	523.62
332.943	526.62
333.172	532.62
333.4	519.62
333.629	542.62
333.857	581.62
334.085	590.62
334.314	569.62
334.542	617.62
334.771	585.62
334.999	599.62
335.227	535.62
335.455	525.62
335.684	538.62
335.912	531.62
336.14	511.62
336.369	500.62
336.597	499.62
336.825	525.62
337.053	508.62
337.281	500.62
337.51	483.62
337.738	497.62
337.966	490.62
338.194	498.62
338.422	481.62
338.65	488.62
338.878	488.62
339.106	480.62
339.334	487.62
339.562	479.62
339.79	473.62
340.018	471.62
340.246	471.62
340.474	467.62
340.702	467.62
340.93	463.62
341.158	486.62
341.386	482.62
341.614	474.62
341.842	481.62
342.07	463.62
342.298	462.62
342.526	452.62
342.754	464.62
342.981	475.62
343.209	473.62
343.437	465.62
343.665	474.62
343.893	483.62
344.12	487.62
344.348	512.62
344.576	486.62
344.804	489.62
345.031	516.62
345.259	512.62
345.487	480.62
345.714	481.62
345.942	459.62
346.17	459.62
346.397	476.62
346.625	460.62
346.853	447.62
347.08	452.62
347.308	457.62
347.535	456.62
347.763	470.62
347.99	436.62
348.218	449.62
348.445	467.62
348.673	462.62
348.9	478.62
349.128	438.62
349.355	427.62
349.583	434.62
349.81	432.62
350.037	444.62
350.265	428.62
350.492	432.62
350.72	442.62
350.947	444.62
351.174	446.62
351.402	456.62
351.629	458.62
351.856	449.62
352.083	466.62
352.311	443.62
352.538	495.62
352.765	475.62
352.992	448.62
353.22	454.62
353.447	442.62
353.674	431.62
353.901	410.62
354.128	426.62
354.355	414.62
354.583	446.62
354.81	425.62
355.037	430.62
355.264	429.62
355.491	422.62
355.718	433.62
355.945	411.62
356.172	419.62
356.399	423.62
356.626	434.62
356.853	415.62
357.08	420.62
357.307	433.62
357.534	423.62
357.761	432.62
357.988	428.62
358.215	427.62
358.441	425.62
358.668	418.62
358.895	430.62
359.122	441.62
359.349	426.62
359.576	449.62
359.802	471.62
360.029	474.62
360.256	501.62
360.483	466.62
360.709	451.62
360.936	446.62
361.163	466.62
361.39	470.62
361.616	438.62
361.843	435.62
362.07	445.62
362.296	439.62
362.523	450.62
362.749	439.62
362.976	440.62
363.203	428.62
363.429	451.62
363.656	448.62
363.882	433.62
364.109	443.62
364.335	432.62
364.562	426.62
364.788	413.62
365.015	425.62
365.241	434.62
365.468	438.62
365.694	445.62
365.92	443.62
366.147	438.62
366.373	429.62
366.599	446.62
366.826	409.62
367.052	406.62
367.278	423.62
367.505	439.62
367.731	438.62
367.957	450.62
368.184	444.62
368.41	433.62
368.636	434.62
368.862	423.62
369.089	440.62
369.315	438.62
369.541	435.62
369.767	432.62
369.993	424.62
370.219	441.62
370.445	425.62
370.672	440.62
370.898	436.62
371.124	431.62
371.35	413.62
371.576	441.62
371.802	439.62
372.028	413.62
372.254	428.62
372.48	430.62
372.706	451.62
372.932	459.62
373.158	438.62
373.384	456.62
373.61	425.62
373.835	444.62
374.061	459.62
374.287	460.62
374.513	431.62
374.739	426.62
374.965	448.62
375.191	438.62
375.416	471.62
375.642	425.62
375.868	420.62
376.094	444.62
376.319	444.62
376.545	451.62
376.771	418.62
376.997	440.62
377.222	436.62
377.448	436.62
377.674	433.62
377.899	413.62
378.125	406.62
378.35	404.62
378.576	406.62
378.802	432.62
379.027	430.62
379.253	431.62
379.478	419.62
379.704	426.62
379.929	432.62
380.155	435.62
380.38	419.62
380.606	426.62
380.831	424.62
381.057	436.62
381.282	449.62
381.507	433.62
381.733	432.62
381.958	440.62
382.184	435.62
382.409	423.62
382.634	458.62
382.86	412.62
383.085	435.62
383.31	442.62
383.535	445.62
383.761	445.62
383.986	440.62
384.211	458.62
384.436	469.62
384.662	457.62
384.887	468.62
385.112	461.62
385.337	496.62
385.562	505.62
385.787	468.62
386.013	488.62
386.238	476.62
386.463	505.62
386.688	485.62
386.913	472.62
387.138	496.62
387.363	466.62
387.588	480.62
387.813	462.62
388.038	487.62
388.263	491.62
388.488	462.62
388.713	469.62
388.938	466.62
389.163	470.62
389.387	479.62
389.612	470.62
389.837	468.62
390.062	470.62
390.287	480.62
390.512	460.62
390.736	463.62
390.961	460.62
391.186	466.62
391.411	491.62
391.636	487.62
391.86	500.62
392.085	486.62
392.31	486.62
392.534	515.62
392.759	514.62
392.984	523.62
393.208	490.62
393.433	483.62
393.658	483.62
393.882	480.62
394.107	475.62
394.331	472.62
394.556	492.62
394.78	453.62
395.005	463.62
395.229	488.62
395.454	502.62
395.678	510.62
395.903	524.62
396.127	533.62
396.352	526.62
396.576	510.62
396.801	500.62
397.025	510.62
397.249	508.62
397.474	516.62
397.698	508.62
397.922	543.62
398.147	543.62
398.371	546.62
398.595	550.62
398.82	586.62
399.044	574.62
399.268	622.62
399.492	611.62
399.717	726.62
399.941	710.62
400.165	708.62
400.389	702.62
400.613	647.62
400.837	608.62
401.062	569.62
401.286	587.62
401.51	561.62
401.734	555.62
401.958	555.62
402.182	546.62
402.406	573.62
402.63	562.62
402.854	578.62
403.078	586.62
403.302	583.62
403.526	607.62
403.75	601.62
403.974	594.62
404.198	586.62
404.422	610.62
404.645	600.62
404.869	594.62
405.093	647.62
405.317	662.62
405.541	685.62
405.765	627.62
405.988	622.62
406.212	621.62
406.436	628.62
406.66	639.62
406.883	624.62
407.107	661.62
407.331	723.62
407.555	782.62
407.778	754.62
408.002	693.62
408.226	656.62
408.449	630.62
408.673	615.62
408.896	631.62
409.12	689.62
409.344	667.62
409.567	588.62
409.791	587.62
410.014	580.62
410.238	572.62
410.461	573.62
410.685	571.62
410.908	589.62
411.132	611.62
411.355	644.62
411.578	623.62
411.802	576.62
412.025	592.62
412.249	605.62
412.472	612.62
412.695	638.62
412.919	636.62
413.142	604.62
413.365	584.62
413.589	577.62
413.812	564.62
414.035	552.62
414.258	573.62
414.482	545.62
414.705	538.62
414.928	525.62
415.151	531.62
415.374	532.62
415.597	532.62
415.821	544.62
416.044	559.62
416.267	558.62
416.49	505.62
416.713	520.62
416.936	555.62
417.159	535.62
417.382	540.62
417.605	537.62
417.828	537.62
418.051	572.62
418.274	554.62
418.497	553.62
418.72	520.62
418.943	540.62
419.166	580.62
419.389	608.62
419.611	604.62
419.834	579.62
420.057	554.62
420.28	574.62
420.503	560.62
420.726	558.62
420.948	565.62
421.171	613.62
421.394	619.62
421.617	561.62
421.839	561.62
422.062	563.62
422.285	567.62
422.507	617.62
422.73	713.62
422.953	649.62
423.175	612.62
423.398	596.62
423.621	572.62
423.843	604.62
424.066	611.62
424.288	581.62
424.511	599.62
424.733	665.62
424.956	710.62
425.178	722.62
425.401	681.62
425.623	724.62
425.846	619.62
426.068	560.62
426.291	577.62
426.513	561.62
426.735	559.62
426.958	606.62
427.18	681.62
427.402	791.62
427.625	881.62
427.847	779.62
428.069	677.62
428.292	592.62
428.514	568.62
428.736	547.62
428.958	541.62
429.181	553.62
429.403	519.62
429.625	542.62
429.847	586.62
430.069	618.62
430.292	628.62
430.514	549.62
430.736	528.62
430.958	531.62
431.18	508.62
431.402	505.62
431.624	519.62
431.846	511.62
432.068	505.62
432.29	518.62
432.512	521.62
432.734	512.62
432.956	514.62
433.178	502.62
433.4	522.62
433.622	507.62
433.844	513.62
434.066	496.62
434.287	514.62
434.509	528.62
434.731	541.62
434.953	552.62
435.175	578.62
435.397	567.62
435.618	562.62
435.84	649.62
436.062	703.62
436.284	754.62
436.505	638.62
436.727	575.62
436.949	550.62
437.17	542.62
437.392	518.62
437.614	548.62
437.835	556.62
438.057	637.62
438.278	736.62
438.5	761.62
438.721	843.62
438.943	762.62
439.165	634.62
439.386	561.62
439.608	597.62
439.829	568.62
440.05	607.62
440.272	634.62
440.493	601.62
440.715	583.62
440.936	538.62
441.158	570.62
441.379	532.62
441.6	549.62
441.822	608.62
442.043	608.62
442.264	712.62
442.486	705.62
442.707	633.62
442.928	574.62
443.149	597.62
443.371	617.62
443.592	674.62
443.813	740.62
444.034	802.62
444.255	704.62
444.476	646.62
444.698	615.62
444.919	615.62
445.14	730.62
445.361	657.62
445.582	660.62
445.803	677.62
446.024	766.62
446.245	797.62
446.466	696.62
446.687	622.62
446.908	558.62
447.129	527.62
447.35	527.62
447.571	538.62
447.792	510.62
448.013	528.62
448.234	535.62
448.455	596.62
448.675	701.62
448.896	772.62
449.117	652.62
449.338	644.62
449.559	720.62
449.779	853.62
450	641.62
450.221	556.62
450.442	514.62
450.662	499.62
450.883	493.62
451.104	523.62
451.324	524.62
451.545	512.62
451.766	479.62
451.986	481.62
452.207	467.62
452.428	469.62
452.648	458.62
452.869	466.62
453.089	496.62
453.31	538.62
453.53	478.62
453.751	474.62
453.971	490.62
454.192	483.62
454.412	483.62
454.633	464.62
454.853	467.62
455.073	441.62
455.294	488.62
455.514	556.62
455.734	536.62
455.955	460.62
456.175	458.62
456.395	449.62
456.616	451.62
456.836	457.62
457.056	416.62
457.276	416.62
457.497	449.62
457.717	445.62
457.937	457.62
458.157	469.62
458.377	459.62
458.598	486.62
458.818	537.62
459.038	614.62
459.258	635.62
459.478	576.62
459.698	528.62
459.918	524.62
460.138	535.62
460.358	544.62
460.578	538.62
460.798	540.62
461.018	548.62
461.238	553.62
461.458	538.62
461.678	548.62
461.898	552.62
462.118	558.62
462.338	563.62
462.558	577.62
462.777	580.62
462.997	595.62
463.217	636.62
463.437	631.62
463.657	583.62
463.876	609.62
464.096	607.62
464.316	591.62
464.536	601.62
464.755	577.62
464.975	579.62
465.195	606.62
465.414	657.62
465.634	574.62
465.854	546.62
466.073	532.62
466.293	510.62
466.512	511.62
466.732	521.62
466.951	495.62
467.171	492.62
467.391	499.62
467.61	485.62
467.829	528.62
468.049	514.62
468.268	506.62
468.488	492.62
468.707	472.62
468.927	459.62
469.146	480.62
469.365	471.62
469.585	472.62
469.804	504.62
470.023	510.62
470.243	488.62
470.462	519.62
470.681	522.62
470.901	515.62
471.12	523.62
471.339	499.62
471.558	490.62
471.777	495.62
471.997	499.62
472.216	479.62
472.435	508.62
472.654	530.62
472.873	490.62
473.092	482.62
473.311	478.62
473.53	510.62
473.749	514.62
473.968	533.62
474.187	602.62
474.406	635.62
474.625	518.62
474.844	499.62
475.063	489.62
475.282	488.62
475.501	487.62
475.72	487.62
475.939	494.62
476.158	521.62
476.377	521.62
476.596	505.62
476.814	517.62
477.033	524.62
477.252	531.62
477.471	518.62
477.69	523.62
477.908	548.62
478.127	537.62
478.346	543.62
478.564	564.62
478.783	554.62
479.002	552.62
479.22	553.62
479.439	558.62
479.658	573.62
479.876	611.62
480.095	590.62
480.313	650.62
480.532	622.62
480.751	646.62
480.969	609.62
481.188	666.62
481.406	703.62
481.624	636.62
481.843	611.62
482.061	596.62
482.28	563.62
482.498	575.62
482.717	594.62
482.935	562.62
483.153	568.62
483.372	576.62
483.59	577.62
483.808	572.62
484.027	574.62
484.245	578.62
484.463	577.62
484.681	576.62
484.9	572.62
485.118	586.62
485.336	583.62
485.554	576.62
485.772	559.62
485.99	598.62
486.209	600.62
486.427	602.62
486.645	602.62
486.863	622.62
487.081	599.62
487.299	618.62
487.517	613.62
487.735	616.62
487.953	614.62
488.171	604.62
488.389	614.62
488.607	607.62
488.825	617.62
489.043	631.62
489.261	599.62
489.479	632.62
489.696	641.62
489.914	636.62
490.132	638.62
490.35	639.62
490.568	637.62
490.786	658.62
491.003	652.62
491.221	672.62
491.439	678.62
491.657	697.62
491.874	676.62
492.092	694.62
492.31	702.62
492.527	695.62
492.745	715.62
492.963	712.62
493.18	736.62
493.398	728.62
493.615	734.62
493.833	732.62
494.05	712.62
494.268	707.62
494.485	741.62
494.703	729.62
494.92	723.62
495.138	741.62
495.355	721.62
495.573	731.62
495.79	712.62
496.008	709.62
496.225	735.62
496.442	739.62
496.66	751.62
496.877	720.62
497.094	742.62
497.312	758.62
497.529	742.62
497.746	760.62
497.963	788.62
498.181	797.62
498.398	825.62
498.615	849.62
498.832	876.62
499.049	911.62
499.267	931.62
499.484	953.62
499.701	1032.62
499.918	1080.62
500.135	1115.62
500.352	1227.62
500.569	1268.62
500.786	1227.62
501.003	1188.62
501.22	1151.62
501.437	1128.62
501.654	1013.62
501.871	1005.62
