Data from 1985.PennyLincolnUp.Lamp.En5.5.200Scan.071819.P1_HRD10591_17-01-25-969.txt Node
Date: Thu Jul 18 17:01:25 EDT 2019
User: cochatt
Spectrometer: HR+D1059
Trigger mode: 1
Integration Time (sec): 1.000000E-1
Scans to average: 1
Electric dark correction enabled: true
Nonlinearity correction enabled: false
Boxcar width: 0
XAxis mode: Wavelengths
Number of Pixels in Spectrum: 2048
>>>>>Begin Spectral Data<<<<<
223.165	-17.19
223.4	-17.19
223.635	-17.19
223.869	-18.19
224.104	-29.19
224.338	-11.19
224.573	-25.19
224.808	-6.19
225.042	-15.19
225.277	-7.19
225.511	-1.19
225.746	13.81
225.98	8.81
226.215	5.81
226.449	9.81
226.683	40.81
226.918	21.81
227.152	29.81
227.387	38.81
227.621	32.81
227.856	43.81
228.09	46.81
228.324	70.81
228.559	73.81
228.793	54.81
229.027	96.81
229.262	94.81
229.496	97.81
229.73	117.81
229.964	132.81
230.199	110.81
230.433	100.81
230.667	103.81
230.901	104.81
231.136	109.81
231.37	110.81
231.604	100.81
231.838	108.81
232.072	106.81
232.306	107.81
232.541	117.81
232.775	118.81
233.009	106.81
233.243	120.81
233.477	130.81
233.711	114.81
233.945	113.81
234.179	101.81
234.413	107.81
234.647	104.81
234.881	117.81
235.115	109.81
235.349	115.81
235.583	125.81
235.817	118.81
236.051	126.81
236.285	115.81
236.519	121.81
236.753	136.81
236.987	122.81
237.221	154.81
237.455	210.81
237.689	168.81
237.922	127.81
238.156	136.81
238.39	113.81
238.624	124.81
238.858	122.81
239.091	116.81
239.325	127.81
239.559	137.81
239.793	124.81
240.027	114.81
240.26	129.81
240.494	138.81
240.728	139.81
240.961	148.81
241.195	145.81
241.429	129.81
241.662	122.81
241.896	124.81
242.13	124.81
242.363	130.81
242.597	123.81
242.83	138.81
243.064	132.81
243.298	123.81
243.531	136.81
243.765	132.81
243.998	143.81
244.232	126.81
244.465	148.81
244.699	144.81
244.932	145.81
245.166	136.81
245.399	129.81
245.633	152.81
245.866	158.81
246.099	156.81
246.333	126.81
246.566	131.81
246.8	146.81
247.033	138.81
247.266	156.81
247.5	151.81
247.733	146.81
247.966	153.81
248.2	157.81
248.433	165.81
248.666	160.81
248.899	167.81
249.133	171.81
249.366	199.81
249.599	169.81
249.832	169.81
250.066	182.81
250.299	158.81
250.532	164.81
250.765	177.81
250.998	204.81
251.231	203.81
251.465	177.81
251.698	203.81
251.931	188.81
252.164	181.81
252.397	192.81
252.63	185.81
252.863	182.81
253.096	187.81
253.329	209.81
253.562	202.81
253.795	203.81
254.028	199.81
254.261	187.81
254.494	200.81
254.727	230.81
254.96	248.81
255.193	213.81
255.426	218.81
255.659	206.81
255.892	200.81
256.124	206.81
256.357	196.81
256.59	189.81
256.823	198.81
257.056	193.81
257.289	182.81
257.521	201.81
257.754	200.81
257.987	201.81
258.22	211.81
258.452	205.81
258.685	185.81
258.918	203.81
259.151	192.81
259.383	220.81
259.616	210.81
259.849	212.81
260.081	231.81
260.314	222.81
260.547	219.81
260.779	244.81
261.012	216.81
261.244	204.81
261.477	215.81
261.71	206.81
261.942	206.81
262.175	208.81
262.407	209.81
262.64	212.81
262.872	194.81
263.105	214.81
263.337	199.81
263.57	192.81
263.802	210.81
264.035	202.81
264.267	206.81
264.499	203.81
264.732	220.81
264.964	208.81
265.197	204.81
265.429	228.81
265.661	216.81
265.894	224.81
266.126	219.81
266.358	212.81
266.591	216.81
266.823	210.81
267.055	220.81
267.287	218.81
267.52	223.81
267.752	226.81
267.984	213.81
268.216	233.81
268.448	242.81
268.681	226.81
268.913	251.81
269.145	227.81
269.377	260.81
269.609	257.81
269.841	251.81
270.073	246.81
270.306	271.81
270.538	279.81
270.77	283.81
271.002	281.81
271.234	274.81
271.466	279.81
271.698	294.81
271.93	286.81
272.162	291.81
272.394	292.81
272.626	291.81
272.858	271.81
273.09	239.81
273.322	253.81
273.553	256.81
273.785	251.81
274.017	242.81
274.249	237.81
274.481	256.81
274.713	262.81
274.945	262.81
275.176	265.81
275.408	254.81
275.64	264.81
275.872	257.81
276.104	254.81
276.335	260.81
276.567	270.81
276.799	280.81
277.031	268.81
277.262	297.81
277.494	299.81
277.726	286.81
277.957	296.81
278.189	267.81
278.421	282.81
278.652	251.81
278.884	266.81
279.115	260.81
279.347	267.81
279.579	277.81
279.81	274.81
280.042	261.81
280.273	251.81
280.505	265.81
280.736	275.81
280.968	273.81
281.199	258.81
281.431	276.81
281.662	271.81
281.894	277.81
282.125	297.81
282.356	306.81
282.588	290.81
282.819	308.81
283.051	270.81
283.282	270.81
283.513	280.81
283.745	279.81
283.976	298.81
284.207	301.81
284.439	300.81
284.67	283.81
284.901	291.81
285.132	266.81
285.364	283.81
285.595	296.81
285.826	297.81
286.057	285.81
286.288	292.81
286.52	280.81
286.751	309.81
286.982	283.81
287.213	298.81
287.444	308.81
287.675	297.81
287.906	300.81
288.138	304.81
288.369	327.81
288.6	311.81
288.831	296.81
289.062	310.81
289.293	310.81
289.524	309.81
289.755	319.81
289.986	310.81
290.217	291.81
290.448	300.81
290.679	305.81
290.91	285.81
291.141	307.81
291.371	302.81
291.602	300.81
291.833	288.81
292.064	297.81
292.295	301.81
292.526	320.81
292.757	311.81
292.987	292.81
293.218	301.81
293.449	316.81
293.68	312.81
293.91	312.81
294.141	307.81
294.372	287.81
294.603	306.81
294.833	308.81
295.064	297.81
295.295	315.81
295.525	322.81
295.756	321.81
295.987	325.81
296.217	323.81
296.448	321.81
296.679	326.81
296.909	315.81
297.14	321.81
297.37	315.81
297.601	310.81
297.831	322.81
298.062	331.81
298.292	302.81
298.523	328.81
298.753	340.81
298.984	333.81
299.214	327.81
299.445	318.81
299.675	333.81
299.905	335.81
300.136	329.81
300.366	330.81
300.597	331.81
300.827	314.81
301.057	354.81
301.288	351.81
301.518	351.81
301.748	352.81
301.979	355.81
302.209	359.81
302.439	354.81
302.669	341.81
302.9	332.81
303.13	329.81
303.36	363.81
303.59	341.81
303.82	351.81
304.051	358.81
304.281	357.81
304.511	376.81
304.741	332.81
304.971	333.81
305.201	358.81
305.431	342.81
305.661	330.81
305.891	331.81
306.121	342.81
306.352	339.81
306.582	360.81
306.812	332.81
307.042	337.81
307.272	341.81
307.502	334.81
307.731	346.81
307.961	331.81
308.191	318.81
308.421	357.81
308.651	357.81
308.881	349.81
309.111	334.81
309.341	348.81
309.571	362.81
309.8	374.81
310.03	370.81
310.26	389.81
310.49	371.81
310.72	349.81
310.949	390.81
311.179	363.81
311.409	374.81
311.639	384.81
311.868	377.81
312.098	382.81
312.328	373.81
312.557	401.81
312.787	392.81
313.017	383.81
313.246	388.81
313.476	380.81
313.706	374.81
313.935	394.81
314.165	402.81
314.394	412.81
314.624	421.81
314.853	383.81
315.083	401.81
315.312	391.81
315.542	386.81
315.771	384.81
316.001	396.81
316.23	381.81
316.46	383.81
316.689	393.81
316.919	366.81
317.148	398.81
317.377	380.81
317.607	389.81
317.836	394.81
318.065	411.81
318.295	399.81
318.524	380.81
318.753	374.81
318.983	372.81
319.212	361.81
319.441	384.81
319.67	386.81
319.9	376.81
320.129	373.81
320.358	396.81
320.587	402.81
320.816	402.81
321.046	396.81
321.275	411.81
321.504	385.81
321.733	408.81
321.962	430.81
322.191	420.81
322.42	417.81
322.649	417.81
322.878	434.81
323.108	418.81
323.337	440.81
323.566	463.81
323.795	475.81
324.024	499.81
324.253	547.81
324.482	748.81
324.71	1093.81
324.939	1568.81
325.168	1297.81
325.397	728.81
325.626	546.81
325.855	469.81
326.084	462.81
326.313	469.81
326.542	472.81
326.77	494.81
326.999	574.81
327.228	725.81
327.457	982.81
327.686	1173.81
327.914	818.81
328.143	594.81
328.372	556.81
328.6	504.81
328.829	472.81
329.058	505.81
329.287	519.81
329.515	497.81
329.744	452.81
329.972	460.81
330.201	477.81
330.43	469.81
330.658	480.81
330.887	531.81
331.115	482.81
331.344	469.81
331.572	485.81
331.801	467.81
332.03	469.81
332.258	465.81
332.486	459.81
332.715	474.81
332.943	484.81
333.172	483.81
333.4	471.81
333.629	490.81
333.857	476.81
334.085	480.81
334.314	495.81
334.542	479.81
334.771	480.81
334.999	457.81
335.227	473.81
335.455	468.81
335.684	457.81
335.912	490.81
336.14	454.81
336.369	465.81
336.597	468.81
336.825	467.81
337.053	459.81
337.281	458.81
337.51	430.81
337.738	435.81
337.966	446.81
338.194	444.81
338.422	443.81
338.65	461.81
338.878	448.81
339.106	440.81
339.334	449.81
339.562	438.81
339.79	425.81
340.018	433.81
340.246	435.81
340.474	433.81
340.702	430.81
340.93	434.81
341.158	428.81
341.386	444.81
341.614	420.81
341.842	440.81
342.07	422.81
342.298	418.81
342.526	423.81
342.754	412.81
342.981	418.81
343.209	433.81
343.437	445.81
343.665	425.81
343.893	443.81
344.12	475.81
344.348	443.81
344.576	453.81
344.804	439.81
345.031	474.81
345.259	452.81
345.487	437.81
345.714	440.81
345.942	437.81
346.17	397.81
346.397	409.81
346.625	411.81
346.853	394.81
347.08	396.81
347.308	414.81
347.535	427.81
347.763	431.81
347.99	415.81
348.218	404.81
348.445	416.81
348.673	416.81
348.9	399.81
349.128	419.81
349.355	393.81
349.583	404.81
349.81	419.81
350.037	399.81
350.265	397.81
350.492	417.81
350.72	407.81
350.947	406.81
351.174	406.81
351.402	398.81
351.629	404.81
351.856	422.81
352.083	388.81
352.311	403.81
352.538	425.81
352.765	423.81
352.992	419.81
353.22	421.81
353.447	418.81
353.674	432.81
353.901	404.81
354.128	411.81
354.355	387.81
354.583	395.81
354.81	401.81
355.037	398.81
355.264	390.81
355.491	385.81
355.718	388.81
355.945	384.81
356.172	386.81
356.399	399.81
356.626	400.81
356.853	397.81
357.08	398.81
357.307	392.81
357.534	373.81
357.761	380.81
357.988	392.81
358.215	397.81
358.441	394.81
358.668	396.81
358.895	386.81
359.122	388.81
359.349	406.81
359.576	404.81
359.802	416.81
360.029	428.81
360.256	457.81
360.483	448.81
360.709	414.81
360.936	418.81
361.163	388.81
361.39	405.81
361.616	392.81
361.843	404.81
362.07	391.81
362.296	408.81
362.523	393.81
362.749	387.81
362.976	405.81
363.203	408.81
363.429	395.81
363.656	402.81
363.882	390.81
364.109	397.81
364.335	404.81
364.562	406.81
364.788	386.81
365.015	397.81
365.241	393.81
365.468	398.81
365.694	381.81
365.92	404.81
366.147	362.81
366.373	402.81
366.599	394.81
366.826	392.81
367.052	384.81
367.278	376.81
367.505	380.81
367.731	390.81
367.957	401.81
368.184	398.81
368.41	409.81
368.636	410.81
368.862	421.81
369.089	396.81
369.315	399.81
369.541	387.81
369.767	391.81
369.993	388.81
370.219	382.81
370.445	381.81
370.672	385.81
370.898	394.81
371.124	392.81
371.35	403.81
371.576	403.81
371.802	385.81
372.028	410.81
372.254	401.81
372.48	398.81
372.706	416.81
372.932	381.81
373.158	397.81
373.384	407.81
373.61	410.81
373.835	419.81
374.061	398.81
374.287	399.81
374.513	412.81
374.739	409.81
374.965	415.81
375.191	420.81
375.416	420.81
375.642	404.81
375.868	402.81
376.094	416.81
376.319	398.81
376.545	416.81
376.771	406.81
376.997	396.81
377.222	373.81
377.448	380.81
377.674	399.81
377.899	412.81
378.125	399.81
378.35	376.81
378.576	400.81
378.802	403.81
379.027	403.81
379.253	396.81
379.478	394.81
379.704	397.81
379.929	394.81
380.155	386.81
380.38	399.81
380.606	414.81
380.831	386.81
381.057	413.81
381.282	400.81
381.507	411.81
381.733	406.81
381.958	388.81
382.184	410.81
382.409	405.81
382.634	406.81
382.86	396.81
383.085	403.81
383.31	434.81
383.535	417.81
383.761	422.81
383.986	419.81
384.211	423.81
384.436	429.81
384.662	419.81
384.887	411.81
385.112	440.81
385.337	449.81
385.562	435.81
385.787	440.81
386.013	453.81
386.238	454.81
386.463	434.81
386.688	444.81
386.913	448.81
387.138	435.81
387.363	433.81
387.588	427.81
387.813	440.81
388.038	430.81
388.263	443.81
388.488	454.81
388.713	424.81
388.938	444.81
389.163	448.81
389.387	440.81
389.612	454.81
389.837	446.81
390.062	427.81
390.287	453.81
390.512	439.81
390.736	433.81
390.961	456.81
391.186	451.81
391.411	452.81
391.636	467.81
391.86	473.81
392.085	476.81
392.31	457.81
392.534	456.81
392.759	470.81
392.984	465.81
393.208	469.81
393.433	439.81
393.658	451.81
393.882	443.81
394.107	441.81
394.331	459.81
394.556	460.81
394.78	456.81
395.005	453.81
395.229	462.81
395.454	458.81
395.678	480.81
395.903	475.81
396.127	477.81
396.352	492.81
396.576	476.81
396.801	456.81
397.025	453.81
397.249	489.81
397.474	468.81
397.698	461.81
397.922	486.81
398.147	496.81
398.371	515.81
398.595	508.81
398.82	507.81
399.044	485.81
399.268	562.81
399.492	606.81
399.717	653.81
399.941	662.81
400.165	655.81
400.389	643.81
400.613	585.81
400.837	542.81
401.062	524.81
401.286	529.81
401.51	537.81
401.734	527.81
401.958	527.81
402.182	519.81
402.406	523.81
402.63	518.81
402.854	537.81
403.078	525.81
403.302	549.81
403.526	559.81
403.75	533.81
403.974	538.81
404.198	524.81
404.422	534.81
404.645	576.81
404.869	530.81
405.093	565.81
405.317	570.81
405.541	610.81
405.765	536.81
405.988	530.81
406.212	562.81
406.436	572.81
406.66	576.81
406.883	576.81
407.107	596.81
407.331	641.81
407.555	698.81
407.778	701.81
408.002	627.81
408.226	635.81
408.449	579.81
408.673	560.81
408.896	597.81
409.12	627.81
409.344	602.81
409.567	547.81
409.791	544.81
410.014	551.81
410.238	537.81
410.461	500.81
410.685	558.81
410.908	547.81
411.132	566.81
411.355	593.81
411.578	552.81
411.802	520.81
412.025	529.81
412.249	542.81
412.472	513.81
412.695	508.81
412.919	506.81
413.142	504.81
413.365	501.81
413.589	521.81
413.812	512.81
414.035	490.81
414.258	512.81
414.482	510.81
414.705	500.81
414.928	501.81
415.151	481.81
415.374	498.81
415.597	501.81
415.821	494.81
416.044	474.81
416.267	502.81
416.49	499.81
416.713	500.81
416.936	513.81
417.159	475.81
417.382	491.81
417.605	505.81
417.828	521.81
418.051	523.81
418.274	517.81
418.497	488.81
418.72	502.81
418.943	486.81
419.166	497.81
419.389	543.81
419.611	548.81
419.834	550.81
420.057	538.81
420.28	510.81
420.503	514.81
420.726	497.81
420.948	520.81
421.171	555.81
421.394	550.81
421.617	523.81
421.839	505.81
422.062	516.81
422.285	528.81
422.507	548.81
422.73	619.81
422.953	589.81
423.175	542.81
423.398	516.81
423.621	528.81
423.843	548.81
424.066	544.81
424.288	541.81
424.511	552.81
424.733	615.81
424.956	673.81
425.178	633.81
425.401	636.81
425.623	658.81
425.846	564.81
426.068	549.81
426.291	517.81
426.513	490.81
426.735	544.81
426.958	563.81
427.18	606.81
427.402	746.81
427.625	790.81
427.847	678.81
428.069	572.81
428.292	530.81
428.514	505.81
428.736	512.81
428.958	478.81
429.181	481.81
429.403	490.81
429.625	484.81
429.847	522.81
430.069	584.81
430.292	555.81
430.514	502.81
430.736	465.81
430.958	457.81
431.18	440.81
431.402	454.81
431.624	469.81
431.846	482.81
432.068	444.81
432.29	473.81
432.512	481.81
432.734	485.81
432.956	474.81
433.178	483.81
433.4	480.81
433.622	466.81
433.844	461.81
434.066	459.81
434.287	470.81
434.509	476.81
434.731	487.81
434.953	502.81
435.175	496.81
435.397	533.81
435.618	547.81
435.84	547.81
436.062	613.81
436.284	707.81
436.505	570.81
436.727	508.81
436.949	486.81
437.17	474.81
437.392	467.81
437.614	481.81
437.835	502.81
438.057	582.81
438.278	694.81
438.5	677.81
438.721	716.81
438.943	689.81
439.165	554.81
439.386	516.81
439.608	502.81
439.829	489.81
440.05	556.81
440.272	552.81
440.493	522.81
440.715	511.81
440.936	501.81
441.158	488.81
441.379	508.81
441.6	514.81
441.822	534.81
442.043	557.81
442.264	638.81
442.486	640.81
442.707	576.81
442.928	539.81
443.149	533.81
443.371	565.81
443.592	589.81
443.813	665.81
444.034	700.81
444.255	619.81
444.476	554.81
444.698	565.81
444.919	559.81
445.14	692.81
445.361	611.81
445.582	580.81
445.803	600.81
446.024	696.81
446.245	680.81
446.466	619.81
446.687	541.81
446.908	505.81
447.129	502.81
447.35	455.81
447.571	486.81
447.792	501.81
448.013	480.81
448.234	473.81
448.455	536.81
448.675	628.81
448.896	700.81
449.117	600.81
449.338	588.81
449.559	670.81
449.779	734.81
450	600.81
450.221	501.81
450.442	488.81
450.662	469.81
450.883	460.81
451.104	471.81
451.324	469.81
451.545	449.81
451.766	437.81
451.986	443.81
452.207	428.81
452.428	423.81
452.648	413.81
452.869	425.81
453.089	425.81
453.31	452.81
453.53	450.81
453.751	437.81
453.971	429.81
454.192	430.81
454.412	440.81
454.633	435.81
454.853	420.81
455.073	411.81
455.294	446.81
455.514	487.81
455.734	485.81
455.955	440.81
456.175	417.81
456.395	409.81
456.616	411.81
456.836	411.81
457.056	412.81
457.276	392.81
457.497	396.81
457.717	420.81
457.937	416.81
458.157	412.81
458.377	425.81
458.598	459.81
458.818	485.81
459.038	554.81
459.258	577.81
459.478	510.81
459.698	493.81
459.918	486.81
460.138	474.81
460.358	516.81
460.578	508.81
460.798	493.81
461.018	488.81
461.238	518.81
461.458	500.81
461.678	473.81
461.898	504.81
462.118	505.81
462.338	513.81
462.558	530.81
462.777	550.81
462.997	576.81
463.217	578.81
463.437	581.81
463.657	566.81
463.876	553.81
464.096	562.81
464.316	552.81
464.536	553.81
464.755	546.81
464.975	544.81
465.195	565.81
465.414	580.81
465.634	528.81
465.854	488.81
466.073	467.81
466.293	456.81
466.512	462.81
466.732	447.81
466.951	451.81
467.171	444.81
467.391	468.81
467.61	460.81
467.829	466.81
468.049	462.81
468.268	449.81
468.488	443.81
468.707	428.81
468.927	425.81
469.146	447.81
469.365	456.81
469.585	433.81
469.804	461.81
470.023	478.81
470.243	479.81
470.462	460.81
470.681	483.81
470.901	469.81
471.12	472.81
471.339	461.81
471.558	453.81
471.777	458.81
471.997	471.81
472.216	447.81
472.435	480.81
472.654	452.81
472.873	449.81
473.092	445.81
473.311	445.81
473.53	466.81
473.749	449.81
473.968	480.81
474.187	560.81
474.406	584.81
474.625	476.81
474.844	464.81
475.063	441.81
475.282	451.81
475.501	447.81
475.72	481.81
475.939	453.81
476.158	473.81
476.377	452.81
476.596	462.81
476.814	469.81
477.033	474.81
477.252	481.81
477.471	488.81
477.69	481.81
477.908	524.81
478.127	523.81
478.346	484.81
478.564	526.81
478.783	502.81
479.002	542.81
479.22	529.81
479.439	548.81
479.658	544.81
479.876	553.81
480.095	546.81
480.313	547.81
480.532	591.81
480.751	564.81
480.969	565.81
481.188	557.81
481.406	523.81
481.624	526.81
481.843	542.81
482.061	521.81
482.28	534.81
482.498	511.81
482.717	528.81
482.935	544.81
483.153	497.81
483.372	523.81
483.59	519.81
483.808	506.81
484.027	522.81
484.245	524.81
484.463	556.81
484.681	554.81
484.9	524.81
485.118	527.81
485.336	541.81
485.554	550.81
485.772	540.81
485.99	541.81
486.209	556.81
486.427	546.81
486.645	546.81
486.863	573.81
487.081	562.81
487.299	556.81
487.517	552.81
487.735	564.81
487.953	545.81
488.171	555.81
488.389	550.81
488.607	563.81
488.825	573.81
489.043	545.81
489.261	553.81
489.479	555.81
489.696	561.81
489.914	576.81
490.132	588.81
490.35	569.81
490.568	582.81
490.786	586.81
491.003	582.81
491.221	602.81
491.439	590.81
491.657	589.81
491.874	605.81
492.092	590.81
492.31	615.81
492.527	605.81
492.745	631.81
492.963	642.81
493.18	615.81
493.398	655.81
493.615	634.81
493.833	651.81
494.05	652.81
494.268	639.81
494.485	649.81
494.703	637.81
494.92	620.81
495.138	633.81
495.355	644.81
495.573	636.81
495.79	632.81
496.008	648.81
496.225	669.81
496.442	671.81
496.66	637.81
496.877	657.81
497.094	659.81
497.312	672.81
497.529	699.81
497.746	712.81
497.963	695.81
498.181	738.81
498.398	731.81
498.615	785.81
498.832	781.81
499.049	817.81
499.267	844.81
499.484	894.81
499.701	949.81
499.918	1010.81
500.135	1032.81
500.352	1139.81
500.569	1130.81
500.786	1150.81
501.003	1155.81
501.22	1061.81
501.437	995.81
501.654	912.81
501.871	908.81
