Data from 1985.PennyLincolnUp.Lamp.En5.5.200Scan.071819.P1_HRD10591_17-04-19-971.txt Node
Date: Thu Jul 18 17:04:19 EDT 2019
User: cochatt
Spectrometer: HR+D1059
Trigger mode: 1
Integration Time (sec): 1.000000E-1
Scans to average: 1
Electric dark correction enabled: true
Nonlinearity correction enabled: false
Boxcar width: 0
XAxis mode: Wavelengths
Number of Pixels in Spectrum: 2048
>>>>>Begin Spectral Data<<<<<
223.165	-19.38
223.4	-19.38
223.635	-19.38
223.869	-20.38
224.104	-27.38
224.338	-3.38
224.573	-21.38
224.808	-6.38
225.042	-6.38
225.277	0.62
225.511	4.62
225.746	4.62
225.98	-3.38
226.215	11.62
226.449	19.62
226.683	17.62
226.918	13.62
227.152	35.62
227.387	36.62
227.621	38.62
227.856	38.62
228.09	43.62
228.324	51.62
228.559	54.62
228.793	59.62
229.027	88.62
229.262	108.62
229.496	117.62
229.73	139.62
229.964	146.62
230.199	122.62
230.433	103.62
230.667	114.62
230.901	108.62
231.136	128.62
231.37	111.62
231.604	103.62
231.838	112.62
232.072	114.62
232.306	110.62
232.541	122.62
232.775	105.62
233.009	110.62
233.243	119.62
233.477	122.62
233.711	107.62
233.945	126.62
234.179	131.62
234.413	117.62
234.647	110.62
234.881	126.62
235.115	115.62
235.349	127.62
235.583	125.62
235.817	122.62
236.051	134.62
236.285	130.62
236.519	127.62
236.753	138.62
236.987	161.62
237.221	171.62
237.455	217.62
237.689	178.62
237.922	135.62
238.156	130.62
238.39	123.62
238.624	110.62
238.858	126.62
239.091	150.62
239.325	133.62
239.559	138.62
239.793	127.62
240.027	144.62
240.26	146.62
240.494	158.62
240.728	165.62
240.961	157.62
241.195	132.62
241.429	146.62
241.662	132.62
241.896	141.62
242.13	137.62
242.363	148.62
242.597	151.62
242.83	127.62
243.064	139.62
243.298	157.62
243.531	154.62
243.765	154.62
243.998	144.62
244.232	150.62
244.465	145.62
244.699	139.62
244.932	150.62
245.166	143.62
245.399	158.62
245.633	148.62
245.866	154.62
246.099	155.62
246.333	160.62
246.566	130.62
246.8	157.62
247.033	160.62
247.266	158.62
247.5	155.62
247.733	155.62
247.966	176.62
248.2	175.62
248.433	177.62
248.666	180.62
248.899	203.62
249.133	188.62
249.366	215.62
249.599	196.62
249.832	183.62
250.066	190.62
250.299	199.62
250.532	207.62
250.765	216.62
250.998	256.62
251.231	226.62
251.465	227.62
251.698	216.62
251.931	189.62
252.164	206.62
252.397	204.62
252.63	194.62
252.863	219.62
253.096	214.62
253.329	221.62
253.562	239.62
253.795	223.62
254.028	215.62
254.261	233.62
254.494	230.62
254.727	256.62
254.96	275.62
255.193	273.62
255.426	253.62
255.659	260.62
255.892	239.62
256.124	276.62
256.357	282.62
256.59	267.62
256.823	228.62
257.056	210.62
257.289	217.62
257.521	220.62
257.754	219.62
257.987	203.62
258.22	224.62
258.452	230.62
258.685	216.62
258.918	216.62
259.151	228.62
259.383	232.62
259.616	216.62
259.849	234.62
260.081	247.62
260.314	258.62
260.547	269.62
260.779	235.62
261.012	244.62
261.244	227.62
261.477	229.62
261.71	223.62
261.942	239.62
262.175	231.62
262.407	240.62
262.64	223.62
262.872	230.62
263.105	228.62
263.337	232.62
263.57	229.62
263.802	228.62
264.035	239.62
264.267	232.62
264.499	238.62
264.732	221.62
264.964	234.62
265.197	238.62
265.429	233.62
265.661	243.62
265.894	231.62
266.126	234.62
266.358	219.62
266.591	231.62
266.823	252.62
267.055	245.62
267.287	246.62
267.52	250.62
267.752	242.62
267.984	255.62
268.216	265.62
268.448	248.62
268.681	262.62
268.913	268.62
269.145	284.62
269.377	296.62
269.609	291.62
269.841	289.62
270.073	299.62
270.306	316.62
270.538	310.62
270.77	337.62
271.002	300.62
271.234	295.62
271.466	330.62
271.698	330.62
271.93	320.62
272.162	330.62
272.394	322.62
272.626	332.62
272.858	315.62
273.09	288.62
273.322	296.62
273.553	307.62
273.785	288.62
274.017	279.62
274.249	314.62
274.481	276.62
274.713	285.62
274.945	301.62
275.176	273.62
275.408	301.62
275.64	268.62
275.872	278.62
276.104	283.62
276.335	283.62
276.567	291.62
276.799	311.62
277.031	330.62
277.262	341.62
277.494	347.62
277.726	329.62
277.957	332.62
278.189	320.62
278.421	296.62
278.652	290.62
278.884	303.62
279.115	306.62
279.347	291.62
279.579	293.62
279.81	300.62
280.042	292.62
280.273	300.62
280.505	314.62
280.736	291.62
280.968	302.62
281.199	300.62
281.431	306.62
281.662	316.62
281.894	299.62
282.125	304.62
282.356	302.62
282.588	323.62
282.819	326.62
283.051	310.62
283.282	314.62
283.513	315.62
283.745	308.62
283.976	339.62
284.207	318.62
284.439	322.62
284.67	318.62
284.901	327.62
285.132	319.62
285.364	316.62
285.595	318.62
285.826	309.62
286.057	313.62
286.288	329.62
286.52	327.62
286.751	331.62
286.982	330.62
287.213	316.62
287.444	319.62
287.675	330.62
287.906	327.62
288.138	336.62
288.369	333.62
288.6	326.62
288.831	351.62
289.062	346.62
289.293	342.62
289.524	343.62
289.755	326.62
289.986	337.62
290.217	343.62
290.448	332.62
290.679	329.62
290.91	333.62
291.141	320.62
291.371	322.62
291.602	324.62
291.833	321.62
292.064	333.62
292.295	323.62
292.526	324.62
292.757	315.62
292.987	326.62
293.218	331.62
293.449	340.62
293.68	344.62
293.91	335.62
294.141	336.62
294.372	346.62
294.603	333.62
294.833	354.62
295.064	360.62
295.295	357.62
295.525	343.62
295.756	331.62
295.987	342.62
296.217	360.62
296.448	360.62
296.679	354.62
296.909	325.62
297.14	332.62
297.37	350.62
297.601	361.62
297.831	359.62
298.062	334.62
298.292	363.62
298.523	340.62
298.753	343.62
298.984	357.62
299.214	338.62
299.445	352.62
299.675	377.62
299.905	366.62
300.136	372.62
300.366	380.62
300.597	372.62
300.827	384.62
301.057	370.62
301.288	376.62
301.518	369.62
301.748	395.62
301.979	379.62
302.209	380.62
302.439	380.62
302.669	386.62
302.9	379.62
303.13	377.62
303.36	379.62
303.59	387.62
303.82	368.62
304.051	382.62
304.281	366.62
304.511	384.62
304.741	372.62
304.971	372.62
305.201	398.62
305.431	387.62
305.661	376.62
305.891	378.62
306.121	390.62
306.352	377.62
306.582	374.62
306.812	387.62
307.042	388.62
307.272	357.62
307.502	380.62
307.731	389.62
307.961	378.62
308.191	400.62
308.421	382.62
308.651	390.62
308.881	388.62
309.111	382.62
309.341	386.62
309.571	389.62
309.8	399.62
310.03	413.62
310.26	430.62
310.49	420.62
310.72	424.62
310.949	439.62
311.179	412.62
311.409	455.62
311.639	424.62
311.868	428.62
312.098	413.62
312.328	435.62
312.557	444.62
312.787	445.62
313.017	462.62
313.246	452.62
313.476	427.62
313.706	431.62
313.935	441.62
314.165	446.62
314.394	443.62
314.624	457.62
314.853	450.62
315.083	435.62
315.312	432.62
315.542	418.62
315.771	431.62
316.001	432.62
316.23	420.62
316.46	394.62
316.689	432.62
316.919	451.62
317.148	431.62
317.377	450.62
317.607	421.62
317.836	441.62
318.065	439.62
318.295	427.62
318.524	436.62
318.753	418.62
318.983	417.62
319.212	453.62
319.441	445.62
319.67	445.62
319.9	459.62
320.129	431.62
320.358	438.62
320.587	449.62
320.816	458.62
321.046	454.62
321.275	475.62
321.504	468.62
321.733	453.62
321.962	460.62
322.191	448.62
322.42	482.62
322.649	485.62
322.878	505.62
323.108	501.62
323.337	535.62
323.566	522.62
323.795	578.62
324.024	614.62
324.253	725.62
324.482	995.62
324.71	1461.62
324.939	2023.62
325.168	1776.62
325.397	954.62
325.626	671.62
325.855	600.62
326.084	566.62
326.313	528.62
326.542	550.62
326.77	589.62
326.999	682.62
327.228	924.62
327.457	1312.62
327.686	1559.62
327.914	1062.62
328.143	764.62
328.372	660.62
328.6	657.62
328.829	602.62
329.058	591.62
329.287	625.62
329.515	609.62
329.744	575.62
329.972	586.62
330.201	631.62
330.43	665.62
330.658	678.62
330.887	655.62
331.115	642.62
331.344	563.62
331.572	543.62
331.801	551.62
332.03	557.62
332.258	548.62
332.486	535.62
332.715	534.62
332.943	545.62
333.172	583.62
333.4	567.62
333.629	541.62
333.857	588.62
334.085	619.62
334.314	646.62
334.542	690.62
334.771	705.62
334.999	620.62
335.227	574.62
335.455	578.62
335.684	549.62
335.912	540.62
336.14	529.62
336.369	507.62
336.597	521.62
336.825	539.62
337.053	519.62
337.281	522.62
337.51	496.62
337.738	517.62
337.966	524.62
338.194	513.62
338.422	501.62
338.65	530.62
338.878	491.62
339.106	494.62
339.334	480.62
339.562	489.62
339.79	502.62
340.018	495.62
340.246	512.62
340.474	486.62
340.702	480.62
340.93	471.62
341.158	482.62
341.386	472.62
341.614	496.62
341.842	473.62
342.07	474.62
342.298	485.62
342.526	479.62
342.754	461.62
342.981	499.62
343.209	460.62
343.437	468.62
343.665	491.62
343.893	502.62
344.12	524.62
344.348	522.62
344.576	524.62
344.804	504.62
345.031	491.62
345.259	503.62
345.487	492.62
345.714	495.62
345.942	491.62
346.17	474.62
346.397	446.62
346.625	455.62
346.853	460.62
347.08	464.62
347.308	469.62
347.535	485.62
347.763	466.62
347.99	459.62
348.218	462.62
348.445	505.62
348.673	485.62
348.9	469.62
349.128	449.62
349.355	440.62
349.583	452.62
349.81	430.62
350.037	454.62
350.265	454.62
350.492	459.62
350.72	462.62
350.947	432.62
351.174	462.62
351.402	461.62
351.629	467.62
351.856	473.62
352.083	473.62
352.311	470.62
352.538	459.62
352.765	470.62
352.992	465.62
353.22	456.62
353.447	465.62
353.674	470.62
353.901	446.62
354.128	440.62
354.355	437.62
354.583	478.62
354.81	430.62
355.037	446.62
355.264	448.62
355.491	457.62
355.718	442.62
355.945	443.62
356.172	434.62
356.399	448.62
356.626	443.62
356.853	454.62
357.08	432.62
357.307	424.62
357.534	441.62
357.761	430.62
357.988	432.62
358.215	447.62
358.441	444.62
358.668	448.62
358.895	422.62
359.122	438.62
359.349	447.62
359.576	453.62
359.802	460.62
360.029	488.62
360.256	498.62
360.483	504.62
360.709	477.62
360.936	463.62
361.163	453.62
361.39	467.62
361.616	470.62
361.843	450.62
362.07	459.62
362.296	461.62
362.523	442.62
362.749	442.62
362.976	439.62
363.203	476.62
363.429	445.62
363.656	437.62
363.882	414.62
364.109	437.62
364.335	441.62
364.562	426.62
364.788	439.62
365.015	441.62
365.241	423.62
365.468	440.62
365.694	427.62
365.92	426.62
366.147	455.62
366.373	446.62
366.599	432.62
366.826	436.62
367.052	419.62
367.278	444.62
367.505	432.62
367.731	442.62
367.957	455.62
368.184	461.62
368.41	453.62
368.636	444.62
368.862	453.62
369.089	430.62
369.315	433.62
369.541	422.62
369.767	455.62
369.993	411.62
370.219	421.62
370.445	443.62
370.672	448.62
370.898	440.62
371.124	428.62
371.35	429.62
371.576	450.62
371.802	457.62
372.028	440.62
372.254	434.62
372.48	437.62
372.706	457.62
372.932	440.62
373.158	449.62
373.384	456.62
373.61	445.62
373.835	428.62
374.061	455.62
374.287	454.62
374.513	448.62
374.739	438.62
374.965	454.62
375.191	463.62
375.416	468.62
375.642	463.62
375.868	446.62
376.094	428.62
376.319	462.62
376.545	426.62
376.771	443.62
376.997	426.62
377.222	432.62
377.448	439.62
377.674	437.62
377.899	452.62
378.125	444.62
378.35	440.62
378.576	434.62
378.802	416.62
379.027	415.62
379.253	449.62
379.478	427.62
379.704	450.62
379.929	440.62
380.155	430.62
380.38	454.62
380.606	434.62
380.831	441.62
381.057	444.62
381.282	442.62
381.507	434.62
381.733	438.62
381.958	469.62
382.184	450.62
382.409	448.62
382.634	437.62
382.86	455.62
383.085	453.62
383.31	447.62
383.535	462.62
383.761	458.62
383.986	471.62
384.211	487.62
384.436	485.62
384.662	445.62
384.887	468.62
385.112	491.62
385.337	483.62
385.562	478.62
385.787	501.62
386.013	486.62
386.238	488.62
386.463	483.62
386.688	482.62
386.913	502.62
387.138	483.62
387.363	479.62
387.588	500.62
387.813	498.62
388.038	473.62
388.263	483.62
388.488	484.62
388.713	478.62
388.938	489.62
389.163	473.62
389.387	491.62
389.612	482.62
389.837	498.62
390.062	472.62
390.287	485.62
390.512	500.62
390.736	475.62
390.961	484.62
391.186	502.62
391.411	505.62
391.636	498.62
391.86	479.62
392.085	518.62
392.31	492.62
392.534	499.62
392.759	491.62
392.984	503.62
393.208	483.62
393.433	501.62
393.658	469.62
393.882	485.62
394.107	506.62
394.331	508.62
394.556	490.62
394.78	504.62
395.005	514.62
395.229	517.62
395.454	515.62
395.678	508.62
395.903	530.62
396.127	520.62
396.352	536.62
396.576	523.62
396.801	491.62
397.025	512.62
397.249	526.62
397.474	541.62
397.698	534.62
397.922	543.62
398.147	555.62
398.371	531.62
398.595	550.62
398.82	588.62
399.044	577.62
399.268	628.62
399.492	642.62
399.717	688.62
399.941	724.62
400.165	719.62
400.389	708.62
400.613	617.62
400.837	620.62
401.062	576.62
401.286	552.62
401.51	568.62
401.734	556.62
401.958	558.62
402.182	580.62
402.406	592.62
402.63	584.62
402.854	571.62
403.078	591.62
403.302	588.62
403.526	590.62
403.75	585.62
403.974	596.62
404.198	600.62
404.422	617.62
404.645	605.62
404.869	631.62
405.093	668.62
405.317	704.62
405.541	715.62
405.765	671.62
405.988	624.62
406.212	644.62
406.436	642.62
406.66	654.62
406.883	614.62
407.107	660.62
407.331	715.62
407.555	781.62
407.778	776.62
408.002	706.62
408.226	682.62
408.449	635.62
408.673	640.62
408.896	643.62
409.12	690.62
409.344	666.62
409.567	591.62
409.791	590.62
410.014	588.62
410.238	586.62
410.461	573.62
410.685	605.62
410.908	610.62
411.132	650.62
411.355	655.62
411.578	637.62
411.802	588.62
412.025	575.62
412.249	595.62
412.472	619.62
412.695	680.62
412.919	665.62
413.142	598.62
413.365	586.62
413.589	577.62
413.812	577.62
414.035	569.62
414.258	558.62
414.482	540.62
414.705	535.62
414.928	538.62
415.151	566.62
415.374	553.62
415.597	529.62
415.821	553.62
416.044	543.62
416.267	551.62
416.49	574.62
416.713	549.62
416.936	547.62
417.159	553.62
417.382	525.62
417.605	549.62
417.828	547.62
418.051	577.62
418.274	547.62
418.497	573.62
418.72	552.62
418.943	545.62
419.166	580.62
419.389	599.62
419.611	566.62
419.834	598.62
420.057	582.62
420.28	589.62
420.503	572.62
420.726	586.62
420.948	602.62
421.171	619.62
421.394	643.62
421.617	588.62
421.839	580.62
422.062	608.62
422.285	573.62
422.507	642.62
422.73	683.62
422.953	668.62
423.175	602.62
423.398	575.62
423.621	570.62
423.843	585.62
424.066	615.62
424.288	591.62
424.511	620.62
424.733	675.62
424.956	758.62
425.178	692.62
425.401	700.62
425.623	719.62
425.846	630.62
426.068	590.62
426.291	594.62
426.513	585.62
426.735	602.62
426.958	651.62
427.18	696.62
427.402	834.62
427.625	885.62
427.847	786.62
428.069	714.62
428.292	631.62
428.514	568.62
428.736	552.62
428.958	554.62
429.181	540.62
429.403	543.62
429.625	545.62
429.847	565.62
430.069	620.62
430.292	622.62
430.514	556.62
430.736	546.62
430.958	527.62
431.18	505.62
431.402	518.62
431.624	508.62
431.846	529.62
432.068	503.62
432.29	520.62
432.512	513.62
432.734	554.62
432.956	557.62
433.178	533.62
433.4	530.62
433.622	535.62
433.844	522.62
434.066	521.62
434.287	525.62
434.509	510.62
434.731	555.62
434.953	555.62
435.175	558.62
435.397	570.62
435.618	607.62
435.84	600.62
436.062	695.62
436.284	768.62
436.505	648.62
436.727	573.62
436.949	546.62
437.17	510.62
437.392	541.62
437.614	535.62
437.835	575.62
438.057	682.62
438.278	747.62
438.5	757.62
438.721	839.62
438.943	775.62
439.165	621.62
439.386	585.62
439.608	576.62
439.829	558.62
440.05	591.62
440.272	640.62
440.493	627.62
440.715	566.62
440.936	556.62
441.158	549.62
441.379	535.62
441.6	558.62
441.822	588.62
442.043	637.62
442.264	688.62
442.486	732.62
442.707	621.62
442.928	578.62
443.149	597.62
443.371	632.62
443.592	665.62
443.813	770.62
444.034	805.62
444.255	684.62
444.476	596.62
444.698	630.62
444.919	602.62
445.14	696.62
445.361	666.62
445.582	665.62
445.803	679.62
446.024	764.62
446.245	774.62
446.466	719.62
446.687	608.62
446.908	574.62
447.129	560.62
447.35	538.62
447.571	539.62
447.792	526.62
448.013	530.62
448.234	562.62
448.455	623.62
448.675	719.62
448.896	788.62
449.117	682.62
449.338	635.62
449.559	779.62
449.779	857.62
450	685.62
450.221	552.62
450.442	540.62
450.662	525.62
450.883	526.62
451.104	516.62
451.324	520.62
451.545	520.62
451.766	488.62
451.986	462.62
452.207	471.62
452.428	472.62
452.648	465.62
452.869	479.62
453.089	499.62
453.31	497.62
453.53	486.62
453.751	468.62
453.971	492.62
454.192	500.62
454.412	479.62
454.633	465.62
454.853	471.62
455.073	472.62
455.294	483.62
455.514	553.62
455.734	565.62
455.955	472.62
456.175	466.62
456.395	441.62
456.616	457.62
456.836	460.62
457.056	432.62
457.276	455.62
457.497	457.62
457.717	455.62
457.937	451.62
458.157	455.62
458.377	477.62
458.598	518.62
458.818	553.62
459.038	619.62
459.258	638.62
459.478	571.62
459.698	526.62
459.918	528.62
460.138	537.62
460.358	548.62
460.578	537.62
460.798	557.62
461.018	555.62
461.238	543.62
461.458	552.62
461.678	554.62
461.898	539.62
462.118	564.62
462.338	585.62
462.558	586.62
462.777	626.62
462.997	650.62
463.217	632.62
463.437	630.62
463.657	611.62
463.876	600.62
464.096	613.62
464.316	608.62
464.536	598.62
464.755	597.62
464.975	610.62
465.195	606.62
465.414	686.62
465.634	602.62
465.854	541.62
466.073	547.62
466.293	522.62
466.512	504.62
466.732	492.62
466.951	496.62
467.171	506.62
467.391	510.62
467.61	524.62
467.829	518.62
468.049	507.62
468.268	525.62
468.488	507.62
468.707	501.62
468.927	493.62
469.146	489.62
469.365	497.62
469.585	465.62
469.804	495.62
470.023	517.62
470.243	529.62
470.462	518.62
470.681	530.62
470.901	519.62
471.12	540.62
471.339	526.62
471.558	516.62
471.777	501.62
471.997	512.62
472.216	543.62
472.435	575.62
472.654	553.62
472.873	518.62
473.092	520.62
473.311	506.62
473.53	492.62
473.749	519.62
473.968	556.62
474.187	645.62
474.406	661.62
474.625	551.62
474.844	514.62
475.063	485.62
475.282	498.62
475.501	522.62
475.72	507.62
475.939	512.62
476.158	503.62
476.377	510.62
476.596	487.62
476.814	523.62
477.033	540.62
477.252	542.62
477.471	548.62
477.69	538.62
477.908	547.62
478.127	549.62
478.346	558.62
478.564	562.62
478.783	567.62
479.002	593.62
479.22	600.62
479.439	601.62
479.658	593.62
479.876	596.62
480.095	624.62
480.313	669.62
480.532	638.62
480.751	627.62
480.969	659.62
481.188	720.62
481.406	736.62
481.624	661.62
481.843	620.62
482.061	600.62
482.28	588.62
482.498	604.62
482.717	602.62
482.935	576.62
483.153	581.62
483.372	601.62
483.59	586.62
483.808	591.62
484.027	581.62
484.245	607.62
484.463	584.62
484.681	600.62
484.9	596.62
485.118	633.62
485.336	598.62
485.554	601.62
485.772	605.62
485.99	603.62
486.209	610.62
486.427	598.62
486.645	612.62
486.863	613.62
487.081	620.62
487.299	628.62
487.517	644.62
487.735	622.62
487.953	602.62
488.171	619.62
488.389	628.62
488.607	614.62
488.825	615.62
489.043	611.62
489.261	626.62
489.479	636.62
489.696	642.62
489.914	633.62
490.132	651.62
490.35	685.62
490.568	657.62
490.786	670.62
491.003	685.62
491.221	686.62
491.439	711.62
491.657	712.62
491.874	735.62
492.092	750.62
492.31	747.62
492.527	767.62
492.745	757.62
492.963	738.62
493.18	738.62
493.398	719.62
493.615	748.62
493.833	755.62
494.05	748.62
494.268	733.62
494.485	727.62
494.703	720.62
494.92	754.62
495.138	760.62
495.355	747.62
495.573	754.62
495.79	717.62
496.008	751.62
496.225	748.62
496.442	739.62
496.66	760.62
496.877	749.62
497.094	754.62
497.312	758.62
497.529	781.62
497.746	781.62
497.963	806.62
498.181	845.62
498.398	854.62
498.615	860.62
498.832	886.62
499.049	902.62
499.267	935.62
499.484	1018.62
499.701	1060.62
499.918	1090.62
500.135	1151.62
500.352	1236.62
500.569	1288.62
500.786	1282.62
501.003	1236.62
501.22	1168.62
501.437	1125.62
501.654	1077.62
501.871	1032.62
