Data from 1985.PennyLincolnUp.Lamp.En5.5.200Scan.071819.P1_HRD10591_17-02-41-970.txt Node
Date: Thu Jul 18 17:02:41 EDT 2019
User: cochatt
Spectrometer: HR+D1059
Trigger mode: 1
Integration Time (sec): 1.000000E-1
Scans to average: 1
Electric dark correction enabled: true
Nonlinearity correction enabled: false
Boxcar width: 0
XAxis mode: Wavelengths
Number of Pixels in Spectrum: 2048
>>>>>Begin Spectral Data<<<<<
223.165	-16.88
223.4	-16.88
223.635	-16.88
223.869	-25.88
224.104	-14.88
224.338	-2.88
224.573	-7.88
224.808	-13.88
225.042	0.12
225.277	-3.88
225.511	-4.88
225.746	11.12
225.98	-5.88
226.215	18.12
226.449	16.12
226.683	3.12
226.918	29.12
227.152	19.12
227.387	41.12
227.621	18.12
227.856	34.12
228.09	28.12
228.324	50.12
228.559	57.12
228.793	64.12
229.027	103.12
229.262	90.12
229.496	103.12
229.73	115.12
229.964	138.12
230.199	107.12
230.433	102.12
230.667	110.12
230.901	116.12
231.136	113.12
231.37	110.12
231.604	99.12
231.838	124.12
232.072	119.12
232.306	118.12
232.541	111.12
232.775	102.12
233.009	111.12
233.243	111.12
233.477	100.12
233.711	118.12
233.945	126.12
234.179	111.12
234.413	106.12
234.647	117.12
234.881	108.12
235.115	120.12
235.349	108.12
235.583	126.12
235.817	103.12
236.051	124.12
236.285	131.12
236.519	122.12
236.753	138.12
236.987	140.12
237.221	177.12
237.455	216.12
237.689	167.12
237.922	131.12
238.156	135.12
238.39	134.12
238.624	119.12
238.858	116.12
239.091	123.12
239.325	125.12
239.559	123.12
239.793	137.12
240.027	115.12
240.26	135.12
240.494	145.12
240.728	165.12
240.961	144.12
241.195	152.12
241.429	139.12
241.662	147.12
241.896	132.12
242.13	120.12
242.363	130.12
242.597	122.12
242.83	123.12
243.064	129.12
243.298	132.12
243.531	154.12
243.765	138.12
243.998	135.12
244.232	129.12
244.465	139.12
244.699	129.12
244.932	150.12
245.166	159.12
245.399	152.12
245.633	150.12
245.866	155.12
246.099	159.12
246.333	145.12
246.566	129.12
246.8	154.12
247.033	146.12
247.266	154.12
247.5	148.12
247.733	165.12
247.966	179.12
248.2	153.12
248.433	161.12
248.666	171.12
248.899	183.12
249.133	196.12
249.366	202.12
249.599	205.12
249.832	181.12
250.066	178.12
250.299	177.12
250.532	188.12
250.765	201.12
250.998	220.12
251.231	216.12
251.465	202.12
251.698	204.12
251.931	183.12
252.164	186.12
252.397	189.12
252.63	199.12
252.863	208.12
253.096	218.12
253.329	223.12
253.562	220.12
253.795	222.12
254.028	215.12
254.261	215.12
254.494	224.12
254.727	259.12
254.96	261.12
255.193	258.12
255.426	234.12
255.659	212.12
255.892	222.12
256.124	213.12
256.357	204.12
256.59	235.12
256.823	191.12
257.056	194.12
257.289	201.12
257.521	201.12
257.754	202.12
257.987	204.12
258.22	230.12
258.452	199.12
258.685	203.12
258.918	212.12
259.151	220.12
259.383	218.12
259.616	222.12
259.849	230.12
260.081	236.12
260.314	229.12
260.547	255.12
260.779	243.12
261.012	245.12
261.244	218.12
261.477	203.12
261.71	227.12
261.942	220.12
262.175	215.12
262.407	225.12
262.64	224.12
262.872	214.12
263.105	201.12
263.337	222.12
263.57	209.12
263.802	227.12
264.035	231.12
264.267	219.12
264.499	203.12
264.732	227.12
264.964	220.12
265.197	214.12
265.429	209.12
265.661	217.12
265.894	212.12
266.126	222.12
266.358	234.12
266.591	212.12
266.823	231.12
267.055	231.12
267.287	256.12
267.52	236.12
267.752	227.12
267.984	236.12
268.216	240.12
268.448	249.12
268.681	245.12
268.913	255.12
269.145	252.12
269.377	259.12
269.609	278.12
269.841	261.12
270.073	281.12
270.306	288.12
270.538	313.12
270.77	334.12
271.002	295.12
271.234	296.12
271.466	298.12
271.698	308.12
271.93	331.12
272.162	334.12
272.394	310.12
272.626	320.12
272.858	287.12
273.09	279.12
273.322	279.12
273.553	282.12
273.785	276.12
274.017	289.12
274.249	267.12
274.481	282.12
274.713	290.12
274.945	270.12
275.176	267.12
275.408	267.12
275.64	283.12
275.872	281.12
276.104	271.12
276.335	278.12
276.567	284.12
276.799	293.12
277.031	321.12
277.262	324.12
277.494	329.12
277.726	313.12
277.957	312.12
278.189	301.12
278.421	291.12
278.652	295.12
278.884	292.12
279.115	290.12
279.347	291.12
279.579	281.12
279.81	296.12
280.042	281.12
280.273	288.12
280.505	288.12
280.736	282.12
280.968	282.12
281.199	289.12
281.431	288.12
281.662	282.12
281.894	304.12
282.125	289.12
282.356	306.12
282.588	331.12
282.819	345.12
283.051	306.12
283.282	309.12
283.513	299.12
283.745	299.12
283.976	310.12
284.207	316.12
284.439	297.12
284.67	310.12
284.901	322.12
285.132	286.12
285.364	300.12
285.595	308.12
285.826	320.12
286.057	298.12
286.288	329.12
286.52	319.12
286.751	323.12
286.982	296.12
287.213	321.12
287.444	322.12
287.675	313.12
287.906	334.12
288.138	338.12
288.369	318.12
288.6	347.12
288.831	318.12
289.062	325.12
289.293	332.12
289.524	323.12
289.755	315.12
289.986	310.12
290.217	302.12
290.448	312.12
290.679	322.12
290.91	320.12
291.141	319.12
291.371	320.12
291.602	332.12
291.833	321.12
292.064	324.12
292.295	331.12
292.526	336.12
292.757	332.12
292.987	312.12
293.218	310.12
293.449	324.12
293.68	315.12
293.91	319.12
294.141	330.12
294.372	312.12
294.603	322.12
294.833	319.12
295.064	318.12
295.295	321.12
295.525	327.12
295.756	338.12
295.987	321.12
296.217	348.12
296.448	365.12
296.679	350.12
296.909	334.12
297.14	326.12
297.37	339.12
297.601	345.12
297.831	352.12
298.062	337.12
298.292	352.12
298.523	330.12
298.753	346.12
298.984	339.12
299.214	332.12
299.445	345.12
299.675	351.12
299.905	367.12
300.136	357.12
300.366	356.12
300.597	347.12
300.827	359.12
301.057	369.12
301.288	360.12
301.518	357.12
301.748	358.12
301.979	362.12
302.209	366.12
302.439	367.12
302.669	368.12
302.9	361.12
303.13	352.12
303.36	366.12
303.59	372.12
303.82	361.12
304.051	369.12
304.281	386.12
304.511	362.12
304.741	368.12
304.971	372.12
305.201	355.12
305.431	357.12
305.661	348.12
305.891	351.12
306.121	376.12
306.352	384.12
306.582	387.12
306.812	380.12
307.042	361.12
307.272	354.12
307.502	372.12
307.731	353.12
307.961	378.12
308.191	370.12
308.421	378.12
308.651	402.12
308.881	367.12
309.111	386.12
309.341	396.12
309.571	391.12
309.8	371.12
310.03	407.12
310.26	417.12
310.49	395.12
310.72	410.12
310.949	428.12
311.179	437.12
311.409	408.12
311.639	409.12
311.868	433.12
312.098	415.12
312.328	424.12
312.557	450.12
312.787	451.12
313.017	445.12
313.246	437.12
313.476	421.12
313.706	431.12
313.935	434.12
314.165	436.12
314.394	432.12
314.624	420.12
314.853	434.12
315.083	445.12
315.312	424.12
315.542	410.12
315.771	422.12
316.001	428.12
316.23	401.12
316.46	419.12
316.689	412.12
316.919	418.12
317.148	421.12
317.377	428.12
317.607	447.12
317.836	422.12
318.065	425.12
318.295	420.12
318.524	415.12
318.753	405.12
318.983	416.12
319.212	411.12
319.441	424.12
319.67	460.12
319.9	418.12
320.129	417.12
320.358	430.12
320.587	426.12
320.816	431.12
321.046	430.12
321.275	433.12
321.504	418.12
321.733	442.12
321.962	460.12
322.191	451.12
322.42	452.12
322.649	460.12
322.878	473.12
323.108	473.12
323.337	513.12
323.566	504.12
323.795	539.12
324.024	571.12
324.253	706.12
324.482	959.12
324.71	1442.12
324.939	2028.12
325.168	1770.12
325.397	915.12
325.626	660.12
325.855	578.12
326.084	530.12
326.313	546.12
326.542	546.12
326.77	570.12
326.999	644.12
327.228	852.12
327.457	1300.12
327.686	1559.12
327.914	1019.12
328.143	697.12
328.372	613.12
328.6	599.12
328.829	558.12
329.058	576.12
329.287	603.12
329.515	578.12
329.744	542.12
329.972	529.12
330.201	514.12
330.43	547.12
330.658	556.12
330.887	640.12
331.115	611.12
331.344	559.12
331.572	529.12
331.801	528.12
332.03	536.12
332.258	521.12
332.486	536.12
332.715	506.12
332.943	500.12
333.172	502.12
333.4	533.12
333.629	531.12
333.857	547.12
334.085	556.12
334.314	532.12
334.542	532.12
334.771	551.12
334.999	551.12
335.227	512.12
335.455	515.12
335.684	485.12
335.912	496.12
336.14	532.12
336.369	482.12
336.597	516.12
336.825	510.12
337.053	511.12
337.281	492.12
337.51	500.12
337.738	497.12
337.966	490.12
338.194	476.12
338.422	485.12
338.65	473.12
338.878	490.12
339.106	477.12
339.334	491.12
339.562	480.12
339.79	475.12
340.018	471.12
340.246	456.12
340.474	461.12
340.702	479.12
340.93	471.12
341.158	485.12
341.386	474.12
341.614	477.12
341.842	472.12
342.07	451.12
342.298	466.12
342.526	465.12
342.754	472.12
342.981	457.12
343.209	451.12
343.437	444.12
343.665	488.12
343.893	508.12
344.12	494.12
344.348	480.12
344.576	502.12
344.804	487.12
345.031	500.12
345.259	492.12
345.487	499.12
345.714	474.12
345.942	454.12
346.17	474.12
346.397	471.12
346.625	459.12
346.853	442.12
347.08	455.12
347.308	456.12
347.535	458.12
347.763	456.12
347.99	476.12
348.218	435.12
348.445	460.12
348.673	479.12
348.9	463.12
349.128	441.12
349.355	438.12
349.583	421.12
349.81	440.12
350.037	442.12
350.265	430.12
350.492	439.12
350.72	439.12
350.947	447.12
351.174	466.12
351.402	453.12
351.629	457.12
351.856	443.12
352.083	444.12
352.311	451.12
352.538	463.12
352.765	450.12
352.992	463.12
353.22	457.12
353.447	458.12
353.674	433.12
353.901	439.12
354.128	448.12
354.355	432.12
354.583	422.12
354.81	434.12
355.037	427.12
355.264	416.12
355.491	412.12
355.718	423.12
355.945	446.12
356.172	423.12
356.399	425.12
356.626	402.12
356.853	411.12
357.08	419.12
357.307	403.12
357.534	423.12
357.761	428.12
357.988	408.12
358.215	406.12
358.441	419.12
358.668	432.12
358.895	427.12
359.122	428.12
359.349	427.12
359.576	436.12
359.802	457.12
360.029	490.12
360.256	492.12
360.483	472.12
360.709	464.12
360.936	442.12
361.163	440.12
361.39	436.12
361.616	463.12
361.843	431.12
362.07	432.12
362.296	442.12
362.523	430.12
362.749	424.12
362.976	464.12
363.203	432.12
363.429	418.12
363.656	435.12
363.882	434.12
364.109	437.12
364.335	440.12
364.562	421.12
364.788	438.12
365.015	420.12
365.241	438.12
365.468	454.12
365.694	423.12
365.92	444.12
366.147	423.12
366.373	447.12
366.599	425.12
366.826	420.12
367.052	419.12
367.278	422.12
367.505	427.12
367.731	420.12
367.957	409.12
368.184	427.12
368.41	396.12
368.636	433.12
368.862	427.12
369.089	432.12
369.315	400.12
369.541	426.12
369.767	429.12
369.993	434.12
370.219	396.12
370.445	421.12
370.672	419.12
370.898	409.12
371.124	421.12
371.35	432.12
371.576	420.12
371.802	419.12
372.028	428.12
372.254	425.12
372.48	446.12
372.706	407.12
372.932	424.12
373.158	444.12
373.384	432.12
373.61	430.12
373.835	429.12
374.061	433.12
374.287	443.12
374.513	426.12
374.739	434.12
374.965	438.12
375.191	444.12
375.416	443.12
375.642	409.12
375.868	423.12
376.094	435.12
376.319	411.12
376.545	441.12
376.771	405.12
376.997	416.12
377.222	415.12
377.448	418.12
377.674	404.12
377.899	421.12
378.125	418.12
378.35	411.12
378.576	412.12
378.802	421.12
379.027	433.12
379.253	402.12
379.478	398.12
379.704	420.12
379.929	418.12
380.155	417.12
380.38	423.12
380.606	437.12
380.831	422.12
381.057	412.12
381.282	416.12
381.507	414.12
381.733	412.12
381.958	417.12
382.184	447.12
382.409	420.12
382.634	430.12
382.86	428.12
383.085	454.12
383.31	445.12
383.535	462.12
383.761	469.12
383.986	454.12
384.211	442.12
384.436	447.12
384.662	459.12
384.887	461.12
385.112	470.12
385.337	466.12
385.562	450.12
385.787	464.12
386.013	495.12
386.238	488.12
386.463	465.12
386.688	470.12
386.913	466.12
387.138	466.12
387.363	453.12
387.588	470.12
387.813	480.12
388.038	463.12
388.263	491.12
388.488	475.12
388.713	473.12
388.938	488.12
389.163	465.12
389.387	458.12
389.612	465.12
389.837	489.12
390.062	465.12
390.287	486.12
390.512	507.12
390.736	457.12
390.961	461.12
391.186	476.12
391.411	487.12
391.636	484.12
391.86	478.12
392.085	487.12
392.31	491.12
392.534	503.12
392.759	502.12
392.984	490.12
393.208	486.12
393.433	459.12
393.658	467.12
393.882	455.12
394.107	480.12
394.331	468.12
394.556	475.12
394.78	488.12
395.005	477.12
395.229	495.12
395.454	490.12
395.678	478.12
395.903	487.12
396.127	527.12
396.352	529.12
396.576	487.12
396.801	497.12
397.025	491.12
397.249	469.12
397.474	517.12
397.698	522.12
397.922	504.12
398.147	534.12
398.371	531.12
398.595	526.12
398.82	554.12
399.044	552.12
399.268	606.12
399.492	640.12
399.717	656.12
399.941	716.12
400.165	703.12
400.389	700.12
400.613	635.12
400.837	580.12
401.062	560.12
401.286	566.12
401.51	576.12
401.734	564.12
401.958	551.12
402.182	528.12
402.406	587.12
402.63	570.12
402.854	574.12
403.078	576.12
403.302	583.12
403.526	582.12
403.75	585.12
403.974	579.12
404.198	586.12
404.422	569.12
404.645	577.12
404.869	598.12
405.093	610.12
405.317	628.12
405.541	639.12
405.765	616.12
405.988	592.12
406.212	629.12
406.436	642.12
406.66	649.12
406.883	624.12
407.107	650.12
407.331	706.12
407.555	756.12
407.778	762.12
408.002	699.12
408.226	647.12
408.449	629.12
408.673	626.12
408.896	636.12
409.12	673.12
409.344	632.12
409.567	589.12
409.791	577.12
410.014	582.12
410.238	570.12
410.461	568.12
410.685	572.12
410.908	568.12
411.132	595.12
411.355	630.12
411.578	592.12
411.802	562.12
412.025	545.12
412.249	580.12
412.472	558.12
412.695	569.12
412.919	591.12
413.142	555.12
413.365	536.12
413.589	532.12
413.812	540.12
414.035	535.12
414.258	524.12
414.482	517.12
414.705	533.12
414.928	532.12
415.151	539.12
415.374	527.12
415.597	524.12
415.821	535.12
416.044	537.12
416.267	517.12
416.49	542.12
416.713	523.12
416.936	529.12
417.159	548.12
417.382	517.12
417.605	530.12
417.828	544.12
418.051	571.12
418.274	528.12
418.497	514.12
418.72	543.12
418.943	520.12
419.166	570.12
419.389	569.12
419.611	586.12
419.834	539.12
420.057	569.12
420.28	551.12
420.503	551.12
420.726	551.12
420.948	535.12
421.171	601.12
421.394	610.12
421.617	570.12
421.839	537.12
422.062	540.12
422.285	560.12
422.507	594.12
422.73	673.12
422.953	671.12
423.175	596.12
423.398	584.12
423.621	583.12
423.843	591.12
424.066	608.12
424.288	581.12
424.511	601.12
424.733	670.12
424.956	697.12
425.178	688.12
425.401	681.12
425.623	703.12
425.846	630.12
426.068	562.12
426.291	568.12
426.513	569.12
426.735	564.12
426.958	619.12
427.18	669.12
427.402	803.12
427.625	897.12
427.847	757.12
428.069	630.12
428.292	576.12
428.514	572.12
428.736	534.12
428.958	532.12
429.181	542.12
429.403	522.12
429.625	539.12
429.847	580.12
430.069	599.12
430.292	601.12
430.514	534.12
430.736	523.12
430.958	507.12
431.18	501.12
431.402	495.12
431.624	517.12
431.846	512.12
432.068	513.12
432.29	514.12
432.512	508.12
432.734	505.12
432.956	500.12
433.178	519.12
433.4	512.12
433.622	497.12
433.844	510.12
434.066	496.12
434.287	521.12
434.509	526.12
434.731	521.12
434.953	554.12
435.175	544.12
435.397	563.12
435.618	588.12
435.84	597.12
436.062	688.12
436.284	742.12
436.505	606.12
436.727	566.12
436.949	569.12
437.17	539.12
437.392	517.12
437.614	528.12
437.835	556.12
438.057	643.12
438.278	730.12
438.5	745.12
438.721	798.12
438.943	764.12
439.165	604.12
439.386	587.12
439.608	579.12
439.829	553.12
440.05	589.12
440.272	604.12
440.493	602.12
440.715	543.12
440.936	562.12
441.158	538.12
441.379	533.12
441.6	544.12
441.822	566.12
442.043	638.12
442.264	687.12
442.486	725.12
442.707	634.12
442.928	574.12
443.149	591.12
443.371	609.12
443.592	652.12
443.813	730.12
444.034	791.12
444.255	653.12
444.476	612.12
444.698	592.12
444.919	599.12
445.14	726.12
445.361	657.12
445.582	636.12
445.803	682.12
446.024	770.12
446.245	751.12
446.466	705.12
446.687	595.12
446.908	560.12
447.129	538.12
447.35	521.12
447.571	528.12
447.792	519.12
448.013	518.12
448.234	531.12
448.455	563.12
448.675	689.12
448.896	791.12
449.117	650.12
449.338	634.12
449.559	721.12
449.779	844.12
450	670.12
450.221	563.12
450.442	502.12
450.662	506.12
450.883	517.12
451.104	542.12
451.324	514.12
451.545	508.12
451.766	456.12
451.986	441.12
452.207	457.12
452.428	474.12
452.648	463.12
452.869	463.12
453.089	485.12
453.31	492.12
453.53	475.12
453.751	478.12
453.971	453.12
454.192	466.12
454.412	455.12
454.633	453.12
454.853	467.12
455.073	448.12
455.294	475.12
455.514	542.12
455.734	539.12
455.955	456.12
456.175	449.12
456.395	444.12
456.616	454.12
456.836	437.12
457.056	412.12
457.276	432.12
457.497	448.12
457.717	427.12
457.937	440.12
458.157	446.12
458.377	438.12
458.598	465.12
458.818	542.12
459.038	613.12
459.258	648.12
459.478	555.12
459.698	520.12
459.918	505.12
460.138	507.12
460.358	507.12
460.578	536.12
460.798	522.12
461.018	557.12
461.238	526.12
461.458	515.12
461.678	538.12
461.898	547.12
462.118	546.12
462.338	573.12
462.558	587.12
462.777	564.12
462.997	616.12
463.217	607.12
463.437	638.12
463.657	600.12
463.876	593.12
464.096	612.12
464.316	586.12
464.536	575.12
464.755	586.12
464.975	585.12
465.195	595.12
465.414	662.12
465.634	602.12
465.854	532.12
466.073	525.12
466.293	491.12
466.512	498.12
466.732	491.12
466.951	499.12
467.171	491.12
467.391	496.12
467.61	496.12
467.829	516.12
468.049	520.12
468.268	483.12
468.488	467.12
468.707	463.12
468.927	471.12
469.146	443.12
469.365	482.12
469.585	498.12
469.804	456.12
470.023	504.12
470.243	501.12
470.462	495.12
470.681	497.12
470.901	522.12
471.12	492.12
471.339	498.12
471.558	483.12
471.777	495.12
471.997	483.12
472.216	486.12
472.435	477.12
472.654	467.12
472.873	476.12
473.092	484.12
473.311	470.12
473.53	448.12
473.749	502.12
473.968	527.12
474.187	615.12
474.406	613.12
474.625	544.12
474.844	487.12
475.063	493.12
475.282	498.12
475.501	495.12
475.72	483.12
475.939	501.12
476.158	494.12
476.377	475.12
476.596	505.12
476.814	519.12
477.033	519.12
477.252	528.12
477.471	506.12
477.69	532.12
477.908	529.12
478.127	510.12
478.346	541.12
478.564	567.12
478.783	563.12
479.002	544.12
479.22	565.12
479.439	604.12
479.658	557.12
479.876	582.12
480.095	615.12
480.313	635.12
480.532	624.12
480.751	614.12
480.969	612.12
481.188	647.12
481.406	611.12
481.624	587.12
481.843	599.12
482.061	558.12
482.28	557.12
482.498	567.12
482.717	569.12
482.935	568.12
483.153	579.12
483.372	551.12
483.59	552.12
483.808	533.12
484.027	544.12
484.245	572.12
484.463	574.12
484.681	581.12
484.9	567.12
485.118	571.12
485.336	573.12
485.554	585.12
485.772	593.12
485.99	564.12
486.209	586.12
486.427	593.12
486.645	595.12
486.863	616.12
487.081	610.12
487.299	606.12
487.517	581.12
487.735	585.12
487.953	598.12
488.171	588.12
488.389	594.12
488.607	615.12
488.825	595.12
489.043	582.12
489.261	616.12
489.479	609.12
489.696	613.12
489.914	589.12
490.132	601.12
490.35	620.12
490.568	626.12
490.786	647.12
491.003	639.12
491.221	644.12
491.439	669.12
491.657	660.12
491.874	653.12
492.092	650.12
492.31	688.12
492.527	666.12
492.745	667.12
492.963	670.12
493.18	668.12
493.398	684.12
493.615	707.12
493.833	686.12
494.05	720.12
494.268	710.12
494.485	670.12
494.703	697.12
494.92	699.12
495.138	714.12
495.355	720.12
495.573	710.12
495.79	690.12
496.008	697.12
496.225	694.12
496.442	729.12
496.66	717.12
496.877	694.12
497.094	700.12
497.312	737.12
497.529	729.12
497.746	744.12
497.963	802.12
498.181	803.12
498.398	771.12
498.615	816.12
498.832	852.12
499.049	872.12
499.267	889.12
499.484	954.12
499.701	980.12
499.918	1036.12
500.135	1134.12
500.352	1187.12
500.569	1227.12
500.786	1232.12
501.003	1195.12
501.22	1148.12
501.437	1077.12
501.654	1040.12
501.871	987.12
