Data from 1985.PennyLincolnUp.Lamp.En5.5.200Scan.071819.P1_HRD10591_17-01-15-969.txt Node
Date: Thu Jul 18 17:01:15 EDT 2019
User: cochatt
Spectrometer: HR+D1059
Trigger mode: 1
Integration Time (sec): 1.000000E-1
Scans to average: 1
Electric dark correction enabled: true
Nonlinearity correction enabled: false
Boxcar width: 0
XAxis mode: Wavelengths
Number of Pixels in Spectrum: 2048
>>>>>Begin Spectral Data<<<<<
223.165	-17.56
223.4	-17.56
223.635	-17.56
223.869	-4.56
224.104	-18.56
224.338	-10.56
224.573	-15.56
224.808	-14.56
225.042	-3.56
225.277	-4.56
225.511	-24.56
225.746	7.44
225.98	8.44
226.215	7.44
226.449	13.44
226.683	22.44
226.918	22.44
227.152	32.44
227.387	23.44
227.621	27.44
227.856	44.44
228.09	42.44
228.324	48.44
228.559	55.44
228.793	63.44
229.027	90.44
229.262	94.44
229.496	96.44
229.73	121.44
229.964	116.44
230.199	113.44
230.433	129.44
230.667	108.44
230.901	101.44
231.136	115.44
231.37	118.44
231.604	119.44
231.838	113.44
232.072	100.44
232.306	95.44
232.541	109.44
232.775	109.44
233.009	119.44
233.243	116.44
233.477	112.44
233.711	96.44
233.945	113.44
234.179	128.44
234.413	126.44
234.647	120.44
234.881	118.44
235.115	122.44
235.349	108.44
235.583	134.44
235.817	120.44
236.051	107.44
236.285	128.44
236.519	127.44
236.753	119.44
236.987	122.44
237.221	154.44
237.455	180.44
237.689	155.44
237.922	126.44
238.156	124.44
238.39	110.44
238.624	125.44
238.858	124.44
239.091	110.44
239.325	111.44
239.559	110.44
239.793	119.44
240.027	132.44
240.26	125.44
240.494	139.44
240.728	138.44
240.961	136.44
241.195	127.44
241.429	129.44
241.662	106.44
241.896	126.44
242.13	124.44
242.363	129.44
242.597	147.44
242.83	134.44
243.064	130.44
243.298	129.44
243.531	138.44
243.765	136.44
243.998	130.44
244.232	136.44
244.465	139.44
244.699	131.44
244.932	153.44
245.166	146.44
245.399	142.44
245.633	138.44
245.866	142.44
246.099	136.44
246.333	138.44
246.566	123.44
246.8	146.44
247.033	142.44
247.266	129.44
247.5	156.44
247.733	158.44
247.966	151.44
248.2	158.44
248.433	168.44
248.666	143.44
248.899	161.44
249.133	168.44
249.366	173.44
249.599	183.44
249.832	159.44
250.066	168.44
250.299	155.44
250.532	161.44
250.765	185.44
250.998	185.44
251.231	184.44
251.465	170.44
251.698	181.44
251.931	184.44
252.164	177.44
252.397	152.44
252.63	178.44
252.863	176.44
253.096	196.44
253.329	205.44
253.562	195.44
253.795	198.44
254.028	197.44
254.261	207.44
254.494	193.44
254.727	202.44
254.96	218.44
255.193	200.44
255.426	203.44
255.659	197.44
255.892	189.44
256.124	187.44
256.357	195.44
256.59	194.44
256.823	188.44
257.056	207.44
257.289	193.44
257.521	204.44
257.754	190.44
257.987	193.44
258.22	184.44
258.452	208.44
258.685	174.44
258.918	191.44
259.151	189.44
259.383	199.44
259.616	189.44
259.849	187.44
260.081	193.44
260.314	224.44
260.547	207.44
260.779	215.44
261.012	205.44
261.244	203.44
261.477	214.44
261.71	192.44
261.942	196.44
262.175	217.44
262.407	196.44
262.64	207.44
262.872	215.44
263.105	194.44
263.337	192.44
263.57	206.44
263.802	218.44
264.035	207.44
264.267	207.44
264.499	205.44
264.732	208.44
264.964	203.44
265.197	196.44
265.429	194.44
265.661	209.44
265.894	217.44
266.126	200.44
266.358	201.44
266.591	221.44
266.823	217.44
267.055	209.44
267.287	219.44
267.52	223.44
267.752	223.44
267.984	212.44
268.216	218.44
268.448	226.44
268.681	236.44
268.913	217.44
269.145	237.44
269.377	251.44
269.609	250.44
269.841	246.44
270.073	249.44
270.306	267.44
270.538	268.44
270.77	258.44
271.002	263.44
271.234	268.44
271.466	284.44
271.698	257.44
271.93	264.44
272.162	261.44
272.394	266.44
272.626	269.44
272.858	256.44
273.09	257.44
273.322	256.44
273.553	240.44
273.785	235.44
274.017	233.44
274.249	262.44
274.481	226.44
274.713	250.44
274.945	246.44
275.176	257.44
275.408	268.44
275.64	246.44
275.872	252.44
276.104	242.44
276.335	252.44
276.567	249.44
276.799	268.44
277.031	262.44
277.262	292.44
277.494	285.44
277.726	283.44
277.957	272.44
278.189	262.44
278.421	264.44
278.652	251.44
278.884	278.44
279.115	271.44
279.347	282.44
279.579	270.44
279.81	262.44
280.042	254.44
280.273	269.44
280.505	245.44
280.736	260.44
280.968	298.44
281.199	265.44
281.431	270.44
281.662	274.44
281.894	245.44
282.125	252.44
282.356	264.44
282.588	277.44
282.819	266.44
283.051	263.44
283.282	286.44
283.513	282.44
283.745	287.44
283.976	287.44
284.207	279.44
284.439	288.44
284.67	286.44
284.901	271.44
285.132	301.44
285.364	283.44
285.595	285.44
285.826	283.44
286.057	275.44
286.288	292.44
286.52	293.44
286.751	277.44
286.982	271.44
287.213	273.44
287.444	287.44
287.675	292.44
287.906	302.44
288.138	315.44
288.369	294.44
288.6	294.44
288.831	287.44
289.062	284.44
289.293	291.44
289.524	284.44
289.755	305.44
289.986	309.44
290.217	306.44
290.448	294.44
290.679	292.44
290.91	305.44
291.141	286.44
291.371	296.44
291.602	286.44
291.833	285.44
292.064	292.44
292.295	316.44
292.526	288.44
292.757	315.44
292.987	302.44
293.218	289.44
293.449	301.44
293.68	295.44
293.91	294.44
294.141	308.44
294.372	291.44
294.603	312.44
294.833	296.44
295.064	297.44
295.295	302.44
295.525	289.44
295.756	296.44
295.987	311.44
296.217	330.44
296.448	321.44
296.679	312.44
296.909	306.44
297.14	308.44
297.37	324.44
297.601	310.44
297.831	297.44
298.062	309.44
298.292	305.44
298.523	309.44
298.753	322.44
298.984	326.44
299.214	322.44
299.445	319.44
299.675	294.44
299.905	324.44
300.136	306.44
300.366	325.44
300.597	325.44
300.827	335.44
301.057	325.44
301.288	328.44
301.518	336.44
301.748	327.44
301.979	338.44
302.209	336.44
302.439	324.44
302.669	321.44
302.9	329.44
303.13	343.44
303.36	341.44
303.59	316.44
303.82	342.44
304.051	337.44
304.281	322.44
304.511	351.44
304.741	332.44
304.971	340.44
305.201	345.44
305.431	338.44
305.661	336.44
305.891	338.44
306.121	325.44
306.352	324.44
306.582	337.44
306.812	343.44
307.042	329.44
307.272	330.44
307.502	338.44
307.731	354.44
307.961	338.44
308.191	337.44
308.421	338.44
308.651	341.44
308.881	332.44
309.111	360.44
309.341	349.44
309.571	345.44
309.8	340.44
310.03	335.44
310.26	359.44
310.49	355.44
310.72	360.44
310.949	374.44
311.179	380.44
311.409	372.44
311.639	356.44
311.868	353.44
312.098	373.44
312.328	385.44
312.557	373.44
312.787	388.44
313.017	378.44
313.246	388.44
313.476	367.44
313.706	357.44
313.935	347.44
314.165	358.44
314.394	383.44
314.624	397.44
314.853	372.44
315.083	384.44
315.312	368.44
315.542	357.44
315.771	384.44
316.001	385.44
316.23	352.44
316.46	355.44
316.689	372.44
316.919	384.44
317.148	382.44
317.377	381.44
317.607	382.44
317.836	391.44
318.065	366.44
318.295	384.44
318.524	386.44
318.753	376.44
318.983	367.44
319.212	360.44
319.441	363.44
319.67	379.44
319.9	376.44
320.129	385.44
320.358	360.44
320.587	382.44
320.816	384.44
321.046	375.44
321.275	378.44
321.504	375.44
321.733	382.44
321.962	392.44
322.191	388.44
322.42	378.44
322.649	398.44
322.878	416.44
323.108	393.44
323.337	423.44
323.566	432.44
323.795	430.44
324.024	457.44
324.253	499.44
324.482	636.44
324.71	900.44
324.939	1243.44
325.168	1054.44
325.397	608.44
325.626	480.44
325.855	440.44
326.084	447.44
326.313	426.44
326.542	423.44
326.77	430.44
326.999	496.44
327.228	598.44
327.457	814.44
327.686	933.44
327.914	703.44
328.143	522.44
328.372	458.44
328.6	444.44
328.829	448.44
329.058	444.44
329.287	468.44
329.515	441.44
329.744	460.44
329.972	445.44
330.201	438.44
330.43	443.44
330.658	455.44
330.887	488.44
331.115	476.44
331.344	430.44
331.572	452.44
331.801	453.44
332.03	450.44
332.258	450.44
332.486	449.44
332.715	448.44
332.943	448.44
333.172	458.44
333.4	444.44
333.629	458.44
333.857	490.44
334.085	489.44
334.314	482.44
334.542	458.44
334.771	481.44
334.999	474.44
335.227	458.44
335.455	460.44
335.684	458.44
335.912	449.44
336.14	455.44
336.369	449.44
336.597	458.44
336.825	464.44
337.053	436.44
337.281	441.44
337.51	422.44
337.738	427.44
337.966	421.44
338.194	440.44
338.422	435.44
338.65	425.44
338.878	424.44
339.106	445.44
339.334	436.44
339.562	432.44
339.79	425.44
340.018	429.44
340.246	414.44
340.474	422.44
340.702	409.44
340.93	406.44
341.158	422.44
341.386	417.44
341.614	414.44
341.842	399.44
342.07	410.44
342.298	406.44
342.526	384.44
342.754	424.44
342.981	409.44
343.209	398.44
343.437	449.44
343.665	447.44
343.893	453.44
344.12	461.44
344.348	443.44
344.576	453.44
344.804	443.44
345.031	416.44
345.259	442.44
345.487	434.44
345.714	420.44
345.942	420.44
346.17	417.44
346.397	410.44
346.625	408.44
346.853	388.44
347.08	400.44
347.308	402.44
347.535	393.44
347.763	406.44
347.99	400.44
348.218	413.44
348.445	421.44
348.673	387.44
348.9	398.44
349.128	388.44
349.355	397.44
349.583	414.44
349.81	380.44
350.037	385.44
350.265	377.44
350.492	396.44
350.72	380.44
350.947	390.44
351.174	423.44
351.402	398.44
351.629	394.44
351.856	392.44
352.083	398.44
352.311	407.44
352.538	384.44
352.765	405.44
352.992	402.44
353.22	394.44
353.447	386.44
353.674	394.44
353.901	384.44
354.128	397.44
354.355	372.44
354.583	380.44
354.81	378.44
355.037	391.44
355.264	382.44
355.491	383.44
355.718	378.44
355.945	393.44
356.172	386.44
356.399	389.44
356.626	392.44
356.853	380.44
357.08	380.44
357.307	393.44
357.534	372.44
357.761	393.44
357.988	401.44
358.215	392.44
358.441	389.44
358.668	368.44
358.895	386.44
359.122	391.44
359.349	403.44
359.576	389.44
359.802	402.44
360.029	389.44
360.256	408.44
360.483	382.44
360.709	403.44
360.936	407.44
361.163	406.44
361.39	386.44
361.616	402.44
361.843	389.44
362.07	398.44
362.296	392.44
362.523	394.44
362.749	390.44
362.976	381.44
363.203	382.44
363.429	394.44
363.656	396.44
363.882	395.44
364.109	372.44
364.335	394.44
364.562	378.44
364.788	401.44
365.015	370.44
365.241	388.44
365.468	392.44
365.694	386.44
365.92	394.44
366.147	371.44
366.373	373.44
366.599	376.44
366.826	376.44
367.052	370.44
367.278	362.44
367.505	377.44
367.731	378.44
367.957	384.44
368.184	387.44
368.41	392.44
368.636	392.44
368.862	389.44
369.089	392.44
369.315	390.44
369.541	377.44
369.767	385.44
369.993	378.44
370.219	396.44
370.445	379.44
370.672	387.44
370.898	399.44
371.124	394.44
371.35	393.44
371.576	420.44
371.802	409.44
372.028	378.44
372.254	399.44
372.48	402.44
372.706	397.44
372.932	430.44
373.158	412.44
373.384	396.44
373.61	384.44
373.835	387.44
374.061	406.44
374.287	392.44
374.513	399.44
374.739	406.44
374.965	424.44
375.191	423.44
375.416	413.44
375.642	398.44
375.868	398.44
376.094	397.44
376.319	400.44
376.545	413.44
376.771	384.44
376.997	395.44
377.222	387.44
377.448	390.44
377.674	370.44
377.899	407.44
378.125	372.44
378.35	393.44
378.576	380.44
378.802	388.44
379.027	396.44
379.253	369.44
379.478	396.44
379.704	392.44
379.929	392.44
380.155	389.44
380.38	396.44
380.606	383.44
380.831	390.44
381.057	398.44
381.282	388.44
381.507	383.44
381.733	392.44
381.958	408.44
382.184	392.44
382.409	401.44
382.634	416.44
382.86	404.44
383.085	408.44
383.31	424.44
383.535	424.44
383.761	426.44
383.986	424.44
384.211	422.44
384.436	422.44
384.662	407.44
384.887	440.44
385.112	438.44
385.337	439.44
385.562	438.44
385.787	445.44
386.013	470.44
386.238	441.44
386.463	448.44
386.688	452.44
386.913	417.44
387.138	445.44
387.363	455.44
387.588	422.44
387.813	438.44
388.038	426.44
388.263	462.44
388.488	460.44
388.713	444.44
388.938	447.44
389.163	433.44
389.387	426.44
389.612	419.44
389.837	433.44
390.062	412.44
390.287	426.44
390.512	441.44
390.736	445.44
390.961	436.44
391.186	458.44
391.411	441.44
391.636	446.44
391.86	461.44
392.085	475.44
392.31	467.44
392.534	458.44
392.759	458.44
392.984	431.44
393.208	430.44
393.433	460.44
393.658	445.44
393.882	449.44
394.107	451.44
394.331	448.44
394.556	449.44
394.78	453.44
395.005	433.44
395.229	465.44
395.454	465.44
395.678	468.44
395.903	461.44
396.127	457.44
396.352	490.44
396.576	457.44
396.801	460.44
397.025	466.44
397.249	469.44
397.474	488.44
397.698	478.44
397.922	475.44
398.147	477.44
398.371	514.44
398.595	486.44
398.82	504.44
399.044	536.44
399.268	564.44
399.492	590.44
399.717	656.44
399.941	648.44
400.165	636.44
400.389	621.44
400.613	564.44
400.837	544.44
401.062	531.44
401.286	510.44
401.51	503.44
401.734	492.44
401.958	502.44
402.182	534.44
402.406	513.44
402.63	532.44
402.854	523.44
403.078	528.44
403.302	542.44
403.526	540.44
403.75	535.44
403.974	522.44
404.198	539.44
404.422	540.44
404.645	501.44
404.869	509.44
405.093	541.44
405.317	548.44
405.541	577.44
405.765	535.44
405.988	540.44
406.212	547.44
406.436	583.44
406.66	573.44
406.883	568.44
407.107	576.44
407.331	589.44
407.555	664.44
407.778	657.44
408.002	632.44
408.226	566.44
408.449	556.44
408.673	561.44
408.896	569.44
409.12	626.44
409.344	585.44
409.567	546.44
409.791	551.44
410.014	500.44
410.238	531.44
410.461	526.44
410.685	527.44
410.908	525.44
411.132	544.44
411.355	564.44
411.578	540.44
411.802	512.44
412.025	499.44
412.249	504.44
412.472	518.44
412.695	524.44
412.919	520.44
413.142	490.44
413.365	496.44
413.589	506.44
413.812	485.44
414.035	498.44
414.258	495.44
414.482	503.44
414.705	510.44
414.928	503.44
415.151	497.44
415.374	480.44
415.597	488.44
415.821	490.44
416.044	481.44
416.267	501.44
416.49	474.44
416.713	478.44
416.936	472.44
417.159	473.44
417.382	473.44
417.605	504.44
417.828	468.44
418.051	522.44
418.274	511.44
418.497	500.44
418.72	500.44
418.943	496.44
419.166	515.44
419.389	543.44
419.611	523.44
419.834	515.44
420.057	505.44
420.28	497.44
420.503	496.44
420.726	489.44
420.948	492.44
421.171	522.44
421.394	528.44
421.617	526.44
421.839	492.44
422.062	515.44
422.285	506.44
422.507	541.44
422.73	592.44
422.953	579.44
423.175	554.44
423.398	528.44
423.621	525.44
423.843	535.44
424.066	527.44
424.288	517.44
424.511	541.44
424.733	558.44
424.956	614.44
425.178	591.44
425.401	589.44
425.623	613.44
425.846	543.44
426.068	529.44
426.291	505.44
426.513	504.44
426.735	510.44
426.958	539.44
427.18	594.44
427.402	676.44
427.625	725.44
427.847	630.44
428.069	562.44
428.292	528.44
428.514	486.44
428.736	483.44
428.958	468.44
429.181	477.44
429.403	461.44
429.625	474.44
429.847	486.44
430.069	526.44
430.292	530.44
430.514	492.44
430.736	453.44
430.958	449.44
431.18	477.44
431.402	474.44
431.624	451.44
431.846	484.44
432.068	454.44
432.29	444.44
432.512	465.44
432.734	465.44
432.956	476.44
433.178	459.44
433.4	474.44
433.622	448.44
433.844	465.44
434.066	463.44
434.287	455.44
434.509	476.44
434.731	479.44
434.953	498.44
435.175	483.44
435.397	508.44
435.618	501.44
435.84	508.44
436.062	601.44
436.284	632.44
436.505	551.44
436.727	494.44
436.949	491.44
437.17	440.44
437.392	464.44
437.614	493.44
437.835	490.44
438.057	553.44
438.278	610.44
438.5	634.44
438.721	673.44
438.943	644.44
439.165	545.44
439.386	520.44
439.608	480.44
439.829	477.44
440.05	492.44
440.272	545.44
440.493	512.44
440.715	493.44
440.936	485.44
441.158	484.44
441.379	468.44
441.6	502.44
441.822	527.44
442.043	550.44
442.264	605.44
442.486	632.44
442.707	538.44
442.928	500.44
443.149	500.44
443.371	546.44
443.592	575.44
443.813	617.44
444.034	686.44
444.255	572.44
444.476	566.44
444.698	557.44
444.919	541.44
445.14	659.44
445.361	586.44
445.582	545.44
445.803	561.44
446.024	634.44
446.245	643.44
446.466	579.44
446.687	537.44
446.908	491.44
447.129	441.44
447.35	489.44
447.571	444.44
447.792	459.44
448.013	468.44
448.234	447.44
448.455	507.44
448.675	595.44
448.896	647.44
449.117	584.44
449.338	521.44
449.559	629.44
449.779	680.44
450	568.44
450.221	477.44
450.442	451.44
450.662	446.44
450.883	446.44
451.104	448.44
451.324	452.44
451.545	441.44
451.766	440.44
451.986	427.44
452.207	423.44
452.428	406.44
452.648	412.44
452.869	423.44
453.089	403.44
453.31	429.44
453.53	434.44
453.751	425.44
453.971	432.44
454.192	433.44
454.412	410.44
454.633	412.44
454.853	408.44
455.073	412.44
455.294	425.44
455.514	452.44
455.734	453.44
455.955	427.44
456.175	411.44
456.395	412.44
456.616	420.44
456.836	408.44
457.056	406.44
457.276	406.44
457.497	393.44
457.717	403.44
457.937	410.44
458.157	406.44
458.377	417.44
458.598	428.44
458.818	460.44
459.038	493.44
459.258	520.44
459.478	515.44
459.698	450.44
459.918	463.44
460.138	467.44
460.358	487.44
460.578	479.44
460.798	501.44
461.018	491.44
461.238	488.44
461.458	507.44
461.678	494.44
461.898	506.44
462.118	518.44
462.338	503.44
462.558	541.44
462.777	528.44
462.997	561.44
463.217	576.44
463.437	580.44
463.657	549.44
463.876	531.44
464.096	546.44
464.316	542.44
464.536	538.44
464.755	532.44
464.975	539.44
465.195	511.44
465.414	554.44
465.634	504.44
465.854	467.44
466.073	473.44
466.293	445.44
466.512	465.44
466.732	453.44
466.951	427.44
467.171	447.44
467.391	444.44
467.61	450.44
467.829	442.44
468.049	439.44
468.268	419.44
468.488	438.44
468.707	436.44
468.927	424.44
469.146	455.44
469.365	457.44
469.585	442.44
469.804	463.44
470.023	467.44
470.243	442.44
470.462	474.44
470.681	450.44
470.901	453.44
471.12	447.44
471.339	451.44
471.558	477.44
471.777	464.44
471.997	438.44
472.216	440.44
472.435	443.44
472.654	434.44
472.873	414.44
473.092	433.44
473.311	417.44
473.53	448.44
473.749	452.44
473.968	460.44
474.187	523.44
474.406	524.44
474.625	474.44
474.844	450.44
475.063	438.44
475.282	438.44
475.501	449.44
475.72	444.44
475.939	428.44
476.158	465.44
476.377	466.44
476.596	449.44
476.814	459.44
477.033	446.44
477.252	480.44
477.471	445.44
477.69	482.44
477.908	497.44
478.127	502.44
478.346	521.44
478.564	525.44
478.783	518.44
479.002	501.44
479.22	516.44
479.439	520.44
479.658	528.44
479.876	535.44
480.095	537.44
480.313	564.44
480.532	573.44
480.751	576.44
480.969	559.44
481.188	525.44
481.406	533.44
481.624	521.44
481.843	523.44
482.061	493.44
482.28	497.44
482.498	507.44
482.717	514.44
482.935	481.44
483.153	483.44
483.372	507.44
483.59	516.44
483.808	508.44
484.027	503.44
484.245	529.44
484.463	527.44
484.681	538.44
484.9	520.44
485.118	531.44
485.336	498.44
485.554	529.44
485.772	555.44
485.99	544.44
486.209	542.44
486.427	537.44
486.645	546.44
486.863	508.44
487.081	534.44
487.299	525.44
487.517	547.44
487.735	538.44
487.953	543.44
488.171	545.44
488.389	549.44
488.607	535.44
488.825	561.44
489.043	526.44
489.261	556.44
489.479	565.44
489.696	545.44
489.914	534.44
490.132	573.44
490.35	557.44
490.568	562.44
490.786	565.44
491.003	578.44
491.221	575.44
491.439	553.44
491.657	570.44
491.874	569.44
492.092	604.44
492.31	593.44
492.527	607.44
492.745	598.44
492.963	598.44
493.18	593.44
493.398	610.44
493.615	616.44
493.833	605.44
494.05	620.44
494.268	593.44
494.485	615.44
494.703	616.44
494.92	619.44
495.138	625.44
495.355	615.44
495.573	639.44
495.79	609.44
496.008	640.44
496.225	622.44
496.442	620.44
496.66	662.44
496.877	666.44
497.094	644.44
497.312	634.44
497.529	673.44
497.746	677.44
497.963	701.44
498.181	703.44
498.398	717.44
498.615	761.44
498.832	738.44
499.049	804.44
499.267	818.44
499.484	888.44
499.701	914.44
499.918	997.44
500.135	1024.44
500.352	1119.44
500.569	1159.44
500.786	1152.44
501.003	1107.44
501.22	1030.44
501.437	983.44
501.654	945.44
501.871	870.44
