Data from 1985.PennyLincolnUp.Lamp.En5.5.200Scan.071819.P1_HRD10591_17-01-29-969.txt Node
Date: Thu Jul 18 17:01:29 EDT 2019
User: cochatt
Spectrometer: HR+D1059
Trigger mode: 1
Integration Time (sec): 1.000000E-1
Scans to average: 1
Electric dark correction enabled: true
Nonlinearity correction enabled: false
Boxcar width: 0
XAxis mode: Wavelengths
Number of Pixels in Spectrum: 2048
>>>>>Begin Spectral Data<<<<<
223.165	-10.38
223.4	-10.38
223.635	-10.38
223.869	-18.38
224.104	-21.38
224.338	-8.38
224.573	-24.38
224.808	-13.38
225.042	-13.38
225.277	-13.38
225.511	1.62
225.746	1.62
225.98	3.62
226.215	11.62
226.449	23.62
226.683	17.62
226.918	24.62
227.152	38.62
227.387	30.62
227.621	25.62
227.856	37.62
228.09	33.62
228.324	40.62
228.559	56.62
228.793	69.62
229.027	93.62
229.262	97.62
229.496	106.62
229.73	117.62
229.964	133.62
230.199	106.62
230.433	112.62
230.667	103.62
230.901	85.62
231.136	115.62
231.37	100.62
231.604	104.62
231.838	106.62
232.072	102.62
232.306	105.62
232.541	102.62
232.775	98.62
233.009	111.62
233.243	107.62
233.477	106.62
233.711	122.62
233.945	110.62
234.179	99.62
234.413	113.62
234.647	102.62
234.881	109.62
235.115	97.62
235.349	107.62
235.583	120.62
235.817	115.62
236.051	105.62
236.285	97.62
236.519	115.62
236.753	117.62
236.987	139.62
237.221	136.62
237.455	192.62
237.689	168.62
237.922	112.62
238.156	132.62
238.39	125.62
238.624	120.62
238.858	101.62
239.091	113.62
239.325	101.62
239.559	92.62
239.793	127.62
240.027	123.62
240.26	140.62
240.494	157.62
240.728	138.62
240.961	120.62
241.195	140.62
241.429	133.62
241.662	120.62
241.896	125.62
242.13	126.62
242.363	120.62
242.597	128.62
242.83	129.62
243.064	123.62
243.298	135.62
243.531	117.62
243.765	119.62
243.998	128.62
244.232	121.62
244.465	138.62
244.699	151.62
244.932	132.62
245.166	136.62
245.399	137.62
245.633	131.62
245.866	129.62
246.099	154.62
246.333	130.62
246.566	145.62
246.8	147.62
247.033	152.62
247.266	151.62
247.5	154.62
247.733	149.62
247.966	155.62
248.2	150.62
248.433	160.62
248.666	163.62
248.899	154.62
249.133	182.62
249.366	183.62
249.599	158.62
249.832	161.62
250.066	157.62
250.299	161.62
250.532	168.62
250.765	177.62
250.998	202.62
251.231	198.62
251.465	183.62
251.698	191.62
251.931	185.62
252.164	182.62
252.397	179.62
252.63	175.62
252.863	179.62
253.096	204.62
253.329	214.62
253.562	193.62
253.795	203.62
254.028	194.62
254.261	192.62
254.494	192.62
254.727	222.62
254.96	247.62
255.193	247.62
255.426	218.62
255.659	207.62
255.892	209.62
256.124	192.62
256.357	173.62
256.59	190.62
256.823	177.62
257.056	186.62
257.289	196.62
257.521	199.62
257.754	186.62
257.987	179.62
258.22	170.62
258.452	200.62
258.685	195.62
258.918	190.62
259.151	189.62
259.383	210.62
259.616	223.62
259.849	191.62
260.081	221.62
260.314	241.62
260.547	234.62
260.779	213.62
261.012	224.62
261.244	209.62
261.477	212.62
261.71	195.62
261.942	221.62
262.175	236.62
262.407	216.62
262.64	212.62
262.872	207.62
263.105	196.62
263.337	206.62
263.57	213.62
263.802	207.62
264.035	204.62
264.267	208.62
264.499	206.62
264.732	212.62
264.964	208.62
265.197	203.62
265.429	213.62
265.661	203.62
265.894	207.62
266.126	212.62
266.358	205.62
266.591	205.62
266.823	218.62
267.055	222.62
267.287	220.62
267.52	215.62
267.752	220.62
267.984	211.62
268.216	216.62
268.448	213.62
268.681	218.62
268.913	241.62
269.145	257.62
269.377	263.62
269.609	254.62
269.841	237.62
270.073	250.62
270.306	262.62
270.538	290.62
270.77	283.62
271.002	286.62
271.234	279.62
271.466	277.62
271.698	293.62
271.93	290.62
272.162	285.62
272.394	284.62
272.626	291.62
272.858	248.62
273.09	263.62
273.322	266.62
273.553	274.62
273.785	265.62
274.017	242.62
274.249	254.62
274.481	261.62
274.713	262.62
274.945	257.62
275.176	262.62
275.408	252.62
275.64	257.62
275.872	257.62
276.104	235.62
276.335	268.62
276.567	259.62
276.799	257.62
277.031	292.62
277.262	295.62
277.494	318.62
277.726	267.62
277.957	260.62
278.189	271.62
278.421	274.62
278.652	273.62
278.884	249.62
279.115	265.62
279.347	266.62
279.579	265.62
279.81	247.62
280.042	266.62
280.273	275.62
280.505	268.62
280.736	268.62
280.968	266.62
281.199	256.62
281.431	243.62
281.662	278.62
281.894	285.62
282.125	272.62
282.356	286.62
282.588	293.62
282.819	295.62
283.051	274.62
283.282	283.62
283.513	285.62
283.745	278.62
283.976	301.62
284.207	296.62
284.439	277.62
284.67	278.62
284.901	288.62
285.132	285.62
285.364	281.62
285.595	298.62
285.826	289.62
286.057	282.62
286.288	301.62
286.52	289.62
286.751	283.62
286.982	317.62
287.213	292.62
287.444	286.62
287.675	288.62
287.906	318.62
288.138	301.62
288.369	321.62
288.6	296.62
288.831	299.62
289.062	307.62
289.293	294.62
289.524	303.62
289.755	297.62
289.986	302.62
290.217	311.62
290.448	283.62
290.679	302.62
290.91	285.62
291.141	309.62
291.371	302.62
291.602	308.62
291.833	306.62
292.064	305.62
292.295	301.62
292.526	314.62
292.757	299.62
292.987	302.62
293.218	316.62
293.449	301.62
293.68	278.62
293.91	310.62
294.141	298.62
294.372	301.62
294.603	293.62
294.833	298.62
295.064	326.62
295.295	310.62
295.525	327.62
295.756	315.62
295.987	314.62
296.217	310.62
296.448	325.62
296.679	321.62
296.909	310.62
297.14	307.62
297.37	312.62
297.601	318.62
297.831	297.62
298.062	331.62
298.292	310.62
298.523	321.62
298.753	319.62
298.984	330.62
299.214	311.62
299.445	326.62
299.675	309.62
299.905	323.62
300.136	327.62
300.366	321.62
300.597	346.62
300.827	339.62
301.057	341.62
301.288	326.62
301.518	328.62
301.748	344.62
301.979	345.62
302.209	340.62
302.439	327.62
302.669	342.62
302.9	356.62
303.13	322.62
303.36	334.62
303.59	337.62
303.82	349.62
304.051	353.62
304.281	361.62
304.511	345.62
304.741	330.62
304.971	338.62
305.201	331.62
305.431	337.62
305.661	355.62
305.891	338.62
306.121	357.62
306.352	354.62
306.582	359.62
306.812	348.62
307.042	352.62
307.272	332.62
307.502	368.62
307.731	336.62
307.961	355.62
308.191	359.62
308.421	334.62
308.651	343.62
308.881	344.62
309.111	333.62
309.341	358.62
309.571	343.62
309.8	364.62
310.03	365.62
310.26	385.62
310.49	355.62
310.72	376.62
310.949	373.62
311.179	386.62
311.409	381.62
311.639	382.62
311.868	362.62
312.098	373.62
312.328	385.62
312.557	404.62
312.787	398.62
313.017	402.62
313.246	390.62
313.476	383.62
313.706	387.62
313.935	375.62
314.165	410.62
314.394	405.62
314.624	404.62
314.853	378.62
315.083	397.62
315.312	398.62
315.542	405.62
315.771	395.62
316.001	379.62
316.23	390.62
316.46	371.62
316.689	390.62
316.919	400.62
317.148	377.62
317.377	390.62
317.607	393.62
317.836	395.62
318.065	376.62
318.295	399.62
318.524	393.62
318.753	385.62
318.983	389.62
319.212	388.62
319.441	378.62
319.67	399.62
319.9	407.62
320.129	392.62
320.358	374.62
320.587	381.62
320.816	381.62
321.046	387.62
321.275	410.62
321.504	402.62
321.733	387.62
321.962	398.62
322.191	422.62
322.42	419.62
322.649	418.62
322.878	415.62
323.108	430.62
323.337	433.62
323.566	463.62
323.795	472.62
324.024	502.62
324.253	575.62
324.482	757.62
324.71	1118.62
324.939	1573.62
325.168	1372.62
325.397	753.62
325.626	562.62
325.855	488.62
326.084	465.62
326.313	450.62
326.542	465.62
326.77	505.62
326.999	546.62
327.228	697.62
327.457	989.62
327.686	1203.62
327.914	840.62
328.143	617.62
328.372	520.62
328.6	496.62
328.829	486.62
329.058	503.62
329.287	517.62
329.515	486.62
329.744	474.62
329.972	462.62
330.201	456.62
330.43	480.62
330.658	477.62
330.887	539.62
331.115	510.62
331.344	486.62
331.572	466.62
331.801	478.62
332.03	470.62
332.258	479.62
332.486	468.62
332.715	468.62
332.943	463.62
333.172	466.62
333.4	495.62
333.629	501.62
333.857	487.62
334.085	501.62
334.314	480.62
334.542	477.62
334.771	478.62
334.999	475.62
335.227	474.62
335.455	464.62
335.684	477.62
335.912	469.62
336.14	464.62
336.369	450.62
336.597	471.62
336.825	459.62
337.053	465.62
337.281	454.62
337.51	465.62
337.738	458.62
337.966	451.62
338.194	455.62
338.422	433.62
338.65	440.62
338.878	425.62
339.106	442.62
339.334	424.62
339.562	427.62
339.79	437.62
340.018	457.62
340.246	425.62
340.474	435.62
340.702	431.62
340.93	417.62
341.158	420.62
341.386	422.62
341.614	442.62
341.842	427.62
342.07	434.62
342.298	425.62
342.526	415.62
342.754	412.62
342.981	427.62
343.209	432.62
343.437	445.62
343.665	449.62
343.893	459.62
344.12	473.62
344.348	477.62
344.576	464.62
344.804	448.62
345.031	443.62
345.259	454.62
345.487	431.62
345.714	434.62
345.942	411.62
346.17	403.62
346.397	395.62
346.625	401.62
346.853	418.62
347.08	399.62
347.308	432.62
347.535	407.62
347.763	419.62
347.99	413.62
348.218	423.62
348.445	401.62
348.673	407.62
348.9	424.62
349.128	407.62
349.355	392.62
349.583	415.62
349.81	407.62
350.037	400.62
350.265	392.62
350.492	389.62
350.72	399.62
350.947	395.62
351.174	441.62
351.402	431.62
351.629	409.62
351.856	393.62
352.083	382.62
352.311	389.62
352.538	406.62
352.765	405.62
352.992	416.62
353.22	409.62
353.447	399.62
353.674	397.62
353.901	400.62
354.128	417.62
354.355	396.62
354.583	406.62
354.81	409.62
355.037	384.62
355.264	381.62
355.491	390.62
355.718	391.62
355.945	392.62
356.172	381.62
356.399	386.62
356.626	378.62
356.853	365.62
357.08	385.62
357.307	370.62
357.534	390.62
357.761	378.62
357.988	399.62
358.215	400.62
358.441	401.62
358.668	404.62
358.895	401.62
359.122	387.62
359.349	396.62
359.576	392.62
359.802	411.62
360.029	440.62
360.256	437.62
360.483	430.62
360.709	411.62
360.936	399.62
361.163	401.62
361.39	419.62
361.616	410.62
361.843	402.62
362.07	395.62
362.296	405.62
362.523	395.62
362.749	404.62
362.976	382.62
363.203	399.62
363.429	395.62
363.656	402.62
363.882	380.62
364.109	375.62
364.335	399.62
364.562	381.62
364.788	390.62
365.015	387.62
365.241	377.62
365.468	386.62
365.694	393.62
365.92	415.62
366.147	391.62
366.373	380.62
366.599	378.62
366.826	382.62
367.052	387.62
367.278	403.62
367.505	393.62
367.731	394.62
367.957	382.62
368.184	381.62
368.41	393.62
368.636	401.62
368.862	390.62
369.089	391.62
369.315	381.62
369.541	384.62
369.767	410.62
369.993	377.62
370.219	389.62
370.445	407.62
370.672	387.62
370.898	394.62
371.124	393.62
371.35	402.62
371.576	399.62
371.802	399.62
372.028	410.62
372.254	394.62
372.48	415.62
372.706	401.62
372.932	409.62
373.158	401.62
373.384	414.62
373.61	403.62
373.835	407.62
374.061	399.62
374.287	399.62
374.513	421.62
374.739	404.62
374.965	421.62
375.191	442.62
375.416	401.62
375.642	402.62
375.868	404.62
376.094	406.62
376.319	402.62
376.545	397.62
376.771	394.62
376.997	382.62
377.222	405.62
377.448	379.62
377.674	393.62
377.899	406.62
378.125	401.62
378.35	382.62
378.576	391.62
378.802	374.62
379.027	400.62
379.253	391.62
379.478	409.62
379.704	404.62
379.929	403.62
380.155	393.62
380.38	400.62
380.606	396.62
380.831	408.62
381.057	427.62
381.282	399.62
381.507	399.62
381.733	401.62
381.958	397.62
382.184	401.62
382.409	388.62
382.634	388.62
382.86	383.62
383.085	423.62
383.31	409.62
383.535	423.62
383.761	407.62
383.986	413.62
384.211	419.62
384.436	430.62
384.662	426.62
384.887	417.62
385.112	437.62
385.337	438.62
385.562	441.62
385.787	450.62
386.013	456.62
386.238	443.62
386.463	443.62
386.688	460.62
386.913	442.62
387.138	442.62
387.363	438.62
387.588	422.62
387.813	451.62
388.038	449.62
388.263	458.62
388.488	441.62
388.713	434.62
388.938	449.62
389.163	432.62
389.387	457.62
389.612	438.62
389.837	434.62
390.062	442.62
390.287	416.62
390.512	453.62
390.736	422.62
390.961	460.62
391.186	447.62
391.411	463.62
391.636	474.62
391.86	479.62
392.085	467.62
392.31	448.62
392.534	467.62
392.759	459.62
392.984	478.62
393.208	451.62
393.433	446.62
393.658	450.62
393.882	443.62
394.107	464.62
394.331	459.62
394.556	452.62
394.78	449.62
395.005	474.62
395.229	466.62
395.454	460.62
395.678	489.62
395.903	485.62
396.127	467.62
396.352	467.62
396.576	463.62
396.801	463.62
397.025	470.62
397.249	482.62
397.474	480.62
397.698	483.62
397.922	489.62
398.147	491.62
398.371	514.62
398.595	513.62
398.82	513.62
399.044	532.62
399.268	521.62
399.492	592.62
399.717	637.62
399.941	663.62
400.165	648.62
400.389	635.62
400.613	586.62
400.837	558.62
401.062	541.62
401.286	513.62
401.51	541.62
401.734	502.62
401.958	503.62
402.182	497.62
402.406	544.62
402.63	540.62
402.854	525.62
403.078	527.62
403.302	572.62
403.526	534.62
403.75	527.62
403.974	532.62
404.198	545.62
404.422	545.62
404.645	562.62
404.869	530.62
405.093	563.62
405.317	565.62
405.541	584.62
405.765	535.62
405.988	553.62
406.212	576.62
406.436	585.62
406.66	607.62
406.883	587.62
407.107	599.62
407.331	633.62
407.555	699.62
407.778	699.62
408.002	629.62
408.226	593.62
408.449	597.62
408.673	573.62
408.896	600.62
409.12	628.62
409.344	585.62
409.567	536.62
409.791	554.62
410.014	554.62
410.238	534.62
410.461	547.62
410.685	524.62
410.908	532.62
411.132	550.62
411.355	575.62
411.578	569.62
411.802	533.62
412.025	518.62
412.249	532.62
412.472	532.62
412.695	521.62
412.919	513.62
413.142	503.62
413.365	504.62
413.589	498.62
413.812	502.62
414.035	497.62
414.258	494.62
414.482	490.62
414.705	494.62
414.928	501.62
415.151	501.62
415.374	535.62
415.597	472.62
415.821	499.62
416.044	483.62
416.267	495.62
416.49	484.62
416.713	483.62
416.936	504.62
417.159	487.62
417.382	490.62
417.605	497.62
417.828	504.62
418.051	497.62
418.274	510.62
418.497	489.62
418.72	488.62
418.943	489.62
419.166	523.62
419.389	514.62
419.611	509.62
419.834	514.62
420.057	529.62
420.28	524.62
420.503	499.62
420.726	498.62
420.948	533.62
421.171	560.62
421.394	570.62
421.617	541.62
421.839	523.62
422.062	518.62
422.285	512.62
422.507	566.62
422.73	633.62
422.953	591.62
423.175	552.62
423.398	551.62
423.621	538.62
423.843	548.62
424.066	551.62
424.288	528.62
424.511	531.62
424.733	618.62
424.956	665.62
425.178	613.62
425.401	641.62
425.623	626.62
425.846	570.62
426.068	531.62
426.291	526.62
426.513	533.62
426.735	520.62
426.958	550.62
427.18	636.62
427.402	747.62
427.625	785.62
427.847	681.62
428.069	579.62
428.292	503.62
428.514	512.62
428.736	487.62
428.958	481.62
429.181	479.62
429.403	485.62
429.625	493.62
429.847	519.62
430.069	567.62
430.292	549.62
430.514	509.62
430.736	482.62
430.958	458.62
431.18	488.62
431.402	472.62
431.624	480.62
431.846	464.62
432.068	458.62
432.29	482.62
432.512	477.62
432.734	474.62
432.956	464.62
433.178	481.62
433.4	477.62
433.622	495.62
433.844	483.62
434.066	486.62
434.287	501.62
434.509	488.62
434.731	504.62
434.953	495.62
435.175	493.62
435.397	544.62
435.618	525.62
435.84	561.62
436.062	645.62
436.284	687.62
436.505	586.62
436.727	535.62
436.949	508.62
437.17	499.62
437.392	493.62
437.614	512.62
437.835	527.62
438.057	577.62
438.278	670.62
438.5	659.62
438.721	730.62
438.943	689.62
439.165	578.62
439.386	525.62
439.608	517.62
439.829	512.62
440.05	525.62
440.272	574.62
440.493	527.62
440.715	507.62
440.936	481.62
441.158	508.62
441.379	487.62
441.6	514.62
441.822	546.62
442.043	553.62
442.264	635.62
442.486	654.62
442.707	565.62
442.928	537.62
443.149	548.62
443.371	571.62
443.592	587.62
443.813	652.62
444.034	711.62
444.255	612.62
444.476	581.62
444.698	558.62
444.919	559.62
445.14	660.62
445.361	597.62
445.582	554.62
445.803	614.62
446.024	686.62
446.245	683.62
446.466	618.62
446.687	545.62
446.908	524.62
447.129	496.62
447.35	469.62
447.571	496.62
447.792	467.62
448.013	467.62
448.234	510.62
448.455	551.62
448.675	621.62
448.896	690.62
449.117	598.62
449.338	587.62
449.559	641.62
449.779	754.62
450	623.62
450.221	534.62
450.442	464.62
450.662	447.62
450.883	459.62
451.104	468.62
451.324	451.62
451.545	438.62
451.766	459.62
451.986	444.62
452.207	441.62
452.428	426.62
452.648	424.62
452.869	433.62
453.089	434.62
453.31	461.62
453.53	448.62
453.751	422.62
453.971	428.62
454.192	454.62
454.412	433.62
454.633	433.62
454.853	433.62
455.073	433.62
455.294	438.62
455.514	467.62
455.734	480.62
455.955	443.62
456.175	406.62
456.395	406.62
456.616	402.62
456.836	402.62
457.056	425.62
457.276	405.62
457.497	415.62
457.717	412.62
457.937	431.62
458.157	421.62
458.377	418.62
458.598	442.62
458.818	474.62
459.038	534.62
459.258	578.62
459.478	490.62
459.698	488.62
459.918	485.62
460.138	480.62
460.358	491.62
460.578	522.62
460.798	499.62
461.018	489.62
461.238	487.62
461.458	496.62
461.678	499.62
461.898	527.62
462.118	509.62
462.338	528.62
462.558	509.62
462.777	540.62
462.997	584.62
463.217	574.62
463.437	585.62
463.657	564.62
463.876	559.62
464.096	534.62
464.316	539.62
464.536	565.62
464.755	540.62
464.975	559.62
465.195	549.62
465.414	586.62
465.634	541.62
465.854	481.62
466.073	491.62
466.293	479.62
466.512	449.62
466.732	474.62
466.951	471.62
467.171	446.62
467.391	461.62
467.61	462.62
467.829	467.62
468.049	461.62
468.268	447.62
468.488	443.62
468.707	442.62
468.927	449.62
469.146	449.62
469.365	446.62
469.585	455.62
469.804	473.62
470.023	463.62
470.243	454.62
470.462	467.62
470.681	463.62
470.901	471.62
471.12	474.62
471.339	450.62
471.558	461.62
471.777	456.62
471.997	449.62
472.216	443.62
472.435	451.62
472.654	440.62
472.873	463.62
473.092	442.62
473.311	434.62
473.53	457.62
473.749	459.62
473.968	494.62
474.187	569.62
474.406	583.62
474.625	487.62
474.844	454.62
475.063	463.62
475.282	469.62
475.501	459.62
475.72	451.62
475.939	459.62
476.158	454.62
476.377	479.62
476.596	494.62
476.814	477.62
477.033	478.62
477.252	469.62
477.471	485.62
477.69	496.62
477.908	503.62
478.127	517.62
478.346	512.62
478.564	495.62
478.783	510.62
479.002	531.62
479.22	522.62
479.439	542.62
479.658	543.62
479.876	551.62
480.095	542.62
480.313	574.62
480.532	586.62
480.751	579.62
480.969	566.62
481.188	567.62
481.406	534.62
481.624	528.62
481.843	537.62
482.061	509.62
482.28	520.62
482.498	525.62
482.717	523.62
482.935	543.62
483.153	529.62
483.372	539.62
483.59	525.62
483.808	532.62
484.027	520.62
484.245	523.62
484.463	527.62
484.681	522.62
484.9	539.62
485.118	529.62
485.336	523.62
485.554	559.62
485.772	555.62
485.99	557.62
486.209	520.62
486.427	563.62
486.645	558.62
486.863	577.62
487.081	579.62
487.299	574.62
487.517	545.62
487.735	561.62
487.953	547.62
488.171	569.62
488.389	556.62
488.607	563.62
488.825	552.62
489.043	541.62
489.261	565.62
489.479	577.62
489.696	575.62
489.914	582.62
490.132	557.62
490.35	571.62
490.568	587.62
490.786	574.62
491.003	612.62
491.221	595.62
491.439	590.62
491.657	614.62
491.874	605.62
492.092	605.62
492.31	610.62
492.527	625.62
492.745	633.62
492.963	608.62
493.18	623.62
493.398	637.62
493.615	633.62
493.833	650.62
494.05	662.62
494.268	657.62
494.485	615.62
494.703	613.62
494.92	634.62
495.138	645.62
495.355	641.62
495.573	639.62
495.79	641.62
496.008	669.62
496.225	649.62
496.442	656.62
496.66	657.62
496.877	658.62
497.094	665.62
497.312	661.62
497.529	704.62
497.746	699.62
497.963	681.62
498.181	738.62
498.398	734.62
498.615	762.62
498.832	790.62
499.049	823.62
499.267	843.62
499.484	876.62
499.701	955.62
499.918	971.62
500.135	1040.62
500.352	1089.62
500.569	1159.62
500.786	1153.62
501.003	1117.62
501.22	1035.62
501.437	994.62
501.654	938.62
501.871	915.62
