Data from 1985.PennyLincolnUp.Lamp.En5.5.200Scan.071819.P1_HRD10591_17-02-26-970.txt Node
Date: Thu Jul 18 17:02:26 EDT 2019
User: cochatt
Spectrometer: HR+D1059
Trigger mode: 1
Integration Time (sec): 1.000000E-1
Scans to average: 1
Electric dark correction enabled: true
Nonlinearity correction enabled: false
Boxcar width: 0
XAxis mode: Wavelengths
Number of Pixels in Spectrum: 2048
>>>>>Begin Spectral Data<<<<<
223.165	-13.69
223.4	-13.69
223.635	-13.69
223.869	-12.69
224.104	-32.69
224.338	-21.69
224.573	-7.69
224.808	-15.69
225.042	-4.69
225.277	-7.69
225.511	-5.69
225.746	6.31
225.98	6.31
226.215	13.31
226.449	26.31
226.683	16.31
226.918	16.31
227.152	37.31
227.387	36.31
227.621	42.31
227.856	40.31
228.09	44.31
228.324	48.31
228.559	46.31
228.793	64.31
229.027	86.31
229.262	96.31
229.496	102.31
229.73	126.31
229.964	132.31
230.199	140.31
230.433	110.31
230.667	104.31
230.901	86.31
231.136	110.31
231.37	119.31
231.604	102.31
231.838	103.31
232.072	122.31
232.306	107.31
232.541	112.31
232.775	111.31
233.009	122.31
233.243	130.31
233.477	123.31
233.711	110.31
233.945	110.31
234.179	109.31
234.413	107.31
234.647	117.31
234.881	116.31
235.115	113.31
235.349	127.31
235.583	126.31
235.817	107.31
236.051	120.31
236.285	136.31
236.519	130.31
236.753	125.31
236.987	134.31
237.221	190.31
237.455	215.31
237.689	177.31
237.922	131.31
238.156	144.31
238.39	123.31
238.624	124.31
238.858	128.31
239.091	122.31
239.325	117.31
239.559	124.31
239.793	125.31
240.027	138.31
240.26	134.31
240.494	178.31
240.728	166.31
240.961	135.31
241.195	139.31
241.429	150.31
241.662	130.31
241.896	126.31
242.13	143.31
242.363	121.31
242.597	137.31
242.83	132.31
243.064	162.31
243.298	140.31
243.531	131.31
243.765	145.31
243.998	145.31
244.232	135.31
244.465	156.31
244.699	150.31
244.932	143.31
245.166	141.31
245.399	140.31
245.633	133.31
245.866	144.31
246.099	152.31
246.333	148.31
246.566	147.31
246.8	159.31
247.033	175.31
247.266	156.31
247.5	175.31
247.733	173.31
247.966	159.31
248.2	165.31
248.433	178.31
248.666	168.31
248.899	189.31
249.133	175.31
249.366	210.31
249.599	191.31
249.832	194.31
250.066	180.31
250.299	161.31
250.532	192.31
250.765	197.31
250.998	206.31
251.231	224.31
251.465	212.31
251.698	200.31
251.931	194.31
252.164	192.31
252.397	171.31
252.63	191.31
252.863	192.31
253.096	217.31
253.329	222.31
253.562	226.31
253.795	217.31
254.028	203.31
254.261	225.31
254.494	214.31
254.727	258.31
254.96	271.31
255.193	263.31
255.426	248.31
255.659	222.31
255.892	218.31
256.124	225.31
256.357	219.31
256.59	211.31
256.823	207.31
257.056	216.31
257.289	200.31
257.521	207.31
257.754	205.31
257.987	207.31
258.22	208.31
258.452	199.31
258.685	202.31
258.918	212.31
259.151	211.31
259.383	234.31
259.616	226.31
259.849	224.31
260.081	239.31
260.314	227.31
260.547	251.31
260.779	243.31
261.012	228.31
261.244	227.31
261.477	216.31
261.71	213.31
261.942	220.31
262.175	220.31
262.407	234.31
262.64	242.31
262.872	212.31
263.105	243.31
263.337	228.31
263.57	211.31
263.802	208.31
264.035	231.31
264.267	221.31
264.499	225.31
264.732	230.31
264.964	238.31
265.197	222.31
265.429	231.31
265.661	227.31
265.894	230.31
266.126	226.31
266.358	233.31
266.591	240.31
266.823	231.31
267.055	245.31
267.287	249.31
267.52	235.31
267.752	221.31
267.984	234.31
268.216	237.31
268.448	249.31
268.681	256.31
268.913	259.31
269.145	280.31
269.377	277.31
269.609	276.31
269.841	294.31
270.073	289.31
270.306	298.31
270.538	309.31
270.77	312.31
271.002	316.31
271.234	288.31
271.466	296.31
271.698	331.31
271.93	333.31
272.162	308.31
272.394	323.31
272.626	307.31
272.858	312.31
273.09	286.31
273.322	280.31
273.553	262.31
273.785	274.31
274.017	267.31
274.249	261.31
274.481	272.31
274.713	291.31
274.945	278.31
275.176	267.31
275.408	271.31
275.64	284.31
275.872	265.31
276.104	290.31
276.335	286.31
276.567	295.31
276.799	290.31
277.031	293.31
277.262	331.31
277.494	310.31
277.726	291.31
277.957	280.31
278.189	299.31
278.421	278.31
278.652	285.31
278.884	277.31
279.115	280.31
279.347	280.31
279.579	302.31
279.81	290.31
280.042	292.31
280.273	294.31
280.505	280.31
280.736	296.31
280.968	287.31
281.199	276.31
281.431	290.31
281.662	274.31
281.894	272.31
282.125	271.31
282.356	303.31
282.588	327.31
282.819	321.31
283.051	311.31
283.282	298.31
283.513	292.31
283.745	288.31
283.976	288.31
284.207	319.31
284.439	302.31
284.67	297.31
284.901	304.31
285.132	296.31
285.364	312.31
285.595	284.31
285.826	325.31
286.057	314.31
286.288	311.31
286.52	310.31
286.751	306.31
286.982	298.31
287.213	300.31
287.444	330.31
287.675	314.31
287.906	322.31
288.138	343.31
288.369	322.31
288.6	333.31
288.831	328.31
289.062	318.31
289.293	325.31
289.524	314.31
289.755	303.31
289.986	315.31
290.217	316.31
290.448	328.31
290.679	320.31
290.91	304.31
291.141	316.31
291.371	326.31
291.602	321.31
291.833	314.31
292.064	313.31
292.295	324.31
292.526	337.31
292.757	321.31
292.987	311.31
293.218	311.31
293.449	323.31
293.68	330.31
293.91	334.31
294.141	313.31
294.372	325.31
294.603	314.31
294.833	313.31
295.064	327.31
295.295	325.31
295.525	327.31
295.756	322.31
295.987	349.31
296.217	361.31
296.448	360.31
296.679	328.31
296.909	335.31
297.14	339.31
297.37	331.31
297.601	333.31
297.831	342.31
298.062	341.31
298.292	344.31
298.523	353.31
298.753	337.31
298.984	346.31
299.214	355.31
299.445	330.31
299.675	357.31
299.905	334.31
300.136	350.31
300.366	335.31
300.597	352.31
300.827	349.31
301.057	379.31
301.288	361.31
301.518	351.31
301.748	365.31
301.979	336.31
302.209	362.31
302.439	367.31
302.669	378.31
302.9	364.31
303.13	353.31
303.36	368.31
303.59	356.31
303.82	376.31
304.051	374.31
304.281	349.31
304.511	364.31
304.741	355.31
304.971	346.31
305.201	378.31
305.431	345.31
305.661	370.31
305.891	362.31
306.121	363.31
306.352	374.31
306.582	372.31
306.812	355.31
307.042	374.31
307.272	370.31
307.502	372.31
307.731	381.31
307.961	386.31
308.191	372.31
308.421	369.31
308.651	382.31
308.881	372.31
309.111	371.31
309.341	386.31
309.571	391.31
309.8	394.31
310.03	403.31
310.26	417.31
310.49	422.31
310.72	430.31
310.949	408.31
311.179	424.31
311.409	414.31
311.639	411.31
311.868	411.31
312.098	423.31
312.328	418.31
312.557	400.31
312.787	414.31
313.017	464.31
313.246	432.31
313.476	411.31
313.706	422.31
313.935	424.31
314.165	433.31
314.394	416.31
314.624	435.31
314.853	419.31
315.083	402.31
315.312	393.31
315.542	406.31
315.771	420.31
316.001	402.31
316.23	399.31
316.46	416.31
316.689	404.31
316.919	410.31
317.148	436.31
317.377	430.31
317.607	420.31
317.836	419.31
318.065	424.31
318.295	438.31
318.524	415.31
318.753	419.31
318.983	413.31
319.212	388.31
319.441	416.31
319.67	433.31
319.9	407.31
320.129	410.31
320.358	412.31
320.587	399.31
320.816	441.31
321.046	432.31
321.275	420.31
321.504	451.31
321.733	427.31
321.962	431.31
322.191	442.31
322.42	448.31
322.649	460.31
322.878	470.31
323.108	482.31
323.337	499.31
323.566	520.31
323.795	552.31
324.024	593.31
324.253	664.31
324.482	950.31
324.71	1388.31
324.939	1964.31
325.168	1692.31
325.397	902.31
325.626	640.31
325.855	532.31
326.084	541.31
326.313	521.31
326.542	538.31
326.77	557.31
326.999	643.31
327.228	858.31
327.457	1260.31
327.686	1465.31
327.914	982.31
328.143	678.31
328.372	624.31
328.6	589.31
328.829	570.31
329.058	588.31
329.287	595.31
329.515	568.31
329.744	521.31
329.972	487.31
330.201	518.31
330.43	520.31
330.658	562.31
330.887	628.31
331.115	600.31
331.344	546.31
331.572	501.31
331.801	527.31
332.03	518.31
332.258	520.31
332.486	504.31
332.715	504.31
332.943	478.31
333.172	521.31
333.4	502.31
333.629	525.31
333.857	551.31
334.085	535.31
334.314	541.31
334.542	534.31
334.771	524.31
334.999	530.31
335.227	534.31
335.455	507.31
335.684	478.31
335.912	489.31
336.14	470.31
336.369	487.31
336.597	511.31
336.825	486.31
337.053	518.31
337.281	468.31
337.51	502.31
337.738	488.31
337.966	493.31
338.194	489.31
338.422	479.31
338.65	485.31
338.878	468.31
339.106	479.31
339.334	468.31
339.562	460.31
339.79	473.31
340.018	464.31
340.246	461.31
340.474	461.31
340.702	486.31
340.93	461.31
341.158	456.31
341.386	458.31
341.614	450.31
341.842	467.31
342.07	467.31
342.298	458.31
342.526	465.31
342.754	430.31
342.981	445.31
343.209	458.31
343.437	458.31
343.665	489.31
343.893	491.31
344.12	497.31
344.348	506.31
344.576	486.31
344.804	495.31
345.031	472.31
345.259	483.31
345.487	478.31
345.714	472.31
345.942	460.31
346.17	435.31
346.397	440.31
346.625	432.31
346.853	447.31
347.08	444.31
347.308	440.31
347.535	452.31
347.763	448.31
347.99	430.31
348.218	463.31
348.445	480.31
348.673	440.31
348.9	451.31
349.128	467.31
349.355	446.31
349.583	441.31
349.81	450.31
350.037	432.31
350.265	443.31
350.492	423.31
350.72	449.31
350.947	438.31
351.174	432.31
351.402	466.31
351.629	429.31
351.856	460.31
352.083	462.31
352.311	442.31
352.538	464.31
352.765	429.31
352.992	436.31
353.22	426.31
353.447	430.31
353.674	421.31
353.901	449.31
354.128	439.31
354.355	412.31
354.583	436.31
354.81	422.31
355.037	431.31
355.264	416.31
355.491	417.31
355.718	398.31
355.945	421.31
356.172	394.31
356.399	422.31
356.626	414.31
356.853	406.31
357.08	421.31
357.307	418.31
357.534	430.31
357.761	403.31
357.988	409.31
358.215	436.31
358.441	407.31
358.668	413.31
358.895	428.31
359.122	423.31
359.349	417.31
359.576	434.31
359.802	450.31
360.029	478.31
360.256	485.31
360.483	453.31
360.709	457.31
360.936	452.31
361.163	412.31
361.39	431.31
361.616	430.31
361.843	448.31
362.07	411.31
362.296	450.31
362.523	426.31
362.749	421.31
362.976	443.31
363.203	434.31
363.429	434.31
363.656	439.31
363.882	426.31
364.109	417.31
364.335	412.31
364.562	417.31
364.788	415.31
365.015	400.31
365.241	429.31
365.468	420.31
365.694	418.31
365.92	422.31
366.147	436.31
366.373	424.31
366.599	413.31
366.826	426.31
367.052	414.31
367.278	431.31
367.505	426.31
367.731	410.31
367.957	415.31
368.184	437.31
368.41	431.31
368.636	423.31
368.862	431.31
369.089	451.31
369.315	431.31
369.541	419.31
369.767	417.31
369.993	420.31
370.219	422.31
370.445	404.31
370.672	411.31
370.898	394.31
371.124	419.31
371.35	424.31
371.576	422.31
371.802	419.31
372.028	422.31
372.254	401.31
372.48	407.31
372.706	420.31
372.932	419.31
373.158	439.31
373.384	423.31
373.61	435.31
373.835	444.31
374.061	445.31
374.287	442.31
374.513	424.31
374.739	439.31
374.965	421.31
375.191	435.31
375.416	430.31
375.642	446.31
375.868	422.31
376.094	423.31
376.319	420.31
376.545	412.31
376.771	420.31
376.997	423.31
377.222	414.31
377.448	437.31
377.674	430.31
377.899	412.31
378.125	426.31
378.35	402.31
378.576	399.31
378.802	445.31
379.027	407.31
379.253	424.31
379.478	407.31
379.704	413.31
379.929	421.31
380.155	415.31
380.38	422.31
380.606	432.31
380.831	430.31
381.057	418.31
381.282	405.31
381.507	419.31
381.733	419.31
381.958	412.31
382.184	437.31
382.409	416.31
382.634	416.31
382.86	413.31
383.085	445.31
383.31	439.31
383.535	426.31
383.761	439.31
383.986	447.31
384.211	427.31
384.436	452.31
384.662	450.31
384.887	459.31
385.112	448.31
385.337	471.31
385.562	469.31
385.787	463.31
386.013	485.31
386.238	468.31
386.463	476.31
386.688	470.31
386.913	454.31
387.138	468.31
387.363	442.31
387.588	459.31
387.813	452.31
388.038	480.31
388.263	447.31
388.488	448.31
388.713	474.31
388.938	468.31
389.163	467.31
389.387	443.31
389.612	470.31
389.837	456.31
390.062	441.31
390.287	476.31
390.512	441.31
390.736	470.31
390.961	489.31
391.186	465.31
391.411	467.31
391.636	495.31
391.86	512.31
392.085	474.31
392.31	498.31
392.534	483.31
392.759	487.31
392.984	457.31
393.208	450.31
393.433	453.31
393.658	491.31
393.882	474.31
394.107	463.31
394.331	462.31
394.556	461.31
394.78	475.31
395.005	491.31
395.229	479.31
395.454	472.31
395.678	482.31
395.903	514.31
396.127	510.31
396.352	511.31
396.576	486.31
396.801	461.31
397.025	492.31
397.249	479.31
397.474	495.31
397.698	499.31
397.922	511.31
398.147	527.31
398.371	546.31
398.595	542.31
398.82	543.31
399.044	584.31
399.268	607.31
399.492	655.31
399.717	675.31
399.941	669.31
400.165	697.31
400.389	685.31
400.613	629.31
400.837	578.31
401.062	557.31
401.286	543.31
401.51	555.31
401.734	542.31
401.958	539.31
402.182	566.31
402.406	594.31
402.63	564.31
402.854	562.31
403.078	556.31
403.302	559.31
403.526	574.31
403.75	570.31
403.974	603.31
404.198	574.31
404.422	590.31
404.645	590.31
404.869	560.31
405.093	608.31
405.317	620.31
405.541	617.31
405.765	592.31
405.988	577.31
406.212	586.31
406.436	652.31
406.66	615.31
406.883	596.31
407.107	637.31
407.331	703.31
407.555	738.31
407.778	751.31
408.002	682.31
408.226	654.31
408.449	632.31
408.673	632.31
408.896	632.31
409.12	680.31
409.344	626.31
409.567	592.31
409.791	589.31
410.014	567.31
410.238	548.31
410.461	560.31
410.685	555.31
410.908	572.31
411.132	601.31
411.355	620.31
411.578	611.31
411.802	572.31
412.025	564.31
412.249	571.31
412.472	559.31
412.695	569.31
412.919	548.31
413.142	542.31
413.365	532.31
413.589	539.31
413.812	535.31
414.035	524.31
414.258	516.31
414.482	528.31
414.705	524.31
414.928	521.31
415.151	522.31
415.374	513.31
415.597	532.31
415.821	502.31
416.044	538.31
416.267	501.31
416.49	526.31
416.713	526.31
416.936	526.31
417.159	512.31
417.382	517.31
417.605	534.31
417.828	529.31
418.051	551.31
418.274	549.31
418.497	510.31
418.72	545.31
418.943	517.31
419.166	542.31
419.389	591.31
419.611	580.31
419.834	537.31
420.057	540.31
420.28	539.31
420.503	544.31
420.726	528.31
420.948	557.31
421.171	597.31
421.394	598.31
421.617	565.31
421.839	524.31
422.062	540.31
422.285	558.31
422.507	615.31
422.73	658.31
422.953	645.31
423.175	596.31
423.398	567.31
423.621	556.31
423.843	602.31
424.066	574.31
424.288	572.31
424.511	611.31
424.733	668.31
424.956	734.31
425.178	672.31
425.401	705.31
425.623	721.31
425.846	606.31
426.068	580.31
426.291	544.31
426.513	556.31
426.735	572.31
426.958	603.31
427.18	705.31
427.402	798.31
427.625	893.31
427.847	724.31
428.069	653.31
428.292	574.31
428.514	572.31
428.736	524.31
428.958	526.31
429.181	525.31
429.403	498.31
429.625	507.31
429.847	582.31
430.069	601.31
430.292	607.31
430.514	519.31
430.736	520.31
430.958	514.31
431.18	500.31
431.402	494.31
431.624	484.31
431.846	496.31
432.068	495.31
432.29	508.31
432.512	502.31
432.734	511.31
432.956	478.31
433.178	496.31
433.4	522.31
433.622	514.31
433.844	506.31
434.066	501.31
434.287	507.31
434.509	497.31
434.731	511.31
434.953	503.31
435.175	541.31
435.397	563.31
435.618	579.31
435.84	602.31
436.062	669.31
436.284	734.31
436.505	603.31
436.727	542.31
436.949	547.31
437.17	524.31
437.392	488.31
437.614	546.31
437.835	552.31
438.057	633.31
438.278	729.31
438.5	713.31
438.721	804.31
438.943	760.31
439.165	614.31
439.386	570.31
439.608	560.31
439.829	556.31
440.05	582.31
440.272	623.31
440.493	588.31
440.715	551.31
440.936	533.31
441.158	534.31
441.379	537.31
441.6	531.31
441.822	564.31
442.043	595.31
442.264	679.31
442.486	708.31
442.707	599.31
442.928	589.31
443.149	569.31
443.371	591.31
443.592	630.31
443.813	722.31
444.034	783.31
444.255	656.31
444.476	607.31
444.698	590.31
444.919	599.31
445.14	704.31
445.361	642.31
445.582	610.31
445.803	678.31
446.024	739.31
446.245	741.31
446.466	669.31
446.687	565.31
446.908	557.31
447.129	529.31
447.35	533.31
447.571	528.31
447.792	481.31
448.013	508.31
448.234	520.31
448.455	583.31
448.675	679.31
448.896	778.31
449.117	664.31
449.338	635.31
449.559	727.31
449.779	794.31
450	646.31
450.221	548.31
450.442	516.31
450.662	478.31
450.883	489.31
451.104	515.31
451.324	503.31
451.545	490.31
451.766	462.31
451.986	444.31
452.207	471.31
452.428	468.31
452.648	462.31
452.869	447.31
453.089	483.31
453.31	484.31
453.53	469.31
453.751	470.31
453.971	459.31
454.192	483.31
454.412	471.31
454.633	467.31
454.853	448.31
455.073	488.31
455.294	480.31
455.514	540.31
455.734	524.31
455.955	464.31
456.175	448.31
456.395	445.31
456.616	435.31
456.836	439.31
457.056	423.31
457.276	415.31
457.497	444.31
457.717	431.31
457.937	437.31
458.157	445.31
458.377	478.31
458.598	477.31
458.818	528.31
459.038	593.31
459.258	616.31
459.478	549.31
459.698	510.31
459.918	526.31
460.138	506.31
460.358	523.31
460.578	522.31
460.798	514.31
461.018	553.31
461.238	527.31
461.458	525.31
461.678	514.31
461.898	530.31
462.118	548.31
462.338	546.31
462.558	560.31
462.777	554.31
462.997	596.31
463.217	606.31
463.437	618.31
463.657	598.31
463.876	563.31
464.096	578.31
464.316	584.31
464.536	589.31
464.755	582.31
464.975	571.31
465.195	602.31
465.414	648.31
465.634	554.31
465.854	528.31
466.073	520.31
466.293	486.31
466.512	490.31
466.732	495.31
466.951	464.31
467.171	480.31
467.391	484.31
467.61	484.31
467.829	494.31
468.049	467.31
468.268	473.31
468.488	476.31
468.707	462.31
468.927	468.31
469.146	464.31
469.365	485.31
469.585	461.31
469.804	475.31
470.023	490.31
470.243	489.31
470.462	491.31
470.681	516.31
470.901	497.31
471.12	518.31
471.339	512.31
471.558	480.31
471.777	473.31
471.997	472.31
472.216	478.31
472.435	466.31
472.654	463.31
472.873	477.31
473.092	456.31
473.311	484.31
473.53	458.31
473.749	481.31
473.968	510.31
474.187	596.31
474.406	634.31
474.625	525.31
474.844	490.31
475.063	505.31
475.282	483.31
475.501	455.31
475.72	478.31
475.939	495.31
476.158	507.31
476.377	498.31
476.596	510.31
476.814	496.31
477.033	507.31
477.252	501.31
477.471	514.31
477.69	526.31
477.908	525.31
478.127	537.31
478.346	511.31
478.564	524.31
478.783	527.31
479.002	554.31
479.22	570.31
479.439	586.31
479.658	568.31
479.876	603.31
480.095	602.31
480.313	621.31
480.532	602.31
480.751	597.31
480.969	596.31
481.188	602.31
481.406	601.31
481.624	583.31
481.843	588.31
482.061	558.31
482.28	567.31
482.498	549.31
482.717	573.31
482.935	546.31
483.153	578.31
483.372	534.31
483.59	562.31
483.808	559.31
484.027	539.31
484.245	554.31
484.463	555.31
484.681	573.31
484.9	582.31
485.118	578.31
485.336	588.31
485.554	576.31
485.772	577.31
485.99	591.31
486.209	592.31
486.427	574.31
486.645	589.31
486.863	604.31
487.081	588.31
487.299	600.31
487.517	587.31
487.735	594.31
487.953	604.31
488.171	588.31
488.389	601.31
488.607	608.31
488.825	596.31
489.043	593.31
489.261	584.31
489.479	589.31
489.696	583.31
489.914	595.31
490.132	614.31
490.35	612.31
490.568	630.31
490.786	638.31
491.003	637.31
491.221	648.31
491.439	650.31
491.657	648.31
491.874	667.31
492.092	682.31
492.31	674.31
492.527	702.31
492.745	678.31
492.963	662.31
493.18	683.31
493.398	670.31
493.615	708.31
493.833	706.31
494.05	693.31
494.268	715.31
494.485	694.31
494.703	694.31
494.92	676.31
495.138	702.31
495.355	704.31
495.573	694.31
495.79	676.31
496.008	704.31
496.225	723.31
496.442	691.31
496.66	701.31
496.877	698.31
497.094	719.31
497.312	708.31
497.529	720.31
497.746	738.31
497.963	754.31
498.181	792.31
498.398	798.31
498.615	820.31
498.832	843.31
499.049	892.31
499.267	910.31
499.484	924.31
499.701	989.31
499.918	1056.31
500.135	1103.31
500.352	1218.31
500.569	1176.31
500.786	1210.31
501.003	1171.31
501.22	1108.31
501.437	1040.31
501.654	999.31
501.871	978.31
