Data from 1985.PennyLincolnUp.Lamp.En5.5.200Scan.071819.P1_HRD10591_17-01-57-969.txt Node
Date: Thu Jul 18 17:01:57 EDT 2019
User: cochatt
Spectrometer: HR+D1059
Trigger mode: 1
Integration Time (sec): 1.000000E-1
Scans to average: 1
Electric dark correction enabled: true
Nonlinearity correction enabled: false
Boxcar width: 0
XAxis mode: Wavelengths
Number of Pixels in Spectrum: 2048
>>>>>Begin Spectral Data<<<<<
223.165	-26.06
223.4	-26.06
223.635	-26.06
223.869	-14.06
224.104	-14.06
224.338	3.94
224.573	-25.06
224.808	-14.06
225.042	-7.06
225.277	-0.06
225.511	-6.06
225.746	15.94
225.98	8.94
226.215	11.94
226.449	17.94
226.683	8.94
226.918	19.94
227.152	18.94
227.387	36.94
227.621	42.94
227.856	35.94
228.09	39.94
228.324	45.94
228.559	59.94
228.793	64.94
229.027	93.94
229.262	116.94
229.496	119.94
229.73	137.94
229.964	141.94
230.199	129.94
230.433	114.94
230.667	122.94
230.901	116.94
231.136	113.94
231.37	106.94
231.604	112.94
231.838	103.94
232.072	109.94
232.306	116.94
232.541	120.94
232.775	108.94
233.009	106.94
233.243	125.94
233.477	118.94
233.711	105.94
233.945	122.94
234.179	116.94
234.413	130.94
234.647	124.94
234.881	113.94
235.115	121.94
235.349	118.94
235.583	134.94
235.817	109.94
236.051	124.94
236.285	112.94
236.519	110.94
236.753	127.94
236.987	141.94
237.221	162.94
237.455	203.94
237.689	185.94
237.922	127.94
238.156	130.94
238.39	116.94
238.624	120.94
238.858	123.94
239.091	119.94
239.325	106.94
239.559	130.94
239.793	122.94
240.027	121.94
240.26	139.94
240.494	150.94
240.728	149.94
240.961	159.94
241.195	149.94
241.429	152.94
241.662	132.94
241.896	128.94
242.13	138.94
242.363	134.94
242.597	129.94
242.83	150.94
243.064	126.94
243.298	132.94
243.531	128.94
243.765	142.94
243.998	148.94
244.232	147.94
244.465	158.94
244.699	144.94
244.932	133.94
245.166	152.94
245.399	158.94
245.633	158.94
245.866	154.94
246.099	139.94
246.333	127.94
246.566	163.94
246.8	151.94
247.033	144.94
247.266	153.94
247.5	163.94
247.733	165.94
247.966	175.94
248.2	173.94
248.433	170.94
248.666	163.94
248.899	186.94
249.133	180.94
249.366	197.94
249.599	177.94
249.832	178.94
250.066	173.94
250.299	176.94
250.532	177.94
250.765	182.94
250.998	211.94
251.231	222.94
251.465	203.94
251.698	203.94
251.931	202.94
252.164	198.94
252.397	195.94
252.63	195.94
252.863	195.94
253.096	210.94
253.329	225.94
253.562	226.94
253.795	214.94
254.028	213.94
254.261	211.94
254.494	214.94
254.727	257.94
254.96	262.94
255.193	257.94
255.426	234.94
255.659	211.94
255.892	218.94
256.124	205.94
256.357	200.94
256.59	203.94
256.823	192.94
257.056	187.94
257.289	194.94
257.521	206.94
257.754	216.94
257.987	215.94
258.22	198.94
258.452	205.94
258.685	192.94
258.918	229.94
259.151	207.94
259.383	209.94
259.616	214.94
259.849	242.94
260.081	246.94
260.314	260.94
260.547	240.94
260.779	238.94
261.012	232.94
261.244	220.94
261.477	217.94
261.71	208.94
261.942	202.94
262.175	221.94
262.407	224.94
262.64	231.94
262.872	221.94
263.105	210.94
263.337	235.94
263.57	233.94
263.802	227.94
264.035	221.94
264.267	215.94
264.499	218.94
264.732	232.94
264.964	204.94
265.197	224.94
265.429	213.94
265.661	224.94
265.894	221.94
266.126	209.94
266.358	217.94
266.591	216.94
266.823	246.94
267.055	256.94
267.287	230.94
267.52	241.94
267.752	226.94
267.984	223.94
268.216	234.94
268.448	245.94
268.681	258.94
268.913	264.94
269.145	283.94
269.377	284.94
269.609	261.94
269.841	285.94
270.073	280.94
270.306	297.94
270.538	305.94
270.77	301.94
271.002	306.94
271.234	297.94
271.466	302.94
271.698	317.94
271.93	348.94
272.162	316.94
272.394	320.94
272.626	306.94
272.858	305.94
273.09	284.94
273.322	294.94
273.553	270.94
273.785	276.94
274.017	270.94
274.249	285.94
274.481	296.94
274.713	293.94
274.945	274.94
275.176	282.94
275.408	267.94
275.64	269.94
275.872	282.94
276.104	273.94
276.335	277.94
276.567	282.94
276.799	299.94
277.031	332.94
277.262	322.94
277.494	336.94
277.726	297.94
277.957	296.94
278.189	316.94
278.421	288.94
278.652	277.94
278.884	264.94
279.115	293.94
279.347	293.94
279.579	277.94
279.81	281.94
280.042	272.94
280.273	301.94
280.505	290.94
280.736	288.94
280.968	283.94
281.199	283.94
281.431	300.94
281.662	289.94
281.894	296.94
282.125	292.94
282.356	306.94
282.588	317.94
282.819	329.94
283.051	298.94
283.282	315.94
283.513	288.94
283.745	306.94
283.976	323.94
284.207	316.94
284.439	300.94
284.67	299.94
284.901	306.94
285.132	319.94
285.364	312.94
285.595	321.94
285.826	284.94
286.057	326.94
286.288	294.94
286.52	324.94
286.751	318.94
286.982	306.94
287.213	316.94
287.444	327.94
287.675	326.94
287.906	320.94
288.138	333.94
288.369	333.94
288.6	346.94
288.831	323.94
289.062	310.94
289.293	321.94
289.524	312.94
289.755	326.94
289.986	334.94
290.217	305.94
290.448	324.94
290.679	328.94
290.91	345.94
291.141	308.94
291.371	313.94
291.602	319.94
291.833	325.94
292.064	330.94
292.295	325.94
292.526	328.94
292.757	324.94
292.987	330.94
293.218	328.94
293.449	321.94
293.68	323.94
293.91	326.94
294.141	317.94
294.372	323.94
294.603	312.94
294.833	320.94
295.064	317.94
295.295	334.94
295.525	324.94
295.756	331.94
295.987	333.94
296.217	389.94
296.448	380.94
296.679	342.94
296.909	341.94
297.14	315.94
297.37	337.94
297.601	338.94
297.831	350.94
298.062	339.94
298.292	325.94
298.523	339.94
298.753	353.94
298.984	330.94
299.214	357.94
299.445	347.94
299.675	350.94
299.905	353.94
300.136	349.94
300.366	353.94
300.597	360.94
300.827	371.94
301.057	364.94
301.288	375.94
301.518	356.94
301.748	370.94
301.979	374.94
302.209	372.94
302.439	371.94
302.669	372.94
302.9	352.94
303.13	380.94
303.36	373.94
303.59	374.94
303.82	386.94
304.051	384.94
304.281	372.94
304.511	354.94
304.741	332.94
304.971	354.94
305.201	376.94
305.431	354.94
305.661	359.94
305.891	382.94
306.121	379.94
306.352	371.94
306.582	397.94
306.812	386.94
307.042	355.94
307.272	366.94
307.502	375.94
307.731	392.94
307.961	366.94
308.191	377.94
308.421	357.94
308.651	397.94
308.881	360.94
309.111	376.94
309.341	362.94
309.571	402.94
309.8	395.94
310.03	414.94
310.26	392.94
310.49	432.94
310.72	402.94
310.949	437.94
311.179	432.94
311.409	403.94
311.639	405.94
311.868	420.94
312.098	405.94
312.328	406.94
312.557	434.94
312.787	451.94
313.017	456.94
313.246	416.94
313.476	417.94
313.706	425.94
313.935	403.94
314.165	424.94
314.394	420.94
314.624	427.94
314.853	425.94
315.083	428.94
315.312	417.94
315.542	410.94
315.771	396.94
316.001	416.94
316.23	410.94
316.46	408.94
316.689	403.94
316.919	439.94
317.148	430.94
317.377	441.94
317.607	433.94
317.836	420.94
318.065	421.94
318.295	413.94
318.524	422.94
318.753	413.94
318.983	413.94
319.212	427.94
319.441	457.94
319.67	429.94
319.9	451.94
320.129	420.94
320.358	416.94
320.587	397.94
320.816	436.94
321.046	447.94
321.275	437.94
321.504	424.94
321.733	454.94
321.962	421.94
322.191	472.94
322.42	480.94
322.649	493.94
322.878	475.94
323.108	479.94
323.337	514.94
323.566	506.94
323.795	540.94
324.024	582.94
324.253	710.94
324.482	951.94
324.71	1420.94
324.939	2006.94
325.168	1685.94
325.397	912.94
325.626	646.94
325.855	565.94
326.084	522.94
326.313	533.94
326.542	540.94
326.77	571.94
326.999	637.94
327.228	849.94
327.457	1273.94
327.686	1484.94
327.914	1003.94
328.143	714.94
328.372	636.94
328.6	596.94
328.829	585.94
329.058	602.94
329.287	591.94
329.515	562.94
329.744	504.94
329.972	519.94
330.201	529.94
330.43	550.94
330.658	616.94
330.887	628.94
331.115	618.94
331.344	540.94
331.572	552.94
331.801	536.94
332.03	527.94
332.258	507.94
332.486	480.94
332.715	496.94
332.943	512.94
333.172	514.94
333.4	524.94
333.629	525.94
333.857	539.94
334.085	551.94
334.314	516.94
334.542	533.94
334.771	537.94
334.999	524.94
335.227	516.94
335.455	508.94
335.684	507.94
335.912	518.94
336.14	521.94
336.369	492.94
336.597	502.94
336.825	491.94
337.053	502.94
337.281	495.94
337.51	492.94
337.738	489.94
337.966	481.94
338.194	490.94
338.422	479.94
338.65	471.94
338.878	457.94
339.106	470.94
339.334	476.94
339.562	465.94
339.79	465.94
340.018	459.94
340.246	464.94
340.474	469.94
340.702	490.94
340.93	480.94
341.158	465.94
341.386	485.94
341.614	468.94
341.842	475.94
342.07	468.94
342.298	464.94
342.526	461.94
342.754	457.94
342.981	465.94
343.209	458.94
343.437	458.94
343.665	471.94
343.893	498.94
344.12	503.94
344.348	494.94
344.576	474.94
344.804	474.94
345.031	480.94
345.259	498.94
345.487	473.94
345.714	464.94
345.942	457.94
346.17	468.94
346.397	464.94
346.625	448.94
346.853	463.94
347.08	451.94
347.308	443.94
347.535	444.94
347.763	460.94
347.99	469.94
348.218	455.94
348.445	472.94
348.673	447.94
348.9	451.94
349.128	445.94
349.355	432.94
349.583	423.94
349.81	441.94
350.037	443.94
350.265	431.94
350.492	459.94
350.72	449.94
350.947	441.94
351.174	452.94
351.402	482.94
351.629	451.94
351.856	442.94
352.083	453.94
352.311	470.94
352.538	481.94
352.765	463.94
352.992	459.94
353.22	448.94
353.447	452.94
353.674	447.94
353.901	447.94
354.128	419.94
354.355	412.94
354.583	425.94
354.81	441.94
355.037	417.94
355.264	416.94
355.491	407.94
355.718	422.94
355.945	412.94
356.172	426.94
356.399	413.94
356.626	432.94
356.853	412.94
357.08	420.94
357.307	417.94
357.534	419.94
357.761	407.94
357.988	425.94
358.215	405.94
358.441	434.94
358.668	418.94
358.895	440.94
359.122	411.94
359.349	435.94
359.576	443.94
359.802	472.94
360.029	487.94
360.256	489.94
360.483	504.94
360.709	460.94
360.936	442.94
361.163	431.94
361.39	434.94
361.616	444.94
361.843	443.94
362.07	427.94
362.296	424.94
362.523	444.94
362.749	452.94
362.976	438.94
363.203	438.94
363.429	433.94
363.656	418.94
363.882	401.94
364.109	416.94
364.335	424.94
364.562	411.94
364.788	417.94
365.015	428.94
365.241	419.94
365.468	432.94
365.694	462.94
365.92	453.94
366.147	445.94
366.373	433.94
366.599	425.94
366.826	427.94
367.052	410.94
367.278	429.94
367.505	416.94
367.731	413.94
367.957	388.94
368.184	420.94
368.41	434.94
368.636	440.94
368.862	434.94
369.089	425.94
369.315	420.94
369.541	417.94
369.767	443.94
369.993	428.94
370.219	424.94
370.445	425.94
370.672	430.94
370.898	420.94
371.124	432.94
371.35	418.94
371.576	418.94
371.802	426.94
372.028	452.94
372.254	440.94
372.48	442.94
372.706	424.94
372.932	448.94
373.158	433.94
373.384	424.94
373.61	430.94
373.835	436.94
374.061	434.94
374.287	420.94
374.513	460.94
374.739	460.94
374.965	442.94
375.191	459.94
375.416	454.94
375.642	413.94
375.868	453.94
376.094	397.94
376.319	434.94
376.545	448.94
376.771	409.94
376.997	424.94
377.222	445.94
377.448	438.94
377.674	425.94
377.899	410.94
378.125	440.94
378.35	410.94
378.576	421.94
378.802	420.94
379.027	415.94
379.253	395.94
379.478	429.94
379.704	421.94
379.929	422.94
380.155	443.94
380.38	449.94
380.606	428.94
380.831	426.94
381.057	413.94
381.282	414.94
381.507	409.94
381.733	443.94
381.958	412.94
382.184	435.94
382.409	431.94
382.634	445.94
382.86	436.94
383.085	441.94
383.31	434.94
383.535	450.94
383.761	441.94
383.986	451.94
384.211	444.94
384.436	449.94
384.662	445.94
384.887	412.94
385.112	471.94
385.337	469.94
385.562	473.94
385.787	476.94
386.013	481.94
386.238	490.94
386.463	506.94
386.688	478.94
386.913	486.94
387.138	486.94
387.363	479.94
387.588	495.94
387.813	457.94
388.038	459.94
388.263	473.94
388.488	468.94
388.713	477.94
388.938	463.94
389.163	480.94
389.387	484.94
389.612	456.94
389.837	462.94
390.062	455.94
390.287	489.94
390.512	454.94
390.736	464.94
390.961	478.94
391.186	474.94
391.411	504.94
391.636	498.94
391.86	510.94
392.085	481.94
392.31	519.94
392.534	492.94
392.759	487.94
392.984	492.94
393.208	472.94
393.433	470.94
393.658	485.94
393.882	477.94
394.107	481.94
394.331	481.94
394.556	493.94
394.78	484.94
395.005	493.94
395.229	485.94
395.454	486.94
395.678	489.94
395.903	522.94
396.127	529.94
396.352	526.94
396.576	496.94
396.801	490.94
397.025	491.94
397.249	509.94
397.474	503.94
397.698	515.94
397.922	535.94
398.147	538.94
398.371	535.94
398.595	545.94
398.82	541.94
399.044	596.94
399.268	604.94
399.492	657.94
399.717	672.94
399.941	715.94
400.165	707.94
400.389	681.94
400.613	636.94
400.837	590.94
401.062	567.94
401.286	554.94
401.51	545.94
401.734	551.94
401.958	553.94
402.182	558.94
402.406	564.94
402.63	560.94
402.854	579.94
403.078	591.94
403.302	572.94
403.526	582.94
403.75	573.94
403.974	597.94
404.198	584.94
404.422	594.94
404.645	594.94
404.869	591.94
405.093	599.94
405.317	588.94
405.541	632.94
405.765	619.94
405.988	594.94
406.212	572.94
406.436	608.94
406.66	628.94
406.883	617.94
407.107	648.94
407.331	680.94
407.555	768.94
407.778	775.94
408.002	685.94
408.226	647.94
408.449	616.94
408.673	598.94
408.896	652.94
409.12	674.94
409.344	641.94
409.567	600.94
409.791	597.94
410.014	577.94
410.238	583.94
410.461	579.94
410.685	574.94
410.908	605.94
411.132	601.94
411.355	632.94
411.578	611.94
411.802	584.94
412.025	554.94
412.249	565.94
412.472	573.94
412.695	544.94
412.919	552.94
413.142	540.94
413.365	554.94
413.589	534.94
413.812	569.94
414.035	550.94
414.258	543.94
414.482	547.94
414.705	534.94
414.928	529.94
415.151	528.94
415.374	545.94
415.597	546.94
415.821	513.94
416.044	520.94
416.267	532.94
416.49	553.94
416.713	510.94
416.936	524.94
417.159	521.94
417.382	539.94
417.605	542.94
417.828	548.94
418.051	546.94
418.274	545.94
418.497	516.94
418.72	536.94
418.943	526.94
419.166	557.94
419.389	550.94
419.611	584.94
419.834	559.94
420.057	557.94
420.28	551.94
420.503	571.94
420.726	535.94
420.948	552.94
421.171	598.94
421.394	615.94
421.617	571.94
421.839	545.94
422.062	522.94
422.285	566.94
422.507	610.94
422.73	688.94
422.953	664.94
423.175	611.94
423.398	592.94
423.621	563.94
423.843	576.94
424.066	576.94
424.288	599.94
424.511	609.94
424.733	649.94
424.956	714.94
425.178	702.94
425.401	692.94
425.623	710.94
425.846	597.94
426.068	596.94
426.291	571.94
426.513	567.94
426.735	574.94
426.958	626.94
427.18	693.94
427.402	821.94
427.625	884.94
427.847	764.94
428.069	625.94
428.292	582.94
428.514	547.94
428.736	546.94
428.958	549.94
429.181	527.94
429.403	517.94
429.625	538.94
429.847	566.94
430.069	609.94
430.292	616.94
430.514	535.94
430.736	531.94
430.958	514.94
431.18	506.94
431.402	510.94
431.624	520.94
431.846	518.94
432.068	505.94
432.29	502.94
432.512	485.94
432.734	506.94
432.956	526.94
433.178	518.94
433.4	525.94
433.622	494.94
433.844	493.94
434.066	513.94
434.287	505.94
434.509	516.94
434.731	514.94
434.953	535.94
435.175	582.94
435.397	576.94
435.618	566.94
435.84	596.94
436.062	696.94
436.284	736.94
436.505	618.94
436.727	580.94
436.949	538.94
437.17	530.94
437.392	516.94
437.614	530.94
437.835	583.94
438.057	670.94
438.278	741.94
438.5	763.94
438.721	811.94
438.943	760.94
439.165	613.94
439.386	589.94
439.608	576.94
439.829	556.94
440.05	596.94
440.272	630.94
440.493	593.94
440.715	552.94
440.936	537.94
441.158	514.94
441.379	546.94
441.6	546.94
441.822	584.94
442.043	590.94
442.264	696.94
442.486	702.94
442.707	625.94
442.928	583.94
443.149	606.94
443.371	654.94
443.592	664.94
443.813	758.94
444.034	791.94
444.255	663.94
444.476	604.94
444.698	596.94
444.919	613.94
445.14	721.94
445.361	650.94
445.582	606.94
445.803	674.94
446.024	762.94
446.245	762.94
446.466	685.94
446.687	622.94
446.908	578.94
447.129	524.94
447.35	522.94
447.571	510.94
447.792	508.94
448.013	508.94
448.234	521.94
448.455	593.94
448.675	672.94
448.896	770.94
449.117	676.94
449.338	635.94
449.559	739.94
449.779	845.94
450	666.94
450.221	568.94
450.442	517.94
450.662	526.94
450.883	513.94
451.104	527.94
451.324	516.94
451.545	484.94
451.766	486.94
451.986	463.94
452.207	453.94
452.428	461.94
452.648	466.94
452.869	481.94
453.089	483.94
453.31	510.94
453.53	492.94
453.751	484.94
453.971	469.94
454.192	495.94
454.412	489.94
454.633	481.94
454.853	475.94
455.073	473.94
455.294	485.94
455.514	546.94
455.734	541.94
455.955	456.94
456.175	446.94
456.395	429.94
456.616	448.94
456.836	442.94
457.056	429.94
457.276	443.94
457.497	466.94
457.717	443.94
457.937	462.94
458.157	444.94
458.377	464.94
458.598	512.94
458.818	570.94
459.038	614.94
459.258	617.94
459.478	524.94
459.698	539.94
459.918	519.94
460.138	491.94
460.358	536.94
460.578	538.94
460.798	539.94
461.018	548.94
461.238	532.94
461.458	546.94
461.678	535.94
461.898	558.94
462.118	543.94
462.338	545.94
462.558	566.94
462.777	566.94
462.997	602.94
463.217	634.94
463.437	616.94
463.657	616.94
463.876	574.94
464.096	584.94
464.316	582.94
464.536	600.94
464.755	607.94
464.975	583.94
465.195	602.94
465.414	688.94
465.634	605.94
465.854	542.94
466.073	518.94
466.293	517.94
466.512	506.94
466.732	498.94
466.951	514.94
467.171	500.94
467.391	499.94
467.61	480.94
467.829	508.94
468.049	487.94
468.268	472.94
468.488	469.94
468.707	477.94
468.927	476.94
469.146	465.94
469.365	485.94
469.585	489.94
469.804	484.94
470.023	505.94
470.243	504.94
470.462	498.94
470.681	523.94
470.901	527.94
471.12	516.94
471.339	487.94
471.558	502.94
471.777	497.94
471.997	461.94
472.216	477.94
472.435	506.94
472.654	465.94
472.873	493.94
473.092	503.94
473.311	489.94
473.53	476.94
473.749	492.94
473.968	521.94
474.187	618.94
474.406	631.94
474.625	533.94
474.844	526.94
475.063	507.94
475.282	473.94
475.501	494.94
475.72	496.94
475.939	516.94
476.158	514.94
476.377	503.94
476.596	501.94
476.814	509.94
477.033	512.94
477.252	518.94
477.471	519.94
477.69	539.94
477.908	535.94
478.127	551.94
478.346	563.94
478.564	518.94
478.783	548.94
479.002	559.94
479.22	578.94
479.439	580.94
479.658	598.94
479.876	602.94
480.095	576.94
480.313	624.94
480.532	628.94
480.751	606.94
480.969	583.94
481.188	605.94
481.406	600.94
481.624	571.94
481.843	574.94
482.061	558.94
482.28	577.94
482.498	564.94
482.717	568.94
482.935	548.94
483.153	573.94
483.372	569.94
483.59	580.94
483.808	546.94
484.027	564.94
484.245	573.94
484.463	570.94
484.681	588.94
484.9	580.94
485.118	592.94
485.336	569.94
485.554	596.94
485.772	586.94
485.99	587.94
486.209	583.94
486.427	572.94
486.645	586.94
486.863	633.94
487.081	590.94
487.299	615.94
487.517	591.94
487.735	595.94
487.953	608.94
488.171	588.94
488.389	594.94
488.607	608.94
488.825	617.94
489.043	606.94
489.261	599.94
489.479	578.94
489.696	600.94
489.914	609.94
490.132	605.94
490.35	643.94
490.568	612.94
490.786	655.94
491.003	642.94
491.221	639.94
491.439	680.94
491.657	673.94
491.874	667.94
492.092	662.94
492.31	667.94
492.527	688.94
492.745	692.94
492.963	667.94
493.18	700.94
493.398	680.94
493.615	705.94
493.833	714.94
494.05	678.94
494.268	708.94
494.485	693.94
494.703	690.94
494.92	697.94
495.138	713.94
495.355	694.94
495.573	711.94
495.79	720.94
496.008	706.94
496.225	679.94
496.442	726.94
496.66	698.94
496.877	716.94
497.094	710.94
497.312	733.94
497.529	744.94
497.746	725.94
497.963	766.94
498.181	805.94
498.398	807.94
498.615	839.94
498.832	865.94
499.049	871.94
499.267	898.94
499.484	950.94
499.701	999.94
499.918	1034.94
500.135	1134.94
500.352	1204.94
500.569	1228.94
500.786	1191.94
501.003	1191.94
501.22	1155.94
501.437	1068.94
501.654	1024.94
501.871	1023.94
