Data from 1985.PennyLincolnUp.Lamp.En5.5.200Scan.071819.P1_HRD10591_17-03-24-970.txt Node
Date: Thu Jul 18 17:03:24 EDT 2019
User: cochatt
Spectrometer: HR+D1059
Trigger mode: 1
Integration Time (sec): 1.000000E-1
Scans to average: 1
Electric dark correction enabled: true
Nonlinearity correction enabled: false
Boxcar width: 0
XAxis mode: Wavelengths
Number of Pixels in Spectrum: 2048
>>>>>Begin Spectral Data<<<<<
223.165	-18.38
223.4	-18.38
223.635	-18.38
223.869	-12.38
224.104	-27.38
224.338	-10.38
224.573	-5.38
224.808	-14.38
225.042	-3.38
225.277	-17.38
225.511	-0.38
225.746	8.62
225.98	1.62
226.215	0.62
226.449	19.62
226.683	19.62
226.918	25.62
227.152	33.62
227.387	24.62
227.621	30.62
227.856	38.62
228.09	46.62
228.324	49.62
228.559	61.62
228.793	70.62
229.027	82.62
229.262	108.62
229.496	121.62
229.73	119.62
229.964	140.62
230.199	123.62
230.433	121.62
230.667	102.62
230.901	107.62
231.136	115.62
231.37	95.62
231.604	106.62
231.838	112.62
232.072	92.62
232.306	116.62
232.541	110.62
232.775	114.62
233.009	114.62
233.243	108.62
233.477	116.62
233.711	108.62
233.945	119.62
234.179	127.62
234.413	119.62
234.647	113.62
234.881	118.62
235.115	119.62
235.349	129.62
235.583	111.62
235.817	129.62
236.051	121.62
236.285	122.62
236.519	126.62
236.753	130.62
236.987	147.62
237.221	187.62
237.455	218.62
237.689	182.62
237.922	154.62
238.156	109.62
238.39	121.62
238.624	119.62
238.858	131.62
239.091	125.62
239.325	117.62
239.559	140.62
239.793	138.62
240.027	136.62
240.26	143.62
240.494	151.62
240.728	166.62
240.961	155.62
241.195	137.62
241.429	130.62
241.662	132.62
241.896	131.62
242.13	132.62
242.363	133.62
242.597	116.62
242.83	133.62
243.064	133.62
243.298	143.62
243.531	146.62
243.765	141.62
243.998	135.62
244.232	145.62
244.465	147.62
244.699	154.62
244.932	141.62
245.166	147.62
245.399	149.62
245.633	133.62
245.866	162.62
246.099	149.62
246.333	159.62
246.566	143.62
246.8	150.62
247.033	155.62
247.266	151.62
247.5	166.62
247.733	164.62
247.966	178.62
248.2	161.62
248.433	155.62
248.666	166.62
248.899	169.62
249.133	189.62
249.366	204.62
249.599	178.62
249.832	191.62
250.066	193.62
250.299	169.62
250.532	189.62
250.765	182.62
250.998	209.62
251.231	236.62
251.465	203.62
251.698	209.62
251.931	203.62
252.164	192.62
252.397	191.62
252.63	198.62
252.863	221.62
253.096	214.62
253.329	215.62
253.562	219.62
253.795	222.62
254.028	222.62
254.261	212.62
254.494	225.62
254.727	254.62
254.96	262.62
255.193	249.62
255.426	232.62
255.659	243.62
255.892	232.62
256.124	245.62
256.357	235.62
256.59	223.62
256.823	207.62
257.056	203.62
257.289	212.62
257.521	207.62
257.754	213.62
257.987	195.62
258.22	217.62
258.452	219.62
258.685	219.62
258.918	216.62
259.151	231.62
259.383	207.62
259.616	226.62
259.849	221.62
260.081	233.62
260.314	254.62
260.547	259.62
260.779	261.62
261.012	234.62
261.244	215.62
261.477	230.62
261.71	224.62
261.942	244.62
262.175	244.62
262.407	225.62
262.64	222.62
262.872	226.62
263.105	231.62
263.337	219.62
263.57	219.62
263.802	222.62
264.035	225.62
264.267	226.62
264.499	223.62
264.732	230.62
264.964	237.62
265.197	222.62
265.429	233.62
265.661	219.62
265.894	223.62
266.126	241.62
266.358	220.62
266.591	230.62
266.823	238.62
267.055	250.62
267.287	214.62
267.52	222.62
267.752	233.62
267.984	239.62
268.216	244.62
268.448	229.62
268.681	263.62
268.913	249.62
269.145	270.62
269.377	297.62
269.609	271.62
269.841	268.62
270.073	280.62
270.306	286.62
270.538	314.62
270.77	308.62
271.002	294.62
271.234	311.62
271.466	312.62
271.698	301.62
271.93	331.62
272.162	305.62
272.394	325.62
272.626	323.62
272.858	303.62
273.09	285.62
273.322	278.62
273.553	272.62
273.785	268.62
274.017	274.62
274.249	289.62
274.481	290.62
274.713	281.62
274.945	281.62
275.176	276.62
275.408	274.62
275.64	279.62
275.872	282.62
276.104	273.62
276.335	300.62
276.567	285.62
276.799	306.62
277.031	309.62
277.262	336.62
277.494	313.62
277.726	317.62
277.957	300.62
278.189	280.62
278.421	290.62
278.652	278.62
278.884	296.62
279.115	281.62
279.347	291.62
279.579	295.62
279.81	287.62
280.042	275.62
280.273	281.62
280.505	296.62
280.736	302.62
280.968	305.62
281.199	295.62
281.431	283.62
281.662	298.62
281.894	301.62
282.125	292.62
282.356	323.62
282.588	325.62
282.819	321.62
283.051	307.62
283.282	300.62
283.513	285.62
283.745	300.62
283.976	294.62
284.207	313.62
284.439	327.62
284.67	329.62
284.901	318.62
285.132	311.62
285.364	317.62
285.595	302.62
285.826	283.62
286.057	322.62
286.288	299.62
286.52	328.62
286.751	318.62
286.982	315.62
287.213	319.62
287.444	296.62
287.675	313.62
287.906	311.62
288.138	323.62
288.369	340.62
288.6	325.62
288.831	349.62
289.062	331.62
289.293	329.62
289.524	323.62
289.755	309.62
289.986	307.62
290.217	331.62
290.448	321.62
290.679	319.62
290.91	318.62
291.141	300.62
291.371	324.62
291.602	325.62
291.833	337.62
292.064	327.62
292.295	318.62
292.526	311.62
292.757	322.62
292.987	331.62
293.218	320.62
293.449	331.62
293.68	319.62
293.91	323.62
294.141	338.62
294.372	335.62
294.603	321.62
294.833	331.62
295.064	333.62
295.295	328.62
295.525	330.62
295.756	331.62
295.987	328.62
296.217	352.62
296.448	381.62
296.679	348.62
296.909	336.62
297.14	318.62
297.37	333.62
297.601	333.62
297.831	334.62
298.062	318.62
298.292	354.62
298.523	343.62
298.753	334.62
298.984	350.62
299.214	348.62
299.445	334.62
299.675	353.62
299.905	348.62
300.136	330.62
300.366	326.62
300.597	362.62
300.827	362.62
301.057	369.62
301.288	379.62
301.518	366.62
301.748	370.62
301.979	371.62
302.209	361.62
302.439	360.62
302.669	370.62
302.9	353.62
303.13	364.62
303.36	375.62
303.59	389.62
303.82	376.62
304.051	393.62
304.281	366.62
304.511	371.62
304.741	360.62
304.971	364.62
305.201	348.62
305.431	360.62
305.661	377.62
305.891	373.62
306.121	363.62
306.352	355.62
306.582	381.62
306.812	342.62
307.042	354.62
307.272	378.62
307.502	363.62
307.731	353.62
307.961	359.62
308.191	377.62
308.421	373.62
308.651	377.62
308.881	393.62
309.111	376.62
309.341	363.62
309.571	389.62
309.8	403.62
310.03	418.62
310.26	395.62
310.49	387.62
310.72	419.62
310.949	417.62
311.179	429.62
311.409	405.62
311.639	428.62
311.868	412.62
312.098	405.62
312.328	426.62
312.557	443.62
312.787	443.62
313.017	419.62
313.246	414.62
313.476	406.62
313.706	407.62
313.935	403.62
314.165	441.62
314.394	445.62
314.624	449.62
314.853	430.62
315.083	427.62
315.312	411.62
315.542	418.62
315.771	390.62
316.001	398.62
316.23	392.62
316.46	449.62
316.689	409.62
316.919	437.62
317.148	409.62
317.377	401.62
317.607	423.62
317.836	434.62
318.065	421.62
318.295	417.62
318.524	410.62
318.753	418.62
318.983	400.62
319.212	428.62
319.441	430.62
319.67	419.62
319.9	415.62
320.129	405.62
320.358	422.62
320.587	426.62
320.816	416.62
321.046	439.62
321.275	435.62
321.504	443.62
321.733	435.62
321.962	437.62
322.191	425.62
322.42	464.62
322.649	474.62
322.878	484.62
323.108	480.62
323.337	493.62
323.566	532.62
323.795	546.62
324.024	606.62
324.253	698.62
324.482	923.62
324.71	1409.62
324.939	1985.62
325.168	1662.62
325.397	903.62
325.626	638.62
325.855	573.62
326.084	538.62
326.313	545.62
326.542	537.62
326.77	567.62
326.999	629.62
327.228	873.62
327.457	1242.62
327.686	1516.62
327.914	1015.62
328.143	670.62
328.372	617.62
328.6	593.62
328.829	557.62
329.058	581.62
329.287	618.62
329.515	562.62
329.744	505.62
329.972	531.62
330.201	547.62
330.43	587.62
330.658	588.62
330.887	628.62
331.115	587.62
331.344	569.62
331.572	516.62
331.801	533.62
332.03	518.62
332.258	521.62
332.486	531.62
332.715	505.62
332.943	505.62
333.172	521.62
333.4	527.62
333.629	535.62
333.857	553.62
334.085	536.62
334.314	562.62
334.542	561.62
334.771	594.62
334.999	554.62
335.227	532.62
335.455	527.62
335.684	533.62
335.912	515.62
336.14	493.62
336.369	499.62
336.597	494.62
336.825	483.62
337.053	509.62
337.281	487.62
337.51	493.62
337.738	492.62
337.966	498.62
338.194	469.62
338.422	462.62
338.65	476.62
338.878	482.62
339.106	463.62
339.334	468.62
339.562	466.62
339.79	483.62
340.018	482.62
340.246	462.62
340.474	459.62
340.702	474.62
340.93	463.62
341.158	488.62
341.386	458.62
341.614	479.62
341.842	479.62
342.07	465.62
342.298	467.62
342.526	469.62
342.754	452.62
342.981	446.62
343.209	457.62
343.437	473.62
343.665	492.62
343.893	485.62
344.12	509.62
344.348	508.62
344.576	490.62
344.804	482.62
345.031	487.62
345.259	491.62
345.487	457.62
345.714	479.62
345.942	478.62
346.17	469.62
346.397	444.62
346.625	445.62
346.853	458.62
347.08	430.62
347.308	448.62
347.535	451.62
347.763	493.62
347.99	457.62
348.218	438.62
348.445	447.62
348.673	458.62
348.9	447.62
349.128	434.62
349.355	413.62
349.583	446.62
349.81	428.62
350.037	430.62
350.265	428.62
350.492	425.62
350.72	433.62
350.947	427.62
351.174	441.62
351.402	445.62
351.629	427.62
351.856	444.62
352.083	461.62
352.311	451.62
352.538	464.62
352.765	453.62
352.992	459.62
353.22	429.62
353.447	453.62
353.674	431.62
353.901	411.62
354.128	417.62
354.355	423.62
354.583	427.62
354.81	411.62
355.037	416.62
355.264	417.62
355.491	406.62
355.718	430.62
355.945	406.62
356.172	409.62
356.399	430.62
356.626	421.62
356.853	406.62
357.08	422.62
357.307	410.62
357.534	425.62
357.761	418.62
357.988	419.62
358.215	410.62
358.441	398.62
358.668	427.62
358.895	413.62
359.122	419.62
359.349	443.62
359.576	428.62
359.802	468.62
360.029	480.62
360.256	506.62
360.483	461.62
360.709	441.62
360.936	427.62
361.163	428.62
361.39	424.62
361.616	450.62
361.843	447.62
362.07	450.62
362.296	447.62
362.523	430.62
362.749	451.62
362.976	417.62
363.203	436.62
363.429	421.62
363.656	415.62
363.882	428.62
364.109	416.62
364.335	413.62
364.562	404.62
364.788	405.62
365.015	425.62
365.241	408.62
365.468	408.62
365.694	408.62
365.92	429.62
366.147	425.62
366.373	411.62
366.599	423.62
366.826	417.62
367.052	428.62
367.278	409.62
367.505	403.62
367.731	443.62
367.957	419.62
368.184	422.62
368.41	442.62
368.636	438.62
368.862	435.62
369.089	439.62
369.315	429.62
369.541	421.62
369.767	398.62
369.993	422.62
370.219	414.62
370.445	412.62
370.672	423.62
370.898	409.62
371.124	430.62
371.35	406.62
371.576	423.62
371.802	418.62
372.028	414.62
372.254	418.62
372.48	398.62
372.706	427.62
372.932	437.62
373.158	435.62
373.384	433.62
373.61	425.62
373.835	419.62
374.061	447.62
374.287	445.62
374.513	421.62
374.739	450.62
374.965	455.62
375.191	429.62
375.416	445.62
375.642	439.62
375.868	405.62
376.094	422.62
376.319	408.62
376.545	433.62
376.771	433.62
376.997	430.62
377.222	411.62
377.448	438.62
377.674	428.62
377.899	418.62
378.125	418.62
378.35	434.62
378.576	421.62
378.802	397.62
379.027	410.62
379.253	411.62
379.478	408.62
379.704	421.62
379.929	417.62
380.155	416.62
380.38	421.62
380.606	426.62
380.831	394.62
381.057	405.62
381.282	406.62
381.507	422.62
381.733	406.62
381.958	420.62
382.184	430.62
382.409	425.62
382.634	418.62
382.86	437.62
383.085	437.62
383.31	426.62
383.535	417.62
383.761	441.62
383.986	443.62
384.211	458.62
384.436	474.62
384.662	451.62
384.887	470.62
385.112	437.62
385.337	470.62
385.562	462.62
385.787	465.62
386.013	460.62
386.238	447.62
386.463	480.62
386.688	476.62
386.913	473.62
387.138	470.62
387.363	471.62
387.588	455.62
387.813	450.62
388.038	465.62
388.263	449.62
388.488	473.62
388.713	459.62
388.938	469.62
389.163	467.62
389.387	489.62
389.612	461.62
389.837	455.62
390.062	450.62
390.287	443.62
390.512	464.62
390.736	468.62
390.961	448.62
391.186	463.62
391.411	491.62
391.636	458.62
391.86	491.62
392.085	490.62
392.31	488.62
392.534	487.62
392.759	466.62
392.984	497.62
393.208	467.62
393.433	502.62
393.658	498.62
393.882	475.62
394.107	472.62
394.331	460.62
394.556	466.62
394.78	479.62
395.005	504.62
395.229	489.62
395.454	490.62
395.678	514.62
395.903	499.62
396.127	513.62
396.352	505.62
396.576	492.62
396.801	457.62
397.025	492.62
397.249	509.62
397.474	501.62
397.698	497.62
397.922	527.62
398.147	522.62
398.371	539.62
398.595	533.62
398.82	541.62
399.044	564.62
399.268	608.62
399.492	637.62
399.717	700.62
399.941	699.62
400.165	669.62
400.389	674.62
400.613	611.62
400.837	583.62
401.062	573.62
401.286	549.62
401.51	543.62
401.734	543.62
401.958	556.62
402.182	537.62
402.406	561.62
402.63	555.62
402.854	561.62
403.078	565.62
403.302	575.62
403.526	568.62
403.75	573.62
403.974	578.62
404.198	556.62
404.422	571.62
404.645	571.62
404.869	587.62
405.093	611.62
405.317	649.62
405.541	665.62
405.765	626.62
405.988	580.62
406.212	611.62
406.436	635.62
406.66	645.62
406.883	620.62
407.107	629.62
407.331	688.62
407.555	709.62
407.778	722.62
408.002	670.62
408.226	627.62
408.449	630.62
408.673	644.62
408.896	654.62
409.12	688.62
409.344	639.62
409.567	595.62
409.791	599.62
410.014	543.62
410.238	563.62
410.461	580.62
410.685	576.62
410.908	574.62
411.132	638.62
411.355	629.62
411.578	594.62
411.802	545.62
412.025	560.62
412.249	568.62
412.472	587.62
412.695	610.62
412.919	606.62
413.142	557.62
413.365	533.62
413.589	546.62
413.812	540.62
414.035	542.62
414.258	531.62
414.482	530.62
414.705	528.62
414.928	532.62
415.151	524.62
415.374	528.62
415.597	535.62
415.821	509.62
416.044	516.62
416.267	521.62
416.49	527.62
416.713	490.62
416.936	522.62
417.159	519.62
417.382	503.62
417.605	516.62
417.828	527.62
418.051	548.62
418.274	529.62
418.497	505.62
418.72	527.62
418.943	532.62
419.166	565.62
419.389	585.62
419.611	575.62
419.834	542.62
420.057	553.62
420.28	559.62
420.503	557.62
420.726	548.62
420.948	570.62
421.171	582.62
421.394	603.62
421.617	561.62
421.839	569.62
422.062	547.62
422.285	552.62
422.507	601.62
422.73	659.62
422.953	625.62
423.175	587.62
423.398	554.62
423.621	562.62
423.843	584.62
424.066	597.62
424.288	595.62
424.511	587.62
424.733	627.62
424.956	716.62
425.178	685.62
425.401	690.62
425.623	697.62
425.846	597.62
426.068	550.62
426.291	563.62
426.513	545.62
426.735	571.62
426.958	590.62
427.18	651.62
427.402	786.62
427.625	867.62
427.847	758.62
428.069	669.62
428.292	579.62
428.514	538.62
428.736	529.62
428.958	521.62
429.181	526.62
429.403	493.62
429.625	500.62
429.847	535.62
430.069	602.62
430.292	615.62
430.514	537.62
430.736	517.62
430.958	515.62
431.18	514.62
431.402	477.62
431.624	490.62
431.846	506.62
432.068	502.62
432.29	494.62
432.512	492.62
432.734	521.62
432.956	510.62
433.178	495.62
433.4	493.62
433.622	500.62
433.844	515.62
434.066	515.62
434.287	512.62
434.509	525.62
434.731	521.62
434.953	534.62
435.175	541.62
435.397	577.62
435.618	579.62
435.84	598.62
436.062	685.62
436.284	734.62
436.505	612.62
436.727	571.62
436.949	524.62
437.17	499.62
437.392	505.62
437.614	523.62
437.835	553.62
438.057	643.62
438.278	725.62
438.5	717.62
438.721	828.62
438.943	762.62
439.165	600.62
439.386	585.62
439.608	546.62
439.829	582.62
440.05	580.62
440.272	596.62
440.493	620.62
440.715	554.62
440.936	553.62
441.158	526.62
441.379	543.62
441.6	538.62
441.822	565.62
442.043	584.62
442.264	667.62
442.486	722.62
442.707	582.62
442.928	572.62
443.149	562.62
443.371	613.62
443.592	641.62
443.813	738.62
444.034	753.62
444.255	658.62
444.476	613.62
444.698	607.62
444.919	596.62
445.14	702.62
445.361	645.62
445.582	613.62
445.803	671.62
446.024	777.62
446.245	757.62
446.466	682.62
446.687	601.62
446.908	555.62
447.129	510.62
447.35	524.62
447.571	507.62
447.792	491.62
448.013	519.62
448.234	531.62
448.455	584.62
448.675	686.62
448.896	788.62
449.117	637.62
449.338	622.62
449.559	743.62
449.779	803.62
450	676.62
450.221	551.62
450.442	533.62
450.662	509.62
450.883	521.62
451.104	508.62
451.324	490.62
451.545	492.62
451.766	458.62
451.986	467.62
452.207	466.62
452.428	454.62
452.648	483.62
452.869	467.62
453.089	475.62
453.31	504.62
453.53	477.62
453.751	462.62
453.971	447.62
454.192	476.62
454.412	458.62
454.633	449.62
454.853	447.62
455.073	465.62
455.294	475.62
455.514	514.62
455.734	518.62
455.955	468.62
456.175	447.62
456.395	442.62
456.616	442.62
456.836	454.62
457.056	451.62
457.276	437.62
457.497	443.62
457.717	433.62
457.937	436.62
458.157	449.62
458.377	458.62
458.598	464.62
458.818	527.62
459.038	591.62
459.258	617.62
459.478	531.62
459.698	533.62
459.918	505.62
460.138	525.62
460.358	529.62
460.578	520.62
460.798	504.62
461.018	556.62
461.238	555.62
461.458	513.62
461.678	538.62
461.898	547.62
462.118	544.62
462.338	563.62
462.558	547.62
462.777	577.62
462.997	595.62
463.217	587.62
463.437	626.62
463.657	593.62
463.876	567.62
464.096	586.62
464.316	569.62
464.536	566.62
464.755	580.62
464.975	577.62
465.195	594.62
465.414	646.62
465.634	603.62
465.854	551.62
466.073	519.62
466.293	507.62
466.512	477.62
466.732	467.62
466.951	483.62
467.171	490.62
467.391	492.62
467.61	504.62
467.829	501.62
468.049	482.62
468.268	477.62
468.488	495.62
468.707	502.62
468.927	449.62
469.146	471.62
469.365	472.62
469.585	489.62
469.804	493.62
470.023	510.62
470.243	496.62
470.462	499.62
470.681	527.62
470.901	502.62
471.12	499.62
471.339	485.62
471.558	498.62
471.777	476.62
471.997	472.62
472.216	469.62
472.435	509.62
472.654	488.62
472.873	489.62
473.092	463.62
473.311	468.62
473.53	484.62
473.749	496.62
473.968	533.62
474.187	610.62
474.406	615.62
474.625	539.62
474.844	478.62
475.063	456.62
475.282	469.62
475.501	463.62
475.72	487.62
475.939	487.62
476.158	490.62
476.377	510.62
476.596	501.62
476.814	506.62
477.033	492.62
477.252	518.62
477.471	531.62
477.69	554.62
477.908	516.62
478.127	550.62
478.346	549.62
478.564	566.62
478.783	541.62
479.002	573.62
479.22	556.62
479.439	568.62
479.658	598.62
479.876	579.62
480.095	582.62
480.313	619.62
480.532	609.62
480.751	614.62
480.969	616.62
481.188	635.62
481.406	644.62
481.624	597.62
481.843	581.62
482.061	576.62
482.28	567.62
482.498	555.62
482.717	569.62
482.935	576.62
483.153	557.62
483.372	561.62
483.59	572.62
483.808	530.62
484.027	547.62
484.245	552.62
484.463	562.62
484.681	567.62
484.9	591.62
485.118	571.62
485.336	595.62
485.554	602.62
485.772	577.62
485.99	572.62
486.209	591.62
486.427	569.62
486.645	591.62
486.863	605.62
487.081	607.62
487.299	597.62
487.517	600.62
487.735	600.62
487.953	584.62
488.171	598.62
488.389	598.62
488.607	585.62
488.825	588.62
489.043	589.62
489.261	607.62
489.479	590.62
489.696	624.62
489.914	605.62
490.132	613.62
490.35	604.62
490.568	615.62
490.786	633.62
491.003	643.62
491.221	652.62
491.439	661.62
491.657	671.62
491.874	668.62
492.092	673.62
492.31	660.62
492.527	682.62
492.745	685.62
492.963	684.62
493.18	675.62
493.398	701.62
493.615	716.62
493.833	705.62
494.05	691.62
494.268	679.62
494.485	697.62
494.703	695.62
494.92	693.62
495.138	704.62
495.355	716.62
495.573	698.62
495.79	679.62
496.008	692.62
496.225	693.62
496.442	719.62
496.66	694.62
496.877	703.62
497.094	734.62
497.312	737.62
497.529	721.62
497.746	758.62
497.963	763.62
498.181	784.62
498.398	778.62
498.615	817.62
498.832	833.62
499.049	882.62
499.267	891.62
499.484	945.62
499.701	1013.62
499.918	1063.62
500.135	1146.62
500.352	1205.62
500.569	1225.62
500.786	1198.62
501.003	1177.62
501.22	1100.62
501.437	1066.62
501.654	1015.62
501.871	975.62
