Data from 1985.PennyLincolnUp.Lamp.En5.5.200Scan.071819.P1_HRD10591_17-03-59-972.txt Node
Date: Thu Jul 18 17:03:59 EDT 2019
User: cochatt
Spectrometer: HR+D1059
Trigger mode: 1
Integration Time (sec): 1.000000E-1
Scans to average: 1
Electric dark correction enabled: true
Nonlinearity correction enabled: false
Boxcar width: 0
XAxis mode: Wavelengths
Number of Pixels in Spectrum: 2048
>>>>>Begin Spectral Data<<<<<
223.165	-14.38
223.4	-14.38
223.635	-14.38
223.869	-18.38
224.104	-12.38
224.338	-21.38
224.573	-22.38
224.808	-14.38
225.042	-7.38
225.277	-10.38
225.511	1.62
225.746	7.62
225.98	19.62
226.215	13.62
226.449	18.62
226.683	4.62
226.918	12.62
227.152	42.62
227.387	39.62
227.621	35.62
227.856	30.62
228.09	30.62
228.324	44.62
228.559	60.62
228.793	75.62
229.027	97.62
229.262	96.62
229.496	115.62
229.73	121.62
229.964	145.62
230.199	132.62
230.433	111.62
230.667	109.62
230.901	119.62
231.136	118.62
231.37	104.62
231.604	96.62
231.838	112.62
232.072	126.62
232.306	128.62
232.541	128.62
232.775	99.62
233.009	119.62
233.243	114.62
233.477	102.62
233.711	100.62
233.945	111.62
234.179	108.62
234.413	113.62
234.647	120.62
234.881	123.62
235.115	113.62
235.349	101.62
235.583	124.62
235.817	124.62
236.051	128.62
236.285	131.62
236.519	113.62
236.753	135.62
236.987	149.62
237.221	170.62
237.455	244.62
237.689	173.62
237.922	138.62
238.156	145.62
238.39	122.62
238.624	120.62
238.858	127.62
239.091	118.62
239.325	122.62
239.559	125.62
239.793	130.62
240.027	147.62
240.26	154.62
240.494	168.62
240.728	153.62
240.961	153.62
241.195	135.62
241.429	132.62
241.662	136.62
241.896	134.62
242.13	138.62
242.363	137.62
242.597	121.62
242.83	146.62
243.064	161.62
243.298	148.62
243.531	134.62
243.765	142.62
243.998	139.62
244.232	136.62
244.465	140.62
244.699	151.62
244.932	154.62
245.166	146.62
245.399	140.62
245.633	148.62
245.866	151.62
246.099	150.62
246.333	146.62
246.566	165.62
246.8	148.62
247.033	155.62
247.266	148.62
247.5	165.62
247.733	183.62
247.966	168.62
248.2	174.62
248.433	190.62
248.666	178.62
248.899	196.62
249.133	212.62
249.366	219.62
249.599	198.62
249.832	189.62
250.066	190.62
250.299	196.62
250.532	212.62
250.765	218.62
250.998	254.62
251.231	227.62
251.465	210.62
251.698	209.62
251.931	216.62
252.164	199.62
252.397	203.62
252.63	214.62
252.863	210.62
253.096	233.62
253.329	248.62
253.562	232.62
253.795	226.62
254.028	237.62
254.261	211.62
254.494	247.62
254.727	260.62
254.96	287.62
255.193	275.62
255.426	249.62
255.659	241.62
255.892	268.62
256.124	233.62
256.357	264.62
256.59	256.62
256.823	236.62
257.056	226.62
257.289	234.62
257.521	219.62
257.754	211.62
257.987	210.62
258.22	221.62
258.452	213.62
258.685	211.62
258.918	219.62
259.151	221.62
259.383	227.62
259.616	243.62
259.849	236.62
260.081	249.62
260.314	264.62
260.547	262.62
260.779	244.62
261.012	242.62
261.244	241.62
261.477	231.62
261.71	219.62
261.942	251.62
262.175	252.62
262.407	233.62
262.64	225.62
262.872	231.62
263.105	241.62
263.337	244.62
263.57	233.62
263.802	230.62
264.035	223.62
264.267	227.62
264.499	234.62
264.732	225.62
264.964	215.62
265.197	229.62
265.429	240.62
265.661	247.62
265.894	227.62
266.126	224.62
266.358	235.62
266.591	237.62
266.823	246.62
267.055	242.62
267.287	236.62
267.52	255.62
267.752	258.62
267.984	247.62
268.216	254.62
268.448	248.62
268.681	243.62
268.913	260.62
269.145	265.62
269.377	298.62
269.609	284.62
269.841	297.62
270.073	292.62
270.306	297.62
270.538	340.62
270.77	336.62
271.002	321.62
271.234	314.62
271.466	313.62
271.698	330.62
271.93	334.62
272.162	331.62
272.394	332.62
272.626	311.62
272.858	312.62
273.09	288.62
273.322	324.62
273.553	285.62
273.785	282.62
274.017	285.62
274.249	281.62
274.481	269.62
274.713	279.62
274.945	295.62
275.176	296.62
275.408	281.62
275.64	295.62
275.872	281.62
276.104	283.62
276.335	296.62
276.567	297.62
276.799	297.62
277.031	315.62
277.262	349.62
277.494	344.62
277.726	329.62
277.957	310.62
278.189	295.62
278.421	309.62
278.652	290.62
278.884	301.62
279.115	284.62
279.347	308.62
279.579	291.62
279.81	301.62
280.042	302.62
280.273	281.62
280.505	290.62
280.736	299.62
280.968	281.62
281.199	298.62
281.431	290.62
281.662	310.62
281.894	300.62
282.125	289.62
282.356	316.62
282.588	324.62
282.819	340.62
283.051	321.62
283.282	312.62
283.513	324.62
283.745	320.62
283.976	304.62
284.207	308.62
284.439	313.62
284.67	310.62
284.901	332.62
285.132	321.62
285.364	324.62
285.595	329.62
285.826	308.62
286.057	335.62
286.288	318.62
286.52	333.62
286.751	308.62
286.982	336.62
287.213	304.62
287.444	335.62
287.675	334.62
287.906	332.62
288.138	354.62
288.369	333.62
288.6	361.62
288.831	340.62
289.062	340.62
289.293	330.62
289.524	350.62
289.755	333.62
289.986	337.62
290.217	333.62
290.448	317.62
290.679	324.62
290.91	346.62
291.141	337.62
291.371	337.62
291.602	326.62
291.833	330.62
292.064	333.62
292.295	337.62
292.526	338.62
292.757	346.62
292.987	325.62
293.218	331.62
293.449	332.62
293.68	327.62
293.91	313.62
294.141	338.62
294.372	331.62
294.603	337.62
294.833	353.62
295.064	328.62
295.295	334.62
295.525	348.62
295.756	322.62
295.987	346.62
296.217	373.62
296.448	370.62
296.679	346.62
296.909	359.62
297.14	335.62
297.37	346.62
297.601	376.62
297.831	349.62
298.062	345.62
298.292	358.62
298.523	338.62
298.753	361.62
298.984	363.62
299.214	350.62
299.445	360.62
299.675	356.62
299.905	391.62
300.136	372.62
300.366	357.62
300.597	371.62
300.827	377.62
301.057	380.62
301.288	390.62
301.518	378.62
301.748	388.62
301.979	371.62
302.209	401.62
302.439	402.62
302.669	374.62
302.9	400.62
303.13	350.62
303.36	376.62
303.59	380.62
303.82	385.62
304.051	388.62
304.281	389.62
304.511	375.62
304.741	382.62
304.971	390.62
305.201	370.62
305.431	368.62
305.661	377.62
305.891	390.62
306.121	384.62
306.352	381.62
306.582	390.62
306.812	390.62
307.042	380.62
307.272	395.62
307.502	390.62
307.731	374.62
307.961	388.62
308.191	392.62
308.421	391.62
308.651	394.62
308.881	409.62
309.111	421.62
309.341	392.62
309.571	396.62
309.8	409.62
310.03	408.62
310.26	418.62
310.49	433.62
310.72	418.62
310.949	436.62
311.179	440.62
311.409	419.62
311.639	416.62
311.868	406.62
312.098	451.62
312.328	437.62
312.557	434.62
312.787	472.62
313.017	454.62
313.246	425.62
313.476	461.62
313.706	415.62
313.935	420.62
314.165	441.62
314.394	430.62
314.624	451.62
314.853	432.62
315.083	431.62
315.312	439.62
315.542	417.62
315.771	446.62
316.001	400.62
316.23	450.62
316.46	419.62
316.689	428.62
316.919	432.62
317.148	432.62
317.377	452.62
317.607	430.62
317.836	450.62
318.065	422.62
318.295	416.62
318.524	435.62
318.753	434.62
318.983	439.62
319.212	412.62
319.441	432.62
319.67	435.62
319.9	432.62
320.129	445.62
320.358	424.62
320.587	439.62
320.816	423.62
321.046	456.62
321.275	454.62
321.504	449.62
321.733	454.62
321.962	452.62
322.191	472.62
322.42	482.62
322.649	470.62
322.878	505.62
323.108	516.62
323.337	524.62
323.566	542.62
323.795	572.62
324.024	618.62
324.253	717.62
324.482	988.62
324.71	1559.62
324.939	2168.62
325.168	1853.62
325.397	935.62
325.626	669.62
325.855	602.62
326.084	567.62
326.313	551.62
326.542	540.62
326.77	589.62
326.999	690.62
327.228	952.62
327.457	1352.62
327.686	1655.62
327.914	1104.62
328.143	766.62
328.372	671.62
328.6	608.62
328.829	611.62
329.058	611.62
329.287	635.62
329.515	590.62
329.744	569.62
329.972	577.62
330.201	596.62
330.43	621.62
330.658	646.62
330.887	664.62
331.115	666.62
331.344	605.62
331.572	562.62
331.801	568.62
332.03	555.62
332.258	540.62
332.486	533.62
332.715	525.62
332.943	538.62
333.172	542.62
333.4	561.62
333.629	558.62
333.857	596.62
334.085	600.62
334.314	637.62
334.542	666.62
334.771	675.62
334.999	614.62
335.227	570.62
335.455	566.62
335.684	547.62
335.912	535.62
336.14	529.62
336.369	518.62
336.597	521.62
336.825	529.62
337.053	536.62
337.281	497.62
337.51	496.62
337.738	514.62
337.966	504.62
338.194	489.62
338.422	506.62
338.65	503.62
338.878	501.62
339.106	484.62
339.334	487.62
339.562	465.62
339.79	500.62
340.018	476.62
340.246	493.62
340.474	475.62
340.702	484.62
340.93	481.62
341.158	476.62
341.386	485.62
341.614	506.62
341.842	513.62
342.07	479.62
342.298	469.62
342.526	481.62
342.754	462.62
342.981	460.62
343.209	489.62
343.437	500.62
343.665	489.62
343.893	518.62
344.12	525.62
344.348	530.62
344.576	493.62
344.804	506.62
345.031	506.62
345.259	523.62
345.487	495.62
345.714	482.62
345.942	478.62
346.17	483.62
346.397	451.62
346.625	484.62
346.853	458.62
347.08	446.62
347.308	465.62
347.535	462.62
347.763	476.62
347.99	478.62
348.218	486.62
348.445	479.62
348.673	475.62
348.9	456.62
349.128	467.62
349.355	461.62
349.583	445.62
349.81	464.62
350.037	457.62
350.265	450.62
350.492	466.62
350.72	454.62
350.947	454.62
351.174	472.62
351.402	472.62
351.629	469.62
351.856	466.62
352.083	456.62
352.311	475.62
352.538	476.62
352.765	475.62
352.992	490.62
353.22	470.62
353.447	459.62
353.674	457.62
353.901	452.62
354.128	448.62
354.355	438.62
354.583	424.62
354.81	456.62
355.037	441.62
355.264	453.62
355.491	437.62
355.718	428.62
355.945	440.62
356.172	434.62
356.399	414.62
356.626	433.62
356.853	438.62
357.08	430.62
357.307	436.62
357.534	454.62
357.761	429.62
357.988	433.62
358.215	440.62
358.441	427.62
358.668	432.62
358.895	436.62
359.122	456.62
359.349	469.62
359.576	464.62
359.802	484.62
360.029	487.62
360.256	505.62
360.483	483.62
360.709	457.62
360.936	450.62
361.163	479.62
361.39	453.62
361.616	474.62
361.843	456.62
362.07	437.62
362.296	444.62
362.523	450.62
362.749	446.62
362.976	433.62
363.203	440.62
363.429	436.62
363.656	430.62
363.882	446.62
364.109	444.62
364.335	434.62
364.562	429.62
364.788	448.62
365.015	454.62
365.241	420.62
365.468	444.62
365.694	434.62
365.92	456.62
366.147	451.62
366.373	446.62
366.599	428.62
366.826	444.62
367.052	429.62
367.278	429.62
367.505	452.62
367.731	448.62
367.957	434.62
368.184	424.62
368.41	440.62
368.636	431.62
368.862	449.62
369.089	441.62
369.315	439.62
369.541	430.62
369.767	432.62
369.993	435.62
370.219	453.62
370.445	439.62
370.672	418.62
370.898	399.62
371.124	422.62
371.35	427.62
371.576	444.62
371.802	425.62
372.028	428.62
372.254	449.62
372.48	453.62
372.706	453.62
372.932	435.62
373.158	444.62
373.384	436.62
373.61	429.62
373.835	423.62
374.061	437.62
374.287	448.62
374.513	454.62
374.739	448.62
374.965	443.62
375.191	461.62
375.416	462.62
375.642	432.62
375.868	440.62
376.094	449.62
376.319	427.62
376.545	442.62
376.771	436.62
376.997	436.62
377.222	412.62
377.448	417.62
377.674	436.62
377.899	419.62
378.125	413.62
378.35	437.62
378.576	432.62
378.802	427.62
379.027	440.62
379.253	439.62
379.478	439.62
379.704	426.62
379.929	434.62
380.155	422.62
380.38	422.62
380.606	443.62
380.831	427.62
381.057	420.62
381.282	410.62
381.507	434.62
381.733	434.62
381.958	417.62
382.184	442.62
382.409	441.62
382.634	427.62
382.86	458.62
383.085	457.62
383.31	438.62
383.535	461.62
383.761	447.62
383.986	451.62
384.211	452.62
384.436	477.62
384.662	465.62
384.887	465.62
385.112	461.62
385.337	480.62
385.562	481.62
385.787	470.62
386.013	472.62
386.238	486.62
386.463	496.62
386.688	480.62
386.913	465.62
387.138	496.62
387.363	487.62
387.588	481.62
387.813	504.62
388.038	466.62
388.263	473.62
388.488	490.62
388.713	453.62
388.938	480.62
389.163	459.62
389.387	494.62
389.612	467.62
389.837	469.62
390.062	478.62
390.287	486.62
390.512	491.62
390.736	503.62
390.961	482.62
391.186	497.62
391.411	492.62
391.636	492.62
391.86	519.62
392.085	513.62
392.31	514.62
392.534	507.62
392.759	493.62
392.984	484.62
393.208	507.62
393.433	504.62
393.658	500.62
393.882	485.62
394.107	476.62
394.331	501.62
394.556	480.62
394.78	462.62
395.005	497.62
395.229	472.62
395.454	477.62
395.678	520.62
395.903	508.62
396.127	526.62
396.352	556.62
396.576	534.62
396.801	496.62
397.025	489.62
397.249	510.62
397.474	496.62
397.698	526.62
397.922	525.62
398.147	517.62
398.371	542.62
398.595	557.62
398.82	585.62
399.044	569.62
399.268	618.62
399.492	677.62
399.717	717.62
399.941	715.62
400.165	738.62
400.389	694.62
400.613	626.62
400.837	615.62
401.062	568.62
401.286	571.62
401.51	570.62
401.734	559.62
401.958	578.62
402.182	559.62
402.406	583.62
402.63	584.62
402.854	579.62
403.078	581.62
403.302	586.62
403.526	590.62
403.75	597.62
403.974	582.62
404.198	590.62
404.422	604.62
404.645	602.62
404.869	610.62
405.093	632.62
405.317	684.62
405.541	721.62
405.765	658.62
405.988	623.62
406.212	603.62
406.436	642.62
406.66	648.62
406.883	640.62
407.107	689.62
407.331	707.62
407.555	786.62
407.778	782.62
408.002	688.62
408.226	665.62
408.449	645.62
408.673	647.62
408.896	667.62
409.12	711.62
409.344	663.62
409.567	604.62
409.791	594.62
410.014	579.62
410.238	610.62
410.461	595.62
410.685	585.62
410.908	586.62
411.132	627.62
411.355	652.62
411.578	628.62
411.802	592.62
412.025	589.62
412.249	609.62
412.472	617.62
412.695	663.62
412.919	665.62
413.142	597.62
413.365	589.62
413.589	581.62
413.812	565.62
414.035	557.62
414.258	552.62
414.482	564.62
414.705	548.62
414.928	570.62
415.151	554.62
415.374	545.62
415.597	539.62
415.821	540.62
416.044	535.62
416.267	549.62
416.49	547.62
416.713	528.62
416.936	526.62
417.159	567.62
417.382	539.62
417.605	554.62
417.828	566.62
418.051	561.62
418.274	568.62
418.497	554.62
418.72	527.62
418.943	534.62
419.166	568.62
419.389	602.62
419.611	591.62
419.834	579.62
420.057	594.62
420.28	602.62
420.503	598.62
420.726	584.62
420.948	597.62
421.171	601.62
421.394	642.62
421.617	605.62
421.839	560.62
422.062	560.62
422.285	579.62
422.507	629.62
422.73	706.62
422.953	676.62
423.175	598.62
423.398	568.62
423.621	593.62
423.843	603.62
424.066	622.62
424.288	576.62
424.511	619.62
424.733	673.62
424.956	758.62
425.178	700.62
425.401	709.62
425.623	718.62
425.846	643.62
426.068	597.62
426.291	590.62
426.513	564.62
426.735	580.62
426.958	636.62
427.18	694.62
427.402	829.62
427.625	923.62
427.847	802.62
428.069	688.62
428.292	624.62
428.514	565.62
428.736	547.62
428.958	550.62
429.181	524.62
429.403	539.62
429.625	544.62
429.847	585.62
430.069	634.62
430.292	636.62
430.514	564.62
430.736	570.62
430.958	527.62
431.18	531.62
431.402	525.62
431.624	502.62
431.846	499.62
432.068	506.62
432.29	532.62
432.512	503.62
432.734	510.62
432.956	524.62
433.178	553.62
433.4	543.62
433.622	541.62
433.844	544.62
434.066	516.62
434.287	537.62
434.509	539.62
434.731	538.62
434.953	542.62
435.175	571.62
435.397	573.62
435.618	614.62
435.84	614.62
436.062	703.62
436.284	763.62
436.505	657.62
436.727	587.62
436.949	560.62
437.17	536.62
437.392	537.62
437.614	554.62
437.835	600.62
438.057	676.62
438.278	768.62
438.5	745.62
438.721	831.62
438.943	776.62
439.165	611.62
439.386	578.62
439.608	592.62
439.829	599.62
440.05	616.62
440.272	680.62
440.493	642.62
440.715	586.62
440.936	558.62
441.158	548.62
441.379	566.62
441.6	564.62
441.822	610.62
442.043	637.62
442.264	722.62
442.486	749.62
442.707	654.62
442.928	632.62
443.149	616.62
443.371	617.62
443.592	664.62
443.813	776.62
444.034	838.62
444.255	699.62
444.476	641.62
444.698	619.62
444.919	606.62
445.14	741.62
445.361	682.62
445.582	630.62
445.803	696.62
446.024	777.62
446.245	804.62
446.466	729.62
446.687	638.62
446.908	590.62
447.129	547.62
447.35	549.62
447.571	530.62
447.792	512.62
448.013	526.62
448.234	565.62
448.455	617.62
448.675	688.62
448.896	802.62
449.117	694.62
449.338	638.62
449.559	759.62
449.779	867.62
450	673.62
450.221	573.62
450.442	544.62
450.662	509.62
450.883	536.62
451.104	553.62
451.324	527.62
451.545	504.62
451.766	481.62
451.986	497.62
452.207	466.62
452.428	487.62
452.648	486.62
452.869	477.62
453.089	514.62
453.31	515.62
453.53	483.62
453.751	475.62
453.971	477.62
454.192	498.62
454.412	506.62
454.633	468.62
454.853	494.62
455.073	490.62
455.294	505.62
455.514	568.62
455.734	546.62
455.955	500.62
456.175	485.62
456.395	459.62
456.616	448.62
456.836	449.62
457.056	453.62
457.276	427.62
457.497	451.62
457.717	432.62
457.937	455.62
458.157	462.62
458.377	482.62
458.598	495.62
458.818	557.62
459.038	612.62
459.258	647.62
459.478	560.62
459.698	521.62
459.918	528.62
460.138	544.62
460.358	534.62
460.578	555.62
460.798	539.62
461.018	557.62
461.238	553.62
461.458	549.62
461.678	526.62
461.898	544.62
462.118	572.62
462.338	594.62
462.558	573.62
462.777	593.62
462.997	612.62
463.217	633.62
463.437	640.62
463.657	600.62
463.876	605.62
464.096	593.62
464.316	605.62
464.536	592.62
464.755	584.62
464.975	580.62
465.195	603.62
465.414	694.62
465.634	618.62
465.854	557.62
466.073	521.62
466.293	522.62
466.512	506.62
466.732	489.62
466.951	484.62
467.171	502.62
467.391	506.62
467.61	507.62
467.829	505.62
468.049	517.62
468.268	516.62
468.488	509.62
468.707	501.62
468.927	481.62
469.146	500.62
469.365	485.62
469.585	496.62
469.804	497.62
470.023	525.62
470.243	510.62
470.462	514.62
470.681	520.62
470.901	506.62
471.12	521.62
471.339	485.62
471.558	505.62
471.777	498.62
471.997	501.62
472.216	499.62
472.435	571.62
472.654	535.62
472.873	490.62
473.092	505.62
473.311	481.62
473.53	518.62
473.749	522.62
473.968	546.62
474.187	632.62
474.406	654.62
474.625	553.62
474.844	518.62
475.063	527.62
475.282	493.62
475.501	489.62
475.72	510.62
475.939	534.62
476.158	514.62
476.377	511.62
476.596	498.62
476.814	527.62
477.033	520.62
477.252	529.62
477.471	549.62
477.69	550.62
477.908	575.62
478.127	561.62
478.346	554.62
478.564	580.62
478.783	582.62
479.002	572.62
479.22	591.62
479.439	580.62
479.658	620.62
479.876	625.62
480.095	625.62
480.313	654.62
480.532	654.62
480.751	647.62
480.969	639.62
481.188	696.62
481.406	752.62
481.624	676.62
481.843	621.62
482.061	599.62
482.28	579.62
482.498	599.62
482.717	574.62
482.935	586.62
483.153	558.62
483.372	605.62
483.59	578.62
483.808	568.62
484.027	579.62
484.245	581.62
484.463	592.62
484.681	592.62
484.9	593.62
485.118	584.62
485.336	603.62
485.554	598.62
485.772	607.62
485.99	620.62
486.209	630.62
486.427	619.62
486.645	624.62
486.863	618.62
487.081	630.62
487.299	635.62
487.517	614.62
487.735	616.62
487.953	631.62
488.171	626.62
488.389	612.62
488.607	633.62
488.825	633.62
489.043	637.62
489.261	626.62
489.479	646.62
489.696	635.62
489.914	637.62
490.132	641.62
490.35	662.62
490.568	668.62
490.786	673.62
491.003	670.62
491.221	689.62
491.439	710.62
491.657	704.62
491.874	731.62
492.092	723.62
492.31	733.62
492.527	757.62
492.745	740.62
492.963	760.62
493.18	746.62
493.398	737.62
493.615	743.62
493.833	744.62
494.05	721.62
494.268	753.62
494.485	719.62
494.703	741.62
494.92	764.62
495.138	734.62
495.355	747.62
495.573	760.62
495.79	753.62
496.008	736.62
496.225	756.62
496.442	736.62
496.66	741.62
496.877	759.62
497.094	760.62
497.312	770.62
497.529	789.62
497.746	752.62
497.963	808.62
498.181	830.62
498.398	843.62
498.615	884.62
498.832	884.62
499.049	888.62
499.267	928.62
499.484	986.62
499.701	1036.62
499.918	1085.62
500.135	1133.62
500.352	1222.62
500.569	1242.62
500.786	1258.62
501.003	1220.62
501.22	1149.62
501.437	1095.62
501.654	1036.62
501.871	1011.62
