Data from 1985.PennyLincolnUp.Lamp.En5.5.200Scan.071819.P1_HRD10591_17-01-51-970.txt Node
Date: Thu Jul 18 17:01:51 EDT 2019
User: cochatt
Spectrometer: HR+D1059
Trigger mode: 1
Integration Time (sec): 1.000000E-1
Scans to average: 1
Electric dark correction enabled: true
Nonlinearity correction enabled: false
Boxcar width: 0
XAxis mode: Wavelengths
Number of Pixels in Spectrum: 2048
>>>>>Begin Spectral Data<<<<<
223.165	-14.62
223.4	-14.62
223.635	-14.62
223.869	-22.62
224.104	-10.62
224.338	-2.62
224.573	-19.62
224.808	-2.62
225.042	-12.62
225.277	-18.62
225.511	1.38
225.746	11.38
225.98	3.38
226.215	8.38
226.449	6.38
226.683	20.38
226.918	25.38
227.152	27.38
227.387	37.38
227.621	37.38
227.856	39.38
228.09	50.38
228.324	53.38
228.559	49.38
228.793	70.38
229.027	85.38
229.262	106.38
229.496	108.38
229.73	125.38
229.964	139.38
230.199	118.38
230.433	100.38
230.667	97.38
230.901	105.38
231.136	118.38
231.37	109.38
231.604	109.38
231.838	117.38
232.072	109.38
232.306	115.38
232.541	102.38
232.775	100.38
233.009	129.38
233.243	121.38
233.477	114.38
233.711	125.38
233.945	119.38
234.179	123.38
234.413	115.38
234.647	117.38
234.881	116.38
235.115	121.38
235.349	117.38
235.583	116.38
235.817	117.38
236.051	109.38
236.285	130.38
236.519	129.38
236.753	135.38
236.987	146.38
237.221	170.38
237.455	210.38
237.689	185.38
237.922	129.38
238.156	114.38
238.39	127.38
238.624	120.38
238.858	127.38
239.091	124.38
239.325	144.38
239.559	130.38
239.793	125.38
240.027	129.38
240.26	134.38
240.494	138.38
240.728	152.38
240.961	156.38
241.195	134.38
241.429	126.38
241.662	119.38
241.896	128.38
242.13	125.38
242.363	143.38
242.597	138.38
242.83	137.38
243.064	142.38
243.298	152.38
243.531	156.38
243.765	147.38
243.998	127.38
244.232	141.38
244.465	137.38
244.699	138.38
244.932	155.38
245.166	149.38
245.399	136.38
245.633	153.38
245.866	151.38
246.099	149.38
246.333	159.38
246.566	151.38
246.8	144.38
247.033	143.38
247.266	153.38
247.5	156.38
247.733	170.38
247.966	162.38
248.2	179.38
248.433	164.38
248.666	175.38
248.899	189.38
249.133	186.38
249.366	206.38
249.599	198.38
249.832	163.38
250.066	169.38
250.299	185.38
250.532	183.38
250.765	204.38
250.998	218.38
251.231	220.38
251.465	205.38
251.698	191.38
251.931	195.38
252.164	185.38
252.397	202.38
252.63	194.38
252.863	200.38
253.096	225.38
253.329	213.38
253.562	215.38
253.795	222.38
254.028	218.38
254.261	218.38
254.494	235.38
254.727	235.38
254.96	272.38
255.193	281.38
255.426	254.38
255.659	229.38
255.892	226.38
256.124	222.38
256.357	223.38
256.59	202.38
256.823	202.38
257.056	212.38
257.289	212.38
257.521	202.38
257.754	215.38
257.987	200.38
258.22	215.38
258.452	230.38
258.685	204.38
258.918	201.38
259.151	194.38
259.383	204.38
259.616	222.38
259.849	215.38
260.081	216.38
260.314	237.38
260.547	251.38
260.779	243.38
261.012	255.38
261.244	229.38
261.477	215.38
261.71	218.38
261.942	219.38
262.175	244.38
262.407	219.38
262.64	241.38
262.872	216.38
263.105	208.38
263.337	220.38
263.57	210.38
263.802	235.38
264.035	204.38
264.267	207.38
264.499	223.38
264.732	228.38
264.964	221.38
265.197	233.38
265.429	230.38
265.661	209.38
265.894	236.38
266.126	234.38
266.358	227.38
266.591	243.38
266.823	232.38
267.055	253.38
267.287	251.38
267.52	242.38
267.752	235.38
267.984	222.38
268.216	237.38
268.448	246.38
268.681	251.38
268.913	255.38
269.145	258.38
269.377	300.38
269.609	280.38
269.841	273.38
270.073	274.38
270.306	300.38
270.538	324.38
270.77	324.38
271.002	299.38
271.234	281.38
271.466	298.38
271.698	309.38
271.93	311.38
272.162	329.38
272.394	336.38
272.626	316.38
272.858	315.38
273.09	287.38
273.322	287.38
273.553	287.38
273.785	286.38
274.017	286.38
274.249	286.38
274.481	298.38
274.713	279.38
274.945	276.38
275.176	281.38
275.408	299.38
275.64	271.38
275.872	260.38
276.104	267.38
276.335	308.38
276.567	291.38
276.799	305.38
277.031	317.38
277.262	350.38
277.494	317.38
277.726	313.38
277.957	309.38
278.189	316.38
278.421	306.38
278.652	301.38
278.884	292.38
279.115	275.38
279.347	301.38
279.579	290.38
279.81	312.38
280.042	305.38
280.273	285.38
280.505	290.38
280.736	299.38
280.968	295.38
281.199	305.38
281.431	293.38
281.662	314.38
281.894	299.38
282.125	313.38
282.356	311.38
282.588	328.38
282.819	318.38
283.051	312.38
283.282	297.38
283.513	286.38
283.745	303.38
283.976	324.38
284.207	321.38
284.439	299.38
284.67	299.38
284.901	314.38
285.132	305.38
285.364	301.38
285.595	304.38
285.826	305.38
286.057	314.38
286.288	309.38
286.52	315.38
286.751	315.38
286.982	317.38
287.213	295.38
287.444	317.38
287.675	314.38
287.906	328.38
288.138	343.38
288.369	329.38
288.6	321.38
288.831	339.38
289.062	347.38
289.293	314.38
289.524	310.38
289.755	315.38
289.986	317.38
290.217	315.38
290.448	323.38
290.679	321.38
290.91	312.38
291.141	324.38
291.371	344.38
291.602	328.38
291.833	319.38
292.064	323.38
292.295	327.38
292.526	327.38
292.757	334.38
292.987	324.38
293.218	325.38
293.449	317.38
293.68	319.38
293.91	329.38
294.141	313.38
294.372	318.38
294.603	322.38
294.833	345.38
295.064	329.38
295.295	321.38
295.525	334.38
295.756	343.38
295.987	337.38
296.217	362.38
296.448	365.38
296.679	345.38
296.909	346.38
297.14	360.38
297.37	337.38
297.601	370.38
297.831	327.38
298.062	343.38
298.292	347.38
298.523	353.38
298.753	341.38
298.984	350.38
299.214	359.38
299.445	328.38
299.675	355.38
299.905	341.38
300.136	349.38
300.366	363.38
300.597	377.38
300.827	346.38
301.057	346.38
301.288	343.38
301.518	363.38
301.748	371.38
301.979	387.38
302.209	400.38
302.439	377.38
302.669	380.38
302.9	375.38
303.13	365.38
303.36	367.38
303.59	385.38
303.82	378.38
304.051	394.38
304.281	370.38
304.511	372.38
304.741	383.38
304.971	360.38
305.201	372.38
305.431	369.38
305.661	378.38
305.891	364.38
306.121	375.38
306.352	377.38
306.582	382.38
306.812	358.38
307.042	353.38
307.272	377.38
307.502	366.38
307.731	365.38
307.961	376.38
308.191	377.38
308.421	370.38
308.651	358.38
308.881	378.38
309.111	377.38
309.341	375.38
309.571	387.38
309.8	405.38
310.03	393.38
310.26	414.38
310.49	410.38
310.72	421.38
310.949	418.38
311.179	437.38
311.409	417.38
311.639	398.38
311.868	423.38
312.098	440.38
312.328	437.38
312.557	443.38
312.787	417.38
313.017	444.38
313.246	439.38
313.476	400.38
313.706	408.38
313.935	426.38
314.165	442.38
314.394	436.38
314.624	438.38
314.853	432.38
315.083	438.38
315.312	417.38
315.542	400.38
315.771	427.38
316.001	411.38
316.23	434.38
316.46	410.38
316.689	394.38
316.919	423.38
317.148	445.38
317.377	421.38
317.607	426.38
317.836	429.38
318.065	434.38
318.295	414.38
318.524	426.38
318.753	422.38
318.983	415.38
319.212	422.38
319.441	416.38
319.67	437.38
319.9	455.38
320.129	422.38
320.358	412.38
320.587	419.38
320.816	422.38
321.046	446.38
321.275	449.38
321.504	423.38
321.733	444.38
321.962	456.38
322.191	462.38
322.42	467.38
322.649	463.38
322.878	490.38
323.108	482.38
323.337	531.38
323.566	524.38
323.795	531.38
324.024	571.38
324.253	666.38
324.482	901.38
324.71	1339.38
324.939	1921.38
325.168	1620.38
325.397	895.38
325.626	647.38
325.855	567.38
326.084	535.38
326.313	517.38
326.542	529.38
326.77	550.38
326.999	639.38
327.228	836.38
327.457	1209.38
327.686	1434.38
327.914	984.38
328.143	685.38
328.372	625.38
328.6	587.38
328.829	584.38
329.058	577.38
329.287	589.38
329.515	557.38
329.744	523.38
329.972	529.38
330.201	506.38
330.43	548.38
330.658	572.38
330.887	579.38
331.115	593.38
331.344	535.38
331.572	518.38
331.801	549.38
332.03	521.38
332.258	518.38
332.486	501.38
332.715	515.38
332.943	517.38
333.172	526.38
333.4	527.38
333.629	549.38
333.857	568.38
334.085	538.38
334.314	534.38
334.542	535.38
334.771	536.38
334.999	529.38
335.227	518.38
335.455	508.38
335.684	499.38
335.912	536.38
336.14	488.38
336.369	508.38
336.597	522.38
336.825	489.38
337.053	533.38
337.281	503.38
337.51	484.38
337.738	489.38
337.966	488.38
338.194	507.38
338.422	503.38
338.65	484.38
338.878	492.38
339.106	473.38
339.334	485.38
339.562	480.38
339.79	471.38
340.018	460.38
340.246	486.38
340.474	483.38
340.702	476.38
340.93	480.38
341.158	484.38
341.386	482.38
341.614	485.38
341.842	469.38
342.07	478.38
342.298	469.38
342.526	459.38
342.754	485.38
342.981	474.38
343.209	453.38
343.437	461.38
343.665	482.38
343.893	503.38
344.12	472.38
344.348	513.38
344.576	488.38
344.804	483.38
345.031	492.38
345.259	479.38
345.487	484.38
345.714	465.38
345.942	482.38
346.17	460.38
346.397	449.38
346.625	453.38
346.853	446.38
347.08	445.38
347.308	489.38
347.535	456.38
347.763	452.38
347.99	460.38
348.218	474.38
348.445	457.38
348.673	462.38
348.9	453.38
349.128	453.38
349.355	432.38
349.583	428.38
349.81	429.38
350.037	442.38
350.265	449.38
350.492	433.38
350.72	450.38
350.947	452.38
351.174	453.38
351.402	433.38
351.629	459.38
351.856	433.38
352.083	458.38
352.311	439.38
352.538	443.38
352.765	442.38
352.992	457.38
353.22	454.38
353.447	429.38
353.674	440.38
353.901	428.38
354.128	426.38
354.355	430.38
354.583	446.38
354.81	433.38
355.037	421.38
355.264	419.38
355.491	435.38
355.718	401.38
355.945	429.38
356.172	418.38
356.399	429.38
356.626	428.38
356.853	408.38
357.08	420.38
357.307	413.38
357.534	418.38
357.761	436.38
357.988	410.38
358.215	417.38
358.441	411.38
358.668	446.38
358.895	430.38
359.122	432.38
359.349	457.38
359.576	457.38
359.802	453.38
360.029	485.38
360.256	498.38
360.483	459.38
360.709	452.38
360.936	422.38
361.163	425.38
361.39	447.38
361.616	452.38
361.843	445.38
362.07	424.38
362.296	439.38
362.523	449.38
362.749	459.38
362.976	443.38
363.203	429.38
363.429	429.38
363.656	422.38
363.882	440.38
364.109	401.38
364.335	440.38
364.562	439.38
364.788	449.38
365.015	445.38
365.241	436.38
365.468	423.38
365.694	435.38
365.92	442.38
366.147	440.38
366.373	434.38
366.599	418.38
366.826	413.38
367.052	422.38
367.278	422.38
367.505	439.38
367.731	449.38
367.957	426.38
368.184	403.38
368.41	422.38
368.636	436.38
368.862	449.38
369.089	431.38
369.315	426.38
369.541	425.38
369.767	430.38
369.993	422.38
370.219	414.38
370.445	436.38
370.672	446.38
370.898	431.38
371.124	432.38
371.35	440.38
371.576	434.38
371.802	440.38
372.028	451.38
372.254	420.38
372.48	430.38
372.706	447.38
372.932	447.38
373.158	440.38
373.384	449.38
373.61	437.38
373.835	442.38
374.061	440.38
374.287	432.38
374.513	444.38
374.739	442.38
374.965	431.38
375.191	444.38
375.416	478.38
375.642	443.38
375.868	441.38
376.094	441.38
376.319	432.38
376.545	440.38
376.771	424.38
376.997	434.38
377.222	437.38
377.448	426.38
377.674	420.38
377.899	419.38
378.125	414.38
378.35	433.38
378.576	446.38
378.802	417.38
379.027	419.38
379.253	433.38
379.478	410.38
379.704	416.38
379.929	437.38
380.155	431.38
380.38	429.38
380.606	418.38
380.831	434.38
381.057	431.38
381.282	422.38
381.507	441.38
381.733	437.38
381.958	451.38
382.184	453.38
382.409	430.38
382.634	432.38
382.86	439.38
383.085	450.38
383.31	447.38
383.535	443.38
383.761	437.38
383.986	451.38
384.211	461.38
384.436	448.38
384.662	464.38
384.887	459.38
385.112	459.38
385.337	489.38
385.562	485.38
385.787	484.38
386.013	508.38
386.238	494.38
386.463	477.38
386.688	494.38
386.913	475.38
387.138	472.38
387.363	468.38
387.588	472.38
387.813	478.38
388.038	459.38
388.263	483.38
388.488	481.38
388.713	458.38
388.938	479.38
389.163	493.38
389.387	455.38
389.612	464.38
389.837	458.38
390.062	502.38
390.287	468.38
390.512	467.38
390.736	493.38
390.961	482.38
391.186	481.38
391.411	482.38
391.636	503.38
391.86	491.38
392.085	490.38
392.31	522.38
392.534	497.38
392.759	509.38
392.984	484.38
393.208	483.38
393.433	502.38
393.658	486.38
393.882	478.38
394.107	472.38
394.331	488.38
394.556	492.38
394.78	487.38
395.005	498.38
395.229	485.38
395.454	499.38
395.678	517.38
395.903	529.38
396.127	538.38
396.352	526.38
396.576	506.38
396.801	509.38
397.025	501.38
397.249	505.38
397.474	518.38
397.698	522.38
397.922	528.38
398.147	520.38
398.371	530.38
398.595	558.38
398.82	534.38
399.044	552.38
399.268	601.38
399.492	625.38
399.717	672.38
399.941	715.38
400.165	725.38
400.389	698.38
400.613	634.38
400.837	609.38
401.062	559.38
401.286	576.38
401.51	571.38
401.734	539.38
401.958	571.38
402.182	567.38
402.406	577.38
402.63	584.38
402.854	569.38
403.078	582.38
403.302	579.38
403.526	580.38
403.75	590.38
403.974	610.38
404.198	618.38
404.422	603.38
404.645	579.38
404.869	587.38
405.093	611.38
405.317	604.38
405.541	633.38
405.765	619.38
405.988	593.38
406.212	610.38
406.436	631.38
406.66	639.38
406.883	604.38
407.107	639.38
407.331	671.38
407.555	763.38
407.778	749.38
408.002	693.38
408.226	666.38
408.449	656.38
408.673	647.38
408.896	641.38
409.12	673.38
409.344	642.38
409.567	596.38
409.791	572.38
410.014	572.38
410.238	585.38
410.461	575.38
410.685	593.38
410.908	571.38
411.132	633.38
411.355	635.38
411.578	616.38
411.802	587.38
412.025	562.38
412.249	553.38
412.472	537.38
412.695	565.38
412.919	572.38
413.142	568.38
413.365	542.38
413.589	554.38
413.812	539.38
414.035	525.38
414.258	530.38
414.482	543.38
414.705	529.38
414.928	549.38
415.151	513.38
415.374	557.38
415.597	548.38
415.821	523.38
416.044	523.38
416.267	545.38
416.49	527.38
416.713	536.38
416.936	534.38
417.159	523.38
417.382	534.38
417.605	547.38
417.828	557.38
418.051	563.38
418.274	550.38
418.497	553.38
418.72	553.38
418.943	536.38
419.166	569.38
419.389	586.38
419.611	588.38
419.834	579.38
420.057	552.38
420.28	552.38
420.503	548.38
420.726	563.38
420.948	553.38
421.171	603.38
421.394	620.38
421.617	557.38
421.839	538.38
422.062	542.38
422.285	571.38
422.507	623.38
422.73	684.38
422.953	645.38
423.175	608.38
423.398	563.38
423.621	558.38
423.843	589.38
424.066	594.38
424.288	590.38
424.511	605.38
424.733	650.38
424.956	726.38
425.178	700.38
425.401	692.38
425.623	713.38
425.846	610.38
426.068	577.38
426.291	596.38
426.513	555.38
426.735	573.38
426.958	631.38
427.18	700.38
427.402	824.38
427.625	895.38
427.847	713.38
428.069	659.38
428.292	598.38
428.514	558.38
428.736	537.38
428.958	530.38
429.181	529.38
429.403	537.38
429.625	531.38
429.847	585.38
430.069	623.38
430.292	597.38
430.514	543.38
430.736	515.38
430.958	525.38
431.18	531.38
431.402	503.38
431.624	519.38
431.846	507.38
432.068	506.38
432.29	521.38
432.512	505.38
432.734	509.38
432.956	507.38
433.178	530.38
433.4	536.38
433.622	518.38
433.844	513.38
434.066	488.38
434.287	519.38
434.509	533.38
434.731	549.38
434.953	569.38
435.175	571.38
435.397	572.38
435.618	561.38
435.84	585.38
436.062	664.38
436.284	768.38
436.505	628.38
436.727	554.38
436.949	554.38
437.17	540.38
437.392	529.38
437.614	522.38
437.835	551.38
438.057	645.38
438.278	746.38
438.5	745.38
438.721	799.38
438.943	781.38
439.165	623.38
439.386	571.38
439.608	590.38
439.829	593.38
440.05	601.38
440.272	625.38
440.493	586.38
440.715	566.38
440.936	546.38
441.158	541.38
441.379	509.38
441.6	542.38
441.822	602.38
442.043	624.38
442.264	689.38
442.486	723.38
442.707	609.38
442.928	599.38
443.149	616.38
443.371	611.38
443.592	656.38
443.813	730.38
444.034	804.38
444.255	658.38
444.476	629.38
444.698	601.38
444.919	595.38
445.14	741.38
445.361	666.38
445.582	628.38
445.803	698.38
446.024	771.38
446.245	769.38
446.466	682.38
446.687	587.38
446.908	549.38
447.129	519.38
447.35	521.38
447.571	516.38
447.792	501.38
448.013	526.38
448.234	526.38
448.455	578.38
448.675	673.38
448.896	778.38
449.117	648.38
449.338	636.38
449.559	743.38
449.779	813.38
450	669.38
450.221	578.38
450.442	522.38
450.662	526.38
450.883	514.38
451.104	540.38
451.324	519.38
451.545	486.38
451.766	475.38
451.986	483.38
452.207	475.38
452.428	461.38
452.648	470.38
452.869	491.38
453.089	467.38
453.31	489.38
453.53	474.38
453.751	483.38
453.971	459.38
454.192	482.38
454.412	475.38
454.633	470.38
454.853	458.38
455.073	455.38
455.294	480.38
455.514	561.38
455.734	549.38
455.955	470.38
456.175	448.38
456.395	447.38
456.616	443.38
456.836	457.38
457.056	433.38
457.276	444.38
457.497	460.38
457.717	444.38
457.937	443.38
458.157	460.38
458.377	438.38
458.598	479.38
458.818	552.38
459.038	595.38
459.258	630.38
459.478	555.38
459.698	526.38
459.918	506.38
460.138	517.38
460.358	515.38
460.578	535.38
460.798	538.38
461.018	537.38
461.238	524.38
461.458	551.38
461.678	528.38
461.898	539.38
462.118	564.38
462.338	579.38
462.558	588.38
462.777	605.38
462.997	602.38
463.217	636.38
463.437	634.38
463.657	615.38
463.876	603.38
464.096	598.38
464.316	578.38
464.536	603.38
464.755	596.38
464.975	595.38
465.195	642.38
465.414	673.38
465.634	601.38
465.854	555.38
466.073	532.38
466.293	513.38
466.512	498.38
466.732	483.38
466.951	485.38
467.171	492.38
467.391	492.38
467.61	498.38
467.829	504.38
468.049	483.38
468.268	481.38
468.488	484.38
468.707	472.38
468.927	457.38
469.146	471.38
469.365	485.38
469.585	481.38
469.804	488.38
470.023	502.38
470.243	497.38
470.462	487.38
470.681	532.38
470.901	500.38
471.12	493.38
471.339	489.38
471.558	506.38
471.777	491.38
471.997	482.38
472.216	466.38
472.435	460.38
472.654	469.38
472.873	459.38
473.092	486.38
473.311	486.38
473.53	503.38
473.749	486.38
473.968	545.38
474.187	622.38
474.406	625.38
474.625	543.38
474.844	490.38
475.063	473.38
475.282	480.38
475.501	495.38
475.72	489.38
475.939	511.38
476.158	492.38
476.377	527.38
476.596	503.38
476.814	499.38
477.033	526.38
477.252	518.38
477.471	542.38
477.69	542.38
477.908	549.38
478.127	523.38
478.346	555.38
478.564	583.38
478.783	551.38
479.002	567.38
479.22	571.38
479.439	586.38
479.658	591.38
479.876	581.38
480.095	603.38
480.313	631.38
480.532	622.38
480.751	618.38
480.969	603.38
481.188	603.38
481.406	601.38
481.624	564.38
481.843	590.38
482.061	565.38
482.28	562.38
482.498	571.38
482.717	577.38
482.935	532.38
483.153	559.38
483.372	563.38
483.59	554.38
483.808	577.38
484.027	562.38
484.245	570.38
484.463	557.38
484.681	566.38
484.9	603.38
485.118	598.38
485.336	590.38
485.554	566.38
485.772	594.38
485.99	600.38
486.209	594.38
486.427	591.38
486.645	584.38
486.863	602.38
487.081	607.38
487.299	599.38
487.517	614.38
487.735	603.38
487.953	591.38
488.171	616.38
488.389	601.38
488.607	583.38
488.825	589.38
489.043	614.38
489.261	609.38
489.479	585.38
489.696	612.38
489.914	602.38
490.132	634.38
490.35	623.38
490.568	613.38
490.786	647.38
491.003	642.38
491.221	659.38
491.439	668.38
491.657	669.38
491.874	664.38
492.092	677.38
492.31	680.38
492.527	677.38
492.745	683.38
492.963	681.38
493.18	695.38
493.398	691.38
493.615	691.38
493.833	699.38
494.05	681.38
494.268	673.38
494.485	691.38
494.703	715.38
494.92	692.38
495.138	669.38
495.355	714.38
495.573	697.38
495.79	713.38
496.008	733.38
496.225	711.38
496.442	702.38
496.66	718.38
496.877	708.38
497.094	685.38
497.312	721.38
497.529	718.38
497.746	755.38
497.963	805.38
498.181	799.38
498.398	818.38
498.615	827.38
498.832	847.38
499.049	881.38
499.267	919.38
499.484	976.38
499.701	1040.38
499.918	1040.38
500.135	1138.38
500.352	1219.38
500.569	1193.38
500.786	1190.38
501.003	1182.38
501.22	1149.38
501.437	1081.38
501.654	1025.38
501.871	983.38
