Data from 1985.PennyLincolnUp.Lamp.En5.5.200Scan.071819.P1_HRD10591_17-03-15-970.txt Node
Date: Thu Jul 18 17:03:15 EDT 2019
User: cochatt
Spectrometer: HR+D1059
Trigger mode: 1
Integration Time (sec): 1.000000E-1
Scans to average: 1
Electric dark correction enabled: true
Nonlinearity correction enabled: false
Boxcar width: 0
XAxis mode: Wavelengths
Number of Pixels in Spectrum: 2048
>>>>>Begin Spectral Data<<<<<
223.165	-21.69
223.4	-21.69
223.635	-21.69
223.869	-8.69
224.104	-14.69
224.338	1.31
224.573	-20.69
224.808	-16.69
225.042	-17.69
225.277	-19.69
225.511	4.31
225.746	3.31
225.98	5.31
226.215	-0.69
226.449	30.31
226.683	12.31
226.918	29.31
227.152	34.31
227.387	42.31
227.621	49.31
227.856	37.31
228.09	47.31
228.324	57.31
228.559	59.31
228.793	57.31
229.027	77.31
229.262	106.31
229.496	95.31
229.73	127.31
229.964	142.31
230.199	122.31
230.433	108.31
230.667	117.31
230.901	109.31
231.136	114.31
231.37	106.31
231.604	123.31
231.838	116.31
232.072	105.31
232.306	121.31
232.541	117.31
232.775	107.31
233.009	115.31
233.243	124.31
233.477	118.31
233.711	120.31
233.945	94.31
234.179	109.31
234.413	121.31
234.647	101.31
234.881	123.31
235.115	123.31
235.349	119.31
235.583	123.31
235.817	116.31
236.051	120.31
236.285	131.31
236.519	142.31
236.753	125.31
236.987	139.31
237.221	180.31
237.455	201.31
237.689	174.31
237.922	135.31
238.156	130.31
238.39	141.31
238.624	119.31
238.858	129.31
239.091	121.31
239.325	125.31
239.559	131.31
239.793	135.31
240.027	138.31
240.26	158.31
240.494	153.31
240.728	156.31
240.961	147.31
241.195	160.31
241.429	153.31
241.662	129.31
241.896	123.31
242.13	130.31
242.363	138.31
242.597	133.31
242.83	134.31
243.064	148.31
243.298	149.31
243.531	141.31
243.765	142.31
243.998	144.31
244.232	143.31
244.465	143.31
244.699	137.31
244.932	151.31
245.166	151.31
245.399	149.31
245.633	146.31
245.866	143.31
246.099	135.31
246.333	165.31
246.566	147.31
246.8	151.31
247.033	148.31
247.266	152.31
247.5	164.31
247.733	188.31
247.966	153.31
248.2	174.31
248.433	165.31
248.666	170.31
248.899	198.31
249.133	206.31
249.366	195.31
249.599	203.31
249.832	198.31
250.066	177.31
250.299	177.31
250.532	178.31
250.765	204.31
250.998	223.31
251.231	230.31
251.465	210.31
251.698	209.31
251.931	169.31
252.164	184.31
252.397	198.31
252.63	209.31
252.863	199.31
253.096	213.31
253.329	218.31
253.562	211.31
253.795	210.31
254.028	211.31
254.261	205.31
254.494	235.31
254.727	244.31
254.96	277.31
255.193	263.31
255.426	236.31
255.659	230.31
255.892	232.31
256.124	229.31
256.357	237.31
256.59	213.31
256.823	223.31
257.056	222.31
257.289	215.31
257.521	217.31
257.754	211.31
257.987	205.31
258.22	205.31
258.452	204.31
258.685	223.31
258.918	212.31
259.151	223.31
259.383	215.31
259.616	211.31
259.849	234.31
260.081	232.31
260.314	254.31
260.547	245.31
260.779	235.31
261.012	254.31
261.244	221.31
261.477	236.31
261.71	234.31
261.942	222.31
262.175	229.31
262.407	221.31
262.64	224.31
262.872	205.31
263.105	215.31
263.337	218.31
263.57	221.31
263.802	214.31
264.035	206.31
264.267	228.31
264.499	213.31
264.732	217.31
264.964	222.31
265.197	219.31
265.429	220.31
265.661	211.31
265.894	242.31
266.126	221.31
266.358	224.31
266.591	229.31
266.823	237.31
267.055	231.31
267.287	235.31
267.52	232.31
267.752	230.31
267.984	260.31
268.216	246.31
268.448	246.31
268.681	257.31
268.913	247.31
269.145	263.31
269.377	282.31
269.609	297.31
269.841	276.31
270.073	284.31
270.306	279.31
270.538	310.31
270.77	306.31
271.002	299.31
271.234	285.31
271.466	307.31
271.698	337.31
271.93	323.31
272.162	328.31
272.394	326.31
272.626	312.31
272.858	284.31
273.09	287.31
273.322	285.31
273.553	278.31
273.785	271.31
274.017	267.31
274.249	268.31
274.481	278.31
274.713	288.31
274.945	284.31
275.176	293.31
275.408	278.31
275.64	266.31
275.872	277.31
276.104	293.31
276.335	289.31
276.567	280.31
276.799	300.31
277.031	339.31
277.262	338.31
277.494	327.31
277.726	333.31
277.957	293.31
278.189	300.31
278.421	283.31
278.652	299.31
278.884	283.31
279.115	290.31
279.347	293.31
279.579	288.31
279.81	285.31
280.042	294.31
280.273	282.31
280.505	310.31
280.736	295.31
280.968	289.31
281.199	277.31
281.431	272.31
281.662	291.31
281.894	286.31
282.125	295.31
282.356	278.31
282.588	329.31
282.819	335.31
283.051	315.31
283.282	299.31
283.513	311.31
283.745	315.31
283.976	307.31
284.207	307.31
284.439	322.31
284.67	313.31
284.901	309.31
285.132	305.31
285.364	306.31
285.595	293.31
285.826	313.31
286.057	310.31
286.288	306.31
286.52	319.31
286.751	287.31
286.982	309.31
287.213	310.31
287.444	309.31
287.675	332.31
287.906	318.31
288.138	334.31
288.369	323.31
288.6	315.31
288.831	335.31
289.062	323.31
289.293	345.31
289.524	295.31
289.755	330.31
289.986	307.31
290.217	313.31
290.448	307.31
290.679	312.31
290.91	307.31
291.141	315.31
291.371	318.31
291.602	314.31
291.833	327.31
292.064	337.31
292.295	324.31
292.526	320.31
292.757	323.31
292.987	329.31
293.218	314.31
293.449	327.31
293.68	335.31
293.91	325.31
294.141	322.31
294.372	334.31
294.603	325.31
294.833	318.31
295.064	325.31
295.295	338.31
295.525	328.31
295.756	332.31
295.987	331.31
296.217	360.31
296.448	361.31
296.679	324.31
296.909	329.31
297.14	324.31
297.37	345.31
297.601	335.31
297.831	333.31
298.062	350.31
298.292	333.31
298.523	365.31
298.753	345.31
298.984	336.31
299.214	348.31
299.445	344.31
299.675	333.31
299.905	339.31
300.136	342.31
300.366	353.31
300.597	349.31
300.827	341.31
301.057	353.31
301.288	363.31
301.518	378.31
301.748	349.31
301.979	358.31
302.209	365.31
302.439	358.31
302.669	342.31
302.9	362.31
303.13	341.31
303.36	361.31
303.59	356.31
303.82	356.31
304.051	379.31
304.281	379.31
304.511	356.31
304.741	363.31
304.971	355.31
305.201	375.31
305.431	360.31
305.661	364.31
305.891	372.31
306.121	369.31
306.352	364.31
306.582	369.31
306.812	377.31
307.042	378.31
307.272	358.31
307.502	347.31
307.731	374.31
307.961	353.31
308.191	367.31
308.421	365.31
308.651	372.31
308.881	382.31
309.111	392.31
309.341	375.31
309.571	394.31
309.8	379.31
310.03	399.31
310.26	411.31
310.49	391.31
310.72	413.31
310.949	415.31
311.179	426.31
311.409	412.31
311.639	388.31
311.868	430.31
312.098	412.31
312.328	406.31
312.557	408.31
312.787	438.31
313.017	445.31
313.246	463.31
313.476	414.31
313.706	405.31
313.935	410.31
314.165	425.31
314.394	419.31
314.624	431.31
314.853	424.31
315.083	443.31
315.312	419.31
315.542	400.31
315.771	420.31
316.001	427.31
316.23	395.31
316.46	400.31
316.689	419.31
316.919	421.31
317.148	419.31
317.377	425.31
317.607	415.31
317.836	428.31
318.065	418.31
318.295	414.31
318.524	420.31
318.753	405.31
318.983	404.31
319.212	418.31
319.441	430.31
319.67	433.31
319.9	415.31
320.129	416.31
320.358	414.31
320.587	425.31
320.816	427.31
321.046	446.31
321.275	431.31
321.504	429.31
321.733	460.31
321.962	439.31
322.191	446.31
322.42	457.31
322.649	466.31
322.878	476.31
323.108	476.31
323.337	491.31
323.566	521.31
323.795	548.31
324.024	593.31
324.253	669.31
324.482	958.31
324.71	1422.31
324.939	2040.31
325.168	1708.31
325.397	930.31
325.626	640.31
325.855	568.31
326.084	531.31
326.313	523.31
326.542	529.31
326.77	577.31
326.999	651.31
327.228	878.31
327.457	1275.31
327.686	1523.31
327.914	1067.31
328.143	702.31
328.372	608.31
328.6	603.31
328.829	577.31
329.058	603.31
329.287	594.31
329.515	552.31
329.744	527.31
329.972	529.31
330.201	528.31
330.43	543.31
330.658	602.31
330.887	612.31
331.115	588.31
331.344	533.31
331.572	527.31
331.801	536.31
332.03	538.31
332.258	527.31
332.486	484.31
332.715	515.31
332.943	529.31
333.172	515.31
333.4	543.31
333.629	511.31
333.857	539.31
334.085	541.31
334.314	572.31
334.542	579.31
334.771	577.31
334.999	533.31
335.227	543.31
335.455	531.31
335.684	500.31
335.912	516.31
336.14	516.31
336.369	485.31
336.597	521.31
336.825	491.31
337.053	505.31
337.281	493.31
337.51	488.31
337.738	477.31
337.966	492.31
338.194	486.31
338.422	491.31
338.65	481.31
338.878	473.31
339.106	477.31
339.334	498.31
339.562	467.31
339.79	467.31
340.018	469.31
340.246	469.31
340.474	483.31
340.702	450.31
340.93	463.31
341.158	450.31
341.386	439.31
341.614	469.31
341.842	460.31
342.07	472.31
342.298	458.31
342.526	460.31
342.754	455.31
342.981	450.31
343.209	443.31
343.437	459.31
343.665	482.31
343.893	491.31
344.12	479.31
344.348	479.31
344.576	473.31
344.804	463.31
345.031	490.31
345.259	488.31
345.487	468.31
345.714	464.31
345.942	462.31
346.17	469.31
346.397	421.31
346.625	449.31
346.853	440.31
347.08	433.31
347.308	445.31
347.535	460.31
347.763	426.31
347.99	437.31
348.218	443.31
348.445	439.31
348.673	466.31
348.9	444.31
349.128	426.31
349.355	425.31
349.583	438.31
349.81	431.31
350.037	437.31
350.265	415.31
350.492	410.31
350.72	443.31
350.947	437.31
351.174	443.31
351.402	444.31
351.629	437.31
351.856	440.31
352.083	463.31
352.311	467.31
352.538	481.31
352.765	475.31
352.992	426.31
353.22	463.31
353.447	463.31
353.674	435.31
353.901	416.31
354.128	413.31
354.355	410.31
354.583	416.31
354.81	416.31
355.037	403.31
355.264	420.31
355.491	413.31
355.718	419.31
355.945	416.31
356.172	407.31
356.399	428.31
356.626	441.31
356.853	417.31
357.08	420.31
357.307	431.31
357.534	386.31
357.761	413.31
357.988	411.31
358.215	407.31
358.441	407.31
358.668	419.31
358.895	432.31
359.122	415.31
359.349	421.31
359.576	452.31
359.802	468.31
360.029	486.31
360.256	482.31
360.483	462.31
360.709	442.31
360.936	427.31
361.163	417.31
361.39	415.31
361.616	449.31
361.843	427.31
362.07	444.31
362.296	457.31
362.523	430.31
362.749	437.31
362.976	424.31
363.203	423.31
363.429	421.31
363.656	403.31
363.882	431.31
364.109	429.31
364.335	435.31
364.562	425.31
364.788	421.31
365.015	451.31
365.241	431.31
365.468	417.31
365.694	430.31
365.92	435.31
366.147	413.31
366.373	408.31
366.599	415.31
366.826	398.31
367.052	410.31
367.278	414.31
367.505	410.31
367.731	406.31
367.957	412.31
368.184	408.31
368.41	425.31
368.636	432.31
368.862	438.31
369.089	446.31
369.315	441.31
369.541	416.31
369.767	424.31
369.993	411.31
370.219	427.31
370.445	431.31
370.672	429.31
370.898	411.31
371.124	405.31
371.35	435.31
371.576	427.31
371.802	411.31
372.028	404.31
372.254	418.31
372.48	419.31
372.706	432.31
372.932	423.31
373.158	403.31
373.384	427.31
373.61	429.31
373.835	427.31
374.061	442.31
374.287	438.31
374.513	420.31
374.739	447.31
374.965	447.31
375.191	427.31
375.416	433.31
375.642	446.31
375.868	435.31
376.094	414.31
376.319	425.31
376.545	423.31
376.771	445.31
376.997	419.31
377.222	412.31
377.448	426.31
377.674	421.31
377.899	422.31
378.125	419.31
378.35	405.31
378.576	390.31
378.802	417.31
379.027	403.31
379.253	413.31
379.478	393.31
379.704	429.31
379.929	425.31
380.155	412.31
380.38	400.31
380.606	429.31
380.831	425.31
381.057	423.31
381.282	424.31
381.507	411.31
381.733	408.31
381.958	417.31
382.184	434.31
382.409	442.31
382.634	425.31
382.86	415.31
383.085	426.31
383.31	419.31
383.535	439.31
383.761	452.31
383.986	460.31
384.211	438.31
384.436	439.31
384.662	453.31
384.887	452.31
385.112	431.31
385.337	474.31
385.562	462.31
385.787	449.31
386.013	448.31
386.238	451.31
386.463	479.31
386.688	478.31
386.913	467.31
387.138	446.31
387.363	447.31
387.588	474.31
387.813	452.31
388.038	467.31
388.263	450.31
388.488	473.31
388.713	473.31
388.938	447.31
389.163	458.31
389.387	478.31
389.612	489.31
389.837	469.31
390.062	453.31
390.287	462.31
390.512	453.31
390.736	472.31
390.961	484.31
391.186	472.31
391.411	477.31
391.636	475.31
391.86	486.31
392.085	497.31
392.31	500.31
392.534	500.31
392.759	479.31
392.984	491.31
393.208	488.31
393.433	468.31
393.658	470.31
393.882	462.31
394.107	469.31
394.331	467.31
394.556	460.31
394.78	479.31
395.005	471.31
395.229	478.31
395.454	494.31
395.678	516.31
395.903	491.31
396.127	520.31
396.352	530.31
396.576	503.31
396.801	487.31
397.025	492.31
397.249	489.31
397.474	505.31
397.698	483.31
397.922	504.31
398.147	527.31
398.371	531.31
398.595	521.31
398.82	542.31
399.044	557.31
399.268	575.31
399.492	620.31
399.717	666.31
399.941	707.31
400.165	690.31
400.389	703.31
400.613	634.31
400.837	594.31
401.062	548.31
401.286	549.31
401.51	540.31
401.734	547.31
401.958	567.31
402.182	551.31
402.406	547.31
402.63	599.31
402.854	564.31
403.078	565.31
403.302	585.31
403.526	572.31
403.75	575.31
403.974	584.31
404.198	561.31
404.422	585.31
404.645	577.31
404.869	587.31
405.093	603.31
405.317	650.31
405.541	677.31
405.765	609.31
405.988	592.31
406.212	589.31
406.436	617.31
406.66	629.31
406.883	614.31
407.107	651.31
407.331	687.31
407.555	743.31
407.778	746.31
408.002	670.31
408.226	630.31
408.449	610.31
408.673	604.31
408.896	638.31
409.12	668.31
409.344	634.31
409.567	573.31
409.791	551.31
410.014	573.31
410.238	527.31
410.461	564.31
410.685	573.31
410.908	569.31
411.132	610.31
411.355	630.31
411.578	617.31
411.802	593.31
412.025	556.31
412.249	560.31
412.472	580.31
412.695	615.31
412.919	584.31
413.142	547.31
413.365	561.31
413.589	543.31
413.812	523.31
414.035	517.31
414.258	544.31
414.482	529.31
414.705	508.31
414.928	523.31
415.151	529.31
415.374	494.31
415.597	522.31
415.821	538.31
416.044	520.31
416.267	539.31
416.49	529.31
416.713	532.31
416.936	517.31
417.159	514.31
417.382	521.31
417.605	517.31
417.828	538.31
418.051	566.31
418.274	548.31
418.497	538.31
418.72	526.31
418.943	522.31
419.166	572.31
419.389	583.31
419.611	579.31
419.834	557.31
420.057	567.31
420.28	554.31
420.503	531.31
420.726	542.31
420.948	566.31
421.171	573.31
421.394	631.31
421.617	549.31
421.839	565.31
422.062	539.31
422.285	565.31
422.507	588.31
422.73	678.31
422.953	657.31
423.175	602.31
423.398	573.31
423.621	557.31
423.843	593.31
424.066	602.31
424.288	584.31
424.511	580.31
424.733	634.31
424.956	699.31
425.178	674.31
425.401	648.31
425.623	691.31
425.846	617.31
426.068	569.31
426.291	550.31
426.513	559.31
426.735	570.31
426.958	615.31
427.18	660.31
427.402	804.31
427.625	863.31
427.847	769.31
428.069	654.31
428.292	587.31
428.514	548.31
428.736	537.31
428.958	545.31
429.181	521.31
429.403	495.31
429.625	527.31
429.847	559.31
430.069	614.31
430.292	587.31
430.514	525.31
430.736	513.31
430.958	514.31
431.18	481.31
431.402	497.31
431.624	483.31
431.846	489.31
432.068	501.31
432.29	511.31
432.512	483.31
432.734	504.31
432.956	508.31
433.178	533.31
433.4	521.31
433.622	504.31
433.844	492.31
434.066	493.31
434.287	505.31
434.509	525.31
434.731	510.31
434.953	523.31
435.175	539.31
435.397	587.31
435.618	548.31
435.84	597.31
436.062	673.31
436.284	753.31
436.505	613.31
436.727	561.31
436.949	517.31
437.17	497.31
437.392	504.31
437.614	523.31
437.835	582.31
438.057	644.31
438.278	725.31
438.5	711.31
438.721	779.31
438.943	766.31
439.165	621.31
439.386	573.31
439.608	565.31
439.829	550.31
440.05	569.31
440.272	637.31
440.493	582.31
440.715	552.31
440.936	531.31
441.158	529.31
441.379	511.31
441.6	585.31
441.822	571.31
442.043	610.31
442.264	674.31
442.486	707.31
442.707	612.31
442.928	579.31
443.149	585.31
443.371	591.31
443.592	641.31
443.813	732.31
444.034	793.31
444.255	650.31
444.476	605.31
444.698	600.31
444.919	607.31
445.14	708.31
445.361	643.31
445.582	604.31
445.803	637.31
446.024	760.31
446.245	759.31
446.466	670.31
446.687	591.31
446.908	564.31
447.129	549.31
447.35	530.31
447.571	491.31
447.792	500.31
448.013	515.31
448.234	524.31
448.455	599.31
448.675	671.31
448.896	781.31
449.117	631.31
449.338	611.31
449.559	724.31
449.779	830.31
450	652.31
450.221	563.31
450.442	529.31
450.662	510.31
450.883	480.31
451.104	519.31
451.324	524.31
451.545	473.31
451.766	472.31
451.986	462.31
452.207	463.31
452.428	466.31
452.648	461.31
452.869	455.31
453.089	480.31
453.31	479.31
453.53	475.31
453.751	461.31
453.971	470.31
454.192	475.31
454.412	460.31
454.633	465.31
454.853	430.31
455.073	472.31
455.294	492.31
455.514	531.31
455.734	521.31
455.955	474.31
456.175	453.31
456.395	451.31
456.616	432.31
456.836	423.31
457.056	440.31
457.276	437.31
457.497	451.31
457.717	447.31
457.937	433.31
458.157	453.31
458.377	447.31
458.598	477.31
458.818	522.31
459.038	597.31
459.258	596.31
459.478	555.31
459.698	518.31
459.918	494.31
460.138	513.31
460.358	539.31
460.578	531.31
460.798	526.31
461.018	542.31
461.238	522.31
461.458	528.31
461.678	510.31
461.898	526.31
462.118	547.31
462.338	541.31
462.558	581.31
462.777	581.31
462.997	573.31
463.217	617.31
463.437	630.31
463.657	613.31
463.876	589.31
464.096	590.31
464.316	573.31
464.536	575.31
464.755	582.31
464.975	574.31
465.195	583.31
465.414	651.31
465.634	585.31
465.854	544.31
466.073	523.31
466.293	503.31
466.512	480.31
466.732	473.31
466.951	484.31
467.171	482.31
467.391	478.31
467.61	489.31
467.829	492.31
468.049	489.31
468.268	473.31
468.488	471.31
468.707	474.31
468.927	475.31
469.146	459.31
469.365	470.31
469.585	501.31
469.804	481.31
470.023	489.31
470.243	485.31
470.462	516.31
470.681	503.31
470.901	487.31
471.12	493.31
471.339	479.31
471.558	491.31
471.777	481.31
471.997	488.31
472.216	503.31
472.435	493.31
472.654	487.31
472.873	489.31
473.092	483.31
473.311	483.31
473.53	466.31
473.749	472.31
473.968	528.31
474.187	608.31
474.406	641.31
474.625	537.31
474.844	513.31
475.063	477.31
475.282	481.31
475.501	467.31
475.72	500.31
475.939	477.31
476.158	495.31
476.377	513.31
476.596	484.31
476.814	486.31
477.033	507.31
477.252	537.31
477.471	510.31
477.69	547.31
477.908	523.31
478.127	554.31
478.346	541.31
478.564	534.31
478.783	537.31
479.002	562.31
479.22	568.31
479.439	578.31
479.658	584.31
479.876	601.31
480.095	598.31
480.313	628.31
480.532	625.31
480.751	616.31
480.969	618.31
481.188	643.31
481.406	654.31
481.624	608.31
481.843	592.31
482.061	562.31
482.28	552.31
482.498	568.31
482.717	562.31
482.935	534.31
483.153	565.31
483.372	551.31
483.59	577.31
483.808	570.31
484.027	561.31
484.245	563.31
484.463	582.31
484.681	553.31
484.9	550.31
485.118	580.31
485.336	564.31
485.554	571.31
485.772	588.31
485.99	599.31
486.209	585.31
486.427	582.31
486.645	582.31
486.863	625.31
487.081	627.31
487.299	590.31
487.517	598.31
487.735	580.31
487.953	603.31
488.171	595.31
488.389	575.31
488.607	582.31
488.825	598.31
489.043	604.31
489.261	604.31
489.479	601.31
489.696	611.31
489.914	635.31
490.132	631.31
490.35	610.31
490.568	629.31
490.786	627.31
491.003	639.31
491.221	650.31
491.439	679.31
491.657	667.31
491.874	664.31
492.092	692.31
492.31	692.31
492.527	660.31
492.745	694.31
492.963	689.31
493.18	727.31
493.398	701.31
493.615	710.31
493.833	698.31
494.05	709.31
494.268	697.31
494.485	691.31
494.703	714.31
494.92	699.31
495.138	686.31
495.355	705.31
495.573	675.31
495.79	715.31
496.008	697.31
496.225	718.31
496.442	697.31
496.66	693.31
496.877	699.31
497.094	708.31
497.312	725.31
497.529	733.31
497.746	753.31
497.963	771.31
498.181	809.31
498.398	796.31
498.615	805.31
498.832	853.31
499.049	858.31
499.267	910.31
499.484	931.31
499.701	973.31
499.918	981.31
500.135	1106.31
500.352	1169.31
500.569	1230.31
500.786	1217.31
501.003	1194.31
501.22	1135.31
501.437	1075.31
501.654	987.31
501.871	971.31
