Data from 1985.PennyLincolnUp.Lamp.En5.5.200Scan.071819.P1_HRD10591_17-02-51-970.txt Node
Date: Thu Jul 18 17:02:51 EDT 2019
User: cochatt
Spectrometer: HR+D1059
Trigger mode: 1
Integration Time (sec): 1.000000E-1
Scans to average: 1
Electric dark correction enabled: true
Nonlinearity correction enabled: false
Boxcar width: 0
XAxis mode: Wavelengths
Number of Pixels in Spectrum: 2048
>>>>>Begin Spectral Data<<<<<
223.165	-12.44
223.4	-12.44
223.635	-12.44
223.869	-19.44
224.104	-20.44
224.338	-18.44
224.573	-21.44
224.808	-22.44
225.042	6.56
225.277	-13.44
225.511	-7.44
225.746	16.56
225.98	12.56
226.215	10.56
226.449	18.56
226.683	20.56
226.918	32.56
227.152	17.56
227.387	31.56
227.621	11.56
227.856	36.56
228.09	41.56
228.324	43.56
228.559	54.56
228.793	73.56
229.027	101.56
229.262	87.56
229.496	106.56
229.73	119.56
229.964	156.56
230.199	111.56
230.433	117.56
230.667	116.56
230.901	115.56
231.136	121.56
231.37	94.56
231.604	93.56
231.838	109.56
232.072	109.56
232.306	114.56
232.541	109.56
232.775	101.56
233.009	111.56
233.243	103.56
233.477	116.56
233.711	109.56
233.945	105.56
234.179	106.56
234.413	106.56
234.647	108.56
234.881	117.56
235.115	116.56
235.349	125.56
235.583	123.56
235.817	105.56
236.051	119.56
236.285	133.56
236.519	126.56
236.753	123.56
236.987	142.56
237.221	162.56
237.455	216.56
237.689	183.56
237.922	129.56
238.156	138.56
238.39	136.56
238.624	120.56
238.858	114.56
239.091	138.56
239.325	122.56
239.559	124.56
239.793	125.56
240.027	120.56
240.26	136.56
240.494	140.56
240.728	139.56
240.961	161.56
241.195	147.56
241.429	128.56
241.662	136.56
241.896	136.56
242.13	132.56
242.363	122.56
242.597	130.56
242.83	135.56
243.064	130.56
243.298	142.56
243.531	144.56
243.765	134.56
243.998	143.56
244.232	132.56
244.465	149.56
244.699	139.56
244.932	140.56
245.166	143.56
245.399	134.56
245.633	141.56
245.866	125.56
246.099	134.56
246.333	134.56
246.566	139.56
246.8	160.56
247.033	157.56
247.266	152.56
247.5	164.56
247.733	167.56
247.966	162.56
248.2	161.56
248.433	163.56
248.666	176.56
248.899	184.56
249.133	208.56
249.366	209.56
249.599	203.56
249.832	179.56
250.066	185.56
250.299	174.56
250.532	195.56
250.765	199.56
250.998	218.56
251.231	225.56
251.465	217.56
251.698	191.56
251.931	181.56
252.164	190.56
252.397	185.56
252.63	189.56
252.863	206.56
253.096	200.56
253.329	216.56
253.562	215.56
253.795	218.56
254.028	204.56
254.261	208.56
254.494	218.56
254.727	232.56
254.96	277.56
255.193	256.56
255.426	234.56
255.659	217.56
255.892	218.56
256.124	225.56
256.357	222.56
256.59	218.56
256.823	208.56
257.056	199.56
257.289	197.56
257.521	213.56
257.754	206.56
257.987	200.56
258.22	195.56
258.452	200.56
258.685	210.56
258.918	206.56
259.151	210.56
259.383	223.56
259.616	215.56
259.849	211.56
260.081	237.56
260.314	255.56
260.547	257.56
260.779	237.56
261.012	234.56
261.244	239.56
261.477	228.56
261.71	212.56
261.942	207.56
262.175	225.56
262.407	210.56
262.64	214.56
262.872	221.56
263.105	221.56
263.337	211.56
263.57	213.56
263.802	217.56
264.035	207.56
264.267	215.56
264.499	209.56
264.732	214.56
264.964	229.56
265.197	231.56
265.429	227.56
265.661	230.56
265.894	254.56
266.126	242.56
266.358	231.56
266.591	234.56
266.823	244.56
267.055	230.56
267.287	237.56
267.52	241.56
267.752	237.56
267.984	237.56
268.216	227.56
268.448	239.56
268.681	233.56
268.913	251.56
269.145	266.56
269.377	296.56
269.609	282.56
269.841	280.56
270.073	297.56
270.306	304.56
270.538	315.56
270.77	290.56
271.002	302.56
271.234	266.56
271.466	296.56
271.698	321.56
271.93	319.56
272.162	317.56
272.394	328.56
272.626	311.56
272.858	298.56
273.09	294.56
273.322	279.56
273.553	270.56
273.785	271.56
274.017	282.56
274.249	290.56
274.481	258.56
274.713	273.56
274.945	277.56
275.176	270.56
275.408	269.56
275.64	266.56
275.872	275.56
276.104	285.56
276.335	285.56
276.567	281.56
276.799	288.56
277.031	309.56
277.262	323.56
277.494	336.56
277.726	322.56
277.957	301.56
278.189	305.56
278.421	288.56
278.652	298.56
278.884	281.56
279.115	297.56
279.347	293.56
279.579	278.56
279.81	267.56
280.042	282.56
280.273	279.56
280.505	291.56
280.736	274.56
280.968	286.56
281.199	292.56
281.431	285.56
281.662	288.56
281.894	281.56
282.125	304.56
282.356	293.56
282.588	320.56
282.819	342.56
283.051	294.56
283.282	299.56
283.513	306.56
283.745	295.56
283.976	298.56
284.207	308.56
284.439	301.56
284.67	295.56
284.901	289.56
285.132	281.56
285.364	309.56
285.595	299.56
285.826	290.56
286.057	305.56
286.288	314.56
286.52	312.56
286.751	298.56
286.982	303.56
287.213	297.56
287.444	322.56
287.675	302.56
287.906	320.56
288.138	332.56
288.369	331.56
288.6	335.56
288.831	324.56
289.062	327.56
289.293	319.56
289.524	326.56
289.755	303.56
289.986	325.56
290.217	327.56
290.448	307.56
290.679	328.56
290.91	328.56
291.141	315.56
291.371	320.56
291.602	317.56
291.833	303.56
292.064	332.56
292.295	315.56
292.526	312.56
292.757	321.56
292.987	325.56
293.218	327.56
293.449	323.56
293.68	319.56
293.91	309.56
294.141	320.56
294.372	314.56
294.603	329.56
294.833	328.56
295.064	315.56
295.295	342.56
295.525	320.56
295.756	322.56
295.987	337.56
296.217	371.56
296.448	355.56
296.679	341.56
296.909	321.56
297.14	333.56
297.37	358.56
297.601	328.56
297.831	314.56
298.062	355.56
298.292	341.56
298.523	353.56
298.753	332.56
298.984	342.56
299.214	330.56
299.445	332.56
299.675	342.56
299.905	350.56
300.136	362.56
300.366	344.56
300.597	328.56
300.827	340.56
301.057	353.56
301.288	370.56
301.518	366.56
301.748	358.56
301.979	370.56
302.209	354.56
302.439	358.56
302.669	363.56
302.9	361.56
303.13	369.56
303.36	368.56
303.59	370.56
303.82	381.56
304.051	371.56
304.281	373.56
304.511	362.56
304.741	373.56
304.971	361.56
305.201	352.56
305.431	362.56
305.661	368.56
305.891	350.56
306.121	363.56
306.352	376.56
306.582	357.56
306.812	377.56
307.042	371.56
307.272	377.56
307.502	363.56
307.731	376.56
307.961	379.56
308.191	378.56
308.421	371.56
308.651	377.56
308.881	357.56
309.111	364.56
309.341	385.56
309.571	360.56
309.8	389.56
310.03	395.56
310.26	392.56
310.49	379.56
310.72	420.56
310.949	434.56
311.179	418.56
311.409	426.56
311.639	398.56
311.868	416.56
312.098	417.56
312.328	397.56
312.557	415.56
312.787	436.56
313.017	423.56
313.246	435.56
313.476	425.56
313.706	416.56
313.935	432.56
314.165	420.56
314.394	451.56
314.624	435.56
314.853	424.56
315.083	415.56
315.312	424.56
315.542	426.56
315.771	394.56
316.001	425.56
316.23	402.56
316.46	393.56
316.689	402.56
316.919	417.56
317.148	413.56
317.377	445.56
317.607	404.56
317.836	405.56
318.065	398.56
318.295	410.56
318.524	398.56
318.753	407.56
318.983	415.56
319.212	415.56
319.441	437.56
319.67	422.56
319.9	404.56
320.129	398.56
320.358	433.56
320.587	429.56
320.816	423.56
321.046	416.56
321.275	436.56
321.504	441.56
321.733	432.56
321.962	443.56
322.191	455.56
322.42	470.56
322.649	466.56
322.878	492.56
323.108	473.56
323.337	508.56
323.566	497.56
323.795	557.56
324.024	585.56
324.253	683.56
324.482	965.56
324.71	1455.56
324.939	2122.56
325.168	1728.56
325.397	917.56
325.626	665.56
325.855	564.56
326.084	515.56
326.313	514.56
326.542	543.56
326.77	570.56
326.999	665.56
327.228	903.56
327.457	1310.56
327.686	1555.56
327.914	1034.56
328.143	721.56
328.372	618.56
328.6	598.56
328.829	577.56
329.058	571.56
329.287	616.56
329.515	568.56
329.744	533.56
329.972	513.56
330.201	527.56
330.43	579.56
330.658	595.56
330.887	608.56
331.115	626.56
331.344	557.56
331.572	530.56
331.801	526.56
332.03	518.56
332.258	528.56
332.486	506.56
332.715	512.56
332.943	506.56
333.172	514.56
333.4	526.56
333.629	521.56
333.857	561.56
334.085	546.56
334.314	548.56
334.542	550.56
334.771	545.56
334.999	511.56
335.227	507.56
335.455	498.56
335.684	513.56
335.912	488.56
336.14	484.56
336.369	499.56
336.597	509.56
336.825	504.56
337.053	487.56
337.281	489.56
337.51	481.56
337.738	483.56
337.966	468.56
338.194	498.56
338.422	470.56
338.65	470.56
338.878	458.56
339.106	462.56
339.334	442.56
339.562	469.56
339.79	462.56
340.018	468.56
340.246	488.56
340.474	469.56
340.702	479.56
340.93	472.56
341.158	454.56
341.386	457.56
341.614	451.56
341.842	465.56
342.07	450.56
342.298	449.56
342.526	452.56
342.754	435.56
342.981	451.56
343.209	466.56
343.437	458.56
343.665	490.56
343.893	484.56
344.12	519.56
344.348	485.56
344.576	474.56
344.804	465.56
345.031	502.56
345.259	475.56
345.487	490.56
345.714	476.56
345.942	446.56
346.17	433.56
346.397	440.56
346.625	444.56
346.853	449.56
347.08	429.56
347.308	453.56
347.535	446.56
347.763	449.56
347.99	447.56
348.218	475.56
348.445	453.56
348.673	459.56
348.9	455.56
349.128	437.56
349.355	431.56
349.583	446.56
349.81	437.56
350.037	441.56
350.265	444.56
350.492	425.56
350.72	442.56
350.947	436.56
351.174	458.56
351.402	451.56
351.629	445.56
351.856	424.56
352.083	445.56
352.311	446.56
352.538	450.56
352.765	478.56
352.992	443.56
353.22	450.56
353.447	442.56
353.674	429.56
353.901	430.56
354.128	410.56
354.355	419.56
354.583	425.56
354.81	421.56
355.037	406.56
355.264	426.56
355.491	434.56
355.718	385.56
355.945	401.56
356.172	417.56
356.399	414.56
356.626	407.56
356.853	429.56
357.08	407.56
357.307	410.56
357.534	406.56
357.761	413.56
357.988	409.56
358.215	417.56
358.441	410.56
358.668	419.56
358.895	401.56
359.122	402.56
359.349	417.56
359.576	414.56
359.802	432.56
360.029	478.56
360.256	493.56
360.483	467.56
360.709	445.56
360.936	439.56
361.163	442.56
361.39	450.56
361.616	438.56
361.843	440.56
362.07	447.56
362.296	453.56
362.523	434.56
362.749	443.56
362.976	410.56
363.203	439.56
363.429	434.56
363.656	435.56
363.882	422.56
364.109	403.56
364.335	413.56
364.562	400.56
364.788	431.56
365.015	425.56
365.241	424.56
365.468	422.56
365.694	415.56
365.92	422.56
366.147	414.56
366.373	427.56
366.599	426.56
366.826	403.56
367.052	411.56
367.278	405.56
367.505	406.56
367.731	409.56
367.957	421.56
368.184	435.56
368.41	444.56
368.636	419.56
368.862	435.56
369.089	435.56
369.315	413.56
369.541	394.56
369.767	409.56
369.993	416.56
370.219	423.56
370.445	422.56
370.672	424.56
370.898	417.56
371.124	413.56
371.35	418.56
371.576	419.56
371.802	416.56
372.028	413.56
372.254	438.56
372.48	403.56
372.706	421.56
372.932	412.56
373.158	423.56
373.384	419.56
373.61	416.56
373.835	427.56
374.061	420.56
374.287	429.56
374.513	445.56
374.739	444.56
374.965	446.56
375.191	443.56
375.416	433.56
375.642	435.56
375.868	415.56
376.094	409.56
376.319	408.56
376.545	406.56
376.771	411.56
376.997	400.56
377.222	403.56
377.448	430.56
377.674	406.56
377.899	413.56
378.125	405.56
378.35	404.56
378.576	416.56
378.802	411.56
379.027	431.56
379.253	430.56
379.478	382.56
379.704	416.56
379.929	417.56
380.155	430.56
380.38	417.56
380.606	422.56
380.831	408.56
381.057	432.56
381.282	431.56
381.507	402.56
381.733	429.56
381.958	410.56
382.184	413.56
382.409	419.56
382.634	439.56
382.86	431.56
383.085	452.56
383.31	425.56
383.535	428.56
383.761	450.56
383.986	434.56
384.211	424.56
384.436	436.56
384.662	460.56
384.887	439.56
385.112	427.56
385.337	448.56
385.562	467.56
385.787	433.56
386.013	467.56
386.238	476.56
386.463	474.56
386.688	459.56
386.913	455.56
387.138	459.56
387.363	444.56
387.588	464.56
387.813	462.56
388.038	461.56
388.263	466.56
388.488	464.56
388.713	458.56
388.938	467.56
389.163	471.56
389.387	443.56
389.612	466.56
389.837	458.56
390.062	479.56
390.287	464.56
390.512	479.56
390.736	449.56
390.961	467.56
391.186	471.56
391.411	464.56
391.636	479.56
391.86	456.56
392.085	469.56
392.31	473.56
392.534	488.56
392.759	480.56
392.984	482.56
393.208	458.56
393.433	476.56
393.658	469.56
393.882	468.56
394.107	444.56
394.331	465.56
394.556	478.56
394.78	463.56
395.005	465.56
395.229	475.56
395.454	470.56
395.678	493.56
395.903	488.56
396.127	516.56
396.352	505.56
396.576	487.56
396.801	458.56
397.025	487.56
397.249	486.56
397.474	506.56
397.698	516.56
397.922	504.56
398.147	507.56
398.371	535.56
398.595	534.56
398.82	529.56
399.044	548.56
399.268	570.56
399.492	619.56
399.717	663.56
399.941	706.56
400.165	677.56
400.389	665.56
400.613	591.56
400.837	568.56
401.062	575.56
401.286	527.56
401.51	538.56
401.734	545.56
401.958	566.56
402.182	551.56
402.406	555.56
402.63	556.56
402.854	551.56
403.078	569.56
403.302	552.56
403.526	573.56
403.75	584.56
403.974	586.56
404.198	567.56
404.422	577.56
404.645	590.56
404.869	591.56
405.093	615.56
405.317	622.56
405.541	651.56
405.765	597.56
405.988	589.56
406.212	589.56
406.436	625.56
406.66	629.56
406.883	606.56
407.107	644.56
407.331	697.56
407.555	755.56
407.778	724.56
408.002	658.56
408.226	646.56
408.449	628.56
408.673	602.56
408.896	633.56
409.12	657.56
409.344	652.56
409.567	611.56
409.791	592.56
410.014	558.56
410.238	572.56
410.461	574.56
410.685	552.56
410.908	597.56
411.132	602.56
411.355	626.56
411.578	585.56
411.802	564.56
412.025	565.56
412.249	561.56
412.472	558.56
412.695	566.56
412.919	583.56
413.142	549.56
413.365	545.56
413.589	520.56
413.812	506.56
414.035	515.56
414.258	541.56
414.482	527.56
414.705	539.56
414.928	510.56
415.151	531.56
415.374	513.56
415.597	497.56
415.821	532.56
416.044	515.56
416.267	527.56
416.49	504.56
416.713	499.56
416.936	514.56
417.159	525.56
417.382	510.56
417.605	517.56
417.828	550.56
418.051	560.56
418.274	531.56
418.497	526.56
418.72	530.56
418.943	531.56
419.166	561.56
419.389	592.56
419.611	572.56
419.834	554.56
420.057	564.56
420.28	555.56
420.503	543.56
420.726	516.56
420.948	537.56
421.171	591.56
421.394	633.56
421.617	563.56
421.839	539.56
422.062	570.56
422.285	562.56
422.507	629.56
422.73	639.56
422.953	641.56
423.175	577.56
423.398	583.56
423.621	559.56
423.843	600.56
424.066	567.56
424.288	588.56
424.511	602.56
424.733	671.56
424.956	722.56
425.178	690.56
425.401	656.56
425.623	707.56
425.846	633.56
426.068	555.56
426.291	574.56
426.513	578.56
426.735	593.56
426.958	605.56
427.18	689.56
427.402	828.56
427.625	880.56
427.847	765.56
428.069	649.56
428.292	577.56
428.514	547.56
428.736	530.56
428.958	512.56
429.181	512.56
429.403	515.56
429.625	537.56
429.847	561.56
430.069	603.56
430.292	581.56
430.514	516.56
430.736	523.56
430.958	499.56
431.18	509.56
431.402	497.56
431.624	482.56
431.846	474.56
432.068	503.56
432.29	502.56
432.512	502.56
432.734	504.56
432.956	495.56
433.178	519.56
433.4	505.56
433.622	502.56
433.844	488.56
434.066	492.56
434.287	499.56
434.509	518.56
434.731	529.56
434.953	534.56
435.175	547.56
435.397	570.56
435.618	578.56
435.84	603.56
436.062	694.56
436.284	751.56
436.505	618.56
436.727	551.56
436.949	523.56
437.17	521.56
437.392	514.56
437.614	535.56
437.835	558.56
438.057	652.56
438.278	730.56
438.5	734.56
438.721	792.56
438.943	762.56
439.165	619.56
439.386	567.56
439.608	574.56
439.829	557.56
440.05	605.56
440.272	608.56
440.493	576.56
440.715	527.56
440.936	547.56
441.158	522.56
441.379	522.56
441.6	521.56
441.822	574.56
442.043	605.56
442.264	683.56
442.486	715.56
442.707	635.56
442.928	594.56
443.149	601.56
443.371	602.56
443.592	653.56
443.813	751.56
444.034	791.56
444.255	651.56
444.476	608.56
444.698	596.56
444.919	589.56
445.14	718.56
445.361	677.56
445.582	629.56
445.803	671.56
446.024	757.56
446.245	752.56
446.466	695.56
446.687	595.56
446.908	558.56
447.129	521.56
447.35	527.56
447.571	523.56
447.792	513.56
448.013	505.56
448.234	534.56
448.455	584.56
448.675	691.56
448.896	785.56
449.117	660.56
449.338	628.56
449.559	702.56
449.779	820.56
450	650.56
450.221	536.56
450.442	513.56
450.662	504.56
450.883	526.56
451.104	526.56
451.324	514.56
451.545	498.56
451.766	464.56
451.986	451.56
452.207	470.56
452.428	455.56
452.648	474.56
452.869	459.56
453.089	493.56
453.31	465.56
453.53	482.56
453.751	486.56
453.971	458.56
454.192	488.56
454.412	459.56
454.633	445.56
454.853	450.56
455.073	463.56
455.294	467.56
455.514	549.56
455.734	533.56
455.955	456.56
456.175	458.56
456.395	428.56
456.616	429.56
456.836	441.56
457.056	455.56
457.276	438.56
457.497	429.56
457.717	429.56
457.937	449.56
458.157	445.56
458.377	464.56
458.598	482.56
458.818	534.56
459.038	604.56
459.258	600.56
459.478	548.56
459.698	529.56
459.918	507.56
460.138	515.56
460.358	539.56
460.578	533.56
460.798	507.56
461.018	535.56
461.238	515.56
461.458	534.56
461.678	537.56
461.898	532.56
462.118	532.56
462.338	546.56
462.558	567.56
462.777	582.56
462.997	609.56
463.217	597.56
463.437	600.56
463.657	578.56
463.876	574.56
464.096	576.56
464.316	568.56
464.536	597.56
464.755	569.56
464.975	570.56
465.195	587.56
465.414	662.56
465.634	585.56
465.854	543.56
466.073	518.56
466.293	499.56
466.512	495.56
466.732	475.56
466.951	515.56
467.171	499.56
467.391	464.56
467.61	478.56
467.829	496.56
468.049	479.56
468.268	478.56
468.488	479.56
468.707	473.56
468.927	447.56
469.146	459.56
469.365	485.56
469.585	471.56
469.804	475.56
470.023	479.56
470.243	502.56
470.462	503.56
470.681	509.56
470.901	508.56
471.12	484.56
471.339	494.56
471.558	483.56
471.777	487.56
471.997	489.56
472.216	483.56
472.435	495.56
472.654	465.56
472.873	467.56
473.092	468.56
473.311	477.56
473.53	472.56
473.749	473.56
473.968	507.56
474.187	619.56
474.406	619.56
474.625	505.56
474.844	475.56
475.063	475.56
475.282	478.56
475.501	471.56
475.72	490.56
475.939	471.56
476.158	485.56
476.377	505.56
476.596	495.56
476.814	498.56
477.033	506.56
477.252	509.56
477.471	495.56
477.69	511.56
477.908	504.56
478.127	534.56
478.346	515.56
478.564	527.56
478.783	554.56
479.002	570.56
479.22	547.56
479.439	581.56
479.658	575.56
479.876	564.56
480.095	586.56
480.313	645.56
480.532	612.56
480.751	603.56
480.969	609.56
481.188	622.56
481.406	621.56
481.624	583.56
481.843	557.56
482.061	552.56
482.28	554.56
482.498	559.56
482.717	541.56
482.935	549.56
483.153	565.56
483.372	543.56
483.59	561.56
483.808	533.56
484.027	554.56
484.245	542.56
484.463	576.56
484.681	554.56
484.9	567.56
485.118	572.56
485.336	565.56
485.554	559.56
485.772	563.56
485.99	574.56
486.209	590.56
486.427	590.56
486.645	566.56
486.863	594.56
487.081	598.56
487.299	597.56
487.517	588.56
487.735	605.56
487.953	594.56
488.171	600.56
488.389	603.56
488.607	605.56
488.825	597.56
489.043	592.56
489.261	611.56
489.479	594.56
489.696	590.56
489.914	597.56
490.132	630.56
490.35	592.56
490.568	608.56
490.786	635.56
491.003	637.56
491.221	638.56
491.439	644.56
491.657	639.56
491.874	658.56
492.092	654.56
492.31	671.56
492.527	662.56
492.745	696.56
492.963	674.56
493.18	687.56
493.398	705.56
493.615	677.56
493.833	690.56
494.05	685.56
494.268	695.56
494.485	689.56
494.703	693.56
494.92	664.56
495.138	687.56
495.355	689.56
495.573	708.56
495.79	699.56
496.008	692.56
496.225	715.56
496.442	695.56
496.66	709.56
496.877	705.56
497.094	713.56
497.312	731.56
497.529	750.56
497.746	744.56
497.963	781.56
498.181	786.56
498.398	819.56
498.615	815.56
498.832	817.56
499.049	861.56
499.267	873.56
499.484	944.56
499.701	991.56
499.918	1078.56
500.135	1075.56
500.352	1171.56
500.569	1198.56
500.786	1237.56
501.003	1163.56
501.22	1105.56
501.437	1027.56
501.654	1028.56
501.871	962.56
