Data from 1985.PennyLincolnUp.Lamp.En5.5.200Scan.071819.P1_HRD10591_17-03-55-971.txt Node
Date: Thu Jul 18 17:03:55 EDT 2019
User: cochatt
Spectrometer: HR+D1059
Trigger mode: 1
Integration Time (sec): 1.000000E-1
Scans to average: 1
Electric dark correction enabled: true
Nonlinearity correction enabled: false
Boxcar width: 0
XAxis mode: Wavelengths
Number of Pixels in Spectrum: 2048
>>>>>Begin Spectral Data<<<<<
223.165	-9.94
223.4	-9.94
223.635	-9.94
223.869	-14.94
224.104	-18.94
224.338	-12.94
224.573	-5.94
224.808	-10.94
225.042	0.06
225.277	-6.94
225.511	-4.94
225.746	6.06
225.98	3.06
226.215	-2.94
226.449	10.06
226.683	20.06
226.918	17.06
227.152	32.06
227.387	45.06
227.621	49.06
227.856	57.06
228.09	62.06
228.324	53.06
228.559	51.06
228.793	72.06
229.027	103.06
229.262	102.06
229.496	102.06
229.73	126.06
229.964	143.06
230.199	121.06
230.433	116.06
230.667	104.06
230.901	114.06
231.136	120.06
231.37	119.06
231.604	128.06
231.838	116.06
232.072	126.06
232.306	122.06
232.541	101.06
232.775	126.06
233.009	119.06
233.243	125.06
233.477	115.06
233.711	121.06
233.945	121.06
234.179	120.06
234.413	123.06
234.647	127.06
234.881	123.06
235.115	124.06
235.349	132.06
235.583	110.06
235.817	120.06
236.051	115.06
236.285	145.06
236.519	130.06
236.753	151.06
236.987	147.06
237.221	186.06
237.455	220.06
237.689	177.06
237.922	143.06
238.156	148.06
238.39	135.06
238.624	132.06
238.858	126.06
239.091	128.06
239.325	140.06
239.559	112.06
239.793	124.06
240.027	141.06
240.26	146.06
240.494	155.06
240.728	148.06
240.961	161.06
241.195	161.06
241.429	148.06
241.662	142.06
241.896	145.06
242.13	135.06
242.363	144.06
242.597	139.06
242.83	144.06
243.064	154.06
243.298	158.06
243.531	147.06
243.765	152.06
243.998	155.06
244.232	152.06
244.465	155.06
244.699	174.06
244.932	152.06
245.166	179.06
245.399	179.06
245.633	158.06
245.866	156.06
246.099	143.06
246.333	165.06
246.566	159.06
246.8	170.06
247.033	189.06
247.266	156.06
247.5	170.06
247.733	179.06
247.966	189.06
248.2	174.06
248.433	175.06
248.666	187.06
248.899	190.06
249.133	210.06
249.366	203.06
249.599	197.06
249.832	204.06
250.066	195.06
250.299	179.06
250.532	190.06
250.765	226.06
250.998	244.06
251.231	242.06
251.465	217.06
251.698	201.06
251.931	230.06
252.164	215.06
252.397	218.06
252.63	210.06
252.863	220.06
253.096	211.06
253.329	243.06
253.562	230.06
253.795	225.06
254.028	252.06
254.261	219.06
254.494	236.06
254.727	250.06
254.96	273.06
255.193	260.06
255.426	262.06
255.659	246.06
255.892	251.06
256.124	257.06
256.357	246.06
256.59	235.06
256.823	241.06
257.056	220.06
257.289	216.06
257.521	233.06
257.754	225.06
257.987	226.06
258.22	232.06
258.452	231.06
258.685	244.06
258.918	240.06
259.151	235.06
259.383	229.06
259.616	242.06
259.849	251.06
260.081	258.06
260.314	256.06
260.547	247.06
260.779	252.06
261.012	254.06
261.244	246.06
261.477	238.06
261.71	234.06
261.942	244.06
262.175	259.06
262.407	259.06
262.64	244.06
262.872	228.06
263.105	216.06
263.337	235.06
263.57	238.06
263.802	250.06
264.035	240.06
264.267	244.06
264.499	226.06
264.732	235.06
264.964	227.06
265.197	223.06
265.429	223.06
265.661	239.06
265.894	239.06
266.126	234.06
266.358	240.06
266.591	257.06
266.823	253.06
267.055	237.06
267.287	244.06
267.52	254.06
267.752	255.06
267.984	256.06
268.216	260.06
268.448	263.06
268.681	272.06
268.913	284.06
269.145	299.06
269.377	290.06
269.609	305.06
269.841	287.06
270.073	318.06
270.306	316.06
270.538	323.06
270.77	332.06
271.002	312.06
271.234	317.06
271.466	334.06
271.698	339.06
271.93	333.06
272.162	339.06
272.394	330.06
272.626	310.06
272.858	316.06
273.09	314.06
273.322	284.06
273.553	297.06
273.785	268.06
274.017	283.06
274.249	292.06
274.481	275.06
274.713	307.06
274.945	304.06
275.176	290.06
275.408	282.06
275.64	307.06
275.872	298.06
276.104	293.06
276.335	283.06
276.567	310.06
276.799	314.06
277.031	333.06
277.262	343.06
277.494	354.06
277.726	328.06
277.957	333.06
278.189	329.06
278.421	295.06
278.652	304.06
278.884	321.06
279.115	307.06
279.347	313.06
279.579	292.06
279.81	297.06
280.042	304.06
280.273	293.06
280.505	299.06
280.736	291.06
280.968	290.06
281.199	296.06
281.431	297.06
281.662	297.06
281.894	305.06
282.125	303.06
282.356	315.06
282.588	338.06
282.819	350.06
283.051	314.06
283.282	325.06
283.513	320.06
283.745	325.06
283.976	330.06
284.207	324.06
284.439	342.06
284.67	334.06
284.901	306.06
285.132	325.06
285.364	315.06
285.595	328.06
285.826	318.06
286.057	339.06
286.288	329.06
286.52	330.06
286.751	337.06
286.982	326.06
287.213	327.06
287.444	330.06
287.675	340.06
287.906	328.06
288.138	337.06
288.369	335.06
288.6	337.06
288.831	347.06
289.062	337.06
289.293	346.06
289.524	327.06
289.755	329.06
289.986	341.06
290.217	332.06
290.448	326.06
290.679	335.06
290.91	330.06
291.141	340.06
291.371	334.06
291.602	363.06
291.833	328.06
292.064	335.06
292.295	344.06
292.526	344.06
292.757	360.06
292.987	338.06
293.218	339.06
293.449	340.06
293.68	344.06
293.91	338.06
294.141	335.06
294.372	326.06
294.603	344.06
294.833	340.06
295.064	338.06
295.295	327.06
295.525	330.06
295.756	333.06
295.987	359.06
296.217	378.06
296.448	392.06
296.679	373.06
296.909	345.06
297.14	369.06
297.37	358.06
297.601	351.06
297.831	353.06
298.062	351.06
298.292	357.06
298.523	353.06
298.753	364.06
298.984	344.06
299.214	364.06
299.445	361.06
299.675	386.06
299.905	375.06
300.136	361.06
300.366	360.06
300.597	356.06
300.827	380.06
301.057	377.06
301.288	375.06
301.518	375.06
301.748	382.06
301.979	367.06
302.209	382.06
302.439	374.06
302.669	388.06
302.9	365.06
303.13	386.06
303.36	414.06
303.59	385.06
303.82	387.06
304.051	389.06
304.281	393.06
304.511	375.06
304.741	378.06
304.971	387.06
305.201	388.06
305.431	371.06
305.661	384.06
305.891	372.06
306.121	382.06
306.352	402.06
306.582	384.06
306.812	375.06
307.042	379.06
307.272	388.06
307.502	394.06
307.731	385.06
307.961	395.06
308.191	395.06
308.421	386.06
308.651	393.06
308.881	391.06
309.111	402.06
309.341	391.06
309.571	410.06
309.8	383.06
310.03	414.06
310.26	408.06
310.49	420.06
310.72	426.06
310.949	451.06
311.179	450.06
311.409	443.06
311.639	441.06
311.868	446.06
312.098	429.06
312.328	451.06
312.557	451.06
312.787	447.06
313.017	457.06
313.246	446.06
313.476	444.06
313.706	452.06
313.935	441.06
314.165	454.06
314.394	465.06
314.624	445.06
314.853	442.06
315.083	443.06
315.312	461.06
315.542	447.06
315.771	431.06
316.001	412.06
316.23	415.06
316.46	437.06
316.689	427.06
316.919	426.06
317.148	446.06
317.377	440.06
317.607	456.06
317.836	449.06
318.065	439.06
318.295	442.06
318.524	429.06
318.753	406.06
318.983	437.06
319.212	433.06
319.441	439.06
319.67	451.06
319.9	442.06
320.129	440.06
320.358	449.06
320.587	447.06
320.816	450.06
321.046	458.06
321.275	460.06
321.504	438.06
321.733	459.06
321.962	461.06
322.191	479.06
322.42	479.06
322.649	492.06
322.878	500.06
323.108	506.06
323.337	528.06
323.566	528.06
323.795	580.06
324.024	633.06
324.253	701.06
324.482	1027.06
324.71	1560.06
324.939	2127.06
325.168	1801.06
325.397	935.06
325.626	680.06
325.855	593.06
326.084	566.06
326.313	574.06
326.542	563.06
326.77	591.06
326.999	666.06
327.228	931.06
327.457	1344.06
327.686	1600.06
327.914	1068.06
328.143	785.06
328.372	672.06
328.6	635.06
328.829	593.06
329.058	616.06
329.287	644.06
329.515	619.06
329.744	600.06
329.972	578.06
330.201	607.06
330.43	640.06
330.658	646.06
330.887	660.06
331.115	629.06
331.344	595.06
331.572	538.06
331.801	558.06
332.03	551.06
332.258	542.06
332.486	530.06
332.715	543.06
332.943	552.06
333.172	553.06
333.4	544.06
333.629	589.06
333.857	616.06
334.085	586.06
334.314	616.06
334.542	660.06
334.771	694.06
334.999	594.06
335.227	571.06
335.455	545.06
335.684	545.06
335.912	538.06
336.14	540.06
336.369	508.06
336.597	529.06
336.825	538.06
337.053	498.06
337.281	514.06
337.51	510.06
337.738	536.06
337.966	523.06
338.194	538.06
338.422	503.06
338.65	490.06
338.878	502.06
339.106	499.06
339.334	498.06
339.562	487.06
339.79	474.06
340.018	490.06
340.246	504.06
340.474	524.06
340.702	515.06
340.93	504.06
341.158	502.06
341.386	499.06
341.614	480.06
341.842	465.06
342.07	494.06
342.298	469.06
342.526	473.06
342.754	493.06
342.981	482.06
343.209	468.06
343.437	478.06
343.665	493.06
343.893	542.06
344.12	537.06
344.348	503.06
344.576	514.06
344.804	529.06
345.031	507.06
345.259	527.06
345.487	519.06
345.714	503.06
345.942	484.06
346.17	478.06
346.397	464.06
346.625	484.06
346.853	474.06
347.08	456.06
347.308	492.06
347.535	486.06
347.763	483.06
347.99	485.06
348.218	489.06
348.445	468.06
348.673	483.06
348.9	442.06
349.128	445.06
349.355	458.06
349.583	452.06
349.81	467.06
350.037	465.06
350.265	449.06
350.492	453.06
350.72	466.06
350.947	442.06
351.174	468.06
351.402	493.06
351.629	478.06
351.856	483.06
352.083	489.06
352.311	466.06
352.538	482.06
352.765	476.06
352.992	466.06
353.22	450.06
353.447	479.06
353.674	458.06
353.901	435.06
354.128	448.06
354.355	430.06
354.583	446.06
354.81	446.06
355.037	450.06
355.264	430.06
355.491	431.06
355.718	439.06
355.945	449.06
356.172	431.06
356.399	417.06
356.626	424.06
356.853	446.06
357.08	438.06
357.307	448.06
357.534	438.06
357.761	435.06
357.988	451.06
358.215	443.06
358.441	441.06
358.668	442.06
358.895	420.06
359.122	422.06
359.349	454.06
359.576	474.06
359.802	469.06
360.029	478.06
360.256	497.06
360.483	493.06
360.709	470.06
360.936	448.06
361.163	467.06
361.39	457.06
361.616	449.06
361.843	453.06
362.07	453.06
362.296	467.06
362.523	438.06
362.749	441.06
362.976	449.06
363.203	429.06
363.429	451.06
363.656	442.06
363.882	442.06
364.109	454.06
364.335	444.06
364.562	453.06
364.788	432.06
365.015	428.06
365.241	447.06
365.468	445.06
365.694	459.06
365.92	420.06
366.147	430.06
366.373	447.06
366.599	436.06
366.826	444.06
367.052	434.06
367.278	424.06
367.505	474.06
367.731	442.06
367.957	438.06
368.184	442.06
368.41	453.06
368.636	450.06
368.862	448.06
369.089	444.06
369.315	446.06
369.541	456.06
369.767	434.06
369.993	423.06
370.219	442.06
370.445	454.06
370.672	448.06
370.898	446.06
371.124	418.06
371.35	447.06
371.576	435.06
371.802	451.06
372.028	438.06
372.254	447.06
372.48	449.06
372.706	444.06
372.932	457.06
373.158	436.06
373.384	455.06
373.61	440.06
373.835	463.06
374.061	456.06
374.287	456.06
374.513	472.06
374.739	453.06
374.965	457.06
375.191	456.06
375.416	464.06
375.642	438.06
375.868	452.06
376.094	467.06
376.319	429.06
376.545	435.06
376.771	436.06
376.997	483.06
377.222	450.06
377.448	450.06
377.674	435.06
377.899	432.06
378.125	423.06
378.35	470.06
378.576	429.06
378.802	432.06
379.027	439.06
379.253	444.06
379.478	408.06
379.704	416.06
379.929	452.06
380.155	426.06
380.38	432.06
380.606	424.06
380.831	440.06
381.057	442.06
381.282	431.06
381.507	450.06
381.733	440.06
381.958	429.06
382.184	432.06
382.409	463.06
382.634	473.06
382.86	449.06
383.085	451.06
383.31	467.06
383.535	450.06
383.761	480.06
383.986	485.06
384.211	470.06
384.436	466.06
384.662	478.06
384.887	504.06
385.112	487.06
385.337	476.06
385.562	494.06
385.787	472.06
386.013	479.06
386.238	491.06
386.463	506.06
386.688	514.06
386.913	489.06
387.138	476.06
387.363	502.06
387.588	482.06
387.813	496.06
388.038	488.06
388.263	496.06
388.488	496.06
388.713	511.06
388.938	489.06
389.163	474.06
389.387	512.06
389.612	479.06
389.837	482.06
390.062	479.06
390.287	505.06
390.512	476.06
390.736	462.06
390.961	481.06
391.186	510.06
391.411	495.06
391.636	502.06
391.86	507.06
392.085	510.06
392.31	508.06
392.534	492.06
392.759	506.06
392.984	500.06
393.208	504.06
393.433	489.06
393.658	495.06
393.882	480.06
394.107	493.06
394.331	487.06
394.556	507.06
394.78	517.06
395.005	518.06
395.229	494.06
395.454	536.06
395.678	507.06
395.903	531.06
396.127	517.06
396.352	537.06
396.576	528.06
396.801	516.06
397.025	517.06
397.249	511.06
397.474	527.06
397.698	531.06
397.922	545.06
398.147	566.06
398.371	554.06
398.595	568.06
398.82	561.06
399.044	589.06
399.268	597.06
399.492	649.06
399.717	713.06
399.941	711.06
400.165	729.06
400.389	707.06
400.613	664.06
400.837	581.06
401.062	587.06
401.286	557.06
401.51	578.06
401.734	572.06
401.958	579.06
402.182	584.06
402.406	595.06
402.63	585.06
402.854	580.06
403.078	586.06
403.302	587.06
403.526	586.06
403.75	593.06
403.974	628.06
404.198	585.06
404.422	618.06
404.645	610.06
404.869	615.06
405.093	653.06
405.317	692.06
405.541	724.06
405.765	668.06
405.988	630.06
406.212	643.06
406.436	682.06
406.66	664.06
406.883	630.06
407.107	656.06
407.331	708.06
407.555	785.06
407.778	762.06
408.002	711.06
408.226	679.06
408.449	648.06
408.673	655.06
408.896	662.06
409.12	711.06
409.344	709.06
409.567	602.06
409.791	615.06
410.014	591.06
410.238	585.06
410.461	579.06
410.685	598.06
410.908	601.06
411.132	635.06
411.355	644.06
411.578	622.06
411.802	594.06
412.025	595.06
412.249	622.06
412.472	637.06
412.695	666.06
412.919	642.06
413.142	590.06
413.365	602.06
413.589	561.06
413.812	573.06
414.035	574.06
414.258	571.06
414.482	571.06
414.705	544.06
414.928	552.06
415.151	552.06
415.374	572.06
415.597	554.06
415.821	534.06
416.044	546.06
416.267	530.06
416.49	542.06
416.713	548.06
416.936	540.06
417.159	560.06
417.382	566.06
417.605	560.06
417.828	562.06
418.051	587.06
418.274	563.06
418.497	566.06
418.72	566.06
418.943	571.06
419.166	555.06
419.389	612.06
419.611	600.06
419.834	567.06
420.057	604.06
420.28	601.06
420.503	602.06
420.726	576.06
420.948	588.06
421.171	591.06
421.394	618.06
421.617	593.06
421.839	581.06
422.062	563.06
422.285	589.06
422.507	652.06
422.73	722.06
422.953	699.06
423.175	608.06
423.398	616.06
423.621	613.06
423.843	608.06
424.066	584.06
424.288	625.06
424.511	634.06
424.733	688.06
424.956	749.06
425.178	719.06
425.401	724.06
425.623	720.06
425.846	623.06
426.068	617.06
426.291	580.06
426.513	597.06
426.735	582.06
426.958	607.06
427.18	733.06
427.402	840.06
427.625	927.06
427.847	812.06
428.069	727.06
428.292	648.06
428.514	589.06
428.736	568.06
428.958	534.06
429.181	556.06
429.403	542.06
429.625	537.06
429.847	584.06
430.069	657.06
430.292	646.06
430.514	562.06
430.736	552.06
430.958	533.06
431.18	543.06
431.402	556.06
431.624	519.06
431.846	518.06
432.068	513.06
432.29	532.06
432.512	529.06
432.734	504.06
432.956	513.06
433.178	536.06
433.4	530.06
433.622	514.06
433.844	515.06
434.066	532.06
434.287	523.06
434.509	546.06
434.731	554.06
434.953	562.06
435.175	553.06
435.397	598.06
435.618	585.06
435.84	619.06
436.062	732.06
436.284	780.06
436.505	650.06
436.727	603.06
436.949	568.06
437.17	550.06
437.392	524.06
437.614	527.06
437.835	584.06
438.057	689.06
438.278	760.06
438.5	778.06
438.721	842.06
438.943	802.06
439.165	601.06
439.386	595.06
439.608	578.06
439.829	584.06
440.05	616.06
440.272	656.06
440.493	610.06
440.715	553.06
440.936	568.06
441.158	568.06
441.379	554.06
441.6	562.06
441.822	590.06
442.043	622.06
442.264	698.06
442.486	722.06
442.707	655.06
442.928	592.06
443.149	610.06
443.371	612.06
443.592	683.06
443.813	772.06
444.034	843.06
444.255	710.06
444.476	636.06
444.698	607.06
444.919	621.06
445.14	742.06
445.361	685.06
445.582	648.06
445.803	711.06
446.024	801.06
446.245	774.06
446.466	704.06
446.687	635.06
446.908	568.06
447.129	568.06
447.35	531.06
447.571	540.06
447.792	535.06
448.013	543.06
448.234	553.06
448.455	592.06
448.675	708.06
448.896	807.06
449.117	689.06
449.338	636.06
449.559	762.06
449.779	880.06
450	662.06
450.221	586.06
450.442	558.06
450.662	531.06
450.883	508.06
451.104	548.06
451.324	531.06
451.545	520.06
451.766	508.06
451.986	483.06
452.207	470.06
452.428	471.06
452.648	483.06
452.869	484.06
453.089	508.06
453.31	501.06
453.53	488.06
453.751	478.06
453.971	519.06
454.192	513.06
454.412	492.06
454.633	476.06
454.853	486.06
455.073	473.06
455.294	509.06
455.514	582.06
455.734	548.06
455.955	488.06
456.175	465.06
456.395	462.06
456.616	454.06
456.836	446.06
457.056	469.06
457.276	426.06
457.497	434.06
457.717	473.06
457.937	455.06
458.157	477.06
458.377	481.06
458.598	479.06
458.818	551.06
459.038	636.06
459.258	640.06
459.478	570.06
459.698	519.06
459.918	530.06
460.138	543.06
460.358	536.06
460.578	550.06
460.798	553.06
461.018	568.06
461.238	562.06
461.458	546.06
461.678	548.06
461.898	559.06
462.118	541.06
462.338	579.06
462.558	582.06
462.777	607.06
462.997	635.06
463.217	648.06
463.437	642.06
463.657	610.06
463.876	584.06
464.096	607.06
464.316	597.06
464.536	602.06
464.755	622.06
464.975	612.06
465.195	619.06
465.414	674.06
465.634	601.06
465.854	540.06
466.073	525.06
466.293	503.06
466.512	524.06
466.732	514.06
466.951	499.06
467.171	514.06
467.391	509.06
467.61	500.06
467.829	530.06
468.049	516.06
468.268	553.06
468.488	510.06
468.707	477.06
468.927	494.06
469.146	498.06
469.365	476.06
469.585	482.06
469.804	491.06
470.023	522.06
470.243	504.06
470.462	496.06
470.681	557.06
470.901	528.06
471.12	490.06
471.339	505.06
471.558	523.06
471.777	533.06
471.997	502.06
472.216	512.06
472.435	580.06
472.654	546.06
472.873	509.06
473.092	508.06
473.311	491.06
473.53	508.06
473.749	516.06
473.968	544.06
474.187	642.06
474.406	642.06
474.625	571.06
474.844	528.06
475.063	516.06
475.282	491.06
475.501	506.06
475.72	502.06
475.939	514.06
476.158	511.06
476.377	512.06
476.596	533.06
476.814	526.06
477.033	540.06
477.252	554.06
477.471	538.06
477.69	541.06
477.908	553.06
478.127	558.06
478.346	570.06
478.564	590.06
478.783	607.06
479.002	598.06
479.22	578.06
479.439	579.06
479.658	597.06
479.876	603.06
480.095	639.06
480.313	638.06
480.532	638.06
480.751	649.06
480.969	619.06
481.188	688.06
481.406	747.06
481.624	660.06
481.843	634.06
482.061	616.06
482.28	602.06
482.498	593.06
482.717	588.06
482.935	587.06
483.153	570.06
483.372	600.06
483.59	590.06
483.808	600.06
484.027	586.06
484.245	576.06
484.463	600.06
484.681	580.06
484.9	614.06
485.118	615.06
485.336	604.06
485.554	591.06
485.772	621.06
485.99	611.06
486.209	640.06
486.427	627.06
486.645	622.06
486.863	640.06
487.081	631.06
487.299	632.06
487.517	643.06
487.735	646.06
487.953	603.06
488.171	613.06
488.389	635.06
488.607	623.06
488.825	652.06
489.043	636.06
489.261	649.06
489.479	631.06
489.696	638.06
489.914	647.06
490.132	639.06
490.35	659.06
490.568	657.06
490.786	681.06
491.003	690.06
491.221	706.06
491.439	740.06
491.657	733.06
491.874	710.06
492.092	717.06
492.31	733.06
492.527	739.06
492.745	761.06
492.963	745.06
493.18	776.06
493.398	748.06
493.615	752.06
493.833	744.06
494.05	751.06
494.268	738.06
494.485	747.06
494.703	737.06
494.92	746.06
495.138	771.06
495.355	754.06
495.573	742.06
495.79	723.06
496.008	744.06
496.225	752.06
496.442	750.06
496.66	746.06
496.877	766.06
497.094	767.06
497.312	776.06
497.529	786.06
497.746	783.06
497.963	798.06
498.181	812.06
498.398	858.06
498.615	880.06
498.832	915.06
499.049	898.06
499.267	971.06
499.484	1004.06
499.701	1047.06
499.918	1078.06
500.135	1147.06
500.352	1246.06
500.569	1278.06
500.786	1284.06
501.003	1223.06
501.22	1167.06
501.437	1121.06
501.654	1051.06
501.871	1022.06
