Data from 1985.PennyLincolnUp.Lamp.En5.5.200Scan.071819.P1_HRD10591_17-01-53-970.txt Node
Date: Thu Jul 18 17:01:53 EDT 2019
User: cochatt
Spectrometer: HR+D1059
Trigger mode: 1
Integration Time (sec): 1.000000E-1
Scans to average: 1
Electric dark correction enabled: true
Nonlinearity correction enabled: false
Boxcar width: 0
XAxis mode: Wavelengths
Number of Pixels in Spectrum: 2048
>>>>>Begin Spectral Data<<<<<
223.165	-11.44
223.4	-11.44
223.635	-11.44
223.869	-19.44
224.104	-21.44
224.338	-5.44
224.573	-17.44
224.808	-19.44
225.042	-4.44
225.277	2.56
225.511	-8.44
225.746	-11.44
225.98	5.56
226.215	19.56
226.449	26.56
226.683	11.56
226.918	22.56
227.152	30.56
227.387	40.56
227.621	28.56
227.856	23.56
228.09	53.56
228.324	42.56
228.559	55.56
228.793	62.56
229.027	94.56
229.262	101.56
229.496	106.56
229.73	124.56
229.964	139.56
230.199	128.56
230.433	124.56
230.667	125.56
230.901	106.56
231.136	120.56
231.37	108.56
231.604	127.56
231.838	124.56
232.072	114.56
232.306	106.56
232.541	104.56
232.775	116.56
233.009	119.56
233.243	132.56
233.477	119.56
233.711	96.56
233.945	123.56
234.179	130.56
234.413	129.56
234.647	127.56
234.881	129.56
235.115	118.56
235.349	121.56
235.583	118.56
235.817	116.56
236.051	130.56
236.285	120.56
236.519	122.56
236.753	124.56
236.987	149.56
237.221	183.56
237.455	230.56
237.689	162.56
237.922	122.56
238.156	146.56
238.39	142.56
238.624	122.56
238.858	122.56
239.091	117.56
239.325	138.56
239.559	139.56
239.793	130.56
240.027	150.56
240.26	139.56
240.494	143.56
240.728	147.56
240.961	155.56
241.195	142.56
241.429	142.56
241.662	132.56
241.896	134.56
242.13	127.56
242.363	128.56
242.597	133.56
242.83	148.56
243.064	130.56
243.298	141.56
243.531	134.56
243.765	140.56
243.998	136.56
244.232	143.56
244.465	160.56
244.699	148.56
244.932	145.56
245.166	137.56
245.399	150.56
245.633	144.56
245.866	156.56
246.099	153.56
246.333	164.56
246.566	152.56
246.8	142.56
247.033	150.56
247.266	162.56
247.5	168.56
247.733	168.56
247.966	166.56
248.2	191.56
248.433	169.56
248.666	172.56
248.899	190.56
249.133	191.56
249.366	203.56
249.599	171.56
249.832	160.56
250.066	170.56
250.299	186.56
250.532	173.56
250.765	201.56
250.998	205.56
251.231	220.56
251.465	205.56
251.698	163.56
251.931	194.56
252.164	189.56
252.397	181.56
252.63	200.56
252.863	190.56
253.096	207.56
253.329	218.56
253.562	213.56
253.795	187.56
254.028	213.56
254.261	206.56
254.494	229.56
254.727	244.56
254.96	270.56
255.193	246.56
255.426	225.56
255.659	216.56
255.892	213.56
256.124	216.56
256.357	219.56
256.59	211.56
256.823	212.56
257.056	205.56
257.289	196.56
257.521	205.56
257.754	197.56
257.987	197.56
258.22	197.56
258.452	215.56
258.685	196.56
258.918	182.56
259.151	194.56
259.383	228.56
259.616	218.56
259.849	218.56
260.081	219.56
260.314	244.56
260.547	228.56
260.779	246.56
261.012	228.56
261.244	231.56
261.477	226.56
261.71	211.56
261.942	221.56
262.175	226.56
262.407	239.56
262.64	227.56
262.872	214.56
263.105	216.56
263.337	208.56
263.57	207.56
263.802	212.56
264.035	234.56
264.267	218.56
264.499	213.56
264.732	220.56
264.964	227.56
265.197	220.56
265.429	247.56
265.661	215.56
265.894	211.56
266.126	217.56
266.358	217.56
266.591	230.56
266.823	239.56
267.055	215.56
267.287	245.56
267.52	234.56
267.752	244.56
267.984	260.56
268.216	246.56
268.448	266.56
268.681	259.56
268.913	242.56
269.145	270.56
269.377	284.56
269.609	265.56
269.841	260.56
270.073	281.56
270.306	289.56
270.538	309.56
270.77	319.56
271.002	317.56
271.234	298.56
271.466	306.56
271.698	304.56
271.93	298.56
272.162	301.56
272.394	303.56
272.626	302.56
272.858	294.56
273.09	281.56
273.322	282.56
273.553	258.56
273.785	272.56
274.017	266.56
274.249	271.56
274.481	269.56
274.713	276.56
274.945	284.56
275.176	278.56
275.408	278.56
275.64	271.56
275.872	271.56
276.104	291.56
276.335	280.56
276.567	283.56
276.799	288.56
277.031	317.56
277.262	331.56
277.494	340.56
277.726	318.56
277.957	296.56
278.189	293.56
278.421	298.56
278.652	309.56
278.884	284.56
279.115	276.56
279.347	283.56
279.579	289.56
279.81	291.56
280.042	280.56
280.273	287.56
280.505	275.56
280.736	307.56
280.968	292.56
281.199	285.56
281.431	301.56
281.662	280.56
281.894	274.56
282.125	301.56
282.356	306.56
282.588	326.56
282.819	317.56
283.051	301.56
283.282	299.56
283.513	315.56
283.745	287.56
283.976	301.56
284.207	319.56
284.439	300.56
284.67	310.56
284.901	295.56
285.132	300.56
285.364	310.56
285.595	307.56
285.826	292.56
286.057	306.56
286.288	310.56
286.52	296.56
286.751	300.56
286.982	322.56
287.213	322.56
287.444	313.56
287.675	309.56
287.906	339.56
288.138	323.56
288.369	319.56
288.6	339.56
288.831	330.56
289.062	320.56
289.293	303.56
289.524	320.56
289.755	319.56
289.986	319.56
290.217	311.56
290.448	316.56
290.679	319.56
290.91	299.56
291.141	319.56
291.371	320.56
291.602	322.56
291.833	324.56
292.064	333.56
292.295	324.56
292.526	308.56
292.757	323.56
292.987	327.56
293.218	317.56
293.449	322.56
293.68	316.56
293.91	334.56
294.141	333.56
294.372	328.56
294.603	323.56
294.833	327.56
295.064	317.56
295.295	336.56
295.525	323.56
295.756	336.56
295.987	333.56
296.217	352.56
296.448	365.56
296.679	347.56
296.909	318.56
297.14	324.56
297.37	314.56
297.601	335.56
297.831	329.56
298.062	341.56
298.292	331.56
298.523	360.56
298.753	335.56
298.984	340.56
299.214	354.56
299.445	355.56
299.675	335.56
299.905	357.56
300.136	342.56
300.366	351.56
300.597	370.56
300.827	370.56
301.057	370.56
301.288	374.56
301.518	356.56
301.748	347.56
301.979	363.56
302.209	360.56
302.439	365.56
302.669	366.56
302.9	367.56
303.13	362.56
303.36	373.56
303.59	357.56
303.82	364.56
304.051	382.56
304.281	338.56
304.511	364.56
304.741	364.56
304.971	379.56
305.201	366.56
305.431	376.56
305.661	372.56
305.891	363.56
306.121	360.56
306.352	380.56
306.582	353.56
306.812	370.56
307.042	365.56
307.272	374.56
307.502	356.56
307.731	349.56
307.961	376.56
308.191	370.56
308.421	380.56
308.651	371.56
308.881	355.56
309.111	372.56
309.341	384.56
309.571	381.56
309.8	379.56
310.03	387.56
310.26	379.56
310.49	380.56
310.72	404.56
310.949	424.56
311.179	414.56
311.409	402.56
311.639	374.56
311.868	426.56
312.098	410.56
312.328	420.56
312.557	408.56
312.787	437.56
313.017	419.56
313.246	408.56
313.476	411.56
313.706	405.56
313.935	408.56
314.165	420.56
314.394	413.56
314.624	411.56
314.853	406.56
315.083	406.56
315.312	406.56
315.542	403.56
315.771	411.56
316.001	415.56
316.23	396.56
316.46	416.56
316.689	421.56
316.919	405.56
317.148	406.56
317.377	431.56
317.607	427.56
317.836	423.56
318.065	418.56
318.295	421.56
318.524	410.56
318.753	398.56
318.983	404.56
319.212	397.56
319.441	410.56
319.67	443.56
319.9	422.56
320.129	425.56
320.358	397.56
320.587	429.56
320.816	413.56
321.046	435.56
321.275	436.56
321.504	422.56
321.733	437.56
321.962	420.56
322.191	440.56
322.42	454.56
322.649	464.56
322.878	456.56
323.108	467.56
323.337	469.56
323.566	529.56
323.795	543.56
324.024	564.56
324.253	638.56
324.482	891.56
324.71	1292.56
324.939	1833.56
325.168	1561.56
325.397	845.56
325.626	636.56
325.855	548.56
326.084	534.56
326.313	515.56
326.542	523.56
326.77	554.56
326.999	618.56
327.228	823.56
327.457	1194.56
327.686	1352.56
327.914	948.56
328.143	677.56
328.372	605.56
328.6	559.56
328.829	549.56
329.058	563.56
329.287	552.56
329.515	574.56
329.744	526.56
329.972	505.56
330.201	506.56
330.43	523.56
330.658	535.56
330.887	585.56
331.115	581.56
331.344	525.56
331.572	520.56
331.801	480.56
332.03	510.56
332.258	507.56
332.486	513.56
332.715	489.56
332.943	502.56
333.172	510.56
333.4	493.56
333.629	491.56
333.857	526.56
334.085	524.56
334.314	544.56
334.542	528.56
334.771	529.56
334.999	499.56
335.227	512.56
335.455	509.56
335.684	493.56
335.912	510.56
336.14	478.56
336.369	484.56
336.597	500.56
336.825	498.56
337.053	495.56
337.281	499.56
337.51	486.56
337.738	516.56
337.966	489.56
338.194	482.56
338.422	482.56
338.65	474.56
338.878	483.56
339.106	474.56
339.334	468.56
339.562	466.56
339.79	452.56
340.018	471.56
340.246	464.56
340.474	473.56
340.702	477.56
340.93	469.56
341.158	449.56
341.386	461.56
341.614	475.56
341.842	492.56
342.07	443.56
342.298	447.56
342.526	452.56
342.754	459.56
342.981	439.56
343.209	451.56
343.437	460.56
343.665	486.56
343.893	503.56
344.12	492.56
344.348	506.56
344.576	471.56
344.804	487.56
345.031	456.56
345.259	472.56
345.487	448.56
345.714	468.56
345.942	470.56
346.17	429.56
346.397	442.56
346.625	442.56
346.853	421.56
347.08	442.56
347.308	452.56
347.535	442.56
347.763	445.56
347.99	454.56
348.218	442.56
348.445	454.56
348.673	475.56
348.9	447.56
349.128	435.56
349.355	414.56
349.583	414.56
349.81	440.56
350.037	435.56
350.265	424.56
350.492	442.56
350.72	439.56
350.947	436.56
351.174	452.56
351.402	446.56
351.629	436.56
351.856	430.56
352.083	422.56
352.311	429.56
352.538	450.56
352.765	446.56
352.992	447.56
353.22	438.56
353.447	456.56
353.674	430.56
353.901	422.56
354.128	400.56
354.355	422.56
354.583	421.56
354.81	407.56
355.037	418.56
355.264	430.56
355.491	424.56
355.718	408.56
355.945	440.56
356.172	411.56
356.399	431.56
356.626	407.56
356.853	393.56
357.08	386.56
357.307	413.56
357.534	413.56
357.761	416.56
357.988	414.56
358.215	427.56
358.441	414.56
358.668	400.56
358.895	429.56
359.122	414.56
359.349	442.56
359.576	442.56
359.802	435.56
360.029	474.56
360.256	463.56
360.483	448.56
360.709	418.56
360.936	437.56
361.163	414.56
361.39	425.56
361.616	444.56
361.843	447.56
362.07	426.56
362.296	428.56
362.523	431.56
362.749	434.56
362.976	422.56
363.203	438.56
363.429	423.56
363.656	408.56
363.882	428.56
364.109	412.56
364.335	407.56
364.562	416.56
364.788	410.56
365.015	422.56
365.241	428.56
365.468	431.56
365.694	451.56
365.92	418.56
366.147	407.56
366.373	427.56
366.599	428.56
366.826	431.56
367.052	400.56
367.278	426.56
367.505	420.56
367.731	406.56
367.957	441.56
368.184	413.56
368.41	414.56
368.636	424.56
368.862	431.56
369.089	421.56
369.315	414.56
369.541	416.56
369.767	393.56
369.993	416.56
370.219	409.56
370.445	420.56
370.672	416.56
370.898	429.56
371.124	400.56
371.35	432.56
371.576	414.56
371.802	408.56
372.028	423.56
372.254	415.56
372.48	416.56
372.706	412.56
372.932	419.56
373.158	425.56
373.384	419.56
373.61	416.56
373.835	430.56
374.061	403.56
374.287	420.56
374.513	427.56
374.739	424.56
374.965	455.56
375.191	464.56
375.416	447.56
375.642	428.56
375.868	432.56
376.094	411.56
376.319	432.56
376.545	428.56
376.771	439.56
376.997	406.56
377.222	424.56
377.448	403.56
377.674	411.56
377.899	413.56
378.125	414.56
378.35	409.56
378.576	431.56
378.802	422.56
379.027	451.56
379.253	404.56
379.478	412.56
379.704	420.56
379.929	428.56
380.155	424.56
380.38	419.56
380.606	434.56
380.831	406.56
381.057	435.56
381.282	427.56
381.507	407.56
381.733	439.56
381.958	437.56
382.184	418.56
382.409	438.56
382.634	454.56
382.86	438.56
383.085	436.56
383.31	451.56
383.535	441.56
383.761	466.56
383.986	435.56
384.211	455.56
384.436	447.56
384.662	465.56
384.887	470.56
385.112	453.56
385.337	452.56
385.562	456.56
385.787	464.56
386.013	495.56
386.238	497.56
386.463	484.56
386.688	458.56
386.913	457.56
387.138	481.56
387.363	464.56
387.588	465.56
387.813	459.56
388.038	468.56
388.263	483.56
388.488	468.56
388.713	462.56
388.938	477.56
389.163	460.56
389.387	469.56
389.612	463.56
389.837	454.56
390.062	450.56
390.287	455.56
390.512	467.56
390.736	478.56
390.961	471.56
391.186	466.56
391.411	484.56
391.636	470.56
391.86	486.56
392.085	528.56
392.31	493.56
392.534	491.56
392.759	484.56
392.984	494.56
393.208	465.56
393.433	461.56
393.658	494.56
393.882	481.56
394.107	479.56
394.331	492.56
394.556	461.56
394.78	485.56
395.005	502.56
395.229	506.56
395.454	515.56
395.678	478.56
395.903	493.56
396.127	527.56
396.352	505.56
396.576	480.56
396.801	487.56
397.025	475.56
397.249	496.56
397.474	500.56
397.698	500.56
397.922	501.56
398.147	535.56
398.371	542.56
398.595	528.56
398.82	546.56
399.044	548.56
399.268	579.56
399.492	648.56
399.717	698.56
399.941	682.56
400.165	707.56
400.389	682.56
400.613	616.56
400.837	563.56
401.062	570.56
401.286	560.56
401.51	559.56
401.734	549.56
401.958	575.56
402.182	549.56
402.406	572.56
402.63	561.56
402.854	558.56
403.078	562.56
403.302	544.56
403.526	585.56
403.75	592.56
403.974	590.56
404.198	580.56
404.422	587.56
404.645	575.56
404.869	582.56
405.093	605.56
405.317	613.56
405.541	638.56
405.765	578.56
405.988	573.56
406.212	574.56
406.436	621.56
406.66	632.56
406.883	628.56
407.107	639.56
407.331	691.56
407.555	744.56
407.778	730.56
408.002	671.56
408.226	638.56
408.449	616.56
408.673	622.56
408.896	624.56
409.12	662.56
409.344	629.56
409.567	596.56
409.791	560.56
410.014	567.56
410.238	582.56
410.461	567.56
410.685	572.56
410.908	576.56
411.132	597.56
411.355	629.56
411.578	602.56
411.802	568.56
412.025	565.56
412.249	571.56
412.472	552.56
412.695	560.56
412.919	555.56
413.142	556.56
413.365	524.56
413.589	547.56
413.812	527.56
414.035	533.56
414.258	528.56
414.482	532.56
414.705	519.56
414.928	515.56
415.151	527.56
415.374	529.56
415.597	519.56
415.821	520.56
416.044	535.56
416.267	525.56
416.49	524.56
416.713	508.56
416.936	521.56
417.159	523.56
417.382	516.56
417.605	526.56
417.828	530.56
418.051	554.56
418.274	544.56
418.497	526.56
418.72	533.56
418.943	539.56
419.166	536.56
419.389	567.56
419.611	570.56
419.834	568.56
420.057	564.56
420.28	558.56
420.503	547.56
420.726	543.56
420.948	541.56
421.171	599.56
421.394	630.56
421.617	541.56
421.839	533.56
422.062	551.56
422.285	566.56
422.507	597.56
422.73	670.56
422.953	642.56
423.175	608.56
423.398	590.56
423.621	577.56
423.843	592.56
424.066	592.56
424.288	573.56
424.511	584.56
424.733	635.56
424.956	685.56
425.178	648.56
425.401	683.56
425.623	688.56
425.846	608.56
426.068	591.56
426.291	576.56
426.513	563.56
426.735	555.56
426.958	597.56
427.18	674.56
427.402	800.56
427.625	853.56
427.847	716.56
428.069	613.56
428.292	558.56
428.514	533.56
428.736	521.56
428.958	527.56
429.181	489.56
429.403	513.56
429.625	528.56
429.847	545.56
430.069	617.56
430.292	607.56
430.514	527.56
430.736	531.56
430.958	511.56
431.18	500.56
431.402	504.56
431.624	481.56
431.846	498.56
432.068	493.56
432.29	514.56
432.512	504.56
432.734	513.56
432.956	493.56
433.178	516.56
433.4	525.56
433.622	508.56
433.844	523.56
434.066	504.56
434.287	494.56
434.509	518.56
434.731	518.56
434.953	531.56
435.175	534.56
435.397	563.56
435.618	578.56
435.84	600.56
436.062	666.56
436.284	724.56
436.505	624.56
436.727	580.56
436.949	533.56
437.17	519.56
437.392	504.56
437.614	545.56
437.835	566.56
438.057	642.56
438.278	704.56
438.5	709.56
438.721	776.56
438.943	744.56
439.165	594.56
439.386	564.56
439.608	566.56
439.829	529.56
440.05	602.56
440.272	614.56
440.493	570.56
440.715	576.56
440.936	522.56
441.158	522.56
441.379	544.56
441.6	542.56
441.822	590.56
442.043	595.56
442.264	662.56
442.486	709.56
442.707	604.56
442.928	578.56
443.149	581.56
443.371	606.56
443.592	655.56
443.813	722.56
444.034	778.56
444.255	661.56
444.476	602.56
444.698	615.56
444.919	610.56
445.14	724.56
445.361	640.56
445.582	598.56
445.803	657.56
446.024	738.56
446.245	733.56
446.466	675.56
446.687	592.56
446.908	572.56
447.129	504.56
447.35	520.56
447.571	495.56
447.792	487.56
448.013	511.56
448.234	532.56
448.455	569.56
448.675	679.56
448.896	772.56
449.117	673.56
449.338	610.56
449.559	737.56
449.779	815.56
450	650.56
450.221	562.56
450.442	528.56
450.662	515.56
450.883	528.56
451.104	517.56
451.324	488.56
451.545	474.56
451.766	465.56
451.986	476.56
452.207	464.56
452.428	464.56
452.648	483.56
452.869	499.56
453.089	484.56
453.31	471.56
453.53	485.56
453.751	463.56
453.971	455.56
454.192	477.56
454.412	475.56
454.633	452.56
454.853	456.56
455.073	459.56
455.294	483.56
455.514	555.56
455.734	513.56
455.955	443.56
456.175	428.56
456.395	447.56
456.616	446.56
456.836	438.56
457.056	418.56
457.276	440.56
457.497	452.56
457.717	448.56
457.937	446.56
458.157	431.56
458.377	469.56
458.598	463.56
458.818	522.56
459.038	604.56
459.258	606.56
459.478	518.56
459.698	503.56
459.918	513.56
460.138	518.56
460.358	514.56
460.578	546.56
460.798	528.56
461.018	533.56
461.238	527.56
461.458	552.56
461.678	542.56
461.898	549.56
462.118	523.56
462.338	534.56
462.558	551.56
462.777	565.56
462.997	570.56
463.217	610.56
463.437	605.56
463.657	569.56
463.876	557.56
464.096	576.56
464.316	579.56
464.536	600.56
464.755	575.56
464.975	578.56
465.195	602.56
465.414	610.56
465.634	600.56
465.854	542.56
466.073	524.56
466.293	502.56
466.512	476.56
466.732	479.56
466.951	498.56
467.171	473.56
467.391	466.56
467.61	489.56
467.829	494.56
468.049	488.56
468.268	482.56
468.488	479.56
468.707	491.56
468.927	461.56
469.146	454.56
469.365	469.56
469.585	467.56
469.804	459.56
470.023	490.56
470.243	489.56
470.462	498.56
470.681	499.56
470.901	492.56
471.12	480.56
471.339	474.56
471.558	487.56
471.777	470.56
471.997	486.56
472.216	502.56
472.435	466.56
472.654	474.56
472.873	489.56
473.092	454.56
473.311	487.56
473.53	490.56
473.749	475.56
473.968	514.56
474.187	590.56
474.406	628.56
474.625	538.56
474.844	501.56
475.063	469.56
475.282	459.56
475.501	482.56
475.72	487.56
475.939	499.56
476.158	500.56
476.377	496.56
476.596	493.56
476.814	508.56
477.033	520.56
477.252	517.56
477.471	528.56
477.69	534.56
477.908	532.56
478.127	549.56
478.346	558.56
478.564	533.56
478.783	557.56
479.002	563.56
479.22	569.56
479.439	572.56
479.658	583.56
479.876	578.56
480.095	592.56
480.313	620.56
480.532	630.56
480.751	586.56
480.969	599.56
481.188	588.56
481.406	592.56
481.624	601.56
481.843	554.56
482.061	542.56
482.28	551.56
482.498	547.56
482.717	554.56
482.935	558.56
483.153	558.56
483.372	544.56
483.59	557.56
483.808	566.56
484.027	570.56
484.245	565.56
484.463	573.56
484.681	572.56
484.9	577.56
485.118	594.56
485.336	578.56
485.554	567.56
485.772	579.56
485.99	571.56
486.209	553.56
486.427	580.56
486.645	581.56
486.863	599.56
487.081	600.56
487.299	590.56
487.517	606.56
487.735	579.56
487.953	578.56
488.171	580.56
488.389	576.56
488.607	589.56
488.825	594.56
489.043	619.56
489.261	612.56
489.479	583.56
489.696	585.56
489.914	600.56
490.132	600.56
490.35	624.56
490.568	626.56
490.786	612.56
491.003	636.56
491.221	638.56
491.439	644.56
491.657	659.56
491.874	674.56
492.092	652.56
492.31	640.56
492.527	650.56
492.745	682.56
492.963	662.56
493.18	686.56
493.398	674.56
493.615	702.56
493.833	716.56
494.05	697.56
494.268	680.56
494.485	692.56
494.703	694.56
494.92	675.56
495.138	677.56
495.355	683.56
495.573	697.56
495.79	686.56
496.008	701.56
496.225	717.56
496.442	695.56
496.66	712.56
496.877	718.56
497.094	713.56
497.312	730.56
497.529	710.56
497.746	743.56
497.963	743.56
498.181	791.56
498.398	758.56
498.615	822.56
498.832	841.56
499.049	896.56
499.267	890.56
499.484	940.56
499.701	987.56
499.918	1036.56
500.135	1106.56
500.352	1183.56
500.569	1224.56
500.786	1199.56
501.003	1152.56
501.22	1118.56
501.437	1054.56
501.654	1002.56
501.871	975.56
