Data from 1985.PennyLincolnUp.Lamp.En5.5.200Scan.071819.P1_HRD10591_17-02-40-970.txt Node
Date: Thu Jul 18 17:02:40 EDT 2019
User: cochatt
Spectrometer: HR+D1059
Trigger mode: 1
Integration Time (sec): 1.000000E-1
Scans to average: 1
Electric dark correction enabled: true
Nonlinearity correction enabled: false
Boxcar width: 0
XAxis mode: Wavelengths
Number of Pixels in Spectrum: 2048
>>>>>Begin Spectral Data<<<<<
223.165	-21.5
223.4	-21.5
223.635	-21.5
223.869	-13.5
224.104	-18.5
224.338	-19.5
224.573	-5.5
224.808	-16.5
225.042	-13.5
225.277	-6.5
225.511	7.5
225.746	-4.5
225.98	10.5
226.215	31.5
226.449	20.5
226.683	10.5
226.918	11.5
227.152	27.5
227.387	39.5
227.621	47.5
227.856	41.5
228.09	46.5
228.324	54.5
228.559	69.5
228.793	69.5
229.027	99.5
229.262	109.5
229.496	97.5
229.73	125.5
229.964	152.5
230.199	129.5
230.433	118.5
230.667	127.5
230.901	108.5
231.136	112.5
231.37	112.5
231.604	100.5
231.838	115.5
232.072	123.5
232.306	115.5
232.541	116.5
232.775	111.5
233.009	107.5
233.243	113.5
233.477	103.5
233.711	134.5
233.945	132.5
234.179	112.5
234.413	109.5
234.647	117.5
234.881	123.5
235.115	117.5
235.349	132.5
235.583	111.5
235.817	124.5
236.051	123.5
236.285	126.5
236.519	132.5
236.753	123.5
236.987	151.5
237.221	175.5
237.455	217.5
237.689	182.5
237.922	136.5
238.156	130.5
238.39	127.5
238.624	132.5
238.858	121.5
239.091	124.5
239.325	130.5
239.559	135.5
239.793	127.5
240.027	147.5
240.26	130.5
240.494	158.5
240.728	141.5
240.961	139.5
241.195	147.5
241.429	128.5
241.662	125.5
241.896	123.5
242.13	142.5
242.363	128.5
242.597	141.5
242.83	143.5
243.064	139.5
243.298	160.5
243.531	127.5
243.765	151.5
243.998	116.5
244.232	136.5
244.465	146.5
244.699	144.5
244.932	145.5
245.166	158.5
245.399	167.5
245.633	158.5
245.866	154.5
246.099	149.5
246.333	139.5
246.566	158.5
246.8	147.5
247.033	162.5
247.266	159.5
247.5	166.5
247.733	169.5
247.966	171.5
248.2	172.5
248.433	158.5
248.666	187.5
248.899	205.5
249.133	200.5
249.366	207.5
249.599	185.5
249.832	186.5
250.066	192.5
250.299	175.5
250.532	178.5
250.765	194.5
250.998	209.5
251.231	213.5
251.465	202.5
251.698	203.5
251.931	204.5
252.164	180.5
252.397	203.5
252.63	200.5
252.863	195.5
253.096	206.5
253.329	217.5
253.562	218.5
253.795	216.5
254.028	229.5
254.261	211.5
254.494	241.5
254.727	266.5
254.96	265.5
255.193	268.5
255.426	256.5
255.659	220.5
255.892	234.5
256.124	223.5
256.357	228.5
256.59	223.5
256.823	221.5
257.056	219.5
257.289	191.5
257.521	212.5
257.754	198.5
257.987	210.5
258.22	199.5
258.452	217.5
258.685	206.5
258.918	213.5
259.151	213.5
259.383	207.5
259.616	207.5
259.849	219.5
260.081	244.5
260.314	268.5
260.547	246.5
260.779	250.5
261.012	234.5
261.244	213.5
261.477	217.5
261.71	221.5
261.942	226.5
262.175	255.5
262.407	229.5
262.64	222.5
262.872	225.5
263.105	222.5
263.337	223.5
263.57	223.5
263.802	231.5
264.035	231.5
264.267	226.5
264.499	238.5
264.732	214.5
264.964	221.5
265.197	221.5
265.429	223.5
265.661	239.5
265.894	211.5
266.126	230.5
266.358	224.5
266.591	244.5
266.823	244.5
267.055	244.5
267.287	240.5
267.52	238.5
267.752	239.5
267.984	244.5
268.216	226.5
268.448	246.5
268.681	246.5
268.913	272.5
269.145	278.5
269.377	290.5
269.609	275.5
269.841	275.5
270.073	286.5
270.306	295.5
270.538	335.5
270.77	319.5
271.002	299.5
271.234	298.5
271.466	302.5
271.698	318.5
271.93	327.5
272.162	323.5
272.394	321.5
272.626	314.5
272.858	301.5
273.09	285.5
273.322	284.5
273.553	273.5
273.785	296.5
274.017	284.5
274.249	269.5
274.481	276.5
274.713	271.5
274.945	292.5
275.176	294.5
275.408	262.5
275.64	285.5
275.872	274.5
276.104	284.5
276.335	285.5
276.567	290.5
276.799	307.5
277.031	326.5
277.262	328.5
277.494	315.5
277.726	320.5
277.957	296.5
278.189	299.5
278.421	287.5
278.652	288.5
278.884	280.5
279.115	283.5
279.347	277.5
279.579	296.5
279.81	302.5
280.042	279.5
280.273	308.5
280.505	298.5
280.736	276.5
280.968	286.5
281.199	282.5
281.431	279.5
281.662	288.5
281.894	303.5
282.125	285.5
282.356	315.5
282.588	318.5
282.819	329.5
283.051	312.5
283.282	297.5
283.513	295.5
283.745	297.5
283.976	302.5
284.207	299.5
284.439	299.5
284.67	303.5
284.901	301.5
285.132	302.5
285.364	297.5
285.595	310.5
285.826	316.5
286.057	316.5
286.288	287.5
286.52	310.5
286.751	320.5
286.982	316.5
287.213	298.5
287.444	307.5
287.675	305.5
287.906	327.5
288.138	328.5
288.369	346.5
288.6	340.5
288.831	329.5
289.062	309.5
289.293	312.5
289.524	309.5
289.755	318.5
289.986	326.5
290.217	327.5
290.448	322.5
290.679	310.5
290.91	330.5
291.141	308.5
291.371	331.5
291.602	325.5
291.833	331.5
292.064	322.5
292.295	318.5
292.526	326.5
292.757	347.5
292.987	322.5
293.218	312.5
293.449	343.5
293.68	328.5
293.91	336.5
294.141	324.5
294.372	330.5
294.603	317.5
294.833	335.5
295.064	327.5
295.295	333.5
295.525	346.5
295.756	335.5
295.987	340.5
296.217	346.5
296.448	340.5
296.679	343.5
296.909	335.5
297.14	335.5
297.37	342.5
297.601	350.5
297.831	324.5
298.062	346.5
298.292	308.5
298.523	340.5
298.753	356.5
298.984	342.5
299.214	357.5
299.445	359.5
299.675	338.5
299.905	347.5
300.136	348.5
300.366	351.5
300.597	347.5
300.827	367.5
301.057	357.5
301.288	372.5
301.518	364.5
301.748	372.5
301.979	384.5
302.209	370.5
302.439	360.5
302.669	366.5
302.9	357.5
303.13	359.5
303.36	358.5
303.59	372.5
303.82	397.5
304.051	386.5
304.281	363.5
304.511	368.5
304.741	376.5
304.971	376.5
305.201	371.5
305.431	361.5
305.661	367.5
305.891	366.5
306.121	357.5
306.352	387.5
306.582	384.5
306.812	354.5
307.042	378.5
307.272	371.5
307.502	361.5
307.731	374.5
307.961	377.5
308.191	379.5
308.421	353.5
308.651	379.5
308.881	366.5
309.111	374.5
309.341	367.5
309.571	378.5
309.8	388.5
310.03	420.5
310.26	401.5
310.49	411.5
310.72	402.5
310.949	430.5
311.179	422.5
311.409	420.5
311.639	400.5
311.868	383.5
312.098	419.5
312.328	431.5
312.557	451.5
312.787	446.5
313.017	415.5
313.246	440.5
313.476	408.5
313.706	421.5
313.935	427.5
314.165	440.5
314.394	442.5
314.624	441.5
314.853	418.5
315.083	436.5
315.312	424.5
315.542	424.5
315.771	416.5
316.001	407.5
316.23	412.5
316.46	414.5
316.689	405.5
316.919	419.5
317.148	436.5
317.377	450.5
317.607	413.5
317.836	414.5
318.065	428.5
318.295	418.5
318.524	425.5
318.753	410.5
318.983	409.5
319.212	414.5
319.441	428.5
319.67	429.5
319.9	394.5
320.129	406.5
320.358	416.5
320.587	427.5
320.816	453.5
321.046	440.5
321.275	443.5
321.504	442.5
321.733	414.5
321.962	441.5
322.191	462.5
322.42	472.5
322.649	468.5
322.878	493.5
323.108	486.5
323.337	497.5
323.566	506.5
323.795	522.5
324.024	588.5
324.253	675.5
324.482	959.5
324.71	1418.5
324.939	2006.5
325.168	1716.5
325.397	923.5
325.626	648.5
325.855	574.5
326.084	534.5
326.313	531.5
326.542	527.5
326.77	562.5
326.999	672.5
327.228	868.5
327.457	1293.5
327.686	1517.5
327.914	1040.5
328.143	681.5
328.372	609.5
328.6	586.5
328.829	559.5
329.058	570.5
329.287	618.5
329.515	553.5
329.744	524.5
329.972	520.5
330.201	536.5
330.43	550.5
330.658	558.5
330.887	590.5
331.115	607.5
331.344	557.5
331.572	530.5
331.801	528.5
332.03	509.5
332.258	526.5
332.486	516.5
332.715	494.5
332.943	509.5
333.172	524.5
333.4	528.5
333.629	534.5
333.857	535.5
334.085	541.5
334.314	547.5
334.542	556.5
334.771	544.5
334.999	530.5
335.227	538.5
335.455	503.5
335.684	514.5
335.912	493.5
336.14	497.5
336.369	504.5
336.597	514.5
336.825	494.5
337.053	492.5
337.281	481.5
337.51	479.5
337.738	467.5
337.966	491.5
338.194	496.5
338.422	495.5
338.65	488.5
338.878	489.5
339.106	489.5
339.334	487.5
339.562	461.5
339.79	457.5
340.018	477.5
340.246	459.5
340.474	472.5
340.702	475.5
340.93	460.5
341.158	472.5
341.386	488.5
341.614	460.5
341.842	483.5
342.07	442.5
342.298	443.5
342.526	432.5
342.754	437.5
342.981	452.5
343.209	473.5
343.437	474.5
343.665	477.5
343.893	502.5
344.12	518.5
344.348	502.5
344.576	460.5
344.804	474.5
345.031	476.5
345.259	483.5
345.487	467.5
345.714	476.5
345.942	461.5
346.17	463.5
346.397	468.5
346.625	455.5
346.853	439.5
347.08	459.5
347.308	451.5
347.535	461.5
347.763	477.5
347.99	467.5
348.218	469.5
348.445	456.5
348.673	463.5
348.9	473.5
349.128	438.5
349.355	427.5
349.583	448.5
349.81	444.5
350.037	436.5
350.265	424.5
350.492	447.5
350.72	446.5
350.947	440.5
351.174	452.5
351.402	442.5
351.629	459.5
351.856	456.5
352.083	479.5
352.311	460.5
352.538	454.5
352.765	455.5
352.992	465.5
353.22	442.5
353.447	441.5
353.674	421.5
353.901	425.5
354.128	435.5
354.355	431.5
354.583	403.5
354.81	427.5
355.037	420.5
355.264	415.5
355.491	402.5
355.718	401.5
355.945	430.5
356.172	427.5
356.399	424.5
356.626	415.5
356.853	424.5
357.08	405.5
357.307	422.5
357.534	410.5
357.761	400.5
357.988	415.5
358.215	431.5
358.441	419.5
358.668	419.5
358.895	445.5
359.122	426.5
359.349	425.5
359.576	437.5
359.802	458.5
360.029	473.5
360.256	495.5
360.483	467.5
360.709	463.5
360.936	462.5
361.163	451.5
361.39	457.5
361.616	451.5
361.843	430.5
362.07	462.5
362.296	456.5
362.523	458.5
362.749	445.5
362.976	435.5
363.203	429.5
363.429	457.5
363.656	437.5
363.882	419.5
364.109	434.5
364.335	429.5
364.562	429.5
364.788	427.5
365.015	409.5
365.241	426.5
365.468	443.5
365.694	429.5
365.92	436.5
366.147	413.5
366.373	420.5
366.599	424.5
366.826	410.5
367.052	404.5
367.278	444.5
367.505	427.5
367.731	420.5
367.957	412.5
368.184	455.5
368.41	422.5
368.636	437.5
368.862	420.5
369.089	425.5
369.315	431.5
369.541	407.5
369.767	432.5
369.993	420.5
370.219	421.5
370.445	435.5
370.672	431.5
370.898	420.5
371.124	448.5
371.35	406.5
371.576	425.5
371.802	443.5
372.028	427.5
372.254	417.5
372.48	427.5
372.706	444.5
372.932	443.5
373.158	429.5
373.384	428.5
373.61	417.5
373.835	412.5
374.061	438.5
374.287	450.5
374.513	448.5
374.739	461.5
374.965	434.5
375.191	448.5
375.416	442.5
375.642	436.5
375.868	441.5
376.094	422.5
376.319	437.5
376.545	412.5
376.771	420.5
376.997	433.5
377.222	428.5
377.448	406.5
377.674	406.5
377.899	408.5
378.125	421.5
378.35	419.5
378.576	396.5
378.802	416.5
379.027	428.5
379.253	413.5
379.478	432.5
379.704	419.5
379.929	399.5
380.155	426.5
380.38	426.5
380.606	428.5
380.831	419.5
381.057	414.5
381.282	430.5
381.507	434.5
381.733	417.5
381.958	441.5
382.184	438.5
382.409	421.5
382.634	444.5
382.86	427.5
383.085	451.5
383.31	459.5
383.535	448.5
383.761	449.5
383.986	467.5
384.211	466.5
384.436	457.5
384.662	476.5
384.887	452.5
385.112	463.5
385.337	453.5
385.562	465.5
385.787	483.5
386.013	485.5
386.238	483.5
386.463	470.5
386.688	475.5
386.913	473.5
387.138	455.5
387.363	479.5
387.588	478.5
387.813	492.5
388.038	488.5
388.263	487.5
388.488	490.5
388.713	484.5
388.938	465.5
389.163	472.5
389.387	474.5
389.612	458.5
389.837	464.5
390.062	460.5
390.287	470.5
390.512	451.5
390.736	460.5
390.961	465.5
391.186	464.5
391.411	472.5
391.636	514.5
391.86	494.5
392.085	502.5
392.31	493.5
392.534	489.5
392.759	504.5
392.984	482.5
393.208	451.5
393.433	464.5
393.658	480.5
393.882	463.5
394.107	466.5
394.331	468.5
394.556	478.5
394.78	489.5
395.005	480.5
395.229	485.5
395.454	487.5
395.678	486.5
395.903	509.5
396.127	528.5
396.352	536.5
396.576	500.5
396.801	494.5
397.025	520.5
397.249	519.5
397.474	521.5
397.698	512.5
397.922	528.5
398.147	538.5
398.371	543.5
398.595	523.5
398.82	533.5
399.044	588.5
399.268	608.5
399.492	642.5
399.717	676.5
399.941	697.5
400.165	696.5
400.389	677.5
400.613	655.5
400.837	603.5
401.062	606.5
401.286	565.5
401.51	559.5
401.734	525.5
401.958	560.5
402.182	580.5
402.406	583.5
402.63	586.5
402.854	550.5
403.078	570.5
403.302	576.5
403.526	585.5
403.75	589.5
403.974	580.5
404.198	587.5
404.422	578.5
404.645	590.5
404.869	599.5
405.093	624.5
405.317	652.5
405.541	653.5
405.765	610.5
405.988	587.5
406.212	585.5
406.436	628.5
406.66	652.5
406.883	612.5
407.107	639.5
407.331	700.5
407.555	756.5
407.778	747.5
408.002	698.5
408.226	640.5
408.449	609.5
408.673	634.5
408.896	639.5
409.12	680.5
409.344	660.5
409.567	610.5
409.791	585.5
410.014	576.5
410.238	575.5
410.461	603.5
410.685	577.5
410.908	592.5
411.132	617.5
411.355	635.5
411.578	595.5
411.802	593.5
412.025	548.5
412.249	571.5
412.472	613.5
412.695	589.5
412.919	603.5
413.142	543.5
413.365	528.5
413.589	563.5
413.812	523.5
414.035	540.5
414.258	541.5
414.482	526.5
414.705	524.5
414.928	539.5
415.151	540.5
415.374	530.5
415.597	527.5
415.821	528.5
416.044	547.5
416.267	531.5
416.49	528.5
416.713	531.5
416.936	531.5
417.159	520.5
417.382	541.5
417.605	535.5
417.828	537.5
418.051	566.5
418.274	560.5
418.497	533.5
418.72	518.5
418.943	538.5
419.166	540.5
419.389	591.5
419.611	594.5
419.834	578.5
420.057	572.5
420.28	555.5
420.503	545.5
420.726	532.5
420.948	529.5
421.171	620.5
421.394	630.5
421.617	557.5
421.839	552.5
422.062	554.5
422.285	551.5
422.507	631.5
422.73	662.5
422.953	662.5
423.175	583.5
423.398	573.5
423.621	578.5
423.843	569.5
424.066	598.5
424.288	564.5
424.511	603.5
424.733	657.5
424.956	739.5
425.178	697.5
425.401	696.5
425.623	695.5
425.846	613.5
426.068	564.5
426.291	529.5
426.513	548.5
426.735	572.5
426.958	606.5
427.18	695.5
427.402	808.5
427.625	896.5
427.847	772.5
428.069	652.5
428.292	597.5
428.514	556.5
428.736	538.5
428.958	534.5
429.181	534.5
429.403	503.5
429.625	531.5
429.847	559.5
430.069	617.5
430.292	631.5
430.514	530.5
430.736	520.5
430.958	527.5
431.18	506.5
431.402	478.5
431.624	489.5
431.846	507.5
432.068	483.5
432.29	498.5
432.512	497.5
432.734	493.5
432.956	517.5
433.178	507.5
433.4	537.5
433.622	492.5
433.844	486.5
434.066	500.5
434.287	514.5
434.509	531.5
434.731	514.5
434.953	524.5
435.175	554.5
435.397	570.5
435.618	580.5
435.84	630.5
436.062	692.5
436.284	726.5
436.505	611.5
436.727	590.5
436.949	534.5
437.17	514.5
437.392	516.5
437.614	527.5
437.835	552.5
438.057	637.5
438.278	748.5
438.5	733.5
438.721	808.5
438.943	777.5
439.165	604.5
439.386	582.5
439.608	564.5
439.829	578.5
440.05	590.5
440.272	629.5
440.493	604.5
440.715	564.5
440.936	543.5
441.158	554.5
441.379	532.5
441.6	565.5
441.822	579.5
442.043	603.5
442.264	678.5
442.486	712.5
442.707	620.5
442.928	589.5
443.149	608.5
443.371	647.5
443.592	676.5
443.813	712.5
444.034	792.5
444.255	662.5
444.476	613.5
444.698	606.5
444.919	595.5
445.14	727.5
445.361	655.5
445.582	641.5
445.803	667.5
446.024	754.5
446.245	738.5
446.466	697.5
446.687	605.5
446.908	548.5
447.129	530.5
447.35	520.5
447.571	523.5
447.792	506.5
448.013	516.5
448.234	536.5
448.455	579.5
448.675	692.5
448.896	809.5
449.117	664.5
449.338	636.5
449.559	718.5
449.779	824.5
450	670.5
450.221	557.5
450.442	516.5
450.662	515.5
450.883	539.5
451.104	546.5
451.324	516.5
451.545	505.5
451.766	464.5
451.986	478.5
452.207	478.5
452.428	452.5
452.648	473.5
452.869	472.5
453.089	464.5
453.31	476.5
453.53	477.5
453.751	450.5
453.971	482.5
454.192	483.5
454.412	502.5
454.633	456.5
454.853	454.5
455.073	458.5
455.294	493.5
455.514	553.5
455.734	527.5
455.955	478.5
456.175	453.5
456.395	444.5
456.616	441.5
456.836	442.5
457.056	465.5
457.276	429.5
457.497	431.5
457.717	430.5
457.937	435.5
458.157	462.5
458.377	462.5
458.598	495.5
458.818	543.5
459.038	603.5
459.258	649.5
459.478	528.5
459.698	494.5
459.918	525.5
460.138	534.5
460.358	532.5
460.578	534.5
460.798	546.5
461.018	539.5
461.238	546.5
461.458	535.5
461.678	527.5
461.898	541.5
462.118	529.5
462.338	544.5
462.558	553.5
462.777	579.5
462.997	613.5
463.217	634.5
463.437	603.5
463.657	581.5
463.876	592.5
464.096	597.5
464.316	559.5
464.536	609.5
464.755	580.5
464.975	599.5
465.195	603.5
465.414	653.5
465.634	582.5
465.854	568.5
466.073	503.5
466.293	494.5
466.512	525.5
466.732	499.5
466.951	466.5
467.171	487.5
467.391	478.5
467.61	484.5
467.829	509.5
468.049	502.5
468.268	474.5
468.488	486.5
468.707	487.5
468.927	482.5
469.146	478.5
469.365	468.5
469.585	459.5
469.804	480.5
470.023	510.5
470.243	470.5
470.462	507.5
470.681	534.5
470.901	507.5
471.12	493.5
471.339	506.5
471.558	483.5
471.777	472.5
471.997	483.5
472.216	475.5
472.435	482.5
472.654	474.5
472.873	480.5
473.092	471.5
473.311	499.5
473.53	476.5
473.749	499.5
473.968	501.5
474.187	597.5
474.406	621.5
474.625	512.5
474.844	471.5
475.063	468.5
475.282	496.5
475.501	500.5
475.72	487.5
475.939	514.5
476.158	478.5
476.377	500.5
476.596	508.5
476.814	517.5
477.033	512.5
477.252	499.5
477.471	499.5
477.69	526.5
477.908	521.5
478.127	557.5
478.346	535.5
478.564	521.5
478.783	536.5
479.002	562.5
479.22	562.5
479.439	568.5
479.658	587.5
479.876	598.5
480.095	615.5
480.313	612.5
480.532	606.5
480.751	607.5
480.969	586.5
481.188	586.5
481.406	620.5
481.624	607.5
481.843	562.5
482.061	559.5
482.28	566.5
482.498	550.5
482.717	585.5
482.935	562.5
483.153	558.5
483.372	573.5
483.59	552.5
483.808	546.5
484.027	562.5
484.245	577.5
484.463	587.5
484.681	590.5
484.9	578.5
485.118	570.5
485.336	575.5
485.554	594.5
485.772	588.5
485.99	600.5
486.209	597.5
486.427	590.5
486.645	582.5
486.863	615.5
487.081	610.5
487.299	599.5
487.517	614.5
487.735	615.5
487.953	606.5
488.171	596.5
488.389	607.5
488.607	626.5
488.825	586.5
489.043	599.5
489.261	607.5
489.479	596.5
489.696	607.5
489.914	638.5
490.132	616.5
490.35	623.5
490.568	619.5
490.786	606.5
491.003	662.5
491.221	650.5
491.439	670.5
491.657	657.5
491.874	653.5
492.092	694.5
492.31	659.5
492.527	668.5
492.745	675.5
492.963	698.5
493.18	703.5
493.398	689.5
493.615	708.5
493.833	694.5
494.05	694.5
494.268	713.5
494.485	693.5
494.703	702.5
494.92	707.5
495.138	701.5
495.355	707.5
495.573	706.5
495.79	699.5
496.008	729.5
496.225	725.5
496.442	694.5
496.66	691.5
496.877	724.5
497.094	734.5
497.312	742.5
497.529	752.5
497.746	768.5
497.963	773.5
498.181	774.5
498.398	810.5
498.615	814.5
498.832	876.5
499.049	892.5
499.267	924.5
499.484	948.5
499.701	1005.5
499.918	1042.5
500.135	1125.5
500.352	1210.5
500.569	1198.5
500.786	1235.5
501.003	1208.5
501.22	1108.5
501.437	1059.5
501.654	1014.5
501.871	974.5
502.088	907.5
502.305	890.5
502.522	871.5
502.739	828.5
502.956	803.5
503.172	797.5
503.389	756.5
503.606	761.5
503.823	775.5
504.04	743.5
504.256	749.5
504.473	746.5
504.69	741.5
504.907	739.5
505.123	715.5
505.34	693.5
505.557	674.5
505.773	706.5
505.99	677.5
506.207	680.5
506.423	674.5
506.64	636.5
506.856	676.5
507.073	655.5
507.289	653.5
507.506	664.5
507.722	678.5
507.939	668.5
508.155	625.5
508.372	626.5
508.588	640.5
508.805	621.5
509.021	629.5
509.238	648.5
509.454	646.5
509.67	637.5
509.887	620.5
510.103	619.5
510.319	636.5
510.536	710.5
510.752	1134.5
510.968	981.5
511.184	639.5
511.401	638.5
511.617	604.5
511.833	604.5
512.049	582.5
512.265	586.5
512.481	598.5
512.698	581.5
512.914	589.5
513.13	583.5
513.346	576.5
513.562	593.5
513.778	610.5
513.994	593.5
514.21	573.5
514.426	640.5
514.642	650.5
514.858	684.5
515.074	707.5
515.29	851.5
515.506	1236.5
515.721	1045.5
515.937	696.5
516.153	648.5
516.369	649.5
516.585	652.5
516.801	671.5
517.016	640.5
517.232	664.5
517.448	660.5
517.664	669.5
517.879	671.5
518.095	676.5
518.311	670.5
518.527	618.5
518.742	654.5
518.958	622.5
519.173	626.5
519.389	623.5
519.605	626.5
