Data from 1985.PennyLincolnUp.Lamp.En5.5.200Scan.071819.P1_HRD10591_17-02-38-970.txt Node
Date: Thu Jul 18 17:02:38 EDT 2019
User: cochatt
Spectrometer: HR+D1059
Trigger mode: 1
Integration Time (sec): 1.000000E-1
Scans to average: 1
Electric dark correction enabled: true
Nonlinearity correction enabled: false
Boxcar width: 0
XAxis mode: Wavelengths
Number of Pixels in Spectrum: 2048
>>>>>Begin Spectral Data<<<<<
223.165	-9.62
223.4	-9.62
223.635	-9.62
223.869	-16.62
224.104	-24.62
224.338	-10.62
224.573	-3.62
224.808	-7.62
225.042	-14.62
225.277	10.38
225.511	-1.62
225.746	10.38
225.98	-5.62
226.215	3.38
226.449	20.38
226.683	9.38
226.918	14.38
227.152	26.38
227.387	48.38
227.621	35.38
227.856	56.38
228.09	62.38
228.324	63.38
228.559	60.38
228.793	65.38
229.027	92.38
229.262	106.38
229.496	116.38
229.73	125.38
229.964	139.38
230.199	119.38
230.433	109.38
230.667	120.38
230.901	114.38
231.136	118.38
231.37	113.38
231.604	109.38
231.838	102.38
232.072	116.38
232.306	104.38
232.541	116.38
232.775	111.38
233.009	107.38
233.243	123.38
233.477	119.38
233.711	113.38
233.945	128.38
234.179	122.38
234.413	112.38
234.647	113.38
234.881	104.38
235.115	119.38
235.349	133.38
235.583	121.38
235.817	126.38
236.051	120.38
236.285	124.38
236.519	133.38
236.753	119.38
236.987	133.38
237.221	182.38
237.455	201.38
237.689	182.38
237.922	143.38
238.156	148.38
238.39	132.38
238.624	133.38
238.858	128.38
239.091	127.38
239.325	128.38
239.559	127.38
239.793	120.38
240.027	133.38
240.26	148.38
240.494	167.38
240.728	165.38
240.961	150.38
241.195	141.38
241.429	131.38
241.662	133.38
241.896	149.38
242.13	127.38
242.363	130.38
242.597	143.38
242.83	150.38
243.064	144.38
243.298	133.38
243.531	140.38
243.765	147.38
243.998	147.38
244.232	133.38
244.465	160.38
244.699	143.38
244.932	160.38
245.166	143.38
245.399	134.38
245.633	158.38
245.866	154.38
246.099	136.38
246.333	153.38
246.566	143.38
246.8	144.38
247.033	166.38
247.266	157.38
247.5	162.38
247.733	188.38
247.966	177.38
248.2	172.38
248.433	182.38
248.666	168.38
248.899	182.38
249.133	191.38
249.366	174.38
249.599	188.38
249.832	200.38
250.066	171.38
250.299	164.38
250.532	172.38
250.765	205.38
250.998	206.38
251.231	212.38
251.465	182.38
251.698	207.38
251.931	192.38
252.164	188.38
252.397	202.38
252.63	200.38
252.863	204.38
253.096	210.38
253.329	213.38
253.562	216.38
253.795	230.38
254.028	216.38
254.261	206.38
254.494	226.38
254.727	260.38
254.96	264.38
255.193	265.38
255.426	242.38
255.659	215.38
255.892	229.38
256.124	231.38
256.357	202.38
256.59	193.38
256.823	204.38
257.056	205.38
257.289	218.38
257.521	197.38
257.754	222.38
257.987	207.38
258.22	213.38
258.452	212.38
258.685	222.38
258.918	205.38
259.151	203.38
259.383	216.38
259.616	197.38
259.849	229.38
260.081	234.38
260.314	246.38
260.547	253.38
260.779	244.38
261.012	238.38
261.244	234.38
261.477	222.38
261.71	230.38
261.942	245.38
262.175	232.38
262.407	240.38
262.64	229.38
262.872	230.38
263.105	219.38
263.337	218.38
263.57	208.38
263.802	228.38
264.035	216.38
264.267	222.38
264.499	237.38
264.732	217.38
264.964	225.38
265.197	234.38
265.429	229.38
265.661	212.38
265.894	198.38
266.126	213.38
266.358	217.38
266.591	232.38
266.823	221.38
267.055	236.38
267.287	234.38
267.52	236.38
267.752	229.38
267.984	237.38
268.216	232.38
268.448	248.38
268.681	252.38
268.913	256.38
269.145	257.38
269.377	276.38
269.609	274.38
269.841	287.38
270.073	280.38
270.306	296.38
270.538	321.38
270.77	306.38
271.002	300.38
271.234	318.38
271.466	303.38
271.698	321.38
271.93	319.38
272.162	329.38
272.394	329.38
272.626	309.38
272.858	313.38
273.09	298.38
273.322	281.38
273.553	283.38
273.785	257.38
274.017	273.38
274.249	277.38
274.481	272.38
274.713	270.38
274.945	277.38
275.176	274.38
275.408	275.38
275.64	272.38
275.872	285.38
276.104	278.38
276.335	288.38
276.567	288.38
276.799	297.38
277.031	317.38
277.262	329.38
277.494	337.38
277.726	294.38
277.957	294.38
278.189	295.38
278.421	284.38
278.652	283.38
278.884	289.38
279.115	284.38
279.347	288.38
279.579	284.38
279.81	297.38
280.042	291.38
280.273	278.38
280.505	274.38
280.736	280.38
280.968	284.38
281.199	288.38
281.431	297.38
281.662	305.38
281.894	282.38
282.125	292.38
282.356	305.38
282.588	330.38
282.819	318.38
283.051	296.38
283.282	326.38
283.513	292.38
283.745	327.38
283.976	314.38
284.207	295.38
284.439	314.38
284.67	298.38
284.901	290.38
285.132	310.38
285.364	306.38
285.595	298.38
285.826	310.38
286.057	322.38
286.288	312.38
286.52	302.38
286.751	305.38
286.982	327.38
287.213	321.38
287.444	312.38
287.675	297.38
287.906	335.38
288.138	316.38
288.369	329.38
288.6	343.38
288.831	331.38
289.062	320.38
289.293	343.38
289.524	306.38
289.755	310.38
289.986	330.38
290.217	311.38
290.448	325.38
290.679	310.38
290.91	346.38
291.141	342.38
291.371	329.38
291.602	325.38
291.833	299.38
292.064	314.38
292.295	305.38
292.526	322.38
292.757	329.38
292.987	327.38
293.218	324.38
293.449	322.38
293.68	327.38
293.91	324.38
294.141	318.38
294.372	324.38
294.603	320.38
294.833	319.38
295.064	338.38
295.295	334.38
295.525	334.38
295.756	345.38
295.987	353.38
296.217	345.38
296.448	365.38
296.679	334.38
296.909	345.38
297.14	330.38
297.37	347.38
297.601	350.38
297.831	349.38
298.062	333.38
298.292	327.38
298.523	359.38
298.753	348.38
298.984	350.38
299.214	322.38
299.445	327.38
299.675	351.38
299.905	360.38
300.136	338.38
300.366	354.38
300.597	358.38
300.827	352.38
301.057	355.38
301.288	373.38
301.518	368.38
301.748	368.38
301.979	380.38
302.209	368.38
302.439	380.38
302.669	367.38
302.9	378.38
303.13	369.38
303.36	356.38
303.59	377.38
303.82	375.38
304.051	368.38
304.281	380.38
304.511	366.38
304.741	348.38
304.971	382.38
305.201	367.38
305.431	380.38
305.661	364.38
305.891	381.38
306.121	367.38
306.352	382.38
306.582	379.38
306.812	377.38
307.042	385.38
307.272	368.38
307.502	364.38
307.731	392.38
307.961	376.38
308.191	366.38
308.421	368.38
308.651	369.38
308.881	376.38
309.111	379.38
309.341	385.38
309.571	391.38
309.8	398.38
310.03	392.38
310.26	412.38
310.49	407.38
310.72	412.38
310.949	418.38
311.179	416.38
311.409	421.38
311.639	411.38
311.868	418.38
312.098	399.38
312.328	427.38
312.557	429.38
312.787	441.38
313.017	432.38
313.246	416.38
313.476	399.38
313.706	416.38
313.935	415.38
314.165	439.38
314.394	420.38
314.624	436.38
314.853	440.38
315.083	394.38
315.312	418.38
315.542	415.38
315.771	406.38
316.001	406.38
316.23	417.38
316.46	419.38
316.689	395.38
316.919	416.38
317.148	420.38
317.377	410.38
317.607	424.38
317.836	436.38
318.065	397.38
318.295	406.38
318.524	406.38
318.753	405.38
318.983	447.38
319.212	421.38
319.441	454.38
319.67	422.38
319.9	406.38
320.129	400.38
320.358	417.38
320.587	430.38
320.816	409.38
321.046	452.38
321.275	436.38
321.504	420.38
321.733	428.38
321.962	436.38
322.191	436.38
322.42	456.38
322.649	478.38
322.878	470.38
323.108	492.38
323.337	524.38
323.566	524.38
323.795	541.38
324.024	580.38
324.253	684.38
324.482	923.38
324.71	1404.38
324.939	1949.38
325.168	1727.38
325.397	914.38
325.626	660.38
325.855	562.38
326.084	534.38
326.313	516.38
326.542	522.38
326.77	581.38
326.999	655.38
327.228	869.38
327.457	1268.38
327.686	1505.38
327.914	992.38
328.143	706.38
328.372	634.38
328.6	590.38
328.829	574.38
329.058	584.38
329.287	593.38
329.515	566.38
329.744	551.38
329.972	510.38
330.201	540.38
330.43	546.38
330.658	577.38
330.887	617.38
331.115	597.38
331.344	542.38
331.572	515.38
331.801	529.38
332.03	514.38
332.258	525.38
332.486	505.38
332.715	505.38
332.943	492.38
333.172	530.38
333.4	504.38
333.629	529.38
333.857	558.38
334.085	552.38
334.314	537.38
334.542	554.38
334.771	529.38
334.999	530.38
335.227	522.38
335.455	526.38
335.684	519.38
335.912	497.38
336.14	495.38
336.369	502.38
336.597	500.38
336.825	509.38
337.053	508.38
337.281	468.38
337.51	481.38
337.738	481.38
337.966	481.38
338.194	489.38
338.422	491.38
338.65	504.38
338.878	486.38
339.106	500.38
339.334	486.38
339.562	474.38
339.79	483.38
340.018	470.38
340.246	472.38
340.474	477.38
340.702	491.38
340.93	480.38
341.158	463.38
341.386	470.38
341.614	459.38
341.842	491.38
342.07	461.38
342.298	452.38
342.526	465.38
342.754	466.38
342.981	453.38
343.209	450.38
343.437	502.38
343.665	491.38
343.893	492.38
344.12	493.38
344.348	500.38
344.576	502.38
344.804	487.38
345.031	506.38
345.259	508.38
345.487	474.38
345.714	454.38
345.942	462.38
346.17	449.38
346.397	461.38
346.625	455.38
346.853	433.38
347.08	425.38
347.308	459.38
347.535	465.38
347.763	439.38
347.99	453.38
348.218	464.38
348.445	463.38
348.673	459.38
348.9	428.38
349.128	451.38
349.355	439.38
349.583	459.38
349.81	436.38
350.037	459.38
350.265	447.38
350.492	429.38
350.72	439.38
350.947	418.38
351.174	452.38
351.402	444.38
351.629	457.38
351.856	467.38
352.083	450.38
352.311	478.38
352.538	457.38
352.765	466.38
352.992	453.38
353.22	434.38
353.447	434.38
353.674	443.38
353.901	417.38
354.128	406.38
354.355	429.38
354.583	422.38
354.81	417.38
355.037	434.38
355.264	419.38
355.491	403.38
355.718	407.38
355.945	443.38
356.172	446.38
356.399	424.38
356.626	411.38
356.853	422.38
357.08	406.38
357.307	426.38
357.534	412.38
357.761	415.38
357.988	435.38
358.215	434.38
358.441	413.38
358.668	416.38
358.895	428.38
359.122	414.38
359.349	442.38
359.576	431.38
359.802	470.38
360.029	472.38
360.256	486.38
360.483	472.38
360.709	443.38
360.936	440.38
361.163	427.38
361.39	444.38
361.616	453.38
361.843	463.38
362.07	418.38
362.296	425.38
362.523	410.38
362.749	432.38
362.976	427.38
363.203	420.38
363.429	432.38
363.656	418.38
363.882	432.38
364.109	409.38
364.335	414.38
364.562	444.38
364.788	410.38
365.015	421.38
365.241	403.38
365.468	412.38
365.694	432.38
365.92	431.38
366.147	438.38
366.373	429.38
366.599	427.38
366.826	429.38
367.052	412.38
367.278	437.38
367.505	446.38
367.731	426.38
367.957	406.38
368.184	440.38
368.41	450.38
368.636	425.38
368.862	430.38
369.089	426.38
369.315	423.38
369.541	440.38
369.767	441.38
369.993	423.38
370.219	412.38
370.445	445.38
370.672	417.38
370.898	420.38
371.124	422.38
371.35	444.38
371.576	400.38
371.802	428.38
372.028	400.38
372.254	444.38
372.48	425.38
372.706	438.38
372.932	428.38
373.158	431.38
373.384	437.38
373.61	444.38
373.835	436.38
374.061	434.38
374.287	447.38
374.513	448.38
374.739	426.38
374.965	428.38
375.191	436.38
375.416	424.38
375.642	432.38
375.868	436.38
376.094	418.38
376.319	421.38
376.545	437.38
376.771	444.38
376.997	396.38
377.222	441.38
377.448	410.38
377.674	402.38
377.899	417.38
378.125	399.38
378.35	417.38
378.576	411.38
378.802	417.38
379.027	413.38
379.253	438.38
379.478	406.38
379.704	425.38
379.929	421.38
380.155	430.38
380.38	426.38
380.606	428.38
380.831	422.38
381.057	427.38
381.282	426.38
381.507	424.38
381.733	429.38
381.958	424.38
382.184	444.38
382.409	436.38
382.634	456.38
382.86	437.38
383.085	435.38
383.31	434.38
383.535	434.38
383.761	452.38
383.986	452.38
384.211	442.38
384.436	464.38
384.662	468.38
384.887	454.38
385.112	473.38
385.337	460.38
385.562	465.38
385.787	465.38
386.013	470.38
386.238	493.38
386.463	491.38
386.688	486.38
386.913	489.38
387.138	471.38
387.363	486.38
387.588	489.38
387.813	469.38
388.038	460.38
388.263	470.38
388.488	494.38
388.713	463.38
388.938	476.38
389.163	462.38
389.387	459.38
389.612	469.38
389.837	464.38
390.062	464.38
390.287	487.38
390.512	461.38
390.736	469.38
390.961	461.38
391.186	475.38
391.411	480.38
391.636	486.38
391.86	482.38
392.085	511.38
392.31	490.38
392.534	474.38
392.759	483.38
392.984	478.38
393.208	488.38
393.433	459.38
393.658	464.38
393.882	466.38
394.107	456.38
394.331	474.38
394.556	462.38
394.78	494.38
395.005	487.38
395.229	471.38
395.454	489.38
395.678	510.38
395.903	519.38
396.127	512.38
396.352	527.38
396.576	494.38
396.801	498.38
397.025	504.38
397.249	497.38
397.474	508.38
397.698	500.38
397.922	514.38
398.147	531.38
398.371	542.38
398.595	535.38
398.82	534.38
399.044	568.38
399.268	587.38
399.492	627.38
399.717	703.38
399.941	697.38
400.165	698.38
400.389	645.38
400.613	614.38
400.837	600.38
401.062	588.38
401.286	552.38
401.51	556.38
401.734	540.38
401.958	545.38
402.182	574.38
402.406	574.38
402.63	558.38
402.854	550.38
403.078	551.38
403.302	568.38
403.526	584.38
403.75	586.38
403.974	555.38
404.198	582.38
404.422	599.38
404.645	576.38
404.869	580.38
405.093	604.38
405.317	626.38
405.541	643.38
405.765	595.38
405.988	586.38
406.212	625.38
406.436	617.38
406.66	617.38
406.883	623.38
407.107	657.38
407.331	676.38
407.555	753.38
407.778	739.38
408.002	696.38
408.226	636.38
408.449	619.38
408.673	616.38
408.896	655.38
409.12	668.38
409.344	636.38
409.567	620.38
409.791	576.38
410.014	568.38
410.238	552.38
410.461	566.38
410.685	576.38
410.908	589.38
411.132	628.38
411.355	640.38
411.578	603.38
411.802	594.38
412.025	561.38
412.249	573.38
412.472	548.38
412.695	581.38
412.919	557.38
413.142	583.38
413.365	540.38
413.589	530.38
413.812	544.38
414.035	534.38
414.258	517.38
414.482	553.38
414.705	529.38
414.928	534.38
415.151	536.38
415.374	535.38
415.597	525.38
415.821	524.38
416.044	535.38
416.267	528.38
416.49	533.38
416.713	528.38
416.936	521.38
417.159	511.38
417.382	525.38
417.605	535.38
417.828	554.38
418.051	552.38
418.274	542.38
418.497	525.38
418.72	548.38
418.943	528.38
419.166	545.38
419.389	570.38
419.611	541.38
419.834	562.38
420.057	561.38
420.28	551.38
420.503	541.38
420.726	529.38
420.948	556.38
421.171	618.38
421.394	641.38
421.617	538.38
421.839	528.38
422.062	532.38
422.285	570.38
422.507	609.38
422.73	707.38
422.953	644.38
423.175	577.38
423.398	585.38
423.621	575.38
423.843	568.38
424.066	598.38
424.288	564.38
424.511	595.38
424.733	646.38
424.956	713.38
425.178	678.38
425.401	669.38
425.623	696.38
425.846	590.38
426.068	573.38
426.291	562.38
426.513	519.38
426.735	574.38
426.958	598.38
427.18	670.38
427.402	790.38
427.625	888.38
427.847	720.38
428.069	648.38
428.292	590.38
428.514	543.38
428.736	546.38
428.958	526.38
429.181	527.38
429.403	533.38
429.625	522.38
429.847	556.38
430.069	612.38
430.292	604.38
430.514	536.38
430.736	525.38
430.958	523.38
431.18	508.38
431.402	486.38
431.624	493.38
431.846	505.38
432.068	512.38
432.29	496.38
432.512	512.38
432.734	508.38
432.956	518.38
433.178	519.38
433.4	529.38
433.622	484.38
433.844	513.38
434.066	506.38
434.287	506.38
434.509	508.38
434.731	506.38
434.953	525.38
435.175	545.38
435.397	564.38
435.618	554.38
435.84	570.38
436.062	677.38
436.284	758.38
436.505	630.38
436.727	567.38
436.949	531.38
437.17	522.38
437.392	526.38
437.614	518.38
437.835	556.38
438.057	647.38
438.278	726.38
438.5	715.38
438.721	806.38
438.943	770.38
439.165	622.38
439.386	559.38
439.608	569.38
439.829	568.38
440.05	594.38
440.272	642.38
440.493	604.38
440.715	561.38
440.936	540.38
441.158	538.38
441.379	538.38
441.6	528.38
441.822	568.38
442.043	625.38
442.264	673.38
442.486	710.38
442.707	604.38
442.928	570.38
443.149	599.38
443.371	606.38
443.592	651.38
443.813	721.38
444.034	782.38
444.255	663.38
444.476	610.38
444.698	582.38
444.919	578.38
445.14	714.38
445.361	638.38
445.582	622.38
445.803	652.38
446.024	747.38
446.245	759.38
446.466	680.38
446.687	589.38
446.908	582.38
447.129	541.38
447.35	546.38
447.571	519.38
447.792	504.38
448.013	536.38
448.234	557.38
448.455	573.38
448.675	681.38
448.896	772.38
449.117	656.38
449.338	618.38
449.559	725.38
449.779	842.38
450	660.38
450.221	545.38
450.442	522.38
450.662	525.38
450.883	516.38
451.104	496.38
451.324	496.38
451.545	494.38
451.766	485.38
451.986	479.38
452.207	470.38
452.428	480.38
452.648	462.38
452.869	452.38
453.089	480.38
453.31	485.38
453.53	449.38
453.751	459.38
453.971	487.38
454.192	495.38
454.412	472.38
454.633	460.38
454.853	477.38
455.073	454.38
455.294	471.38
455.514	560.38
455.734	519.38
455.955	479.38
456.175	444.38
456.395	440.38
456.616	443.38
456.836	439.38
457.056	450.38
457.276	417.38
457.497	428.38
457.717	441.38
457.937	446.38
458.157	463.38
458.377	457.38
458.598	477.38
458.818	520.38
459.038	616.38
459.258	632.38
459.478	541.38
459.698	531.38
459.918	520.38
460.138	509.38
460.358	538.38
460.578	553.38
460.798	551.38
461.018	533.38
461.238	534.38
461.458	526.38
461.678	534.38
461.898	543.38
462.118	559.38
462.338	547.38
462.558	568.38
462.777	588.38
462.997	614.38
463.217	618.38
463.437	604.38
463.657	601.38
463.876	572.38
464.096	580.38
464.316	590.38
464.536	609.38
464.755	580.38
464.975	574.38
465.195	635.38
465.414	665.38
465.634	575.38
465.854	530.38
466.073	532.38
466.293	506.38
466.512	485.38
466.732	481.38
466.951	469.38
467.171	492.38
467.391	504.38
467.61	487.38
467.829	499.38
468.049	500.38
468.268	500.38
468.488	460.38
468.707	482.38
468.927	461.38
469.146	491.38
469.365	473.38
469.585	471.38
469.804	492.38
470.023	503.38
470.243	509.38
470.462	503.38
470.681	520.38
470.901	506.38
471.12	518.38
471.339	492.38
471.558	504.38
471.777	479.38
471.997	486.38
472.216	493.38
472.435	498.38
472.654	474.38
472.873	462.38
473.092	457.38
473.311	470.38
473.53	494.38
473.749	501.38
473.968	516.38
474.187	612.38
474.406	618.38
474.625	535.38
474.844	497.38
475.063	494.38
475.282	469.38
475.501	474.38
475.72	500.38
475.939	495.38
476.158	502.38
476.377	506.38
476.596	486.38
476.814	507.38
477.033	503.38
477.252	505.38
477.471	501.38
477.69	534.38
477.908	523.38
478.127	536.38
478.346	577.38
478.564	569.38
478.783	549.38
479.002	547.38
479.22	580.38
479.439	573.38
479.658	578.38
479.876	593.38
480.095	600.38
480.313	623.38
480.532	612.38
480.751	607.38
480.969	578.38
481.188	608.38
481.406	595.38
481.624	583.38
481.843	599.38
482.061	580.38
482.28	552.38
482.498	570.38
482.717	550.38
482.935	555.38
483.153	563.38
483.372	550.38
483.59	578.38
483.808	566.38
484.027	545.38
484.245	528.38
484.463	569.38
484.681	566.38
484.9	567.38
485.118	562.38
485.336	560.38
485.554	573.38
485.772	574.38
485.99	578.38
486.209	580.38
486.427	574.38
486.645	601.38
486.863	593.38
487.081	591.38
487.299	592.38
487.517	587.38
487.735	594.38
487.953	581.38
488.171	593.38
488.389	594.38
488.607	587.38
488.825	603.38
489.043	593.38
489.261	612.38
489.479	606.38
489.696	610.38
489.914	606.38
490.132	610.38
490.35	616.38
490.568	619.38
490.786	647.38
491.003	640.38
491.221	641.38
491.439	644.38
491.657	663.38
491.874	658.38
492.092	660.38
492.31	688.38
492.527	698.38
492.745	677.38
492.963	712.38
493.18	686.38
493.398	664.38
493.615	695.38
493.833	692.38
494.05	683.38
494.268	686.38
494.485	712.38
494.703	686.38
494.92	692.38
495.138	682.38
495.355	710.38
495.573	694.38
495.79	692.38
496.008	702.38
496.225	698.38
496.442	713.38
496.66	700.38
496.877	684.38
497.094	698.38
497.312	737.38
497.529	732.38
497.746	743.38
497.963	758.38
498.181	796.38
498.398	807.38
498.615	821.38
498.832	850.38
499.049	871.38
499.267	948.38
499.484	952.38
499.701	979.38
499.918	1048.38
500.135	1113.38
500.352	1217.38
500.569	1220.38
500.786	1199.38
501.003	1179.38
501.22	1135.38
501.437	1082.38
501.654	995.38
501.871	1000.38
