Data from 1985.PennyLincolnUp.Lamp.En5.5.200Scan.071819.P1_HRD10591_17-03-10-971.txt Node
Date: Thu Jul 18 17:03:10 EDT 2019
User: cochatt
Spectrometer: HR+D1059
Trigger mode: 1
Integration Time (sec): 1.000000E-1
Scans to average: 1
Electric dark correction enabled: true
Nonlinearity correction enabled: false
Boxcar width: 0
XAxis mode: Wavelengths
Number of Pixels in Spectrum: 2048
>>>>>Begin Spectral Data<<<<<
223.165	-4.31
223.4	-4.31
223.635	-4.31
223.869	-11.31
224.104	-16.31
224.338	-6.31
224.573	-21.31
224.808	-20.31
225.042	0.69
225.277	-10.31
225.511	2.69
225.746	-1.31
225.98	0.69
226.215	6.69
226.449	17.69
226.683	15.69
226.918	15.69
227.152	31.69
227.387	35.69
227.621	41.69
227.856	27.69
228.09	38.69
228.324	27.69
228.559	57.69
228.793	67.69
229.027	95.69
229.262	104.69
229.496	108.69
229.73	124.69
229.964	143.69
230.199	111.69
230.433	105.69
230.667	118.69
230.901	104.69
231.136	109.69
231.37	111.69
231.604	111.69
231.838	113.69
232.072	99.69
232.306	102.69
232.541	98.69
232.775	121.69
233.009	118.69
233.243	105.69
233.477	110.69
233.711	119.69
233.945	111.69
234.179	108.69
234.413	121.69
234.647	121.69
234.881	115.69
235.115	118.69
235.349	121.69
235.583	118.69
235.817	122.69
236.051	118.69
236.285	124.69
236.519	122.69
236.753	116.69
236.987	149.69
237.221	183.69
237.455	225.69
237.689	165.69
237.922	141.69
238.156	119.69
238.39	132.69
238.624	126.69
238.858	118.69
239.091	127.69
239.325	116.69
239.559	135.69
239.793	124.69
240.027	136.69
240.26	140.69
240.494	156.69
240.728	138.69
240.961	127.69
241.195	132.69
241.429	148.69
241.662	129.69
241.896	126.69
242.13	120.69
242.363	106.69
242.597	138.69
242.83	146.69
243.064	138.69
243.298	152.69
243.531	126.69
243.765	126.69
243.998	138.69
244.232	140.69
244.465	138.69
244.699	137.69
244.932	157.69
245.166	149.69
245.399	154.69
245.633	128.69
245.866	139.69
246.099	153.69
246.333	154.69
246.566	154.69
246.8	154.69
247.033	160.69
247.266	166.69
247.5	178.69
247.733	156.69
247.966	166.69
248.2	167.69
248.433	168.69
248.666	183.69
248.899	172.69
249.133	188.69
249.366	192.69
249.599	194.69
249.832	173.69
250.066	172.69
250.299	174.69
250.532	178.69
250.765	215.69
250.998	220.69
251.231	224.69
251.465	206.69
251.698	195.69
251.931	200.69
252.164	187.69
252.397	195.69
252.63	176.69
252.863	186.69
253.096	198.69
253.329	226.69
253.562	209.69
253.795	227.69
254.028	203.69
254.261	206.69
254.494	206.69
254.727	249.69
254.96	281.69
255.193	267.69
255.426	244.69
255.659	213.69
255.892	228.69
256.124	205.69
256.357	230.69
256.59	207.69
256.823	208.69
257.056	190.69
257.289	204.69
257.521	216.69
257.754	216.69
257.987	211.69
258.22	207.69
258.452	196.69
258.685	211.69
258.918	204.69
259.151	210.69
259.383	199.69
259.616	203.69
259.849	204.69
260.081	230.69
260.314	244.69
260.547	262.69
260.779	262.69
261.012	230.69
261.244	228.69
261.477	207.69
261.71	215.69
261.942	229.69
262.175	226.69
262.407	224.69
262.64	223.69
262.872	212.69
263.105	212.69
263.337	217.69
263.57	219.69
263.802	218.69
264.035	213.69
264.267	207.69
264.499	207.69
264.732	216.69
264.964	225.69
265.197	231.69
265.429	233.69
265.661	230.69
265.894	212.69
266.126	216.69
266.358	217.69
266.591	241.69
266.823	242.69
267.055	218.69
267.287	241.69
267.52	229.69
267.752	240.69
267.984	228.69
268.216	241.69
268.448	251.69
268.681	250.69
268.913	260.69
269.145	272.69
269.377	276.69
269.609	266.69
269.841	270.69
270.073	291.69
270.306	290.69
270.538	329.69
270.77	325.69
271.002	304.69
271.234	297.69
271.466	307.69
271.698	296.69
271.93	302.69
272.162	320.69
272.394	328.69
272.626	333.69
272.858	293.69
273.09	283.69
273.322	286.69
273.553	280.69
273.785	260.69
274.017	281.69
274.249	292.69
274.481	295.69
274.713	271.69
274.945	281.69
275.176	274.69
275.408	284.69
275.64	289.69
275.872	262.69
276.104	272.69
276.335	270.69
276.567	302.69
276.799	302.69
277.031	311.69
277.262	330.69
277.494	319.69
277.726	310.69
277.957	310.69
278.189	282.69
278.421	292.69
278.652	285.69
278.884	294.69
279.115	276.69
279.347	291.69
279.579	290.69
279.81	296.69
280.042	275.69
280.273	282.69
280.505	308.69
280.736	289.69
280.968	274.69
281.199	282.69
281.431	289.69
281.662	273.69
281.894	296.69
282.125	292.69
282.356	318.69
282.588	320.69
282.819	316.69
283.051	301.69
283.282	287.69
283.513	297.69
283.745	316.69
283.976	299.69
284.207	318.69
284.439	295.69
284.67	313.69
284.901	290.69
285.132	295.69
285.364	315.69
285.595	304.69
285.826	286.69
286.057	317.69
286.288	296.69
286.52	305.69
286.751	322.69
286.982	325.69
287.213	312.69
287.444	303.69
287.675	323.69
287.906	302.69
288.138	323.69
288.369	334.69
288.6	328.69
288.831	325.69
289.062	318.69
289.293	322.69
289.524	322.69
289.755	320.69
289.986	313.69
290.217	303.69
290.448	302.69
290.679	319.69
290.91	331.69
291.141	324.69
291.371	297.69
291.602	292.69
291.833	315.69
292.064	319.69
292.295	320.69
292.526	320.69
292.757	332.69
292.987	302.69
293.218	312.69
293.449	332.69
293.68	329.69
293.91	329.69
294.141	347.69
294.372	317.69
294.603	333.69
294.833	314.69
295.064	315.69
295.295	315.69
295.525	316.69
295.756	331.69
295.987	325.69
296.217	348.69
296.448	366.69
296.679	339.69
296.909	329.69
297.14	328.69
297.37	339.69
297.601	337.69
297.831	334.69
298.062	333.69
298.292	322.69
298.523	351.69
298.753	350.69
298.984	331.69
299.214	355.69
299.445	339.69
299.675	368.69
299.905	368.69
300.136	346.69
300.366	355.69
300.597	346.69
300.827	359.69
301.057	356.69
301.288	377.69
301.518	371.69
301.748	372.69
301.979	386.69
302.209	372.69
302.439	357.69
302.669	366.69
302.9	359.69
303.13	362.69
303.36	370.69
303.59	361.69
303.82	380.69
304.051	390.69
304.281	386.69
304.511	361.69
304.741	376.69
304.971	357.69
305.201	358.69
305.431	366.69
305.661	370.69
305.891	354.69
306.121	368.69
306.352	370.69
306.582	379.69
306.812	374.69
307.042	374.69
307.272	361.69
307.502	366.69
307.731	366.69
307.961	368.69
308.191	366.69
308.421	370.69
308.651	357.69
308.881	372.69
309.111	374.69
309.341	374.69
309.571	382.69
309.8	402.69
310.03	395.69
310.26	412.69
310.49	415.69
310.72	398.69
310.949	434.69
311.179	459.69
311.409	413.69
311.639	392.69
311.868	430.69
312.098	410.69
312.328	400.69
312.557	421.69
312.787	439.69
313.017	441.69
313.246	427.69
313.476	435.69
313.706	402.69
313.935	435.69
314.165	416.69
314.394	449.69
314.624	431.69
314.853	424.69
315.083	424.69
315.312	423.69
315.542	406.69
315.771	406.69
316.001	401.69
316.23	407.69
316.46	408.69
316.689	418.69
316.919	410.69
317.148	433.69
317.377	435.69
317.607	424.69
317.836	425.69
318.065	420.69
318.295	413.69
318.524	413.69
318.753	402.69
318.983	440.69
319.212	394.69
319.441	419.69
319.67	422.69
319.9	428.69
320.129	406.69
320.358	424.69
320.587	407.69
320.816	419.69
321.046	440.69
321.275	457.69
321.504	441.69
321.733	438.69
321.962	468.69
322.191	443.69
322.42	462.69
322.649	475.69
322.878	500.69
323.108	494.69
323.337	518.69
323.566	533.69
323.795	550.69
324.024	596.69
324.253	686.69
324.482	965.69
324.71	1441.69
324.939	1982.69
325.168	1744.69
325.397	916.69
325.626	653.69
325.855	546.69
326.084	528.69
326.313	519.69
326.542	544.69
326.77	560.69
326.999	647.69
327.228	867.69
327.457	1302.69
327.686	1574.69
327.914	1024.69
328.143	713.69
328.372	638.69
328.6	622.69
328.829	595.69
329.058	606.69
329.287	620.69
329.515	579.69
329.744	519.69
329.972	509.69
330.201	544.69
330.43	571.69
330.658	619.69
330.887	625.69
331.115	614.69
331.344	549.69
331.572	537.69
331.801	521.69
332.03	538.69
332.258	519.69
332.486	523.69
332.715	500.69
332.943	517.69
333.172	518.69
333.4	536.69
333.629	537.69
333.857	569.69
334.085	563.69
334.314	542.69
334.542	560.69
334.771	553.69
334.999	544.69
335.227	544.69
335.455	550.69
335.684	523.69
335.912	508.69
336.14	483.69
336.369	512.69
336.597	506.69
336.825	508.69
337.053	499.69
337.281	493.69
337.51	487.69
337.738	491.69
337.966	491.69
338.194	471.69
338.422	495.69
338.65	481.69
338.878	499.69
339.106	459.69
339.334	477.69
339.562	485.69
339.79	440.69
340.018	461.69
340.246	469.69
340.474	464.69
340.702	471.69
340.93	490.69
341.158	486.69
341.386	475.69
341.614	494.69
341.842	464.69
342.07	450.69
342.298	467.69
342.526	450.69
342.754	486.69
342.981	468.69
343.209	459.69
343.437	470.69
343.665	485.69
343.893	516.69
344.12	500.69
344.348	497.69
344.576	471.69
344.804	495.69
345.031	494.69
345.259	510.69
345.487	483.69
345.714	453.69
345.942	466.69
346.17	458.69
346.397	458.69
346.625	471.69
346.853	450.69
347.08	440.69
347.308	446.69
347.535	455.69
347.763	464.69
347.99	472.69
348.218	459.69
348.445	465.69
348.673	441.69
348.9	473.69
349.128	454.69
349.355	453.69
349.583	432.69
349.81	462.69
350.037	446.69
350.265	440.69
350.492	438.69
350.72	443.69
350.947	430.69
351.174	464.69
351.402	456.69
351.629	448.69
351.856	447.69
352.083	447.69
352.311	457.69
352.538	464.69
352.765	470.69
352.992	458.69
353.22	459.69
353.447	443.69
353.674	431.69
353.901	439.69
354.128	438.69
354.355	420.69
354.583	397.69
354.81	426.69
355.037	432.69
355.264	426.69
355.491	419.69
355.718	424.69
355.945	434.69
356.172	411.69
356.399	414.69
356.626	408.69
356.853	454.69
357.08	407.69
357.307	432.69
357.534	413.69
357.761	404.69
357.988	422.69
358.215	438.69
358.441	425.69
358.668	420.69
358.895	425.69
359.122	428.69
359.349	435.69
359.576	428.69
359.802	445.69
360.029	487.69
360.256	493.69
360.483	469.69
360.709	456.69
360.936	444.69
361.163	446.69
361.39	449.69
361.616	440.69
361.843	448.69
362.07	444.69
362.296	423.69
362.523	420.69
362.749	447.69
362.976	434.69
363.203	447.69
363.429	438.69
363.656	430.69
363.882	430.69
364.109	427.69
364.335	425.69
364.562	426.69
364.788	430.69
365.015	427.69
365.241	419.69
365.468	418.69
365.694	417.69
365.92	424.69
366.147	440.69
366.373	411.69
366.599	418.69
366.826	397.69
367.052	421.69
367.278	425.69
367.505	435.69
367.731	432.69
367.957	434.69
368.184	415.69
368.41	430.69
368.636	438.69
368.862	434.69
369.089	421.69
369.315	451.69
369.541	432.69
369.767	422.69
369.993	407.69
370.219	427.69
370.445	422.69
370.672	418.69
370.898	403.69
371.124	423.69
371.35	419.69
371.576	417.69
371.802	433.69
372.028	414.69
372.254	426.69
372.48	401.69
372.706	423.69
372.932	425.69
373.158	435.69
373.384	436.69
373.61	426.69
373.835	419.69
374.061	417.69
374.287	428.69
374.513	427.69
374.739	418.69
374.965	443.69
375.191	432.69
375.416	437.69
375.642	423.69
375.868	435.69
376.094	424.69
376.319	435.69
376.545	423.69
376.771	410.69
376.997	414.69
377.222	427.69
377.448	397.69
377.674	411.69
377.899	427.69
378.125	402.69
378.35	405.69
378.576	409.69
378.802	421.69
379.027	421.69
379.253	427.69
379.478	413.69
379.704	410.69
379.929	415.69
380.155	414.69
380.38	421.69
380.606	421.69
380.831	401.69
381.057	424.69
381.282	445.69
381.507	449.69
381.733	425.69
381.958	434.69
382.184	415.69
382.409	428.69
382.634	427.69
382.86	434.69
383.085	451.69
383.31	436.69
383.535	437.69
383.761	448.69
383.986	453.69
384.211	454.69
384.436	458.69
384.662	458.69
384.887	448.69
385.112	460.69
385.337	470.69
385.562	454.69
385.787	455.69
386.013	464.69
386.238	480.69
386.463	486.69
386.688	473.69
386.913	459.69
387.138	465.69
387.363	480.69
387.588	444.69
387.813	472.69
388.038	453.69
388.263	475.69
388.488	477.69
388.713	454.69
388.938	467.69
389.163	460.69
389.387	483.69
389.612	466.69
389.837	456.69
390.062	463.69
390.287	463.69
390.512	464.69
390.736	468.69
390.961	485.69
391.186	473.69
391.411	474.69
391.636	502.69
391.86	466.69
392.085	491.69
392.31	499.69
392.534	504.69
392.759	487.69
392.984	478.69
393.208	459.69
393.433	464.69
393.658	470.69
393.882	475.69
394.107	501.69
394.331	469.69
394.556	496.69
394.78	476.69
395.005	470.69
395.229	491.69
395.454	476.69
395.678	500.69
395.903	517.69
396.127	528.69
396.352	535.69
396.576	489.69
396.801	504.69
397.025	498.69
397.249	512.69
397.474	478.69
397.698	510.69
397.922	528.69
398.147	534.69
398.371	551.69
398.595	552.69
398.82	555.69
399.044	574.69
399.268	603.69
399.492	658.69
399.717	688.69
399.941	708.69
400.165	724.69
400.389	672.69
400.613	642.69
400.837	602.69
401.062	592.69
401.286	564.69
401.51	548.69
401.734	550.69
401.958	552.69
402.182	559.69
402.406	578.69
402.63	576.69
402.854	571.69
403.078	570.69
403.302	577.69
403.526	572.69
403.75	607.69
403.974	585.69
404.198	581.69
404.422	585.69
404.645	566.69
404.869	600.69
405.093	607.69
405.317	614.69
405.541	666.69
405.765	619.69
405.988	592.69
406.212	582.69
406.436	607.69
406.66	643.69
406.883	616.69
407.107	663.69
407.331	678.69
407.555	752.69
407.778	744.69
408.002	662.69
408.226	668.69
408.449	632.69
408.673	611.69
408.896	652.69
409.12	662.69
409.344	658.69
409.567	607.69
409.791	581.69
410.014	568.69
410.238	563.69
410.461	544.69
410.685	566.69
410.908	571.69
411.132	603.69
411.355	647.69
411.578	618.69
411.802	581.69
412.025	539.69
412.249	560.69
412.472	585.69
412.695	613.69
412.919	620.69
413.142	570.69
413.365	542.69
413.589	553.69
413.812	526.69
414.035	533.69
414.258	540.69
414.482	521.69
414.705	526.69
414.928	544.69
415.151	523.69
415.374	533.69
415.597	527.69
415.821	529.69
416.044	529.69
416.267	531.69
416.49	523.69
416.713	498.69
416.936	544.69
417.159	550.69
417.382	538.69
417.605	532.69
417.828	560.69
418.051	538.69
418.274	535.69
418.497	506.69
418.72	525.69
418.943	512.69
419.166	559.69
419.389	568.69
419.611	575.69
419.834	551.69
420.057	544.69
420.28	556.69
420.503	555.69
420.726	534.69
420.948	544.69
421.171	587.69
421.394	623.69
421.617	575.69
421.839	556.69
422.062	552.69
422.285	568.69
422.507	615.69
422.73	695.69
422.953	642.69
423.175	598.69
423.398	564.69
423.621	571.69
423.843	593.69
424.066	602.69
424.288	585.69
424.511	606.69
424.733	638.69
424.956	709.69
425.178	689.69
425.401	688.69
425.623	712.69
425.846	622.69
426.068	591.69
426.291	582.69
426.513	570.69
426.735	567.69
426.958	592.69
427.18	674.69
427.402	809.69
427.625	882.69
427.847	778.69
428.069	672.69
428.292	610.69
428.514	571.69
428.736	549.69
428.958	536.69
429.181	511.69
429.403	530.69
429.625	533.69
429.847	562.69
430.069	632.69
430.292	611.69
430.514	564.69
430.736	540.69
430.958	514.69
431.18	509.69
431.402	507.69
431.624	502.69
431.846	506.69
432.068	501.69
432.29	487.69
432.512	518.69
432.734	512.69
432.956	499.69
433.178	527.69
433.4	514.69
433.622	506.69
433.844	514.69
434.066	502.69
434.287	508.69
434.509	514.69
434.731	527.69
434.953	542.69
435.175	533.69
435.397	561.69
435.618	558.69
435.84	604.69
436.062	676.69
436.284	740.69
436.505	610.69
436.727	584.69
436.949	523.69
437.17	526.69
437.392	534.69
437.614	532.69
437.835	566.69
438.057	654.69
438.278	752.69
438.5	747.69
438.721	793.69
438.943	780.69
439.165	625.69
439.386	584.69
439.608	582.69
439.829	560.69
440.05	600.69
440.272	617.69
440.493	590.69
440.715	558.69
440.936	535.69
441.158	547.69
441.379	519.69
441.6	586.69
441.822	574.69
442.043	597.69
442.264	648.69
442.486	734.69
442.707	635.69
442.928	581.69
443.149	575.69
443.371	622.69
443.592	641.69
443.813	741.69
444.034	784.69
444.255	672.69
444.476	612.69
444.698	598.69
444.919	587.69
445.14	738.69
445.361	649.69
445.582	632.69
445.803	695.69
446.024	770.69
446.245	766.69
446.466	686.69
446.687	612.69
446.908	560.69
447.129	538.69
447.35	523.69
447.571	534.69
447.792	526.69
448.013	524.69
448.234	551.69
448.455	585.69
448.675	691.69
448.896	784.69
449.117	655.69
449.338	622.69
449.559	729.69
449.779	839.69
450	646.69
450.221	561.69
450.442	500.69
450.662	492.69
450.883	523.69
451.104	520.69
451.324	501.69
451.545	476.69
451.766	496.69
451.986	444.69
452.207	484.69
452.428	476.69
452.648	481.69
452.869	477.69
453.089	470.69
453.31	491.69
453.53	467.69
453.751	466.69
453.971	468.69
454.192	462.69
454.412	467.69
454.633	474.69
454.853	452.69
455.073	463.69
455.294	494.69
455.514	568.69
455.734	537.69
455.955	457.69
456.175	438.69
456.395	446.69
456.616	432.69
456.836	445.69
457.056	436.69
457.276	422.69
457.497	437.69
457.717	423.69
457.937	431.69
458.157	446.69
458.377	465.69
458.598	494.69
458.818	524.69
459.038	611.69
459.258	628.69
459.478	539.69
459.698	515.69
459.918	519.69
460.138	503.69
460.358	527.69
460.578	540.69
460.798	535.69
461.018	553.69
461.238	531.69
461.458	534.69
461.678	537.69
461.898	533.69
462.118	545.69
462.338	542.69
462.558	556.69
462.777	577.69
462.997	609.69
463.217	623.69
463.437	612.69
463.657	595.69
463.876	578.69
464.096	585.69
464.316	568.69
464.536	599.69
464.755	602.69
464.975	604.69
465.195	601.69
465.414	666.69
465.634	593.69
465.854	558.69
466.073	530.69
466.293	483.69
466.512	473.69
466.732	484.69
466.951	482.69
467.171	484.69
467.391	478.69
467.61	501.69
467.829	497.69
468.049	503.69
468.268	483.69
468.488	480.69
468.707	452.69
468.927	468.69
469.146	444.69
469.365	477.69
469.585	479.69
469.804	500.69
470.023	506.69
470.243	496.69
470.462	501.69
470.681	508.69
470.901	516.69
471.12	491.69
471.339	485.69
471.558	503.69
471.777	477.69
471.997	475.69
472.216	470.69
472.435	504.69
472.654	482.69
472.873	475.69
473.092	459.69
473.311	498.69
473.53	487.69
473.749	491.69
473.968	535.69
474.187	626.69
474.406	644.69
474.625	559.69
474.844	483.69
475.063	486.69
475.282	491.69
475.501	473.69
475.72	501.69
475.939	508.69
476.158	490.69
476.377	492.69
476.596	502.69
476.814	531.69
477.033	517.69
477.252	522.69
477.471	519.69
477.69	515.69
477.908	518.69
478.127	548.69
478.346	528.69
478.564	547.69
478.783	534.69
479.002	560.69
479.22	564.69
479.439	580.69
479.658	595.69
479.876	593.69
480.095	584.69
480.313	621.69
480.532	616.69
480.751	619.69
480.969	631.69
481.188	635.69
481.406	632.69
481.624	588.69
481.843	572.69
482.061	575.69
482.28	569.69
482.498	547.69
482.717	553.69
482.935	567.69
483.153	540.69
483.372	570.69
483.59	569.69
483.808	547.69
484.027	562.69
484.245	558.69
484.463	558.69
484.681	591.69
484.9	560.69
485.118	582.69
485.336	560.69
485.554	561.69
485.772	585.69
485.99	586.69
486.209	593.69
486.427	592.69
486.645	603.69
486.863	604.69
487.081	619.69
487.299	606.69
487.517	612.69
487.735	623.69
487.953	608.69
488.171	605.69
488.389	600.69
488.607	593.69
488.825	608.69
489.043	585.69
489.261	588.69
489.479	609.69
489.696	622.69
489.914	588.69
490.132	628.69
490.35	635.69
490.568	640.69
490.786	643.69
491.003	667.69
491.221	673.69
491.439	666.69
491.657	666.69
491.874	665.69
492.092	669.69
492.31	692.69
492.527	671.69
492.745	682.69
492.963	681.69
493.18	680.69
493.398	677.69
493.615	699.69
493.833	720.69
494.05	700.69
494.268	725.69
494.485	706.69
494.703	720.69
494.92	720.69
495.138	708.69
495.355	686.69
495.573	694.69
495.79	723.69
496.008	718.69
496.225	718.69
496.442	707.69
496.66	717.69
496.877	743.69
497.094	716.69
497.312	724.69
497.529	758.69
497.746	756.69
497.963	772.69
498.181	795.69
498.398	791.69
498.615	832.69
498.832	889.69
499.049	855.69
499.267	924.69
499.484	937.69
499.701	1018.69
499.918	1032.69
500.135	1137.69
500.352	1185.69
500.569	1219.69
500.786	1228.69
501.003	1172.69
501.22	1112.69
501.437	1076.69
501.654	1013.69
501.871	1011.69
