Data from 1985.PennyLincolnUp.Lamp.En5.5.200Scan.071819.P1_HRD10591_17-01-23-973.txt Node
Date: Thu Jul 18 17:01:23 EDT 2019
User: cochatt
Spectrometer: HR+D1059
Trigger mode: 1
Integration Time (sec): 1.000000E-1
Scans to average: 1
Electric dark correction enabled: true
Nonlinearity correction enabled: false
Boxcar width: 0
XAxis mode: Wavelengths
Number of Pixels in Spectrum: 2048
>>>>>Begin Spectral Data<<<<<
223.165	-1.56
223.4	-1.56
223.635	-1.56
223.869	-16.56
224.104	-22.56
224.338	-12.56
224.573	-12.56
224.808	-15.56
225.042	-30.56
225.277	-1.56
225.511	4.44
225.746	2.44
225.98	-1.56
226.215	11.44
226.449	17.44
226.683	17.44
226.918	26.44
227.152	35.44
227.387	38.44
227.621	35.44
227.856	43.44
228.09	30.44
228.324	53.44
228.559	40.44
228.793	57.44
229.027	75.44
229.262	90.44
229.496	92.44
229.73	101.44
229.964	130.44
230.199	104.44
230.433	109.44
230.667	89.44
230.901	94.44
231.136	87.44
231.37	96.44
231.604	108.44
231.838	106.44
232.072	123.44
232.306	96.44
232.541	103.44
232.775	98.44
233.009	90.44
233.243	89.44
233.477	113.44
233.711	104.44
233.945	120.44
234.179	107.44
234.413	103.44
234.647	95.44
234.881	101.44
235.115	114.44
235.349	111.44
235.583	113.44
235.817	98.44
236.051	120.44
236.285	117.44
236.519	130.44
236.753	117.44
236.987	117.44
237.221	156.44
237.455	181.44
237.689	162.44
237.922	125.44
238.156	116.44
238.39	107.44
238.624	121.44
238.858	121.44
239.091	108.44
239.325	119.44
239.559	117.44
239.793	139.44
240.027	122.44
240.26	131.44
240.494	144.44
240.728	145.44
240.961	124.44
241.195	133.44
241.429	118.44
241.662	112.44
241.896	120.44
242.13	116.44
242.363	133.44
242.597	124.44
242.83	133.44
243.064	137.44
243.298	134.44
243.531	121.44
243.765	139.44
243.998	133.44
244.232	121.44
244.465	144.44
244.699	151.44
244.932	131.44
245.166	126.44
245.399	137.44
245.633	134.44
245.866	137.44
246.099	139.44
246.333	125.44
246.566	130.44
246.8	165.44
247.033	170.44
247.266	144.44
247.5	146.44
247.733	158.44
247.966	174.44
248.2	156.44
248.433	164.44
248.666	158.44
248.899	155.44
249.133	167.44
249.366	179.44
249.599	188.44
249.832	165.44
250.066	163.44
250.299	160.44
250.532	161.44
250.765	173.44
250.998	185.44
251.231	198.44
251.465	197.44
251.698	177.44
251.931	189.44
252.164	170.44
252.397	182.44
252.63	169.44
252.863	189.44
253.096	184.44
253.329	202.44
253.562	197.44
253.795	203.44
254.028	183.44
254.261	188.44
254.494	192.44
254.727	217.44
254.96	245.44
255.193	220.44
255.426	218.44
255.659	199.44
255.892	212.44
256.124	201.44
256.357	192.44
256.59	170.44
256.823	185.44
257.056	195.44
257.289	178.44
257.521	193.44
257.754	183.44
257.987	196.44
258.22	212.44
258.452	199.44
258.685	197.44
258.918	198.44
259.151	182.44
259.383	201.44
259.616	203.44
259.849	214.44
260.081	203.44
260.314	217.44
260.547	212.44
260.779	208.44
261.012	213.44
261.244	214.44
261.477	214.44
261.71	217.44
261.942	209.44
262.175	208.44
262.407	200.44
262.64	202.44
262.872	197.44
263.105	188.44
263.337	203.44
263.57	204.44
263.802	208.44
264.035	210.44
264.267	217.44
264.499	199.44
264.732	196.44
264.964	230.44
265.197	206.44
265.429	202.44
265.661	211.44
265.894	202.44
266.126	198.44
266.358	202.44
266.591	226.44
266.823	209.44
267.055	217.44
267.287	208.44
267.52	224.44
267.752	230.44
267.984	225.44
268.216	215.44
268.448	202.44
268.681	225.44
268.913	239.44
269.145	263.44
269.377	237.44
269.609	259.44
269.841	245.44
270.073	258.44
270.306	256.44
270.538	281.44
270.77	279.44
271.002	266.44
271.234	259.44
271.466	276.44
271.698	284.44
271.93	280.44
272.162	283.44
272.394	294.44
272.626	267.44
272.858	265.44
273.09	252.44
273.322	250.44
273.553	259.44
273.785	255.44
274.017	264.44
274.249	255.44
274.481	248.44
274.713	245.44
274.945	241.44
275.176	255.44
275.408	254.44
275.64	258.44
275.872	238.44
276.104	246.44
276.335	266.44
276.567	267.44
276.799	278.44
277.031	289.44
277.262	288.44
277.494	301.44
277.726	279.44
277.957	275.44
278.189	290.44
278.421	270.44
278.652	281.44
278.884	282.44
279.115	280.44
279.347	296.44
279.579	270.44
279.81	259.44
280.042	269.44
280.273	257.44
280.505	250.44
280.736	254.44
280.968	250.44
281.199	273.44
281.431	281.44
281.662	276.44
281.894	273.44
282.125	260.44
282.356	287.44
282.588	301.44
282.819	295.44
283.051	271.44
283.282	258.44
283.513	291.44
283.745	296.44
283.976	289.44
284.207	286.44
284.439	286.44
284.67	289.44
284.901	280.44
285.132	294.44
285.364	296.44
285.595	290.44
285.826	288.44
286.057	297.44
286.288	291.44
286.52	277.44
286.751	286.44
286.982	289.44
287.213	294.44
287.444	294.44
287.675	293.44
287.906	296.44
288.138	294.44
288.369	310.44
288.6	294.44
288.831	299.44
289.062	298.44
289.293	291.44
289.524	314.44
289.755	298.44
289.986	298.44
290.217	286.44
290.448	283.44
290.679	300.44
290.91	299.44
291.141	294.44
291.371	290.44
291.602	297.44
291.833	275.44
292.064	288.44
292.295	309.44
292.526	303.44
292.757	301.44
292.987	294.44
293.218	303.44
293.449	313.44
293.68	296.44
293.91	294.44
294.141	314.44
294.372	310.44
294.603	306.44
294.833	312.44
295.064	290.44
295.295	313.44
295.525	315.44
295.756	298.44
295.987	319.44
296.217	314.44
296.448	330.44
296.679	300.44
296.909	323.44
297.14	314.44
297.37	306.44
297.601	319.44
297.831	314.44
298.062	320.44
298.292	299.44
298.523	313.44
298.753	335.44
298.984	325.44
299.214	323.44
299.445	327.44
299.675	310.44
299.905	332.44
300.136	344.44
300.366	336.44
300.597	331.44
300.827	341.44
301.057	328.44
301.288	348.44
301.518	330.44
301.748	336.44
301.979	344.44
302.209	350.44
302.439	333.44
302.669	350.44
302.9	339.44
303.13	347.44
303.36	345.44
303.59	371.44
303.82	342.44
304.051	361.44
304.281	359.44
304.511	352.44
304.741	337.44
304.971	334.44
305.201	344.44
305.431	332.44
305.661	329.44
305.891	367.44
306.121	348.44
306.352	335.44
306.582	340.44
306.812	355.44
307.042	352.44
307.272	350.44
307.502	346.44
307.731	322.44
307.961	335.44
308.191	343.44
308.421	346.44
308.651	351.44
308.881	336.44
309.111	341.44
309.341	342.44
309.571	354.44
309.8	356.44
310.03	381.44
310.26	375.44
310.49	374.44
310.72	361.44
310.949	367.44
311.179	367.44
311.409	357.44
311.639	360.44
311.868	370.44
312.098	382.44
312.328	388.44
312.557	384.44
312.787	416.44
313.017	394.44
313.246	384.44
313.476	384.44
313.706	387.44
313.935	375.44
314.165	398.44
314.394	390.44
314.624	392.44
314.853	374.44
315.083	369.44
315.312	375.44
315.542	382.44
315.771	372.44
316.001	390.44
316.23	378.44
316.46	390.44
316.689	392.44
316.919	387.44
317.148	389.44
317.377	383.44
317.607	390.44
317.836	391.44
318.065	385.44
318.295	387.44
318.524	396.44
318.753	371.44
318.983	385.44
319.212	386.44
319.441	369.44
319.67	354.44
319.9	373.44
320.129	390.44
320.358	374.44
320.587	400.44
320.816	377.44
321.046	383.44
321.275	396.44
321.504	396.44
321.733	424.44
321.962	409.44
322.191	398.44
322.42	404.44
322.649	442.44
322.878	411.44
323.108	445.44
323.337	431.44
323.566	457.44
323.795	481.44
324.024	481.44
324.253	568.44
324.482	722.44
324.71	1059.44
324.939	1472.44
325.168	1254.44
325.397	725.44
325.626	536.44
325.855	489.44
326.084	479.44
326.313	455.44
326.542	458.44
326.77	492.44
326.999	548.44
327.228	665.44
327.457	921.44
327.686	1114.44
327.914	781.44
328.143	584.44
328.372	536.44
328.6	489.44
328.829	481.44
329.058	480.44
329.287	497.44
329.515	505.44
329.744	458.44
329.972	455.44
330.201	454.44
330.43	474.44
330.658	488.44
330.887	511.44
331.115	501.44
331.344	463.44
331.572	464.44
331.801	474.44
332.03	484.44
332.258	464.44
332.486	454.44
332.715	463.44
332.943	466.44
333.172	480.44
333.4	448.44
333.629	484.44
333.857	498.44
334.085	482.44
334.314	499.44
334.542	470.44
334.771	494.44
334.999	472.44
335.227	482.44
335.455	468.44
335.684	469.44
335.912	467.44
336.14	465.44
336.369	453.44
336.597	452.44
336.825	454.44
337.053	459.44
337.281	457.44
337.51	438.44
337.738	445.44
337.966	450.44
338.194	437.44
338.422	447.44
338.65	440.44
338.878	440.44
339.106	435.44
339.334	433.44
339.562	441.44
339.79	438.44
340.018	444.44
340.246	423.44
340.474	443.44
340.702	432.44
340.93	426.44
341.158	431.44
341.386	429.44
341.614	424.44
341.842	438.44
342.07	407.44
342.298	415.44
342.526	417.44
342.754	418.44
342.981	407.44
343.209	415.44
343.437	434.44
343.665	461.44
343.893	481.44
344.12	490.44
344.348	462.44
344.576	477.44
344.804	450.44
345.031	431.44
345.259	448.44
345.487	439.44
345.714	417.44
345.942	423.44
346.17	416.44
346.397	425.44
346.625	393.44
346.853	407.44
347.08	419.44
347.308	409.44
347.535	409.44
347.763	432.44
347.99	401.44
348.218	419.44
348.445	420.44
348.673	415.44
348.9	424.44
349.128	402.44
349.355	414.44
349.583	399.44
349.81	410.44
350.037	402.44
350.265	405.44
350.492	397.44
350.72	386.44
350.947	392.44
351.174	408.44
351.402	426.44
351.629	423.44
351.856	420.44
352.083	425.44
352.311	415.44
352.538	413.44
352.765	401.44
352.992	396.44
353.22	422.44
353.447	392.44
353.674	411.44
353.901	418.44
354.128	430.44
354.355	402.44
354.583	395.44
354.81	391.44
355.037	374.44
355.264	391.44
355.491	393.44
355.718	393.44
355.945	389.44
356.172	401.44
356.399	380.44
356.626	404.44
356.853	375.44
357.08	392.44
357.307	392.44
357.534	389.44
357.761	371.44
357.988	403.44
358.215	392.44
358.441	376.44
358.668	387.44
358.895	392.44
359.122	405.44
359.349	409.44
359.576	379.44
359.802	403.44
360.029	413.44
360.256	431.44
360.483	436.44
360.709	403.44
360.936	412.44
361.163	398.44
361.39	396.44
361.616	387.44
361.843	403.44
362.07	388.44
362.296	429.44
362.523	408.44
362.749	406.44
362.976	392.44
363.203	393.44
363.429	392.44
363.656	396.44
363.882	385.44
364.109	394.44
364.335	403.44
364.562	393.44
364.788	406.44
365.015	404.44
365.241	401.44
365.468	377.44
365.694	394.44
365.92	390.44
366.147	385.44
366.373	386.44
366.599	391.44
366.826	385.44
367.052	368.44
367.278	391.44
367.505	383.44
367.731	394.44
367.957	387.44
368.184	394.44
368.41	388.44
368.636	405.44
368.862	420.44
369.089	396.44
369.315	386.44
369.541	405.44
369.767	401.44
369.993	420.44
370.219	388.44
370.445	392.44
370.672	399.44
370.898	404.44
371.124	394.44
371.35	373.44
371.576	385.44
371.802	391.44
372.028	393.44
372.254	408.44
372.48	416.44
372.706	399.44
372.932	414.44
373.158	399.44
373.384	402.44
373.61	406.44
373.835	401.44
374.061	404.44
374.287	397.44
374.513	407.44
374.739	415.44
374.965	407.44
375.191	412.44
375.416	409.44
375.642	406.44
375.868	415.44
376.094	396.44
376.319	423.44
376.545	386.44
376.771	388.44
376.997	388.44
377.222	382.44
377.448	392.44
377.674	385.44
377.899	402.44
378.125	392.44
378.35	398.44
378.576	401.44
378.802	391.44
379.027	400.44
379.253	393.44
379.478	402.44
379.704	401.44
379.929	391.44
380.155	385.44
380.38	390.44
380.606	399.44
380.831	381.44
381.057	405.44
381.282	388.44
381.507	408.44
381.733	402.44
381.958	403.44
382.184	402.44
382.409	386.44
382.634	398.44
382.86	398.44
383.085	415.44
383.31	427.44
383.535	418.44
383.761	399.44
383.986	414.44
384.211	422.44
384.436	437.44
384.662	434.44
384.887	431.44
385.112	445.44
385.337	451.44
385.562	435.44
385.787	436.44
386.013	455.44
386.238	454.44
386.463	453.44
386.688	465.44
386.913	442.44
387.138	446.44
387.363	450.44
387.588	424.44
387.813	438.44
388.038	442.44
388.263	472.44
388.488	458.44
388.713	449.44
388.938	440.44
389.163	458.44
389.387	441.44
389.612	420.44
389.837	422.44
390.062	433.44
390.287	439.44
390.512	433.44
390.736	443.44
390.961	450.44
391.186	455.44
391.411	441.44
391.636	471.44
391.86	454.44
392.085	469.44
392.31	473.44
392.534	458.44
392.759	459.44
392.984	452.44
393.208	438.44
393.433	447.44
393.658	461.44
393.882	440.44
394.107	457.44
394.331	459.44
394.556	438.44
394.78	438.44
395.005	447.44
395.229	448.44
395.454	472.44
395.678	469.44
395.903	473.44
396.127	493.44
396.352	496.44
396.576	446.44
396.801	480.44
397.025	455.44
397.249	462.44
397.474	484.44
397.698	457.44
397.922	491.44
398.147	506.44
398.371	500.44
398.595	515.44
398.82	511.44
399.044	527.44
399.268	547.44
399.492	607.44
399.717	638.44
399.941	649.44
400.165	655.44
400.389	639.44
400.613	564.44
400.837	553.44
401.062	527.44
401.286	497.44
401.51	515.44
401.734	523.44
401.958	516.44
402.182	529.44
402.406	532.44
402.63	528.44
402.854	528.44
403.078	520.44
403.302	524.44
403.526	543.44
403.75	563.44
403.974	543.44
404.198	533.44
404.422	545.44
404.645	547.44
404.869	537.44
405.093	542.44
405.317	559.44
405.541	578.44
405.765	568.44
405.988	531.44
406.212	567.44
406.436	588.44
406.66	589.44
406.883	559.44
407.107	607.44
407.331	634.44
407.555	688.44
407.778	682.44
408.002	641.44
408.226	600.44
408.449	571.44
408.673	561.44
408.896	588.44
409.12	643.44
409.344	584.44
409.567	551.44
409.791	541.44
410.014	516.44
410.238	532.44
410.461	545.44
410.685	536.44
410.908	539.44
411.132	560.44
411.355	573.44
411.578	565.44
411.802	527.44
412.025	518.44
412.249	516.44
412.472	529.44
412.695	514.44
412.919	527.44
413.142	486.44
413.365	507.44
413.589	493.44
413.812	501.44
414.035	520.44
414.258	478.44
414.482	482.44
414.705	520.44
414.928	492.44
415.151	493.44
415.374	502.44
415.597	511.44
415.821	485.44
416.044	501.44
416.267	506.44
416.49	490.44
416.713	504.44
416.936	491.44
417.159	504.44
417.382	487.44
417.605	493.44
417.828	502.44
418.051	501.44
418.274	491.44
418.497	469.44
418.72	507.44
418.943	490.44
419.166	508.44
419.389	517.44
419.611	517.44
419.834	513.44
420.057	494.44
420.28	497.44
420.503	496.44
420.726	494.44
420.948	512.44
421.171	535.44
421.394	575.44
421.617	510.44
421.839	502.44
422.062	507.44
422.285	515.44
422.507	567.44
422.73	622.44
422.953	587.44
423.175	545.44
423.398	513.44
423.621	539.44
423.843	570.44
424.066	525.44
424.288	532.44
424.511	544.44
424.733	598.44
424.956	645.44
425.178	615.44
425.401	614.44
425.623	635.44
425.846	548.44
426.068	532.44
426.291	531.44
426.513	518.44
426.735	520.44
426.958	548.44
427.18	606.44
427.402	695.44
427.625	791.44
427.847	670.44
428.069	577.44
428.292	542.44
428.514	497.44
428.736	481.44
428.958	489.44
429.181	463.44
429.403	447.44
429.625	489.44
429.847	495.44
430.069	561.44
430.292	560.44
430.514	489.44
430.736	490.44
430.958	494.44
431.18	486.44
431.402	460.44
431.624	450.44
431.846	471.44
432.068	482.44
432.29	474.44
432.512	459.44
432.734	451.44
432.956	466.44
433.178	457.44
433.4	473.44
433.622	471.44
433.844	474.44
434.066	473.44
434.287	496.44
434.509	455.44
434.731	501.44
434.953	500.44
435.175	484.44
435.397	517.44
435.618	528.44
435.84	567.44
436.062	628.44
436.284	649.44
436.505	558.44
436.727	497.44
436.949	480.44
437.17	475.44
437.392	494.44
437.614	491.44
437.835	501.44
438.057	582.44
438.278	652.44
438.5	668.44
438.721	705.44
438.943	665.44
439.165	563.44
439.386	523.44
439.608	517.44
439.829	510.44
440.05	528.44
440.272	557.44
440.493	531.44
440.715	502.44
440.936	501.44
441.158	485.44
441.379	509.44
441.6	490.44
441.822	520.44
442.043	561.44
442.264	619.44
442.486	618.44
442.707	574.44
442.928	538.44
443.149	541.44
443.371	561.44
443.592	581.44
443.813	652.44
444.034	719.44
444.255	583.44
444.476	537.44
444.698	561.44
444.919	558.44
445.14	654.44
445.361	598.44
445.582	553.44
445.803	599.44
446.024	649.44
446.245	674.44
446.466	619.44
446.687	534.44
446.908	495.44
447.129	504.44
447.35	491.44
447.571	457.44
447.792	455.44
448.013	470.44
448.234	466.44
448.455	529.44
448.675	631.44
448.896	702.44
449.117	602.44
449.338	562.44
449.559	649.44
449.779	741.44
450	586.44
450.221	490.44
450.442	464.44
450.662	455.44
450.883	459.44
451.104	457.44
451.324	466.44
451.545	452.44
451.766	435.44
451.986	436.44
452.207	423.44
452.428	418.44
452.648	422.44
452.869	435.44
453.089	419.44
453.31	435.44
453.53	414.44
453.751	414.44
453.971	427.44
454.192	447.44
454.412	425.44
454.633	407.44
454.853	415.44
455.073	425.44
455.294	460.44
455.514	497.44
455.734	467.44
455.955	439.44
456.175	421.44
456.395	389.44
456.616	410.44
456.836	393.44
457.056	388.44
457.276	408.44
457.497	409.44
457.717	413.44
457.937	409.44
458.157	430.44
458.377	407.44
458.598	437.44
458.818	459.44
459.038	540.44
459.258	547.44
459.478	496.44
459.698	474.44
459.918	477.44
460.138	481.44
460.358	510.44
460.578	503.44
460.798	505.44
461.018	513.44
461.238	502.44
461.458	489.44
461.678	483.44
461.898	525.44
462.118	521.44
462.338	531.44
462.558	523.44
462.777	527.44
462.997	543.44
463.217	585.44
463.437	593.44
463.657	570.44
463.876	547.44
464.096	556.44
464.316	531.44
464.536	558.44
464.755	579.44
464.975	539.44
465.195	526.44
465.414	559.44
465.634	517.44
465.854	510.44
466.073	480.44
466.293	443.44
466.512	458.44
466.732	459.44
466.951	449.44
467.171	447.44
467.391	451.44
467.61	457.44
467.829	441.44
468.049	479.44
468.268	425.44
468.488	434.44
468.707	437.44
468.927	447.44
469.146	420.44
469.365	440.44
469.585	423.44
469.804	442.44
470.023	459.44
470.243	426.44
470.462	444.44
470.681	458.44
470.901	456.44
471.12	447.44
471.339	463.44
471.558	443.44
471.777	450.44
471.997	450.44
472.216	436.44
472.435	431.44
472.654	449.44
472.873	455.44
473.092	403.44
473.311	448.44
473.53	453.44
473.749	445.44
473.968	486.44
474.187	558.44
474.406	569.44
474.625	501.44
474.844	452.44
475.063	446.44
475.282	445.44
475.501	443.44
475.72	454.44
475.939	456.44
476.158	465.44
476.377	467.44
476.596	466.44
476.814	467.44
477.033	488.44
477.252	472.44
477.471	476.44
477.69	502.44
477.908	486.44
478.127	510.44
478.346	512.44
478.564	516.44
478.783	499.44
479.002	542.44
479.22	507.44
479.439	541.44
479.658	555.44
479.876	549.44
480.095	553.44
480.313	581.44
480.532	564.44
480.751	566.44
480.969	554.44
481.188	574.44
481.406	546.44
481.624	523.44
481.843	523.44
482.061	523.44
482.28	520.44
482.498	501.44
482.717	520.44
482.935	520.44
483.153	511.44
483.372	511.44
483.59	511.44
483.808	529.44
484.027	529.44
484.245	502.44
484.463	511.44
484.681	527.44
484.9	545.44
485.118	532.44
485.336	521.44
485.554	535.44
485.772	532.44
485.99	549.44
486.209	559.44
486.427	565.44
486.645	537.44
486.863	542.44
487.081	564.44
487.299	534.44
487.517	580.44
487.735	534.44
487.953	535.44
488.171	569.44
488.389	555.44
488.607	551.44
488.825	550.44
489.043	565.44
489.261	564.44
489.479	551.44
489.696	535.44
489.914	567.44
490.132	579.44
490.35	570.44
490.568	582.44
490.786	590.44
491.003	568.44
491.221	601.44
491.439	611.44
491.657	610.44
491.874	598.44
492.092	603.44
492.31	635.44
492.527	621.44
492.745	625.44
492.963	625.44
493.18	618.44
493.398	601.44
493.615	610.44
493.833	642.44
494.05	630.44
494.268	634.44
494.485	619.44
494.703	614.44
494.92	622.44
495.138	643.44
495.355	653.44
495.573	627.44
495.79	623.44
496.008	642.44
496.225	646.44
496.442	656.44
496.66	659.44
496.877	634.44
497.094	642.44
497.312	692.44
497.529	663.44
497.746	672.44
497.963	728.44
498.181	712.44
498.398	739.44
498.615	758.44
498.832	787.44
499.049	808.44
499.267	845.44
499.484	898.44
499.701	925.44
499.918	979.44
500.135	1035.44
500.352	1138.44
500.569	1121.44
500.786	1145.44
501.003	1111.44
501.22	1053.44
501.437	962.44
501.654	933.44
501.871	907.44
502.088	856.44
