Data from 1985.PennyLincolnUp.Lamp.En5.5.200Scan.071819.P1_HRD10591_17-02-17-970.txt Node
Date: Thu Jul 18 17:02:17 EDT 2019
User: cochatt
Spectrometer: HR+D1059
Trigger mode: 1
Integration Time (sec): 1.000000E-1
Scans to average: 1
Electric dark correction enabled: true
Nonlinearity correction enabled: false
Boxcar width: 0
XAxis mode: Wavelengths
Number of Pixels in Spectrum: 2048
>>>>>Begin Spectral Data<<<<<
223.165	-14.25
223.4	-14.25
223.635	-14.25
223.869	-26.25
224.104	-14.25
224.338	0.75
224.573	-0.25
224.808	-11.25
225.042	-25.25
225.277	0.75
225.511	-1.25
225.746	1.75
225.98	17.75
226.215	-1.25
226.449	13.75
226.683	18.75
226.918	15.75
227.152	24.75
227.387	28.75
227.621	29.75
227.856	32.75
228.09	40.75
228.324	45.75
228.559	65.75
228.793	64.75
229.027	90.75
229.262	96.75
229.496	109.75
229.73	115.75
229.964	131.75
230.199	95.75
230.433	108.75
230.667	110.75
230.901	111.75
231.136	101.75
231.37	103.75
231.604	105.75
231.838	116.75
232.072	104.75
232.306	102.75
232.541	111.75
232.775	110.75
233.009	110.75
233.243	100.75
233.477	109.75
233.711	106.75
233.945	123.75
234.179	122.75
234.413	110.75
234.647	104.75
234.881	110.75
235.115	128.75
235.349	105.75
235.583	109.75
235.817	99.75
236.051	124.75
236.285	119.75
236.519	116.75
236.753	131.75
236.987	122.75
237.221	153.75
237.455	188.75
237.689	160.75
237.922	135.75
238.156	129.75
238.39	121.75
238.624	125.75
238.858	126.75
239.091	118.75
239.325	100.75
239.559	120.75
239.793	115.75
240.027	142.75
240.26	128.75
240.494	137.75
240.728	149.75
240.961	127.75
241.195	125.75
241.429	132.75
241.662	123.75
241.896	122.75
242.13	129.75
242.363	127.75
242.597	143.75
242.83	134.75
243.064	123.75
243.298	149.75
243.531	148.75
243.765	129.75
243.998	121.75
244.232	132.75
244.465	144.75
244.699	162.75
244.932	138.75
245.166	131.75
245.399	131.75
245.633	131.75
245.866	138.75
246.099	133.75
246.333	134.75
246.566	145.75
246.8	139.75
247.033	143.75
247.266	160.75
247.5	140.75
247.733	138.75
247.966	149.75
248.2	166.75
248.433	164.75
248.666	168.75
248.899	164.75
249.133	174.75
249.366	186.75
249.599	173.75
249.832	165.75
250.066	150.75
250.299	181.75
250.532	174.75
250.765	174.75
250.998	206.75
251.231	213.75
251.465	194.75
251.698	181.75
251.931	181.75
252.164	205.75
252.397	197.75
252.63	184.75
252.863	186.75
253.096	199.75
253.329	196.75
253.562	195.75
253.795	205.75
254.028	197.75
254.261	188.75
254.494	213.75
254.727	218.75
254.96	277.75
255.193	260.75
255.426	231.75
255.659	216.75
255.892	210.75
256.124	208.75
256.357	209.75
256.59	188.75
256.823	205.75
257.056	196.75
257.289	190.75
257.521	212.75
257.754	204.75
257.987	190.75
258.22	202.75
258.452	186.75
258.685	186.75
258.918	188.75
259.151	201.75
259.383	198.75
259.616	214.75
259.849	202.75
260.081	222.75
260.314	240.75
260.547	249.75
260.779	228.75
261.012	226.75
261.244	200.75
261.477	213.75
261.71	225.75
261.942	215.75
262.175	221.75
262.407	199.75
262.64	208.75
262.872	214.75
263.105	207.75
263.337	202.75
263.57	202.75
263.802	210.75
264.035	207.75
264.267	210.75
264.499	215.75
264.732	218.75
264.964	216.75
265.197	199.75
265.429	199.75
265.661	196.75
265.894	211.75
266.126	209.75
266.358	208.75
266.591	202.75
266.823	212.75
267.055	226.75
267.287	237.75
267.52	240.75
267.752	215.75
267.984	243.75
268.216	224.75
268.448	225.75
268.681	245.75
268.913	233.75
269.145	265.75
269.377	246.75
269.609	266.75
269.841	249.75
270.073	254.75
270.306	285.75
270.538	314.75
270.77	313.75
271.002	297.75
271.234	281.75
271.466	298.75
271.698	300.75
271.93	322.75
272.162	308.75
272.394	307.75
272.626	288.75
272.858	280.75
273.09	268.75
273.322	272.75
273.553	265.75
273.785	268.75
274.017	266.75
274.249	252.75
274.481	268.75
274.713	245.75
274.945	276.75
275.176	276.75
275.408	270.75
275.64	269.75
275.872	264.75
276.104	259.75
276.335	263.75
276.567	266.75
276.799	287.75
277.031	286.75
277.262	319.75
277.494	314.75
277.726	300.75
277.957	306.75
278.189	292.75
278.421	274.75
278.652	279.75
278.884	280.75
279.115	280.75
279.347	257.75
279.579	276.75
279.81	273.75
280.042	268.75
280.273	269.75
280.505	282.75
280.736	270.75
280.968	264.75
281.199	269.75
281.431	289.75
281.662	269.75
281.894	270.75
282.125	296.75
282.356	288.75
282.588	316.75
282.819	318.75
283.051	293.75
283.282	276.75
283.513	274.75
283.745	307.75
283.976	291.75
284.207	296.75
284.439	282.75
284.67	283.75
284.901	285.75
285.132	297.75
285.364	284.75
285.595	302.75
285.826	312.75
286.057	287.75
286.288	269.75
286.52	287.75
286.751	287.75
286.982	302.75
287.213	294.75
287.444	311.75
287.675	308.75
287.906	297.75
288.138	318.75
288.369	311.75
288.6	318.75
288.831	319.75
289.062	307.75
289.293	305.75
289.524	309.75
289.755	314.75
289.986	305.75
290.217	284.75
290.448	312.75
290.679	304.75
290.91	308.75
291.141	293.75
291.371	290.75
291.602	330.75
291.833	313.75
292.064	296.75
292.295	308.75
292.526	303.75
292.757	313.75
292.987	313.75
293.218	296.75
293.449	306.75
293.68	323.75
293.91	325.75
294.141	317.75
294.372	311.75
294.603	296.75
294.833	309.75
295.064	320.75
295.295	329.75
295.525	317.75
295.756	318.75
295.987	322.75
296.217	340.75
296.448	343.75
296.679	330.75
296.909	321.75
297.14	304.75
297.37	335.75
297.601	315.75
297.831	324.75
298.062	341.75
298.292	334.75
298.523	321.75
298.753	325.75
298.984	339.75
299.214	324.75
299.445	344.75
299.675	331.75
299.905	337.75
300.136	330.75
300.366	344.75
300.597	349.75
300.827	316.75
301.057	336.75
301.288	338.75
301.518	329.75
301.748	351.75
301.979	357.75
302.209	365.75
302.439	341.75
302.669	356.75
302.9	342.75
303.13	346.75
303.36	368.75
303.59	361.75
303.82	357.75
304.051	362.75
304.281	342.75
304.511	336.75
304.741	326.75
304.971	339.75
305.201	349.75
305.431	364.75
305.661	348.75
305.891	349.75
306.121	360.75
306.352	362.75
306.582	338.75
306.812	344.75
307.042	374.75
307.272	359.75
307.502	342.75
307.731	342.75
307.961	352.75
308.191	340.75
308.421	357.75
308.651	387.75
308.881	343.75
309.111	355.75
309.341	389.75
309.571	376.75
309.8	360.75
310.03	376.75
310.26	398.75
310.49	406.75
310.72	399.75
310.949	404.75
311.179	424.75
311.409	390.75
311.639	392.75
311.868	401.75
312.098	394.75
312.328	414.75
312.557	412.75
312.787	403.75
313.017	424.75
313.246	408.75
313.476	397.75
313.706	401.75
313.935	393.75
314.165	402.75
314.394	411.75
314.624	415.75
314.853	403.75
315.083	409.75
315.312	404.75
315.542	384.75
315.771	384.75
316.001	388.75
316.23	385.75
316.46	401.75
316.689	380.75
316.919	406.75
317.148	413.75
317.377	400.75
317.607	413.75
317.836	407.75
318.065	375.75
318.295	390.75
318.524	399.75
318.753	380.75
318.983	398.75
319.212	397.75
319.441	407.75
319.67	410.75
319.9	394.75
320.129	394.75
320.358	389.75
320.587	403.75
320.816	390.75
321.046	416.75
321.275	407.75
321.504	409.75
321.733	413.75
321.962	406.75
322.191	449.75
322.42	466.75
322.649	447.75
322.878	458.75
323.108	463.75
323.337	479.75
323.566	485.75
323.795	530.75
324.024	548.75
324.253	648.75
324.482	876.75
324.71	1337.75
324.939	1889.75
325.168	1607.75
325.397	848.75
325.626	607.75
325.855	531.75
326.084	521.75
326.313	485.75
326.542	502.75
326.77	534.75
326.999	623.75
327.228	812.75
327.457	1177.75
327.686	1415.75
327.914	956.75
328.143	659.75
328.372	570.75
328.6	572.75
328.829	552.75
329.058	547.75
329.287	546.75
329.515	536.75
329.744	513.75
329.972	495.75
330.201	506.75
330.43	518.75
330.658	566.75
330.887	587.75
331.115	585.75
331.344	508.75
331.572	502.75
331.801	496.75
332.03	482.75
332.258	477.75
332.486	479.75
332.715	479.75
332.943	490.75
333.172	480.75
333.4	483.75
333.629	483.75
333.857	507.75
334.085	495.75
334.314	484.75
334.542	517.75
334.771	530.75
334.999	508.75
335.227	470.75
335.455	488.75
335.684	485.75
335.912	492.75
336.14	462.75
336.369	464.75
336.597	469.75
336.825	461.75
337.053	499.75
337.281	458.75
337.51	464.75
337.738	448.75
337.966	450.75
338.194	452.75
338.422	480.75
338.65	454.75
338.878	470.75
339.106	465.75
339.334	446.75
339.562	461.75
339.79	460.75
340.018	457.75
340.246	436.75
340.474	469.75
340.702	465.75
340.93	474.75
341.158	448.75
341.386	436.75
341.614	459.75
341.842	444.75
342.07	433.75
342.298	422.75
342.526	421.75
342.754	442.75
342.981	424.75
343.209	432.75
343.437	465.75
343.665	469.75
343.893	478.75
344.12	464.75
344.348	465.75
344.576	479.75
344.804	445.75
345.031	464.75
345.259	469.75
345.487	457.75
345.714	449.75
345.942	447.75
346.17	445.75
346.397	425.75
346.625	452.75
346.853	414.75
347.08	419.75
347.308	428.75
347.535	443.75
347.763	441.75
347.99	431.75
348.218	426.75
348.445	436.75
348.673	467.75
348.9	407.75
349.128	438.75
349.355	428.75
349.583	417.75
349.81	431.75
350.037	412.75
350.265	422.75
350.492	412.75
350.72	417.75
350.947	419.75
351.174	413.75
351.402	444.75
351.629	428.75
351.856	423.75
352.083	440.75
352.311	449.75
352.538	434.75
352.765	429.75
352.992	417.75
353.22	421.75
353.447	403.75
353.674	416.75
353.901	415.75
354.128	409.75
354.355	400.75
354.583	408.75
354.81	405.75
355.037	402.75
355.264	405.75
355.491	382.75
355.718	406.75
355.945	399.75
356.172	399.75
356.399	401.75
356.626	412.75
356.853	403.75
357.08	404.75
357.307	393.75
357.534	411.75
357.761	381.75
357.988	400.75
358.215	394.75
358.441	406.75
358.668	384.75
358.895	418.75
359.122	431.75
359.349	401.75
359.576	423.75
359.802	443.75
360.029	444.75
360.256	468.75
360.483	469.75
360.709	421.75
360.936	414.75
361.163	431.75
361.39	429.75
361.616	417.75
361.843	401.75
362.07	420.75
362.296	425.75
362.523	417.75
362.749	416.75
362.976	396.75
363.203	416.75
363.429	394.75
363.656	420.75
363.882	392.75
364.109	409.75
364.335	401.75
364.562	392.75
364.788	384.75
365.015	420.75
365.241	400.75
365.468	425.75
365.694	400.75
365.92	430.75
366.147	399.75
366.373	394.75
366.599	403.75
366.826	418.75
367.052	421.75
367.278	403.75
367.505	374.75
367.731	402.75
367.957	403.75
368.184	397.75
368.41	386.75
368.636	423.75
368.862	426.75
369.089	420.75
369.315	405.75
369.541	414.75
369.767	408.75
369.993	393.75
370.219	416.75
370.445	422.75
370.672	405.75
370.898	399.75
371.124	408.75
371.35	402.75
371.576	409.75
371.802	409.75
372.028	396.75
372.254	400.75
372.48	407.75
372.706	416.75
372.932	422.75
373.158	405.75
373.384	407.75
373.61	404.75
373.835	403.75
374.061	408.75
374.287	409.75
374.513	409.75
374.739	414.75
374.965	423.75
375.191	431.75
375.416	417.75
375.642	414.75
375.868	410.75
376.094	393.75
376.319	406.75
376.545	402.75
376.771	393.75
376.997	404.75
377.222	411.75
377.448	407.75
377.674	403.75
377.899	400.75
378.125	400.75
378.35	398.75
378.576	404.75
378.802	403.75
379.027	407.75
379.253	403.75
379.478	414.75
379.704	395.75
379.929	395.75
380.155	397.75
380.38	389.75
380.606	414.75
380.831	394.75
381.057	402.75
381.282	415.75
381.507	409.75
381.733	384.75
381.958	403.75
382.184	402.75
382.409	413.75
382.634	398.75
382.86	422.75
383.085	394.75
383.31	420.75
383.535	413.75
383.761	414.75
383.986	435.75
384.211	441.75
384.436	438.75
384.662	433.75
384.887	456.75
385.112	418.75
385.337	448.75
385.562	428.75
385.787	450.75
386.013	473.75
386.238	449.75
386.463	465.75
386.688	437.75
386.913	445.75
387.138	444.75
387.363	428.75
387.588	457.75
387.813	447.75
388.038	463.75
388.263	441.75
388.488	451.75
388.713	448.75
388.938	458.75
389.163	451.75
389.387	436.75
389.612	451.75
389.837	433.75
390.062	454.75
390.287	453.75
390.512	436.75
390.736	451.75
390.961	438.75
391.186	456.75
391.411	469.75
391.636	472.75
391.86	473.75
392.085	475.75
392.31	468.75
392.534	469.75
392.759	457.75
392.984	449.75
393.208	473.75
393.433	445.75
393.658	443.75
393.882	458.75
394.107	469.75
394.331	456.75
394.556	449.75
394.78	456.75
395.005	466.75
395.229	476.75
395.454	471.75
395.678	468.75
395.903	478.75
396.127	502.75
396.352	492.75
396.576	481.75
396.801	473.75
397.025	472.75
397.249	467.75
397.474	471.75
397.698	487.75
397.922	489.75
398.147	502.75
398.371	514.75
398.595	504.75
398.82	519.75
399.044	527.75
399.268	552.75
399.492	613.75
399.717	631.75
399.941	661.75
400.165	644.75
400.389	665.75
400.613	591.75
400.837	574.75
401.062	542.75
401.286	522.75
401.51	512.75
401.734	523.75
401.958	526.75
402.182	544.75
402.406	539.75
402.63	533.75
402.854	540.75
403.078	544.75
403.302	542.75
403.526	559.75
403.75	576.75
403.974	560.75
404.198	530.75
404.422	553.75
404.645	566.75
404.869	543.75
405.093	556.75
405.317	567.75
405.541	598.75
405.765	560.75
405.988	568.75
406.212	570.75
406.436	578.75
406.66	569.75
406.883	589.75
407.107	608.75
407.331	668.75
407.555	721.75
407.778	705.75
408.002	659.75
408.226	606.75
408.449	611.75
408.673	601.75
408.896	630.75
409.12	632.75
409.344	609.75
409.567	550.75
409.791	556.75
410.014	532.75
410.238	528.75
410.461	531.75
410.685	532.75
410.908	569.75
411.132	582.75
411.355	600.75
411.578	572.75
411.802	546.75
412.025	535.75
412.249	512.75
412.472	540.75
412.695	540.75
412.919	521.75
413.142	526.75
413.365	533.75
413.589	526.75
413.812	501.75
414.035	509.75
414.258	512.75
414.482	505.75
414.705	518.75
414.928	496.75
415.151	500.75
415.374	498.75
415.597	481.75
415.821	512.75
416.044	496.75
416.267	493.75
416.49	520.75
416.713	490.75
416.936	495.75
417.159	496.75
417.382	501.75
417.605	489.75
417.828	513.75
418.051	526.75
418.274	518.75
418.497	517.75
418.72	513.75
418.943	488.75
419.166	538.75
419.389	562.75
419.611	578.75
419.834	516.75
420.057	525.75
420.28	538.75
420.503	485.75
420.726	536.75
420.948	530.75
421.171	568.75
421.394	583.75
421.617	536.75
421.839	508.75
422.062	541.75
422.285	535.75
422.507	568.75
422.73	644.75
422.953	615.75
423.175	544.75
423.398	555.75
423.621	537.75
423.843	557.75
424.066	555.75
424.288	551.75
424.511	555.75
424.733	623.75
424.956	681.75
425.178	667.75
425.401	650.75
425.623	691.75
425.846	602.75
426.068	578.75
426.291	542.75
426.513	552.75
426.735	549.75
426.958	574.75
427.18	661.75
427.402	768.75
427.625	839.75
427.847	728.75
428.069	593.75
428.292	560.75
428.514	536.75
428.736	504.75
428.958	509.75
429.181	498.75
429.403	475.75
429.625	512.75
429.847	528.75
430.069	578.75
430.292	569.75
430.514	500.75
430.736	481.75
430.958	484.75
431.18	492.75
431.402	488.75
431.624	476.75
431.846	469.75
432.068	486.75
432.29	473.75
432.512	492.75
432.734	486.75
432.956	467.75
433.178	492.75
433.4	446.75
433.622	481.75
433.844	482.75
434.066	483.75
434.287	484.75
434.509	486.75
434.731	509.75
434.953	504.75
435.175	526.75
435.397	546.75
435.618	557.75
435.84	583.75
436.062	670.75
436.284	705.75
436.505	585.75
436.727	512.75
436.949	488.75
437.17	498.75
437.392	494.75
437.614	508.75
437.835	539.75
438.057	617.75
438.278	706.75
438.5	691.75
438.721	753.75
438.943	706.75
439.165	562.75
439.386	539.75
439.608	530.75
439.829	535.75
440.05	565.75
440.272	586.75
440.493	538.75
440.715	521.75
440.936	516.75
441.158	526.75
441.379	526.75
441.6	515.75
441.822	552.75
442.043	586.75
442.264	656.75
442.486	664.75
442.707	565.75
442.928	551.75
443.149	544.75
443.371	579.75
443.592	596.75
443.813	690.75
444.034	742.75
444.255	641.75
444.476	587.75
444.698	576.75
444.919	580.75
445.14	685.75
445.361	644.75
445.582	570.75
445.803	635.75
446.024	720.75
446.245	702.75
446.466	651.75
446.687	552.75
446.908	538.75
447.129	509.75
447.35	492.75
447.571	478.75
447.792	469.75
448.013	509.75
448.234	518.75
448.455	571.75
448.675	658.75
448.896	746.75
449.117	646.75
449.338	600.75
449.559	690.75
449.779	777.75
450	613.75
450.221	516.75
450.442	512.75
450.662	489.75
450.883	464.75
451.104	472.75
451.324	498.75
451.545	448.75
451.766	459.75
451.986	424.75
452.207	452.75
452.428	431.75
452.648	440.75
452.869	434.75
453.089	478.75
453.31	465.75
453.53	458.75
453.751	445.75
453.971	467.75
454.192	447.75
454.412	450.75
454.633	441.75
454.853	439.75
455.073	445.75
455.294	463.75
455.514	512.75
455.734	496.75
455.955	455.75
456.175	421.75
456.395	425.75
456.616	416.75
456.836	422.75
457.056	408.75
457.276	415.75
457.497	417.75
457.717	419.75
457.937	452.75
458.157	428.75
458.377	439.75
458.598	457.75
458.818	514.75
459.038	568.75
459.258	591.75
459.478	497.75
459.698	476.75
459.918	450.75
460.138	495.75
460.358	476.75
460.578	485.75
460.798	530.75
461.018	525.75
461.238	518.75
461.458	518.75
461.678	497.75
461.898	506.75
462.118	518.75
462.338	534.75
462.558	549.75
462.777	523.75
462.997	550.75
463.217	614.75
463.437	593.75
463.657	585.75
463.876	515.75
464.096	536.75
464.316	560.75
464.536	559.75
464.755	576.75
464.975	569.75
465.195	581.75
465.414	618.75
465.634	580.75
465.854	497.75
466.073	490.75
466.293	481.75
466.512	462.75
466.732	448.75
466.951	497.75
467.171	464.75
467.391	456.75
467.61	464.75
467.829	456.75
468.049	462.75
468.268	442.75
468.488	454.75
468.707	464.75
468.927	463.75
469.146	453.75
469.365	470.75
469.585	437.75
469.804	457.75
470.023	493.75
470.243	442.75
470.462	471.75
470.681	505.75
470.901	482.75
471.12	486.75
471.339	479.75
471.558	472.75
471.777	473.75
471.997	472.75
472.216	441.75
472.435	440.75
472.654	458.75
472.873	455.75
473.092	470.75
473.311	443.75
473.53	460.75
473.749	462.75
473.968	497.75
474.187	567.75
474.406	622.75
474.625	508.75
474.844	477.75
475.063	475.75
475.282	464.75
475.501	446.75
475.72	467.75
475.939	465.75
476.158	481.75
476.377	466.75
476.596	474.75
476.814	490.75
477.033	483.75
477.252	492.75
477.471	503.75
477.69	506.75
477.908	515.75
478.127	509.75
478.346	515.75
478.564	532.75
478.783	518.75
479.002	537.75
479.22	554.75
479.439	545.75
479.658	548.75
479.876	544.75
480.095	562.75
480.313	578.75
480.532	593.75
480.751	572.75
480.969	548.75
481.188	552.75
481.406	569.75
481.624	553.75
481.843	532.75
482.061	527.75
482.28	549.75
482.498	543.75
482.717	538.75
482.935	542.75
483.153	544.75
483.372	551.75
483.59	533.75
483.808	531.75
484.027	522.75
484.245	565.75
484.463	538.75
484.681	550.75
484.9	543.75
485.118	558.75
485.336	542.75
485.554	548.75
485.772	567.75
485.99	560.75
486.209	549.75
486.427	544.75
486.645	572.75
486.863	566.75
487.081	583.75
487.299	570.75
487.517	550.75
487.735	531.75
487.953	567.75
488.171	575.75
488.389	562.75
488.607	574.75
488.825	575.75
489.043	568.75
489.261	610.75
489.479	561.75
489.696	567.75
489.914	566.75
490.132	572.75
490.35	613.75
490.568	596.75
490.786	613.75
491.003	629.75
491.221	609.75
491.439	593.75
491.657	633.75
491.874	647.75
492.092	623.75
492.31	645.75
492.527	660.75
492.745	649.75
492.963	651.75
493.18	642.75
493.398	655.75
493.615	686.75
493.833	662.75
494.05	650.75
494.268	673.75
494.485	662.75
494.703	651.75
494.92	651.75
495.138	628.75
495.355	650.75
495.573	657.75
495.79	650.75
496.008	688.75
496.225	680.75
496.442	676.75
496.66	664.75
496.877	677.75
497.094	689.75
497.312	676.75
497.529	713.75
497.746	732.75
497.963	703.75
498.181	743.75
498.398	759.75
498.615	772.75
498.832	805.75
499.049	840.75
499.267	865.75
499.484	902.75
499.701	934.75
499.918	1010.75
500.135	1079.75
500.352	1132.75
500.569	1125.75
500.786	1141.75
501.003	1124.75
501.22	1082.75
501.437	1029.75
501.654	956.75
501.871	934.75
