Data from 1985.PennyLincolnUp.Lamp.En5.5.200Scan.071819.P1_HRD10591_17-02-19-970.txt Node
Date: Thu Jul 18 17:02:19 EDT 2019
User: cochatt
Spectrometer: HR+D1059
Trigger mode: 1
Integration Time (sec): 1.000000E-1
Scans to average: 1
Electric dark correction enabled: true
Nonlinearity correction enabled: false
Boxcar width: 0
XAxis mode: Wavelengths
Number of Pixels in Spectrum: 2048
>>>>>Begin Spectral Data<<<<<
223.165	-2.88
223.4	-2.88
223.635	-2.88
223.869	-6.88
224.104	-32.88
224.338	-13.88
224.573	-24.88
224.808	-16.88
225.042	-13.88
225.277	-6.88
225.511	-14.88
225.746	4.12
225.98	15.12
226.215	16.12
226.449	28.12
226.683	2.12
226.918	37.12
227.152	31.12
227.387	43.12
227.621	33.12
227.856	45.12
228.09	29.12
228.324	54.12
228.559	49.12
228.793	72.12
229.027	91.12
229.262	100.12
229.496	115.12
229.73	127.12
229.964	148.12
230.199	110.12
230.433	100.12
230.667	106.12
230.901	117.12
231.136	99.12
231.37	92.12
231.604	115.12
231.838	117.12
232.072	103.12
232.306	122.12
232.541	98.12
232.775	121.12
233.009	114.12
233.243	113.12
233.477	106.12
233.711	110.12
233.945	114.12
234.179	115.12
234.413	128.12
234.647	117.12
234.881	123.12
235.115	119.12
235.349	122.12
235.583	123.12
235.817	119.12
236.051	117.12
236.285	116.12
236.519	121.12
236.753	124.12
236.987	126.12
237.221	184.12
237.455	212.12
237.689	183.12
237.922	134.12
238.156	125.12
238.39	126.12
238.624	129.12
238.858	137.12
239.091	125.12
239.325	133.12
239.559	140.12
239.793	137.12
240.027	140.12
240.26	140.12
240.494	154.12
240.728	145.12
240.961	159.12
241.195	136.12
241.429	147.12
241.662	147.12
241.896	140.12
242.13	150.12
242.363	141.12
242.597	125.12
242.83	128.12
243.064	140.12
243.298	139.12
243.531	143.12
243.765	136.12
243.998	139.12
244.232	138.12
244.465	144.12
244.699	135.12
244.932	156.12
245.166	152.12
245.399	135.12
245.633	152.12
245.866	153.12
246.099	156.12
246.333	162.12
246.566	145.12
246.8	150.12
247.033	143.12
247.266	161.12
247.5	158.12
247.733	156.12
247.966	159.12
248.2	165.12
248.433	163.12
248.666	175.12
248.899	179.12
249.133	187.12
249.366	223.12
249.599	185.12
249.832	182.12
250.066	177.12
250.299	161.12
250.532	182.12
250.765	201.12
250.998	199.12
251.231	198.12
251.465	205.12
251.698	189.12
251.931	198.12
252.164	191.12
252.397	187.12
252.63	184.12
252.863	225.12
253.096	201.12
253.329	216.12
253.562	223.12
253.795	202.12
254.028	196.12
254.261	214.12
254.494	206.12
254.727	264.12
254.96	267.12
255.193	259.12
255.426	227.12
255.659	216.12
255.892	225.12
256.124	203.12
256.357	210.12
256.59	212.12
256.823	204.12
257.056	201.12
257.289	217.12
257.521	198.12
257.754	202.12
257.987	209.12
258.22	197.12
258.452	204.12
258.685	196.12
258.918	195.12
259.151	205.12
259.383	225.12
259.616	220.12
259.849	212.12
260.081	232.12
260.314	260.12
260.547	255.12
260.779	233.12
261.012	216.12
261.244	218.12
261.477	222.12
261.71	227.12
261.942	233.12
262.175	243.12
262.407	243.12
262.64	224.12
262.872	207.12
263.105	216.12
263.337	218.12
263.57	219.12
263.802	213.12
264.035	225.12
264.267	222.12
264.499	222.12
264.732	235.12
264.964	232.12
265.197	227.12
265.429	244.12
265.661	219.12
265.894	226.12
266.126	205.12
266.358	223.12
266.591	250.12
266.823	225.12
267.055	221.12
267.287	233.12
267.52	226.12
267.752	230.12
267.984	238.12
268.216	229.12
268.448	245.12
268.681	264.12
268.913	263.12
269.145	273.12
269.377	279.12
269.609	262.12
269.841	283.12
270.073	276.12
270.306	292.12
270.538	321.12
270.77	312.12
271.002	301.12
271.234	313.12
271.466	284.12
271.698	320.12
271.93	326.12
272.162	309.12
272.394	329.12
272.626	285.12
272.858	298.12
273.09	269.12
273.322	281.12
273.553	268.12
273.785	286.12
274.017	267.12
274.249	282.12
274.481	265.12
274.713	253.12
274.945	269.12
275.176	282.12
275.408	274.12
275.64	281.12
275.872	265.12
276.104	270.12
276.335	271.12
276.567	286.12
276.799	311.12
277.031	326.12
277.262	318.12
277.494	307.12
277.726	295.12
277.957	306.12
278.189	309.12
278.421	282.12
278.652	276.12
278.884	275.12
279.115	290.12
279.347	281.12
279.579	273.12
279.81	277.12
280.042	291.12
280.273	296.12
280.505	271.12
280.736	278.12
280.968	280.12
281.199	277.12
281.431	297.12
281.662	290.12
281.894	283.12
282.125	280.12
282.356	294.12
282.588	327.12
282.819	317.12
283.051	312.12
283.282	277.12
283.513	289.12
283.745	317.12
283.976	279.12
284.207	300.12
284.439	280.12
284.67	296.12
284.901	310.12
285.132	290.12
285.364	280.12
285.595	295.12
285.826	317.12
286.057	301.12
286.288	305.12
286.52	293.12
286.751	309.12
286.982	300.12
287.213	305.12
287.444	314.12
287.675	322.12
287.906	332.12
288.138	320.12
288.369	314.12
288.6	323.12
288.831	313.12
289.062	337.12
289.293	299.12
289.524	323.12
289.755	323.12
289.986	314.12
290.217	309.12
290.448	317.12
290.679	312.12
290.91	308.12
291.141	325.12
291.371	311.12
291.602	326.12
291.833	317.12
292.064	319.12
292.295	316.12
292.526	319.12
292.757	324.12
292.987	326.12
293.218	310.12
293.449	333.12
293.68	324.12
293.91	326.12
294.141	341.12
294.372	315.12
294.603	312.12
294.833	335.12
295.064	309.12
295.295	341.12
295.525	325.12
295.756	319.12
295.987	326.12
296.217	345.12
296.448	360.12
296.679	329.12
296.909	331.12
297.14	341.12
297.37	349.12
297.601	328.12
297.831	331.12
298.062	344.12
298.292	332.12
298.523	346.12
298.753	320.12
298.984	343.12
299.214	349.12
299.445	335.12
299.675	343.12
299.905	351.12
300.136	356.12
300.366	350.12
300.597	350.12
300.827	362.12
301.057	365.12
301.288	357.12
301.518	359.12
301.748	360.12
301.979	372.12
302.209	365.12
302.439	366.12
302.669	357.12
302.9	360.12
303.13	371.12
303.36	357.12
303.59	385.12
303.82	388.12
304.051	359.12
304.281	395.12
304.511	356.12
304.741	359.12
304.971	351.12
305.201	351.12
305.431	367.12
305.661	357.12
305.891	345.12
306.121	364.12
306.352	371.12
306.582	357.12
306.812	369.12
307.042	374.12
307.272	369.12
307.502	374.12
307.731	371.12
307.961	353.12
308.191	360.12
308.421	350.12
308.651	367.12
308.881	371.12
309.111	383.12
309.341	379.12
309.571	388.12
309.8	396.12
310.03	400.12
310.26	412.12
310.49	406.12
310.72	437.12
310.949	442.12
311.179	415.12
311.409	394.12
311.639	399.12
311.868	416.12
312.098	396.12
312.328	416.12
312.557	428.12
312.787	428.12
313.017	429.12
313.246	406.12
313.476	414.12
313.706	405.12
313.935	414.12
314.165	437.12
314.394	443.12
314.624	435.12
314.853	425.12
315.083	401.12
315.312	417.12
315.542	419.12
315.771	386.12
316.001	409.12
316.23	424.12
316.46	396.12
316.689	423.12
316.919	397.12
317.148	421.12
317.377	426.12
317.607	425.12
317.836	416.12
318.065	409.12
318.295	395.12
318.524	402.12
318.753	396.12
318.983	398.12
319.212	429.12
319.441	423.12
319.67	426.12
319.9	404.12
320.129	413.12
320.358	421.12
320.587	417.12
320.816	407.12
321.046	414.12
321.275	439.12
321.504	439.12
321.733	423.12
321.962	433.12
322.191	466.12
322.42	445.12
322.649	481.12
322.878	481.12
323.108	488.12
323.337	487.12
323.566	512.12
323.795	548.12
324.024	569.12
324.253	669.12
324.482	917.12
324.71	1387.12
324.939	1938.12
325.168	1646.12
325.397	903.12
325.626	631.12
325.855	544.12
326.084	533.12
326.313	533.12
326.542	515.12
326.77	547.12
326.999	635.12
327.228	844.12
327.457	1233.12
327.686	1459.12
327.914	985.12
328.143	695.12
328.372	608.12
328.6	575.12
328.829	567.12
329.058	584.12
329.287	562.12
329.515	573.12
329.744	517.12
329.972	524.12
330.201	536.12
330.43	527.12
330.658	547.12
330.887	608.12
331.115	602.12
331.344	533.12
331.572	491.12
331.801	522.12
332.03	511.12
332.258	537.12
332.486	483.12
332.715	489.12
332.943	505.12
333.172	499.12
333.4	501.12
333.629	526.12
333.857	522.12
334.085	531.12
334.314	514.12
334.542	514.12
334.771	529.12
334.999	517.12
335.227	527.12
335.455	500.12
335.684	502.12
335.912	486.12
336.14	473.12
336.369	491.12
336.597	512.12
336.825	511.12
337.053	483.12
337.281	493.12
337.51	459.12
337.738	492.12
337.966	477.12
338.194	469.12
338.422	477.12
338.65	482.12
338.878	473.12
339.106	466.12
339.334	474.12
339.562	459.12
339.79	465.12
340.018	480.12
340.246	455.12
340.474	476.12
340.702	457.12
340.93	474.12
341.158	461.12
341.386	476.12
341.614	464.12
341.842	467.12
342.07	433.12
342.298	456.12
342.526	464.12
342.754	446.12
342.981	437.12
343.209	443.12
343.437	448.12
343.665	473.12
343.893	476.12
344.12	513.12
344.348	483.12
344.576	478.12
344.804	490.12
345.031	499.12
345.259	473.12
345.487	473.12
345.714	467.12
345.942	446.12
346.17	462.12
346.397	445.12
346.625	463.12
346.853	445.12
347.08	447.12
347.308	446.12
347.535	445.12
347.763	433.12
347.99	441.12
348.218	453.12
348.445	469.12
348.673	448.12
348.9	429.12
349.128	426.12
349.355	426.12
349.583	422.12
349.81	413.12
350.037	429.12
350.265	443.12
350.492	432.12
350.72	423.12
350.947	443.12
351.174	428.12
351.402	455.12
351.629	446.12
351.856	429.12
352.083	430.12
352.311	458.12
352.538	447.12
352.765	459.12
352.992	440.12
353.22	423.12
353.447	426.12
353.674	428.12
353.901	397.12
354.128	424.12
354.355	408.12
354.583	402.12
354.81	422.12
355.037	416.12
355.264	425.12
355.491	421.12
355.718	422.12
355.945	422.12
356.172	418.12
356.399	409.12
356.626	414.12
356.853	413.12
357.08	426.12
357.307	417.12
357.534	407.12
357.761	424.12
357.988	393.12
358.215	400.12
358.441	409.12
358.668	416.12
358.895	415.12
359.122	407.12
359.349	441.12
359.576	427.12
359.802	455.12
360.029	475.12
360.256	486.12
360.483	479.12
360.709	438.12
360.936	426.12
361.163	461.12
361.39	435.12
361.616	444.12
361.843	433.12
362.07	446.12
362.296	417.12
362.523	429.12
362.749	428.12
362.976	417.12
363.203	423.12
363.429	415.12
363.656	425.12
363.882	419.12
364.109	417.12
364.335	427.12
364.562	416.12
364.788	409.12
365.015	404.12
365.241	410.12
365.468	423.12
365.694	428.12
365.92	426.12
366.147	415.12
366.373	425.12
366.599	413.12
366.826	424.12
367.052	405.12
367.278	423.12
367.505	419.12
367.731	422.12
367.957	420.12
368.184	409.12
368.41	410.12
368.636	451.12
368.862	446.12
369.089	422.12
369.315	418.12
369.541	413.12
369.767	413.12
369.993	405.12
370.219	402.12
370.445	408.12
370.672	423.12
370.898	413.12
371.124	408.12
371.35	413.12
371.576	416.12
371.802	438.12
372.028	444.12
372.254	421.12
372.48	428.12
372.706	430.12
372.932	411.12
373.158	437.12
373.384	417.12
373.61	435.12
373.835	414.12
374.061	417.12
374.287	444.12
374.513	425.12
374.739	440.12
374.965	420.12
375.191	426.12
375.416	427.12
375.642	418.12
375.868	455.12
376.094	430.12
376.319	403.12
376.545	424.12
376.771	432.12
376.997	413.12
377.222	422.12
377.448	420.12
377.674	412.12
377.899	420.12
378.125	435.12
378.35	426.12
378.576	381.12
378.802	396.12
379.027	420.12
379.253	420.12
379.478	427.12
379.704	424.12
379.929	409.12
380.155	415.12
380.38	407.12
380.606	425.12
380.831	433.12
381.057	415.12
381.282	409.12
381.507	418.12
381.733	421.12
381.958	398.12
382.184	416.12
382.409	412.12
382.634	419.12
382.86	431.12
383.085	428.12
383.31	440.12
383.535	425.12
383.761	414.12
383.986	441.12
384.211	454.12
384.436	449.12
384.662	453.12
384.887	465.12
385.112	458.12
385.337	454.12
385.562	466.12
385.787	453.12
386.013	481.12
386.238	469.12
386.463	468.12
386.688	449.12
386.913	433.12
387.138	450.12
387.363	449.12
387.588	447.12
387.813	450.12
388.038	453.12
388.263	472.12
388.488	470.12
388.713	463.12
388.938	457.12
389.163	453.12
389.387	463.12
389.612	473.12
389.837	462.12
390.062	486.12
390.287	466.12
390.512	451.12
390.736	458.12
390.961	473.12
391.186	463.12
391.411	500.12
391.636	473.12
391.86	499.12
392.085	490.12
392.31	469.12
392.534	475.12
392.759	496.12
392.984	491.12
393.208	454.12
393.433	483.12
393.658	463.12
393.882	476.12
394.107	476.12
394.331	481.12
394.556	476.12
394.78	479.12
395.005	482.12
395.229	477.12
395.454	486.12
395.678	498.12
395.903	497.12
396.127	530.12
396.352	511.12
396.576	483.12
396.801	503.12
397.025	467.12
397.249	464.12
397.474	470.12
397.698	486.12
397.922	515.12
398.147	529.12
398.371	549.12
398.595	533.12
398.82	537.12
399.044	556.12
399.268	573.12
399.492	633.12
399.717	668.12
399.941	698.12
400.165	693.12
400.389	701.12
400.613	635.12
400.837	579.12
401.062	564.12
401.286	543.12
401.51	565.12
401.734	523.12
401.958	535.12
402.182	542.12
402.406	567.12
402.63	558.12
402.854	551.12
403.078	541.12
403.302	569.12
403.526	574.12
403.75	566.12
403.974	554.12
404.198	563.12
404.422	589.12
404.645	571.12
404.869	571.12
405.093	629.12
405.317	606.12
405.541	611.12
405.765	599.12
405.988	592.12
406.212	605.12
406.436	599.12
406.66	622.12
406.883	622.12
407.107	612.12
407.331	681.12
407.555	728.12
407.778	743.12
408.002	669.12
408.226	626.12
408.449	605.12
408.673	613.12
408.896	631.12
409.12	661.12
409.344	644.12
409.567	595.12
409.791	579.12
410.014	552.12
410.238	541.12
410.461	556.12
410.685	553.12
410.908	615.12
411.132	610.12
411.355	639.12
411.578	609.12
411.802	578.12
412.025	553.12
412.249	570.12
412.472	542.12
412.695	564.12
412.919	556.12
413.142	539.12
413.365	517.12
413.589	534.12
413.812	545.12
414.035	537.12
414.258	530.12
414.482	512.12
414.705	489.12
414.928	523.12
415.151	532.12
415.374	514.12
415.597	515.12
415.821	518.12
416.044	500.12
416.267	506.12
416.49	523.12
416.713	516.12
416.936	513.12
417.159	509.12
417.382	531.12
417.605	508.12
417.828	528.12
418.051	542.12
418.274	530.12
418.497	528.12
418.72	502.12
418.943	508.12
419.166	547.12
419.389	555.12
419.611	564.12
419.834	539.12
420.057	533.12
420.28	554.12
420.503	525.12
420.726	515.12
420.948	539.12
421.171	590.12
421.394	618.12
421.617	539.12
421.839	541.12
422.062	547.12
422.285	547.12
422.507	611.12
422.73	670.12
422.953	643.12
423.175	575.12
423.398	561.12
423.621	551.12
423.843	598.12
424.066	595.12
424.288	571.12
424.511	581.12
424.733	659.12
424.956	699.12
425.178	683.12
425.401	699.12
425.623	683.12
425.846	603.12
426.068	554.12
426.291	557.12
426.513	554.12
426.735	564.12
426.958	604.12
427.18	666.12
427.402	805.12
427.625	878.12
427.847	729.12
428.069	622.12
428.292	589.12
428.514	539.12
428.736	509.12
428.958	501.12
429.181	517.12
429.403	509.12
429.625	536.12
429.847	548.12
430.069	608.12
430.292	589.12
430.514	530.12
430.736	515.12
430.958	525.12
431.18	492.12
431.402	498.12
431.624	494.12
431.846	489.12
432.068	516.12
432.29	504.12
432.512	511.12
432.734	506.12
432.956	510.12
433.178	486.12
433.4	511.12
433.622	515.12
433.844	516.12
434.066	495.12
434.287	477.12
434.509	515.12
434.731	511.12
434.953	512.12
435.175	539.12
435.397	583.12
435.618	549.12
435.84	591.12
436.062	691.12
436.284	739.12
436.505	616.12
436.727	547.12
436.949	515.12
437.17	511.12
437.392	522.12
437.614	530.12
437.835	568.12
438.057	633.12
438.278	738.12
438.5	721.12
438.721	808.12
438.943	747.12
439.165	597.12
439.386	567.12
439.608	558.12
439.829	556.12
440.05	574.12
440.272	607.12
440.493	589.12
440.715	563.12
440.936	533.12
441.158	509.12
441.379	524.12
441.6	541.12
441.822	549.12
442.043	599.12
442.264	678.12
442.486	701.12
442.707	584.12
442.928	543.12
443.149	591.12
443.371	593.12
443.592	651.12
443.813	717.12
444.034	764.12
444.255	664.12
444.476	619.12
444.698	566.12
444.919	622.12
445.14	710.12
445.361	634.12
445.582	609.12
445.803	659.12
446.024	753.12
446.245	765.12
446.466	679.12
446.687	573.12
446.908	547.12
447.129	546.12
447.35	528.12
447.571	509.12
447.792	482.12
448.013	481.12
448.234	541.12
448.455	585.12
448.675	679.12
448.896	779.12
449.117	647.12
449.338	618.12
449.559	709.12
449.779	801.12
450	676.12
450.221	543.12
450.442	524.12
450.662	509.12
450.883	509.12
451.104	511.12
451.324	508.12
451.545	523.12
451.766	465.12
451.986	445.12
452.207	466.12
452.428	477.12
452.648	452.12
452.869	451.12
453.089	453.12
453.31	458.12
453.53	457.12
453.751	472.12
453.971	455.12
454.192	481.12
454.412	457.12
454.633	445.12
454.853	437.12
455.073	455.12
455.294	491.12
455.514	537.12
455.734	515.12
455.955	476.12
456.175	447.12
456.395	454.12
456.616	438.12
456.836	431.12
457.056	449.12
457.276	427.12
457.497	427.12
457.717	431.12
457.937	446.12
458.157	455.12
458.377	460.12
458.598	479.12
458.818	527.12
459.038	613.12
459.258	621.12
459.478	576.12
459.698	502.12
459.918	502.12
460.138	491.12
460.358	516.12
460.578	515.12
460.798	554.12
461.018	531.12
461.238	537.12
461.458	522.12
461.678	514.12
461.898	542.12
462.118	528.12
462.338	565.12
462.558	554.12
462.777	565.12
462.997	572.12
463.217	667.12
463.437	609.12
463.657	591.12
463.876	590.12
464.096	572.12
464.316	559.12
464.536	569.12
464.755	596.12
464.975	586.12
465.195	591.12
465.414	634.12
465.634	568.12
465.854	541.12
466.073	513.12
466.293	514.12
466.512	475.12
466.732	485.12
466.951	475.12
467.171	460.12
467.391	471.12
467.61	508.12
467.829	500.12
468.049	485.12
468.268	474.12
468.488	459.12
468.707	443.12
468.927	450.12
469.146	462.12
469.365	477.12
469.585	478.12
469.804	483.12
470.023	493.12
470.243	482.12
470.462	498.12
470.681	499.12
470.901	508.12
471.12	499.12
471.339	485.12
471.558	496.12
471.777	479.12
471.997	481.12
472.216	478.12
472.435	469.12
472.654	474.12
472.873	457.12
473.092	477.12
473.311	462.12
473.53	472.12
473.749	479.12
473.968	514.12
474.187	616.12
474.406	637.12
474.625	521.12
474.844	481.12
475.063	478.12
475.282	501.12
475.501	491.12
475.72	471.12
475.939	466.12
476.158	476.12
476.377	503.12
476.596	483.12
476.814	524.12
477.033	513.12
477.252	486.12
477.471	516.12
477.69	497.12
477.908	516.12
478.127	520.12
478.346	546.12
478.564	526.12
478.783	541.12
479.002	557.12
479.22	547.12
479.439	577.12
479.658	579.12
479.876	579.12
480.095	616.12
480.313	641.12
480.532	621.12
480.751	596.12
480.969	590.12
481.188	602.12
481.406	614.12
481.624	597.12
481.843	574.12
482.061	549.12
482.28	547.12
482.498	555.12
482.717	538.12
482.935	555.12
483.153	554.12
483.372	546.12
483.59	546.12
483.808	548.12
484.027	555.12
484.245	546.12
484.463	559.12
484.681	592.12
484.9	546.12
485.118	550.12
485.336	568.12
485.554	565.12
485.772	561.12
485.99	569.12
486.209	571.12
486.427	573.12
486.645	595.12
486.863	587.12
487.081	620.12
487.299	591.12
487.517	611.12
487.735	589.12
487.953	569.12
488.171	599.12
488.389	579.12
488.607	581.12
488.825	591.12
489.043	581.12
489.261	593.12
489.479	595.12
489.696	628.12
489.914	621.12
490.132	603.12
490.35	614.12
490.568	631.12
490.786	606.12
491.003	635.12
491.221	653.12
491.439	644.12
491.657	645.12
491.874	670.12
492.092	666.12
492.31	651.12
492.527	681.12
492.745	650.12
492.963	684.12
493.18	666.12
493.398	665.12
493.615	676.12
493.833	700.12
494.05	693.12
494.268	693.12
494.485	701.12
494.703	696.12
494.92	660.12
495.138	675.12
495.355	717.12
495.573	674.12
495.79	700.12
496.008	707.12
496.225	692.12
496.442	694.12
496.66	717.12
496.877	687.12
497.094	689.12
497.312	707.12
497.529	729.12
497.746	755.12
497.963	757.12
498.181	794.12
498.398	799.12
498.615	796.12
498.832	843.12
499.049	897.12
499.267	905.12
499.484	935.12
499.701	973.12
499.918	1017.12
500.135	1107.12
500.352	1186.12
500.569	1209.12
500.786	1189.12
501.003	1157.12
501.22	1100.12
501.437	1041.12
501.654	971.12
501.871	986.12
