Data from 1985.PennyLincolnUp.Lamp.En5.5.200Scan.071819.P1_HRD10591_17-03-22-970.txt Node
Date: Thu Jul 18 17:03:22 EDT 2019
User: cochatt
Spectrometer: HR+D1059
Trigger mode: 1
Integration Time (sec): 1.000000E-1
Scans to average: 1
Electric dark correction enabled: true
Nonlinearity correction enabled: false
Boxcar width: 0
XAxis mode: Wavelengths
Number of Pixels in Spectrum: 2048
>>>>>Begin Spectral Data<<<<<
223.165	-12.94
223.4	-12.94
223.635	-12.94
223.869	-14.94
224.104	-23.94
224.338	-26.94
224.573	-2.94
224.808	-3.94
225.042	-13.94
225.277	-9.94
225.511	-7.94
225.746	18.06
225.98	7.06
226.215	13.06
226.449	12.06
226.683	22.06
226.918	13.06
227.152	32.06
227.387	39.06
227.621	47.06
227.856	44.06
228.09	43.06
228.324	41.06
228.559	71.06
228.793	61.06
229.027	94.06
229.262	105.06
229.496	125.06
229.73	114.06
229.964	150.06
230.199	134.06
230.433	123.06
230.667	123.06
230.901	118.06
231.136	123.06
231.37	117.06
231.604	108.06
231.838	117.06
232.072	123.06
232.306	106.06
232.541	116.06
232.775	119.06
233.009	124.06
233.243	129.06
233.477	117.06
233.711	121.06
233.945	101.06
234.179	106.06
234.413	124.06
234.647	116.06
234.881	101.06
235.115	120.06
235.349	115.06
235.583	133.06
235.817	132.06
236.051	127.06
236.285	123.06
236.519	134.06
236.753	138.06
236.987	135.06
237.221	179.06
237.455	219.06
237.689	173.06
237.922	137.06
238.156	139.06
238.39	123.06
238.624	124.06
238.858	114.06
239.091	125.06
239.325	132.06
239.559	137.06
239.793	140.06
240.027	144.06
240.26	126.06
240.494	163.06
240.728	159.06
240.961	171.06
241.195	149.06
241.429	128.06
241.662	131.06
241.896	135.06
242.13	127.06
242.363	137.06
242.597	134.06
242.83	141.06
243.064	143.06
243.298	151.06
243.531	148.06
243.765	125.06
243.998	157.06
244.232	154.06
244.465	141.06
244.699	157.06
244.932	150.06
245.166	142.06
245.399	151.06
245.633	144.06
245.866	161.06
246.099	157.06
246.333	165.06
246.566	166.06
246.8	146.06
247.033	150.06
247.266	161.06
247.5	180.06
247.733	181.06
247.966	177.06
248.2	180.06
248.433	190.06
248.666	166.06
248.899	199.06
249.133	210.06
249.366	206.06
249.599	196.06
249.832	174.06
250.066	155.06
250.299	192.06
250.532	203.06
250.765	206.06
250.998	233.06
251.231	221.06
251.465	199.06
251.698	204.06
251.931	214.06
252.164	202.06
252.397	194.06
252.63	191.06
252.863	194.06
253.096	222.06
253.329	238.06
253.562	218.06
253.795	220.06
254.028	201.06
254.261	227.06
254.494	220.06
254.727	245.06
254.96	281.06
255.193	282.06
255.426	247.06
255.659	223.06
255.892	241.06
256.124	234.06
256.357	229.06
256.59	217.06
256.823	225.06
257.056	210.06
257.289	214.06
257.521	217.06
257.754	205.06
257.987	228.06
258.22	207.06
258.452	214.06
258.685	213.06
258.918	221.06
259.151	220.06
259.383	228.06
259.616	238.06
259.849	240.06
260.081	245.06
260.314	247.06
260.547	261.06
260.779	259.06
261.012	241.06
261.244	244.06
261.477	224.06
261.71	218.06
261.942	230.06
262.175	251.06
262.407	232.06
262.64	227.06
262.872	217.06
263.105	229.06
263.337	239.06
263.57	219.06
263.802	216.06
264.035	241.06
264.267	214.06
264.499	225.06
264.732	230.06
264.964	219.06
265.197	233.06
265.429	217.06
265.661	229.06
265.894	218.06
266.126	236.06
266.358	234.06
266.591	239.06
266.823	230.06
267.055	229.06
267.287	236.06
267.52	232.06
267.752	255.06
267.984	253.06
268.216	237.06
268.448	246.06
268.681	233.06
268.913	250.06
269.145	272.06
269.377	296.06
269.609	285.06
269.841	300.06
270.073	293.06
270.306	325.06
270.538	340.06
270.77	328.06
271.002	309.06
271.234	306.06
271.466	326.06
271.698	334.06
271.93	325.06
272.162	334.06
272.394	332.06
272.626	314.06
272.858	327.06
273.09	314.06
273.322	289.06
273.553	285.06
273.785	276.06
274.017	290.06
274.249	266.06
274.481	297.06
274.713	306.06
274.945	290.06
275.176	293.06
275.408	296.06
275.64	278.06
275.872	279.06
276.104	282.06
276.335	276.06
276.567	277.06
276.799	295.06
277.031	337.06
277.262	343.06
277.494	335.06
277.726	317.06
277.957	327.06
278.189	319.06
278.421	300.06
278.652	295.06
278.884	315.06
279.115	294.06
279.347	301.06
279.579	321.06
279.81	293.06
280.042	290.06
280.273	286.06
280.505	297.06
280.736	291.06
280.968	295.06
281.199	305.06
281.431	293.06
281.662	305.06
281.894	295.06
282.125	299.06
282.356	318.06
282.588	330.06
282.819	315.06
283.051	314.06
283.282	312.06
283.513	318.06
283.745	319.06
283.976	302.06
284.207	303.06
284.439	331.06
284.67	319.06
284.901	327.06
285.132	319.06
285.364	322.06
285.595	324.06
285.826	310.06
286.057	311.06
286.288	331.06
286.52	331.06
286.751	313.06
286.982	318.06
287.213	332.06
287.444	322.06
287.675	316.06
287.906	322.06
288.138	358.06
288.369	341.06
288.6	316.06
288.831	329.06
289.062	349.06
289.293	327.06
289.524	332.06
289.755	326.06
289.986	320.06
290.217	329.06
290.448	332.06
290.679	347.06
290.91	327.06
291.141	330.06
291.371	312.06
291.602	323.06
291.833	326.06
292.064	327.06
292.295	321.06
292.526	335.06
292.757	343.06
292.987	332.06
293.218	325.06
293.449	328.06
293.68	338.06
293.91	347.06
294.141	359.06
294.372	346.06
294.603	327.06
294.833	336.06
295.064	327.06
295.295	321.06
295.525	341.06
295.756	334.06
295.987	347.06
296.217	365.06
296.448	373.06
296.679	356.06
296.909	345.06
297.14	352.06
297.37	353.06
297.601	361.06
297.831	360.06
298.062	341.06
298.292	358.06
298.523	340.06
298.753	347.06
298.984	343.06
299.214	355.06
299.445	340.06
299.675	349.06
299.905	373.06
300.136	367.06
300.366	349.06
300.597	358.06
300.827	383.06
301.057	363.06
301.288	382.06
301.518	382.06
301.748	375.06
301.979	384.06
302.209	385.06
302.439	377.06
302.669	380.06
302.9	380.06
303.13	380.06
303.36	397.06
303.59	386.06
303.82	398.06
304.051	367.06
304.281	394.06
304.511	369.06
304.741	378.06
304.971	371.06
305.201	385.06
305.431	369.06
305.661	377.06
305.891	379.06
306.121	353.06
306.352	388.06
306.582	394.06
306.812	389.06
307.042	363.06
307.272	385.06
307.502	391.06
307.731	383.06
307.961	390.06
308.191	379.06
308.421	373.06
308.651	391.06
308.881	383.06
309.111	412.06
309.341	389.06
309.571	385.06
309.8	391.06
310.03	410.06
310.26	393.06
310.49	423.06
310.72	422.06
310.949	436.06
311.179	445.06
311.409	431.06
311.639	403.06
311.868	429.06
312.098	429.06
312.328	426.06
312.557	438.06
312.787	455.06
313.017	472.06
313.246	413.06
313.476	430.06
313.706	428.06
313.935	454.06
314.165	443.06
314.394	462.06
314.624	441.06
314.853	429.06
315.083	427.06
315.312	428.06
315.542	419.06
315.771	428.06
316.001	427.06
316.23	411.06
316.46	417.06
316.689	430.06
316.919	438.06
317.148	447.06
317.377	427.06
317.607	438.06
317.836	431.06
318.065	438.06
318.295	430.06
318.524	427.06
318.753	426.06
318.983	409.06
319.212	440.06
319.441	445.06
319.67	435.06
319.9	447.06
320.129	421.06
320.358	453.06
320.587	459.06
320.816	437.06
321.046	455.06
321.275	430.06
321.504	451.06
321.733	459.06
321.962	463.06
322.191	473.06
322.42	486.06
322.649	519.06
322.878	488.06
323.108	476.06
323.337	504.06
323.566	553.06
323.795	565.06
324.024	610.06
324.253	747.06
324.482	1014.06
324.71	1528.06
324.939	2126.06
325.168	1807.06
325.397	926.06
325.626	689.06
325.855	614.06
326.084	569.06
326.313	567.06
326.542	566.06
326.77	572.06
326.999	681.06
327.228	919.06
327.457	1326.06
327.686	1590.06
327.914	1037.06
328.143	748.06
328.372	650.06
328.6	606.06
328.829	603.06
329.058	593.06
329.287	627.06
329.515	606.06
329.744	539.06
329.972	549.06
330.201	562.06
330.43	625.06
330.658	618.06
330.887	649.06
331.115	656.06
331.344	565.06
331.572	539.06
331.801	558.06
332.03	555.06
332.258	549.06
332.486	523.06
332.715	537.06
332.943	526.06
333.172	545.06
333.4	527.06
333.629	556.06
333.857	559.06
334.085	584.06
334.314	574.06
334.542	588.06
334.771	626.06
334.999	563.06
335.227	563.06
335.455	539.06
335.684	541.06
335.912	527.06
336.14	520.06
336.369	517.06
336.597	529.06
336.825	523.06
337.053	524.06
337.281	509.06
337.51	503.06
337.738	480.06
337.966	479.06
338.194	516.06
338.422	505.06
338.65	491.06
338.878	490.06
339.106	488.06
339.334	478.06
339.562	481.06
339.79	460.06
340.018	473.06
340.246	483.06
340.474	498.06
340.702	479.06
340.93	469.06
341.158	479.06
341.386	479.06
341.614	483.06
341.842	498.06
342.07	493.06
342.298	488.06
342.526	465.06
342.754	467.06
342.981	465.06
343.209	466.06
343.437	493.06
343.665	490.06
343.893	504.06
344.12	513.06
344.348	515.06
344.576	503.06
344.804	501.06
345.031	496.06
345.259	482.06
345.487	503.06
345.714	476.06
345.942	450.06
346.17	488.06
346.397	476.06
346.625	457.06
346.853	501.06
347.08	477.06
347.308	469.06
347.535	461.06
347.763	455.06
347.99	454.06
348.218	484.06
348.445	481.06
348.673	483.06
348.9	462.06
349.128	447.06
349.355	456.06
349.583	454.06
349.81	454.06
350.037	459.06
350.265	439.06
350.492	451.06
350.72	447.06
350.947	433.06
351.174	458.06
351.402	458.06
351.629	472.06
351.856	461.06
352.083	468.06
352.311	437.06
352.538	474.06
352.765	472.06
352.992	472.06
353.22	454.06
353.447	467.06
353.674	444.06
353.901	453.06
354.128	421.06
354.355	421.06
354.583	443.06
354.81	441.06
355.037	414.06
355.264	452.06
355.491	408.06
355.718	421.06
355.945	435.06
356.172	445.06
356.399	430.06
356.626	426.06
356.853	426.06
357.08	426.06
357.307	446.06
357.534	433.06
357.761	426.06
357.988	428.06
358.215	426.06
358.441	439.06
358.668	435.06
358.895	412.06
359.122	449.06
359.349	443.06
359.576	469.06
359.802	473.06
360.029	485.06
360.256	517.06
360.483	490.06
360.709	473.06
360.936	446.06
361.163	461.06
361.39	446.06
361.616	456.06
361.843	440.06
362.07	449.06
362.296	447.06
362.523	440.06
362.749	444.06
362.976	443.06
363.203	476.06
363.429	458.06
363.656	441.06
363.882	441.06
364.109	429.06
364.335	441.06
364.562	437.06
364.788	433.06
365.015	438.06
365.241	413.06
365.468	451.06
365.694	436.06
365.92	459.06
366.147	417.06
366.373	429.06
366.599	425.06
366.826	435.06
367.052	437.06
367.278	426.06
367.505	421.06
367.731	439.06
367.957	430.06
368.184	439.06
368.41	453.06
368.636	437.06
368.862	457.06
369.089	452.06
369.315	437.06
369.541	429.06
369.767	441.06
369.993	443.06
370.219	437.06
370.445	413.06
370.672	420.06
370.898	418.06
371.124	434.06
371.35	437.06
371.576	439.06
371.802	450.06
372.028	453.06
372.254	451.06
372.48	425.06
372.706	454.06
372.932	445.06
373.158	427.06
373.384	456.06
373.61	454.06
373.835	442.06
374.061	449.06
374.287	455.06
374.513	456.06
374.739	469.06
374.965	463.06
375.191	460.06
375.416	442.06
375.642	427.06
375.868	453.06
376.094	445.06
376.319	445.06
376.545	438.06
376.771	436.06
376.997	421.06
377.222	428.06
377.448	435.06
377.674	419.06
377.899	435.06
378.125	444.06
378.35	427.06
378.576	445.06
378.802	441.06
379.027	423.06
379.253	421.06
379.478	430.06
379.704	417.06
379.929	431.06
380.155	438.06
380.38	400.06
380.606	421.06
380.831	436.06
381.057	438.06
381.282	428.06
381.507	414.06
381.733	438.06
381.958	436.06
382.184	444.06
382.409	456.06
382.634	456.06
382.86	456.06
383.085	470.06
383.31	450.06
383.535	453.06
383.761	452.06
383.986	464.06
384.211	460.06
384.436	457.06
384.662	469.06
384.887	463.06
385.112	485.06
385.337	492.06
385.562	478.06
385.787	476.06
386.013	498.06
386.238	485.06
386.463	490.06
386.688	462.06
386.913	467.06
387.138	474.06
387.363	474.06
387.588	506.06
387.813	512.06
388.038	473.06
388.263	469.06
388.488	489.06
388.713	467.06
388.938	482.06
389.163	483.06
389.387	485.06
389.612	474.06
389.837	489.06
390.062	459.06
390.287	448.06
390.512	481.06
390.736	477.06
390.961	485.06
391.186	478.06
391.411	517.06
391.636	515.06
391.86	485.06
392.085	493.06
392.31	522.06
392.534	505.06
392.759	509.06
392.984	483.06
393.208	485.06
393.433	502.06
393.658	491.06
393.882	481.06
394.107	507.06
394.331	482.06
394.556	489.06
394.78	492.06
395.005	498.06
395.229	477.06
395.454	515.06
395.678	511.06
395.903	539.06
396.127	544.06
396.352	509.06
396.576	501.06
396.801	478.06
397.025	502.06
397.249	518.06
397.474	502.06
397.698	506.06
397.922	530.06
398.147	565.06
398.371	559.06
398.595	541.06
398.82	562.06
399.044	582.06
399.268	618.06
399.492	631.06
399.717	725.06
399.941	705.06
400.165	727.06
400.389	700.06
400.613	630.06
400.837	583.06
401.062	583.06
401.286	562.06
401.51	581.06
401.734	587.06
401.958	574.06
402.182	567.06
402.406	607.06
402.63	603.06
402.854	594.06
403.078	572.06
403.302	569.06
403.526	601.06
403.75	603.06
403.974	613.06
404.198	593.06
404.422	610.06
404.645	600.06
404.869	578.06
405.093	631.06
405.317	653.06
405.541	730.06
405.765	651.06
405.988	612.06
406.212	615.06
406.436	666.06
406.66	667.06
406.883	647.06
407.107	659.06
407.331	716.06
407.555	769.06
407.778	755.06
408.002	710.06
408.226	645.06
408.449	641.06
408.673	646.06
408.896	664.06
409.12	696.06
409.344	635.06
409.567	606.06
409.791	578.06
410.014	618.06
410.238	569.06
410.461	587.06
410.685	582.06
410.908	629.06
411.132	615.06
411.355	651.06
411.578	624.06
411.802	565.06
412.025	593.06
412.249	566.06
412.472	613.06
412.695	627.06
412.919	609.06
413.142	584.06
413.365	567.06
413.589	541.06
413.812	567.06
414.035	555.06
414.258	548.06
414.482	572.06
414.705	554.06
414.928	551.06
415.151	553.06
415.374	572.06
415.597	549.06
415.821	527.06
416.044	538.06
416.267	537.06
416.49	521.06
416.713	532.06
416.936	548.06
417.159	538.06
417.382	551.06
417.605	546.06
417.828	573.06
418.051	562.06
418.274	570.06
418.497	538.06
418.72	555.06
418.943	551.06
419.166	573.06
419.389	591.06
419.611	584.06
419.834	586.06
420.057	571.06
420.28	581.06
420.503	562.06
420.726	579.06
420.948	586.06
421.171	619.06
421.394	626.06
421.617	585.06
421.839	566.06
422.062	563.06
422.285	558.06
422.507	645.06
422.73	680.06
422.953	692.06
423.175	589.06
423.398	590.06
423.621	590.06
423.843	608.06
424.066	617.06
424.288	602.06
424.511	633.06
424.733	673.06
424.956	733.06
425.178	716.06
425.401	710.06
425.623	732.06
425.846	618.06
426.068	593.06
426.291	586.06
426.513	582.06
426.735	594.06
426.958	628.06
427.18	706.06
427.402	832.06
427.625	899.06
427.847	806.06
428.069	671.06
428.292	626.06
428.514	580.06
428.736	579.06
428.958	581.06
429.181	533.06
429.403	530.06
429.625	555.06
429.847	592.06
430.069	625.06
430.292	625.06
430.514	569.06
430.736	515.06
430.958	523.06
431.18	505.06
431.402	514.06
431.624	505.06
431.846	519.06
432.068	513.06
432.29	542.06
432.512	519.06
432.734	529.06
432.956	506.06
433.178	522.06
433.4	546.06
433.622	550.06
433.844	502.06
434.066	518.06
434.287	526.06
434.509	533.06
434.731	555.06
434.953	566.06
435.175	568.06
435.397	584.06
435.618	625.06
435.84	631.06
436.062	694.06
436.284	749.06
436.505	639.06
436.727	569.06
436.949	542.06
437.17	533.06
437.392	525.06
437.614	519.06
437.835	581.06
438.057	680.06
438.278	780.06
438.5	761.06
438.721	823.06
438.943	794.06
439.165	639.06
439.386	588.06
439.608	585.06
439.829	570.06
440.05	622.06
440.272	633.06
440.493	604.06
440.715	555.06
440.936	565.06
441.158	560.06
441.379	574.06
441.6	573.06
441.822	567.06
442.043	616.06
442.264	723.06
442.486	759.06
442.707	631.06
442.928	617.06
443.149	581.06
443.371	627.06
443.592	684.06
443.813	748.06
444.034	833.06
444.255	686.06
444.476	605.06
444.698	603.06
444.919	613.06
445.14	733.06
445.361	670.06
445.582	654.06
445.803	706.06
446.024	780.06
446.245	771.06
446.466	711.06
446.687	612.06
446.908	595.06
447.129	575.06
447.35	553.06
447.571	541.06
447.792	541.06
448.013	542.06
448.234	565.06
448.455	604.06
448.675	693.06
448.896	801.06
449.117	693.06
449.338	636.06
449.559	769.06
449.779	850.06
450	691.06
450.221	582.06
450.442	540.06
450.662	500.06
450.883	517.06
451.104	534.06
451.324	520.06
451.545	521.06
451.766	494.06
451.986	482.06
452.207	492.06
452.428	482.06
452.648	473.06
452.869	487.06
453.089	488.06
453.31	493.06
453.53	488.06
453.751	479.06
453.971	469.06
454.192	492.06
454.412	497.06
454.633	465.06
454.853	485.06
455.073	462.06
455.294	482.06
455.514	561.06
455.734	539.06
455.955	443.06
456.175	471.06
456.395	453.06
456.616	474.06
456.836	453.06
457.056	435.06
457.276	445.06
457.497	473.06
457.717	468.06
457.937	467.06
458.157	458.06
458.377	470.06
458.598	502.06
458.818	547.06
459.038	637.06
459.258	639.06
459.478	556.06
459.698	526.06
459.918	514.06
460.138	533.06
460.358	529.06
460.578	538.06
460.798	555.06
461.018	554.06
461.238	518.06
461.458	563.06
461.678	555.06
461.898	550.06
462.118	544.06
462.338	559.06
462.558	571.06
462.777	585.06
462.997	614.06
463.217	637.06
463.437	630.06
463.657	595.06
463.876	590.06
464.096	597.06
464.316	602.06
464.536	594.06
464.755	608.06
464.975	609.06
465.195	638.06
465.414	677.06
465.634	586.06
465.854	565.06
466.073	547.06
466.293	529.06
466.512	492.06
466.732	494.06
466.951	485.06
467.171	486.06
467.391	496.06
467.61	518.06
467.829	507.06
468.049	501.06
468.268	515.06
468.488	493.06
468.707	478.06
468.927	496.06
469.146	474.06
469.365	486.06
469.585	475.06
469.804	489.06
470.023	503.06
470.243	495.06
470.462	518.06
470.681	517.06
470.901	546.06
471.12	497.06
471.339	521.06
471.558	505.06
471.777	489.06
471.997	487.06
472.216	461.06
472.435	535.06
472.654	503.06
472.873	492.06
473.092	501.06
473.311	475.06
473.53	487.06
473.749	499.06
473.968	540.06
474.187	632.06
474.406	676.06
474.625	542.06
474.844	494.06
475.063	511.06
475.282	499.06
475.501	505.06
475.72	512.06
475.939	524.06
476.158	512.06
476.377	523.06
476.596	513.06
476.814	535.06
477.033	542.06
477.252	517.06
477.471	534.06
477.69	560.06
477.908	564.06
478.127	558.06
478.346	555.06
478.564	578.06
478.783	558.06
479.002	594.06
479.22	566.06
479.439	576.06
479.658	608.06
479.876	631.06
480.095	594.06
480.313	619.06
480.532	635.06
480.751	646.06
480.969	620.06
481.188	649.06
481.406	675.06
481.624	646.06
481.843	600.06
482.061	597.06
482.28	599.06
482.498	579.06
482.717	580.06
482.935	558.06
483.153	586.06
483.372	567.06
483.59	565.06
483.808	573.06
484.027	563.06
484.245	589.06
484.463	574.06
484.681	591.06
484.9	587.06
485.118	617.06
485.336	586.06
485.554	599.06
485.772	616.06
485.99	600.06
486.209	594.06
486.427	602.06
486.645	637.06
486.863	639.06
487.081	612.06
487.299	625.06
487.517	604.06
487.735	619.06
487.953	606.06
488.171	617.06
488.389	613.06
488.607	632.06
488.825	617.06
489.043	641.06
489.261	626.06
489.479	648.06
489.696	634.06
489.914	647.06
490.132	657.06
490.35	644.06
490.568	619.06
490.786	655.06
491.003	661.06
491.221	673.06
491.439	690.06
491.657	689.06
491.874	722.06
492.092	701.06
492.31	721.06
492.527	731.06
492.745	693.06
492.963	727.06
493.18	730.06
493.398	721.06
493.615	725.06
493.833	734.06
494.05	740.06
494.268	723.06
494.485	735.06
494.703	714.06
494.92	728.06
495.138	710.06
495.355	747.06
495.573	739.06
495.79	724.06
496.008	715.06
496.225	767.06
496.442	718.06
496.66	756.06
496.877	741.06
497.094	731.06
497.312	749.06
497.529	759.06
497.746	779.06
497.963	800.06
498.181	837.06
498.398	830.06
498.615	857.06
498.832	868.06
499.049	885.06
499.267	930.06
499.484	997.06
499.701	1053.06
499.918	1096.06
500.135	1142.06
500.352	1209.06
500.569	1246.06
500.786	1272.06
501.003	1225.06
501.22	1154.06
501.437	1101.06
501.654	1069.06
501.871	1026.06
