Data from 1985.PennyLincolnUp.Lamp.En5.5.200Scan.071819.P1_HRD10591_17-04-03-971.txt Node
Date: Thu Jul 18 17:04:03 EDT 2019
User: cochatt
Spectrometer: HR+D1059
Trigger mode: 1
Integration Time (sec): 1.000000E-1
Scans to average: 1
Electric dark correction enabled: true
Nonlinearity correction enabled: false
Boxcar width: 0
XAxis mode: Wavelengths
Number of Pixels in Spectrum: 2048
>>>>>Begin Spectral Data<<<<<
223.165	-14.25
223.4	-14.25
223.635	-14.25
223.869	-11.25
224.104	-32.25
224.338	-19.25
224.573	-12.25
224.808	-6.25
225.042	-14.25
225.277	6.75
225.511	-1.25
225.746	8.75
225.98	4.75
226.215	6.75
226.449	9.75
226.683	11.75
226.918	37.75
227.152	24.75
227.387	42.75
227.621	33.75
227.856	29.75
228.09	38.75
228.324	61.75
228.559	49.75
228.793	63.75
229.027	101.75
229.262	103.75
229.496	116.75
229.73	121.75
229.964	156.75
230.199	120.75
230.433	123.75
230.667	110.75
230.901	119.75
231.136	121.75
231.37	109.75
231.604	118.75
231.838	120.75
232.072	111.75
232.306	117.75
232.541	105.75
232.775	118.75
233.009	117.75
233.243	110.75
233.477	125.75
233.711	126.75
233.945	119.75
234.179	117.75
234.413	122.75
234.647	115.75
234.881	116.75
235.115	114.75
235.349	126.75
235.583	119.75
235.817	127.75
236.051	132.75
236.285	140.75
236.519	133.75
236.753	134.75
236.987	143.75
237.221	156.75
237.455	196.75
237.689	184.75
237.922	155.75
238.156	134.75
238.39	131.75
238.624	122.75
238.858	149.75
239.091	135.75
239.325	115.75
239.559	126.75
239.793	133.75
240.027	123.75
240.26	133.75
240.494	157.75
240.728	143.75
240.961	146.75
241.195	144.75
241.429	142.75
241.662	143.75
241.896	137.75
242.13	142.75
242.363	141.75
242.597	129.75
242.83	145.75
243.064	140.75
243.298	167.75
243.531	152.75
243.765	151.75
243.998	141.75
244.232	147.75
244.465	142.75
244.699	144.75
244.932	139.75
245.166	144.75
245.399	150.75
245.633	161.75
245.866	149.75
246.099	135.75
246.333	139.75
246.566	167.75
246.8	141.75
247.033	149.75
247.266	153.75
247.5	161.75
247.733	174.75
247.966	171.75
248.2	181.75
248.433	179.75
248.666	186.75
248.899	194.75
249.133	185.75
249.366	211.75
249.599	192.75
249.832	198.75
250.066	185.75
250.299	174.75
250.532	195.75
250.765	208.75
250.998	232.75
251.231	222.75
251.465	205.75
251.698	219.75
251.931	194.75
252.164	209.75
252.397	195.75
252.63	207.75
252.863	209.75
253.096	217.75
253.329	208.75
253.562	238.75
253.795	229.75
254.028	230.75
254.261	218.75
254.494	225.75
254.727	260.75
254.96	269.75
255.193	268.75
255.426	251.75
255.659	254.75
255.892	239.75
256.124	233.75
256.357	272.75
256.59	233.75
256.823	243.75
257.056	214.75
257.289	210.75
257.521	208.75
257.754	212.75
257.987	215.75
258.22	209.75
258.452	217.75
258.685	227.75
258.918	225.75
259.151	222.75
259.383	228.75
259.616	221.75
259.849	230.75
260.081	252.75
260.314	253.75
260.547	252.75
260.779	232.75
261.012	241.75
261.244	231.75
261.477	232.75
261.71	221.75
261.942	234.75
262.175	247.75
262.407	241.75
262.64	238.75
262.872	213.75
263.105	226.75
263.337	235.75
263.57	214.75
263.802	227.75
264.035	223.75
264.267	239.75
264.499	232.75
264.732	234.75
264.964	234.75
265.197	222.75
265.429	217.75
265.661	229.75
265.894	220.75
266.126	260.75
266.358	233.75
266.591	237.75
266.823	229.75
267.055	265.75
267.287	257.75
267.52	231.75
267.752	231.75
267.984	233.75
268.216	236.75
268.448	243.75
268.681	257.75
268.913	257.75
269.145	268.75
269.377	267.75
269.609	286.75
269.841	282.75
270.073	263.75
270.306	294.75
270.538	317.75
270.77	303.75
271.002	296.75
271.234	299.75
271.466	313.75
271.698	336.75
271.93	335.75
272.162	314.75
272.394	330.75
272.626	300.75
272.858	302.75
273.09	283.75
273.322	283.75
273.553	262.75
273.785	283.75
274.017	267.75
274.249	277.75
274.481	283.75
274.713	270.75
274.945	282.75
275.176	285.75
275.408	292.75
275.64	270.75
275.872	287.75
276.104	282.75
276.335	295.75
276.567	286.75
276.799	310.75
277.031	339.75
277.262	326.75
277.494	331.75
277.726	324.75
277.957	301.75
278.189	317.75
278.421	311.75
278.652	296.75
278.884	297.75
279.115	299.75
279.347	293.75
279.579	293.75
279.81	297.75
280.042	287.75
280.273	276.75
280.505	308.75
280.736	300.75
280.968	295.75
281.199	307.75
281.431	285.75
281.662	296.75
281.894	295.75
282.125	314.75
282.356	302.75
282.588	333.75
282.819	341.75
283.051	312.75
283.282	306.75
283.513	323.75
283.745	323.75
283.976	299.75
284.207	310.75
284.439	311.75
284.67	329.75
284.901	303.75
285.132	309.75
285.364	293.75
285.595	308.75
285.826	317.75
286.057	303.75
286.288	323.75
286.52	320.75
286.751	312.75
286.982	300.75
287.213	310.75
287.444	314.75
287.675	329.75
287.906	322.75
288.138	339.75
288.369	342.75
288.6	350.75
288.831	324.75
289.062	327.75
289.293	346.75
289.524	330.75
289.755	329.75
289.986	325.75
290.217	327.75
290.448	333.75
290.679	329.75
290.91	325.75
291.141	342.75
291.371	322.75
291.602	327.75
291.833	330.75
292.064	339.75
292.295	330.75
292.526	323.75
292.757	315.75
292.987	336.75
293.218	326.75
293.449	318.75
293.68	334.75
293.91	330.75
294.141	332.75
294.372	337.75
294.603	323.75
294.833	347.75
295.064	326.75
295.295	323.75
295.525	340.75
295.756	333.75
295.987	339.75
296.217	353.75
296.448	361.75
296.679	323.75
296.909	334.75
297.14	326.75
297.37	356.75
297.601	335.75
297.831	349.75
298.062	357.75
298.292	345.75
298.523	340.75
298.753	346.75
298.984	347.75
299.214	370.75
299.445	350.75
299.675	331.75
299.905	366.75
300.136	357.75
300.366	342.75
300.597	363.75
300.827	357.75
301.057	361.75
301.288	375.75
301.518	375.75
301.748	364.75
301.979	366.75
302.209	381.75
302.439	379.75
302.669	370.75
302.9	367.75
303.13	383.75
303.36	377.75
303.59	358.75
303.82	385.75
304.051	383.75
304.281	387.75
304.511	370.75
304.741	358.75
304.971	359.75
305.201	378.75
305.431	360.75
305.661	383.75
305.891	391.75
306.121	378.75
306.352	375.75
306.582	381.75
306.812	388.75
307.042	385.75
307.272	366.75
307.502	382.75
307.731	379.75
307.961	382.75
308.191	371.75
308.421	384.75
308.651	371.75
308.881	397.75
309.111	382.75
309.341	396.75
309.571	412.75
309.8	413.75
310.03	415.75
310.26	430.75
310.49	420.75
310.72	394.75
310.949	442.75
311.179	439.75
311.409	436.75
311.639	431.75
311.868	415.75
312.098	415.75
312.328	433.75
312.557	435.75
312.787	431.75
313.017	440.75
313.246	431.75
313.476	421.75
313.706	436.75
313.935	422.75
314.165	423.75
314.394	465.75
314.624	458.75
314.853	435.75
315.083	440.75
315.312	424.75
315.542	409.75
315.771	420.75
316.001	430.75
316.23	417.75
316.46	420.75
316.689	411.75
316.919	433.75
317.148	433.75
317.377	428.75
317.607	428.75
317.836	426.75
318.065	420.75
318.295	427.75
318.524	406.75
318.753	428.75
318.983	422.75
319.212	446.75
319.441	423.75
319.67	435.75
319.9	433.75
320.129	433.75
320.358	418.75
320.587	421.75
320.816	439.75
321.046	434.75
321.275	439.75
321.504	451.75
321.733	437.75
321.962	452.75
322.191	456.75
322.42	460.75
322.649	459.75
322.878	478.75
323.108	495.75
323.337	511.75
323.566	527.75
323.795	546.75
324.024	609.75
324.253	734.75
324.482	991.75
324.71	1481.75
324.939	2091.75
325.168	1733.75
325.397	940.75
325.626	693.75
325.855	573.75
326.084	571.75
326.313	542.75
326.542	547.75
326.77	589.75
326.999	697.75
327.228	852.75
327.457	1342.75
327.686	1546.75
327.914	1065.75
328.143	745.75
328.372	670.75
328.6	625.75
328.829	606.75
329.058	601.75
329.287	632.75
329.515	600.75
329.744	566.75
329.972	589.75
330.201	604.75
330.43	636.75
330.658	661.75
330.887	681.75
331.115	642.75
331.344	595.75
331.572	549.75
331.801	569.75
332.03	563.75
332.258	549.75
332.486	534.75
332.715	531.75
332.943	526.75
333.172	549.75
333.4	567.75
333.629	563.75
333.857	584.75
334.085	589.75
334.314	617.75
334.542	691.75
334.771	669.75
334.999	606.75
335.227	566.75
335.455	543.75
335.684	530.75
335.912	532.75
336.14	518.75
336.369	526.75
336.597	533.75
336.825	520.75
337.053	506.75
337.281	481.75
337.51	494.75
337.738	503.75
337.966	482.75
338.194	491.75
338.422	500.75
338.65	514.75
338.878	490.75
339.106	484.75
339.334	508.75
339.562	467.75
339.79	475.75
340.018	483.75
340.246	473.75
340.474	479.75
340.702	498.75
340.93	453.75
341.158	469.75
341.386	462.75
341.614	475.75
341.842	479.75
342.07	472.75
342.298	474.75
342.526	466.75
342.754	453.75
342.981	462.75
343.209	470.75
343.437	497.75
343.665	482.75
343.893	486.75
344.12	503.75
344.348	517.75
344.576	503.75
344.804	522.75
345.031	486.75
345.259	505.75
345.487	480.75
345.714	483.75
345.942	473.75
346.17	461.75
346.397	473.75
346.625	473.75
346.853	448.75
347.08	475.75
347.308	453.75
347.535	466.75
347.763	496.75
347.99	456.75
348.218	452.75
348.445	445.75
348.673	465.75
348.9	467.75
349.128	474.75
349.355	444.75
349.583	451.75
349.81	461.75
350.037	461.75
350.265	452.75
350.492	429.75
350.72	439.75
350.947	463.75
351.174	452.75
351.402	449.75
351.629	460.75
351.856	451.75
352.083	458.75
352.311	468.75
352.538	487.75
352.765	463.75
352.992	458.75
353.22	459.75
353.447	457.75
353.674	439.75
353.901	426.75
354.128	449.75
354.355	409.75
354.583	417.75
354.81	427.75
355.037	425.75
355.264	421.75
355.491	437.75
355.718	442.75
355.945	437.75
356.172	442.75
356.399	420.75
356.626	429.75
356.853	437.75
357.08	411.75
357.307	435.75
357.534	419.75
357.761	409.75
357.988	413.75
358.215	433.75
358.441	429.75
358.668	420.75
358.895	440.75
359.122	436.75
359.349	443.75
359.576	465.75
359.802	461.75
360.029	490.75
360.256	493.75
360.483	485.75
360.709	470.75
360.936	454.75
361.163	453.75
361.39	476.75
361.616	457.75
361.843	439.75
362.07	456.75
362.296	474.75
362.523	449.75
362.749	457.75
362.976	445.75
363.203	410.75
363.429	456.75
363.656	441.75
363.882	443.75
364.109	426.75
364.335	444.75
364.562	427.75
364.788	426.75
365.015	432.75
365.241	429.75
365.468	420.75
365.694	445.75
365.92	445.75
366.147	434.75
366.373	439.75
366.599	437.75
366.826	439.75
367.052	410.75
367.278	413.75
367.505	426.75
367.731	426.75
367.957	442.75
368.184	444.75
368.41	428.75
368.636	430.75
368.862	439.75
369.089	447.75
369.315	449.75
369.541	423.75
369.767	433.75
369.993	447.75
370.219	434.75
370.445	441.75
370.672	442.75
370.898	425.75
371.124	439.75
371.35	437.75
371.576	424.75
371.802	442.75
372.028	433.75
372.254	423.75
372.48	452.75
372.706	448.75
372.932	452.75
373.158	430.75
373.384	414.75
373.61	436.75
373.835	439.75
374.061	420.75
374.287	445.75
374.513	452.75
374.739	442.75
374.965	442.75
375.191	462.75
375.416	448.75
375.642	442.75
375.868	440.75
376.094	451.75
376.319	426.75
376.545	430.75
376.771	428.75
376.997	432.75
377.222	427.75
377.448	421.75
377.674	426.75
377.899	423.75
378.125	417.75
378.35	415.75
378.576	414.75
378.802	417.75
379.027	417.75
379.253	417.75
379.478	427.75
379.704	415.75
379.929	428.75
380.155	426.75
380.38	449.75
380.606	430.75
380.831	422.75
381.057	443.75
381.282	433.75
381.507	435.75
381.733	433.75
381.958	416.75
382.184	446.75
382.409	447.75
382.634	447.75
382.86	463.75
383.085	425.75
383.31	465.75
383.535	461.75
383.761	442.75
383.986	457.75
384.211	463.75
384.436	443.75
384.662	462.75
384.887	444.75
385.112	475.75
385.337	475.75
385.562	485.75
385.787	479.75
386.013	483.75
386.238	469.75
386.463	488.75
386.688	494.75
386.913	478.75
387.138	476.75
387.363	468.75
387.588	470.75
387.813	471.75
388.038	463.75
388.263	469.75
388.488	472.75
388.713	476.75
388.938	480.75
389.163	466.75
389.387	462.75
389.612	472.75
389.837	472.75
390.062	486.75
390.287	483.75
390.512	486.75
390.736	459.75
390.961	486.75
391.186	472.75
391.411	490.75
391.636	498.75
391.86	477.75
392.085	499.75
392.31	515.75
392.534	485.75
392.759	472.75
392.984	489.75
393.208	504.75
393.433	478.75
393.658	466.75
393.882	476.75
394.107	475.75
394.331	510.75
394.556	499.75
394.78	499.75
395.005	494.75
395.229	475.75
395.454	500.75
395.678	504.75
395.903	519.75
396.127	548.75
396.352	531.75
396.576	512.75
396.801	498.75
397.025	514.75
397.249	496.75
397.474	499.75
397.698	505.75
397.922	526.75
398.147	519.75
398.371	547.75
398.595	558.75
398.82	564.75
399.044	571.75
399.268	598.75
399.492	658.75
399.717	681.75
399.941	720.75
400.165	718.75
400.389	707.75
400.613	618.75
400.837	579.75
401.062	580.75
401.286	569.75
401.51	565.75
401.734	551.75
401.958	554.75
402.182	575.75
402.406	571.75
402.63	578.75
402.854	579.75
403.078	564.75
403.302	593.75
403.526	598.75
403.75	602.75
403.974	593.75
404.198	571.75
404.422	603.75
404.645	617.75
404.869	612.75
405.093	642.75
405.317	661.75
405.541	712.75
405.765	637.75
405.988	605.75
406.212	629.75
406.436	636.75
406.66	669.75
406.883	612.75
407.107	657.75
407.331	711.75
407.555	771.75
407.778	755.75
408.002	712.75
408.226	684.75
408.449	628.75
408.673	644.75
408.896	661.75
409.12	690.75
409.344	649.75
409.567	591.75
409.791	569.75
410.014	590.75
410.238	591.75
410.461	580.75
410.685	563.75
410.908	582.75
411.132	634.75
411.355	621.75
411.578	607.75
411.802	567.75
412.025	558.75
412.249	601.75
412.472	598.75
412.695	672.75
412.919	655.75
413.142	583.75
413.365	551.75
413.589	545.75
413.812	530.75
414.035	558.75
414.258	526.75
414.482	539.75
414.705	531.75
414.928	558.75
415.151	550.75
415.374	539.75
415.597	541.75
415.821	531.75
416.044	542.75
416.267	527.75
416.49	544.75
416.713	528.75
416.936	531.75
417.159	534.75
417.382	526.75
417.605	556.75
417.828	559.75
418.051	541.75
418.274	554.75
418.497	581.75
418.72	546.75
418.943	564.75
419.166	567.75
419.389	581.75
419.611	581.75
419.834	584.75
420.057	588.75
420.28	571.75
420.503	589.75
420.726	571.75
420.948	566.75
421.171	574.75
421.394	618.75
421.617	541.75
421.839	551.75
422.062	582.75
422.285	574.75
422.507	608.75
422.73	696.75
422.953	657.75
423.175	614.75
423.398	584.75
423.621	562.75
423.843	579.75
424.066	591.75
424.288	583.75
424.511	617.75
424.733	654.75
424.956	723.75
425.178	703.75
425.401	690.75
425.623	713.75
425.846	631.75
426.068	598.75
426.291	594.75
426.513	590.75
426.735	573.75
426.958	602.75
427.18	703.75
427.402	844.75
427.625	910.75
427.847	794.75
428.069	676.75
428.292	627.75
428.514	561.75
428.736	542.75
428.958	547.75
429.181	528.75
429.403	511.75
429.625	558.75
429.847	569.75
430.069	614.75
430.292	610.75
430.514	532.75
430.736	519.75
430.958	526.75
431.18	508.75
431.402	507.75
431.624	520.75
431.846	501.75
432.068	506.75
432.29	519.75
432.512	508.75
432.734	529.75
432.956	518.75
433.178	511.75
433.4	515.75
433.622	528.75
433.844	518.75
434.066	525.75
434.287	509.75
434.509	533.75
434.731	520.75
434.953	556.75
435.175	551.75
435.397	584.75
435.618	609.75
435.84	618.75
436.062	711.75
436.284	784.75
436.505	634.75
436.727	589.75
436.949	548.75
437.17	524.75
437.392	538.75
437.614	542.75
437.835	578.75
438.057	645.75
438.278	741.75
438.5	725.75
438.721	837.75
438.943	771.75
439.165	612.75
439.386	558.75
439.608	582.75
439.829	592.75
440.05	603.75
440.272	612.75
440.493	614.75
440.715	574.75
440.936	567.75
441.158	555.75
441.379	551.75
441.6	568.75
441.822	574.75
442.043	612.75
442.264	677.75
442.486	726.75
442.707	639.75
442.928	596.75
443.149	595.75
443.371	597.75
443.592	643.75
443.813	733.75
444.034	783.75
444.255	667.75
444.476	604.75
444.698	603.75
444.919	614.75
445.14	759.75
445.361	659.75
445.582	645.75
445.803	692.75
446.024	769.75
446.245	774.75
446.466	684.75
446.687	604.75
446.908	573.75
447.129	533.75
447.35	535.75
447.571	539.75
447.792	552.75
448.013	524.75
448.234	539.75
448.455	595.75
448.675	694.75
448.896	807.75
449.117	673.75
449.338	632.75
449.559	750.75
449.779	849.75
450	689.75
450.221	586.75
450.442	520.75
450.662	539.75
450.883	522.75
451.104	524.75
451.324	527.75
451.545	497.75
451.766	501.75
451.986	481.75
452.207	484.75
452.428	449.75
452.648	486.75
452.869	472.75
453.089	464.75
453.31	508.75
453.53	503.75
453.751	467.75
453.971	477.75
454.192	483.75
454.412	478.75
454.633	448.75
454.853	485.75
455.073	452.75
455.294	488.75
455.514	550.75
455.734	536.75
455.955	463.75
456.175	459.75
456.395	450.75
456.616	462.75
456.836	442.75
457.056	450.75
457.276	443.75
457.497	447.75
457.717	450.75
457.937	449.75
458.157	458.75
458.377	470.75
458.598	470.75
458.818	518.75
459.038	618.75
459.258	636.75
459.478	556.75
459.698	525.75
459.918	529.75
460.138	516.75
460.358	533.75
460.578	544.75
460.798	542.75
461.018	548.75
461.238	555.75
461.458	552.75
461.678	522.75
461.898	545.75
462.118	519.75
462.338	571.75
462.558	565.75
462.777	583.75
462.997	600.75
463.217	643.75
463.437	616.75
463.657	599.75
463.876	594.75
464.096	597.75
464.316	585.75
464.536	597.75
464.755	605.75
464.975	589.75
465.195	592.75
465.414	669.75
465.634	594.75
465.854	534.75
466.073	532.75
466.293	518.75
466.512	511.75
466.732	509.75
466.951	482.75
467.171	506.75
467.391	505.75
467.61	492.75
467.829	531.75
468.049	504.75
468.268	512.75
468.488	518.75
468.707	499.75
468.927	467.75
469.146	461.75
469.365	492.75
469.585	476.75
469.804	489.75
470.023	528.75
470.243	492.75
470.462	499.75
470.681	533.75
470.901	515.75
471.12	505.75
471.339	497.75
471.558	516.75
471.777	503.75
471.997	485.75
472.216	513.75
472.435	530.75
472.654	537.75
472.873	523.75
473.092	505.75
473.311	497.75
473.53	487.75
473.749	495.75
473.968	520.75
474.187	621.75
474.406	665.75
474.625	534.75
474.844	511.75
475.063	479.75
475.282	470.75
475.501	490.75
475.72	512.75
475.939	502.75
476.158	505.75
476.377	494.75
476.596	498.75
476.814	515.75
477.033	514.75
477.252	532.75
477.471	546.75
477.69	546.75
477.908	540.75
478.127	537.75
478.346	562.75
478.564	560.75
478.783	568.75
479.002	581.75
479.22	550.75
479.439	612.75
479.658	602.75
479.876	589.75
480.095	618.75
480.313	640.75
480.532	634.75
480.751	637.75
480.969	631.75
481.188	698.75
481.406	747.75
481.624	671.75
481.843	613.75
482.061	601.75
482.28	595.75
482.498	567.75
482.717	556.75
482.935	590.75
483.153	573.75
483.372	582.75
483.59	586.75
483.808	577.75
484.027	555.75
484.245	565.75
484.463	581.75
484.681	586.75
484.9	572.75
485.118	595.75
485.336	591.75
485.554	606.75
485.772	592.75
485.99	583.75
486.209	594.75
486.427	602.75
486.645	584.75
486.863	621.75
487.081	633.75
487.299	619.75
487.517	619.75
487.735	594.75
487.953	631.75
488.171	613.75
488.389	617.75
488.607	606.75
488.825	611.75
489.043	615.75
489.261	605.75
489.479	602.75
489.696	631.75
489.914	631.75
490.132	643.75
490.35	641.75
490.568	655.75
490.786	669.75
491.003	693.75
491.221	669.75
491.439	685.75
491.657	686.75
491.874	700.75
492.092	701.75
492.31	723.75
492.527	717.75
492.745	737.75
492.963	710.75
493.18	732.75
493.398	723.75
493.615	748.75
493.833	735.75
494.05	737.75
494.268	717.75
494.485	713.75
494.703	726.75
494.92	727.75
495.138	723.75
495.355	714.75
495.573	727.75
495.79	740.75
496.008	765.75
496.225	730.75
496.442	722.75
496.66	726.75
496.877	716.75
497.094	744.75
497.312	735.75
497.529	771.75
497.746	765.75
497.963	783.75
498.181	794.75
498.398	825.75
498.615	830.75
498.832	866.75
499.049	893.75
499.267	911.75
499.484	956.75
499.701	1036.75
499.918	1053.75
500.135	1140.75
500.352	1225.75
500.569	1238.75
500.786	1222.75
501.003	1224.75
501.22	1117.75
501.437	1102.75
501.654	1063.75
501.871	994.75
