Data from 1985.PennyLincolnUp.Lamp.En5.5.200Scan.071819.P1_HRD10591_17-02-36-971.txt Node
Date: Thu Jul 18 17:02:36 EDT 2019
User: cochatt
Spectrometer: HR+D1059
Trigger mode: 1
Integration Time (sec): 1.000000E-1
Scans to average: 1
Electric dark correction enabled: true
Nonlinearity correction enabled: false
Boxcar width: 0
XAxis mode: Wavelengths
Number of Pixels in Spectrum: 2048
>>>>>Begin Spectral Data<<<<<
223.165	-16.81
223.4	-16.81
223.635	-16.81
223.869	-28.81
224.104	-12.81
224.338	-18.81
224.573	-20.81
224.808	-18.81
225.042	5.19
225.277	-7.81
225.511	6.19
225.746	5.19
225.98	17.19
226.215	-3.81
226.449	13.19
226.683	24.19
226.918	25.19
227.152	32.19
227.387	38.19
227.621	27.19
227.856	31.19
228.09	32.19
228.324	57.19
228.559	55.19
228.793	56.19
229.027	86.19
229.262	98.19
229.496	111.19
229.73	133.19
229.964	138.19
230.199	127.19
230.433	107.19
230.667	111.19
230.901	117.19
231.136	117.19
231.37	116.19
231.604	100.19
231.838	109.19
232.072	120.19
232.306	121.19
232.541	125.19
232.775	119.19
233.009	123.19
233.243	115.19
233.477	110.19
233.711	118.19
233.945	124.19
234.179	124.19
234.413	114.19
234.647	121.19
234.881	126.19
235.115	113.19
235.349	117.19
235.583	120.19
235.817	110.19
236.051	116.19
236.285	122.19
236.519	118.19
236.753	110.19
236.987	142.19
237.221	162.19
237.455	206.19
237.689	160.19
237.922	131.19
238.156	135.19
238.39	134.19
238.624	123.19
238.858	133.19
239.091	134.19
239.325	123.19
239.559	117.19
239.793	129.19
240.027	136.19
240.26	147.19
240.494	161.19
240.728	137.19
240.961	130.19
241.195	147.19
241.429	141.19
241.662	126.19
241.896	133.19
242.13	138.19
242.363	126.19
242.597	134.19
242.83	117.19
243.064	156.19
243.298	160.19
243.531	140.19
243.765	146.19
243.998	129.19
244.232	130.19
244.465	142.19
244.699	146.19
244.932	144.19
245.166	139.19
245.399	167.19
245.633	157.19
245.866	142.19
246.099	153.19
246.333	154.19
246.566	141.19
246.8	145.19
247.033	164.19
247.266	163.19
247.5	156.19
247.733	153.19
247.966	159.19
248.2	174.19
248.433	168.19
248.666	165.19
248.899	178.19
249.133	197.19
249.366	215.19
249.599	188.19
249.832	174.19
250.066	168.19
250.299	192.19
250.532	190.19
250.765	195.19
250.998	195.19
251.231	216.19
251.465	189.19
251.698	202.19
251.931	194.19
252.164	204.19
252.397	204.19
252.63	188.19
252.863	205.19
253.096	205.19
253.329	209.19
253.562	217.19
253.795	214.19
254.028	197.19
254.261	205.19
254.494	195.19
254.727	269.19
254.96	269.19
255.193	251.19
255.426	230.19
255.659	213.19
255.892	205.19
256.124	213.19
256.357	210.19
256.59	207.19
256.823	203.19
257.056	210.19
257.289	189.19
257.521	214.19
257.754	201.19
257.987	197.19
258.22	217.19
258.452	187.19
258.685	202.19
258.918	210.19
259.151	219.19
259.383	224.19
259.616	211.19
259.849	214.19
260.081	222.19
260.314	242.19
260.547	246.19
260.779	237.19
261.012	243.19
261.244	229.19
261.477	213.19
261.71	235.19
261.942	222.19
262.175	236.19
262.407	234.19
262.64	220.19
262.872	218.19
263.105	208.19
263.337	225.19
263.57	215.19
263.802	196.19
264.035	218.19
264.267	236.19
264.499	217.19
264.732	226.19
264.964	217.19
265.197	225.19
265.429	217.19
265.661	216.19
265.894	228.19
266.126	212.19
266.358	212.19
266.591	232.19
266.823	222.19
267.055	225.19
267.287	235.19
267.52	213.19
267.752	232.19
267.984	232.19
268.216	229.19
268.448	233.19
268.681	242.19
268.913	264.19
269.145	248.19
269.377	277.19
269.609	281.19
269.841	277.19
270.073	286.19
270.306	288.19
270.538	321.19
270.77	326.19
271.002	290.19
271.234	318.19
271.466	294.19
271.698	308.19
271.93	307.19
272.162	309.19
272.394	311.19
272.626	306.19
272.858	287.19
273.09	289.19
273.322	285.19
273.553	256.19
273.785	263.19
274.017	284.19
274.249	266.19
274.481	271.19
274.713	263.19
274.945	285.19
275.176	277.19
275.408	255.19
275.64	263.19
275.872	249.19
276.104	260.19
276.335	282.19
276.567	281.19
276.799	298.19
277.031	293.19
277.262	320.19
277.494	329.19
277.726	314.19
277.957	293.19
278.189	285.19
278.421	293.19
278.652	295.19
278.884	285.19
279.115	274.19
279.347	264.19
279.579	276.19
279.81	276.19
280.042	267.19
280.273	277.19
280.505	271.19
280.736	283.19
280.968	287.19
281.199	279.19
281.431	270.19
281.662	282.19
281.894	281.19
282.125	294.19
282.356	296.19
282.588	320.19
282.819	317.19
283.051	285.19
283.282	286.19
283.513	306.19
283.745	291.19
283.976	292.19
284.207	301.19
284.439	306.19
284.67	302.19
284.901	308.19
285.132	292.19
285.364	301.19
285.595	293.19
285.826	301.19
286.057	321.19
286.288	292.19
286.52	311.19
286.751	305.19
286.982	304.19
287.213	318.19
287.444	322.19
287.675	310.19
287.906	316.19
288.138	325.19
288.369	335.19
288.6	342.19
288.831	326.19
289.062	331.19
289.293	313.19
289.524	317.19
289.755	316.19
289.986	305.19
290.217	321.19
290.448	308.19
290.679	306.19
290.91	314.19
291.141	317.19
291.371	315.19
291.602	318.19
291.833	315.19
292.064	334.19
292.295	312.19
292.526	317.19
292.757	306.19
292.987	305.19
293.218	317.19
293.449	322.19
293.68	320.19
293.91	306.19
294.141	306.19
294.372	310.19
294.603	321.19
294.833	320.19
295.064	329.19
295.295	309.19
295.525	344.19
295.756	323.19
295.987	341.19
296.217	359.19
296.448	351.19
296.679	344.19
296.909	330.19
297.14	321.19
297.37	320.19
297.601	325.19
297.831	335.19
298.062	341.19
298.292	341.19
298.523	330.19
298.753	321.19
298.984	342.19
299.214	339.19
299.445	330.19
299.675	333.19
299.905	346.19
300.136	354.19
300.366	341.19
300.597	348.19
300.827	356.19
301.057	351.19
301.288	369.19
301.518	365.19
301.748	365.19
301.979	351.19
302.209	356.19
302.439	385.19
302.669	342.19
302.9	360.19
303.13	376.19
303.36	369.19
303.59	364.19
303.82	362.19
304.051	350.19
304.281	390.19
304.511	352.19
304.741	355.19
304.971	346.19
305.201	367.19
305.431	349.19
305.661	369.19
305.891	361.19
306.121	345.19
306.352	359.19
306.582	368.19
306.812	351.19
307.042	356.19
307.272	350.19
307.502	371.19
307.731	381.19
307.961	357.19
308.191	361.19
308.421	362.19
308.651	374.19
308.881	354.19
309.111	384.19
309.341	377.19
309.571	375.19
309.8	390.19
310.03	398.19
310.26	380.19
310.49	398.19
310.72	435.19
310.949	425.19
311.179	421.19
311.409	391.19
311.639	403.19
311.868	386.19
312.098	399.19
312.328	419.19
312.557	423.19
312.787	417.19
313.017	435.19
313.246	409.19
313.476	399.19
313.706	415.19
313.935	414.19
314.165	414.19
314.394	423.19
314.624	430.19
314.853	422.19
315.083	413.19
315.312	417.19
315.542	406.19
315.771	387.19
316.001	395.19
316.23	415.19
316.46	396.19
316.689	413.19
316.919	409.19
317.148	411.19
317.377	414.19
317.607	416.19
317.836	420.19
318.065	414.19
318.295	400.19
318.524	414.19
318.753	405.19
318.983	417.19
319.212	410.19
319.441	397.19
319.67	423.19
319.9	384.19
320.129	421.19
320.358	404.19
320.587	399.19
320.816	417.19
321.046	415.19
321.275	410.19
321.504	428.19
321.733	422.19
321.962	444.19
322.191	445.19
322.42	436.19
322.649	473.19
322.878	466.19
323.108	473.19
323.337	489.19
323.566	516.19
323.795	541.19
324.024	572.19
324.253	682.19
324.482	957.19
324.71	1398.19
324.939	1997.19
325.168	1705.19
325.397	879.19
325.626	636.19
325.855	574.19
326.084	525.19
326.313	511.19
326.542	523.19
326.77	562.19
326.999	655.19
327.228	855.19
327.457	1285.19
327.686	1478.19
327.914	1002.19
328.143	682.19
328.372	594.19
328.6	575.19
328.829	566.19
329.058	569.19
329.287	582.19
329.515	549.19
329.744	537.19
329.972	515.19
330.201	523.19
330.43	545.19
330.658	574.19
330.887	616.19
331.115	604.19
331.344	539.19
331.572	503.19
331.801	517.19
332.03	520.19
332.258	505.19
332.486	494.19
332.715	489.19
332.943	487.19
333.172	514.19
333.4	503.19
333.629	500.19
333.857	531.19
334.085	534.19
334.314	529.19
334.542	517.19
334.771	527.19
334.999	535.19
335.227	504.19
335.455	507.19
335.684	511.19
335.912	475.19
336.14	498.19
336.369	489.19
336.597	492.19
336.825	490.19
337.053	477.19
337.281	483.19
337.51	461.19
337.738	483.19
337.966	482.19
338.194	491.19
338.422	466.19
338.65	485.19
338.878	482.19
339.106	475.19
339.334	491.19
339.562	459.19
339.79	458.19
340.018	445.19
340.246	479.19
340.474	468.19
340.702	446.19
340.93	451.19
341.158	469.19
341.386	466.19
341.614	458.19
341.842	449.19
342.07	454.19
342.298	455.19
342.526	441.19
342.754	443.19
342.981	455.19
343.209	435.19
343.437	456.19
343.665	481.19
343.893	481.19
344.12	490.19
344.348	502.19
344.576	478.19
344.804	479.19
345.031	505.19
345.259	490.19
345.487	458.19
345.714	440.19
345.942	447.19
346.17	463.19
346.397	436.19
346.625	422.19
346.853	431.19
347.08	428.19
347.308	429.19
347.535	449.19
347.763	458.19
347.99	443.19
348.218	459.19
348.445	438.19
348.673	456.19
348.9	436.19
349.128	441.19
349.355	421.19
349.583	435.19
349.81	425.19
350.037	420.19
350.265	415.19
350.492	426.19
350.72	425.19
350.947	428.19
351.174	439.19
351.402	448.19
351.629	452.19
351.856	443.19
352.083	426.19
352.311	448.19
352.538	436.19
352.765	446.19
352.992	451.19
353.22	448.19
353.447	437.19
353.674	418.19
353.901	421.19
354.128	413.19
354.355	404.19
354.583	416.19
354.81	399.19
355.037	453.19
355.264	411.19
355.491	417.19
355.718	417.19
355.945	411.19
356.172	422.19
356.399	398.19
356.626	395.19
356.853	422.19
357.08	409.19
357.307	419.19
357.534	418.19
357.761	412.19
357.988	423.19
358.215	402.19
358.441	413.19
358.668	424.19
358.895	405.19
359.122	404.19
359.349	408.19
359.576	417.19
359.802	460.19
360.029	473.19
360.256	479.19
360.483	475.19
360.709	428.19
360.936	423.19
361.163	430.19
361.39	447.19
361.616	429.19
361.843	421.19
362.07	443.19
362.296	433.19
362.523	438.19
362.749	428.19
362.976	409.19
363.203	414.19
363.429	409.19
363.656	413.19
363.882	420.19
364.109	441.19
364.335	414.19
364.562	421.19
364.788	426.19
365.015	417.19
365.241	411.19
365.468	413.19
365.694	437.19
365.92	426.19
366.147	425.19
366.373	403.19
366.599	398.19
366.826	393.19
367.052	409.19
367.278	411.19
367.505	410.19
367.731	416.19
367.957	430.19
368.184	429.19
368.41	416.19
368.636	411.19
368.862	449.19
369.089	437.19
369.315	433.19
369.541	414.19
369.767	393.19
369.993	405.19
370.219	402.19
370.445	429.19
370.672	431.19
370.898	422.19
371.124	425.19
371.35	434.19
371.576	409.19
371.802	433.19
372.028	412.19
372.254	421.19
372.48	423.19
372.706	407.19
372.932	421.19
373.158	416.19
373.384	434.19
373.61	419.19
373.835	415.19
374.061	409.19
374.287	438.19
374.513	436.19
374.739	421.19
374.965	424.19
375.191	440.19
375.416	443.19
375.642	423.19
375.868	449.19
376.094	424.19
376.319	414.19
376.545	421.19
376.771	404.19
376.997	417.19
377.222	447.19
377.448	411.19
377.674	421.19
377.899	420.19
378.125	405.19
378.35	410.19
378.576	391.19
378.802	418.19
379.027	414.19
379.253	393.19
379.478	412.19
379.704	417.19
379.929	413.19
380.155	400.19
380.38	376.19
380.606	411.19
380.831	415.19
381.057	419.19
381.282	412.19
381.507	419.19
381.733	413.19
381.958	405.19
382.184	422.19
382.409	422.19
382.634	426.19
382.86	440.19
383.085	422.19
383.31	413.19
383.535	406.19
383.761	446.19
383.986	418.19
384.211	445.19
384.436	461.19
384.662	455.19
384.887	450.19
385.112	465.19
385.337	457.19
385.562	460.19
385.787	437.19
386.013	457.19
386.238	484.19
386.463	474.19
386.688	482.19
386.913	466.19
387.138	457.19
387.363	482.19
387.588	453.19
387.813	460.19
388.038	449.19
388.263	458.19
388.488	476.19
388.713	467.19
388.938	455.19
389.163	458.19
389.387	473.19
389.612	461.19
389.837	453.19
390.062	441.19
390.287	462.19
390.512	477.19
390.736	453.19
390.961	465.19
391.186	471.19
391.411	465.19
391.636	481.19
391.86	498.19
392.085	476.19
392.31	464.19
392.534	474.19
392.759	464.19
392.984	463.19
393.208	457.19
393.433	465.19
393.658	453.19
393.882	453.19
394.107	481.19
394.331	477.19
394.556	484.19
394.78	484.19
395.005	469.19
395.229	470.19
395.454	471.19
395.678	489.19
395.903	491.19
396.127	484.19
396.352	482.19
396.576	481.19
396.801	458.19
397.025	490.19
397.249	510.19
397.474	501.19
397.698	489.19
397.922	518.19
398.147	513.19
398.371	524.19
398.595	517.19
398.82	521.19
399.044	546.19
399.268	596.19
399.492	635.19
399.717	676.19
399.941	669.19
400.165	665.19
400.389	654.19
400.613	618.19
400.837	563.19
401.062	552.19
401.286	542.19
401.51	528.19
401.734	517.19
401.958	572.19
402.182	550.19
402.406	570.19
402.63	555.19
402.854	543.19
403.078	538.19
403.302	546.19
403.526	570.19
403.75	567.19
403.974	552.19
404.198	561.19
404.422	573.19
404.645	580.19
404.869	574.19
405.093	581.19
405.317	592.19
405.541	619.19
405.765	569.19
405.988	575.19
406.212	604.19
406.436	590.19
406.66	625.19
406.883	599.19
407.107	656.19
407.331	695.19
407.555	738.19
407.778	713.19
408.002	660.19
408.226	642.19
408.449	586.19
408.673	606.19
408.896	619.19
409.12	653.19
409.344	619.19
409.567	578.19
409.791	560.19
410.014	569.19
410.238	548.19
410.461	541.19
410.685	587.19
410.908	556.19
411.132	597.19
411.355	616.19
411.578	589.19
411.802	596.19
412.025	568.19
412.249	540.19
412.472	557.19
412.695	584.19
412.919	565.19
413.142	551.19
413.365	525.19
413.589	514.19
413.812	526.19
414.035	511.19
414.258	526.19
414.482	506.19
414.705	531.19
414.928	531.19
415.151	516.19
415.374	509.19
415.597	508.19
415.821	527.19
416.044	519.19
416.267	526.19
416.49	526.19
416.713	509.19
416.936	507.19
417.159	500.19
417.382	509.19
417.605	528.19
417.828	538.19
418.051	536.19
418.274	519.19
418.497	521.19
418.72	540.19
418.943	512.19
419.166	517.19
419.389	554.19
419.611	547.19
419.834	536.19
420.057	533.19
420.28	547.19
420.503	534.19
420.726	526.19
420.948	540.19
421.171	572.19
421.394	618.19
421.617	533.19
421.839	546.19
422.062	540.19
422.285	529.19
422.507	594.19
422.73	673.19
422.953	636.19
423.175	564.19
423.398	558.19
423.621	554.19
423.843	599.19
424.066	558.19
424.288	568.19
424.511	561.19
424.733	620.19
424.956	691.19
425.178	677.19
425.401	675.19
425.623	675.19
425.846	606.19
426.068	558.19
426.291	551.19
426.513	578.19
426.735	557.19
426.958	601.19
427.18	667.19
427.402	805.19
427.625	865.19
427.847	734.19
428.069	632.19
428.292	566.19
428.514	543.19
428.736	513.19
428.958	523.19
429.181	518.19
429.403	506.19
429.625	501.19
429.847	547.19
430.069	620.19
430.292	583.19
430.514	540.19
430.736	520.19
430.958	506.19
431.18	502.19
431.402	505.19
431.624	507.19
431.846	471.19
432.068	460.19
432.29	491.19
432.512	487.19
432.734	494.19
432.956	481.19
433.178	504.19
433.4	494.19
433.622	497.19
433.844	477.19
434.066	487.19
434.287	488.19
434.509	509.19
434.731	516.19
434.953	553.19
435.175	536.19
435.397	566.19
435.618	551.19
435.84	583.19
436.062	651.19
436.284	732.19
436.505	607.19
436.727	565.19
436.949	509.19
437.17	533.19
437.392	505.19
437.614	539.19
437.835	536.19
438.057	619.19
438.278	699.19
438.5	693.19
438.721	778.19
438.943	740.19
439.165	605.19
439.386	562.19
439.608	558.19
439.829	554.19
440.05	575.19
440.272	629.19
440.493	574.19
440.715	536.19
440.936	538.19
441.158	526.19
441.379	518.19
441.6	538.19
441.822	541.19
442.043	600.19
442.264	654.19
442.486	681.19
442.707	604.19
442.928	578.19
443.149	563.19
443.371	600.19
443.592	610.19
443.813	750.19
444.034	779.19
444.255	645.19
444.476	598.19
444.698	585.19
444.919	597.19
445.14	703.19
445.361	643.19
445.582	614.19
445.803	654.19
446.024	731.19
446.245	736.19
446.466	667.19
446.687	587.19
446.908	542.19
447.129	541.19
447.35	494.19
447.571	513.19
447.792	493.19
448.013	487.19
448.234	517.19
448.455	580.19
448.675	662.19
448.896	772.19
449.117	614.19
449.338	609.19
449.559	718.19
449.779	835.19
450	634.19
450.221	534.19
450.442	504.19
450.662	473.19
450.883	498.19
451.104	515.19
451.324	498.19
451.545	485.19
451.766	468.19
451.986	450.19
452.207	453.19
452.428	443.19
452.648	463.19
452.869	463.19
453.089	478.19
453.31	491.19
453.53	478.19
453.751	451.19
453.971	467.19
454.192	478.19
454.412	482.19
454.633	451.19
454.853	452.19
455.073	448.19
455.294	483.19
455.514	533.19
455.734	514.19
455.955	468.19
456.175	415.19
456.395	421.19
456.616	441.19
456.836	442.19
457.056	420.19
457.276	405.19
457.497	444.19
457.717	445.19
457.937	431.19
458.157	469.19
458.377	481.19
458.598	476.19
458.818	541.19
459.038	589.19
459.258	607.19
459.478	529.19
459.698	503.19
459.918	499.19
460.138	497.19
460.358	510.19
460.578	525.19
460.798	523.19
461.018	530.19
461.238	492.19
461.458	533.19
461.678	514.19
461.898	522.19
462.118	516.19
462.338	537.19
462.558	542.19
462.777	577.19
462.997	582.19
463.217	610.19
463.437	619.19
463.657	583.19
463.876	579.19
464.096	566.19
464.316	575.19
464.536	582.19
464.755	553.19
464.975	558.19
465.195	601.19
465.414	653.19
465.634	592.19
465.854	517.19
466.073	527.19
466.293	493.19
466.512	473.19
466.732	482.19
466.951	461.19
467.171	473.19
467.391	479.19
467.61	498.19
467.829	491.19
468.049	458.19
468.268	438.19
468.488	446.19
468.707	441.19
468.927	451.19
469.146	470.19
469.365	458.19
469.585	440.19
469.804	469.19
470.023	466.19
470.243	472.19
470.462	505.19
470.681	500.19
470.901	485.19
471.12	491.19
471.339	462.19
471.558	487.19
471.777	466.19
471.997	477.19
472.216	472.19
472.435	465.19
472.654	464.19
472.873	462.19
473.092	451.19
473.311	469.19
473.53	480.19
473.749	468.19
473.968	531.19
474.187	613.19
474.406	593.19
474.625	512.19
474.844	471.19
475.063	477.19
475.282	503.19
475.501	484.19
475.72	477.19
475.939	489.19
476.158	486.19
476.377	470.19
476.596	463.19
476.814	485.19
477.033	503.19
477.252	501.19
477.471	497.19
477.69	475.19
477.908	520.19
478.127	529.19
478.346	513.19
478.564	558.19
478.783	527.19
479.002	558.19
479.22	557.19
479.439	549.19
479.658	578.19
479.876	566.19
480.095	581.19
480.313	615.19
480.532	626.19
480.751	622.19
480.969	590.19
481.188	567.19
481.406	598.19
481.624	567.19
481.843	569.19
482.061	532.19
482.28	545.19
482.498	562.19
482.717	533.19
482.935	544.19
483.153	555.19
483.372	566.19
483.59	537.19
483.808	541.19
484.027	543.19
484.245	541.19
484.463	549.19
484.681	546.19
484.9	562.19
485.118	563.19
485.336	546.19
485.554	557.19
485.772	572.19
485.99	567.19
486.209	594.19
486.427	558.19
486.645	587.19
486.863	607.19
487.081	595.19
487.299	586.19
487.517	581.19
487.735	564.19
487.953	606.19
488.171	590.19
488.389	586.19
488.607	583.19
488.825	562.19
489.043	581.19
489.261	589.19
489.479	586.19
489.696	572.19
489.914	595.19
490.132	593.19
490.35	619.19
490.568	597.19
490.786	605.19
491.003	614.19
491.221	620.19
491.439	629.19
491.657	645.19
491.874	646.19
492.092	636.19
492.31	634.19
492.527	639.19
492.745	654.19
492.963	666.19
493.18	680.19
493.398	659.19
493.615	680.19
493.833	682.19
494.05	664.19
494.268	661.19
494.485	681.19
494.703	660.19
494.92	693.19
495.138	675.19
495.355	681.19
495.573	682.19
495.79	714.19
496.008	671.19
496.225	685.19
496.442	698.19
496.66	695.19
496.877	694.19
497.094	703.19
497.312	721.19
497.529	706.19
497.746	726.19
497.963	748.19
498.181	755.19
498.398	799.19
498.615	822.19
498.832	825.19
499.049	838.19
499.267	883.19
499.484	907.19
499.701	950.19
499.918	1019.19
500.135	1094.19
500.352	1190.19
500.569	1184.19
500.786	1176.19
501.003	1139.19
501.22	1083.19
501.437	1041.19
501.654	1021.19
501.871	977.19
