Data from 1985.PennyLincolnUp.Lamp.En5.5.200Scan.071819.P1_HRD10591_17-01-36-969.txt Node
Date: Thu Jul 18 17:01:36 EDT 2019
User: cochatt
Spectrometer: HR+D1059
Trigger mode: 1
Integration Time (sec): 1.000000E-1
Scans to average: 1
Electric dark correction enabled: true
Nonlinearity correction enabled: false
Boxcar width: 0
XAxis mode: Wavelengths
Number of Pixels in Spectrum: 2048
>>>>>Begin Spectral Data<<<<<
223.165	-24.88
223.4	-24.88
223.635	-24.88
223.869	-7.88
224.104	-22.88
224.338	-10.88
224.573	-16.88
224.808	-5.88
225.042	-3.88
225.277	-6.88
225.511	1.12
225.746	-3.88
225.98	9.12
226.215	8.12
226.449	11.12
226.683	15.12
226.918	21.12
227.152	38.12
227.387	49.12
227.621	40.12
227.856	51.12
228.09	46.12
228.324	53.12
228.559	62.12
228.793	69.12
229.027	92.12
229.262	114.12
229.496	113.12
229.73	124.12
229.964	152.12
230.199	121.12
230.433	110.12
230.667	106.12
230.901	108.12
231.136	101.12
231.37	107.12
231.604	109.12
231.838	107.12
232.072	114.12
232.306	118.12
232.541	130.12
232.775	122.12
233.009	120.12
233.243	131.12
233.477	115.12
233.711	115.12
233.945	124.12
234.179	114.12
234.413	113.12
234.647	119.12
234.881	120.12
235.115	108.12
235.349	125.12
235.583	119.12
235.817	114.12
236.051	119.12
236.285	124.12
236.519	116.12
236.753	121.12
236.987	134.12
237.221	173.12
237.455	213.12
237.689	171.12
237.922	151.12
238.156	120.12
238.39	118.12
238.624	133.12
238.858	125.12
239.091	110.12
239.325	125.12
239.559	117.12
239.793	130.12
240.027	134.12
240.26	152.12
240.494	149.12
240.728	151.12
240.961	147.12
241.195	127.12
241.429	141.12
241.662	130.12
241.896	126.12
242.13	123.12
242.363	139.12
242.597	151.12
242.83	145.12
243.064	143.12
243.298	141.12
243.531	150.12
243.765	144.12
243.998	144.12
244.232	140.12
244.465	130.12
244.699	157.12
244.932	161.12
245.166	139.12
245.399	145.12
245.633	144.12
245.866	149.12
246.099	155.12
246.333	153.12
246.566	151.12
246.8	170.12
247.033	161.12
247.266	156.12
247.5	159.12
247.733	149.12
247.966	169.12
248.2	168.12
248.433	161.12
248.666	186.12
248.899	173.12
249.133	195.12
249.366	183.12
249.599	171.12
249.832	160.12
250.066	177.12
250.299	170.12
250.532	198.12
250.765	172.12
250.998	202.12
251.231	205.12
251.465	194.12
251.698	196.12
251.931	195.12
252.164	189.12
252.397	183.12
252.63	207.12
252.863	188.12
253.096	218.12
253.329	216.12
253.562	203.12
253.795	214.12
254.028	214.12
254.261	207.12
254.494	222.12
254.727	231.12
254.96	263.12
255.193	227.12
255.426	238.12
255.659	226.12
255.892	238.12
256.124	211.12
256.357	210.12
256.59	216.12
256.823	190.12
257.056	200.12
257.289	212.12
257.521	214.12
257.754	219.12
257.987	195.12
258.22	223.12
258.452	215.12
258.685	201.12
258.918	207.12
259.151	196.12
259.383	204.12
259.616	217.12
259.849	219.12
260.081	218.12
260.314	231.12
260.547	267.12
260.779	249.12
261.012	226.12
261.244	229.12
261.477	229.12
261.71	210.12
261.942	225.12
262.175	231.12
262.407	233.12
262.64	234.12
262.872	237.12
263.105	203.12
263.337	213.12
263.57	214.12
263.802	213.12
264.035	222.12
264.267	225.12
264.499	219.12
264.732	212.12
264.964	206.12
265.197	217.12
265.429	195.12
265.661	229.12
265.894	246.12
266.126	227.12
266.358	229.12
266.591	225.12
266.823	237.12
267.055	232.12
267.287	230.12
267.52	218.12
267.752	244.12
267.984	230.12
268.216	229.12
268.448	235.12
268.681	232.12
268.913	244.12
269.145	264.12
269.377	283.12
269.609	274.12
269.841	289.12
270.073	272.12
270.306	292.12
270.538	318.12
270.77	302.12
271.002	307.12
271.234	302.12
271.466	299.12
271.698	302.12
271.93	315.12
272.162	324.12
272.394	309.12
272.626	292.12
272.858	289.12
273.09	294.12
273.322	294.12
273.553	275.12
273.785	274.12
274.017	284.12
274.249	268.12
274.481	269.12
274.713	271.12
274.945	285.12
275.176	284.12
275.408	289.12
275.64	275.12
275.872	281.12
276.104	275.12
276.335	295.12
276.567	291.12
276.799	287.12
277.031	322.12
277.262	334.12
277.494	317.12
277.726	299.12
277.957	285.12
278.189	294.12
278.421	273.12
278.652	294.12
278.884	294.12
279.115	283.12
279.347	275.12
279.579	286.12
279.81	274.12
280.042	268.12
280.273	286.12
280.505	291.12
280.736	279.12
280.968	281.12
281.199	291.12
281.431	287.12
281.662	287.12
281.894	293.12
282.125	284.12
282.356	294.12
282.588	305.12
282.819	319.12
283.051	322.12
283.282	294.12
283.513	291.12
283.745	306.12
283.976	299.12
284.207	319.12
284.439	308.12
284.67	307.12
284.901	318.12
285.132	304.12
285.364	293.12
285.595	293.12
285.826	333.12
286.057	289.12
286.288	295.12
286.52	322.12
286.751	293.12
286.982	311.12
287.213	307.12
287.444	306.12
287.675	315.12
287.906	317.12
288.138	345.12
288.369	330.12
288.6	306.12
288.831	321.12
289.062	319.12
289.293	333.12
289.524	330.12
289.755	315.12
289.986	319.12
290.217	296.12
290.448	323.12
290.679	312.12
290.91	327.12
291.141	328.12
291.371	330.12
291.602	325.12
291.833	332.12
292.064	346.12
292.295	330.12
292.526	330.12
292.757	308.12
292.987	324.12
293.218	337.12
293.449	337.12
293.68	312.12
293.91	328.12
294.141	313.12
294.372	321.12
294.603	315.12
294.833	313.12
295.064	335.12
295.295	339.12
295.525	341.12
295.756	347.12
295.987	340.12
296.217	335.12
296.448	358.12
296.679	322.12
296.909	338.12
297.14	333.12
297.37	349.12
297.601	324.12
297.831	339.12
298.062	340.12
298.292	345.12
298.523	349.12
298.753	355.12
298.984	341.12
299.214	349.12
299.445	338.12
299.675	329.12
299.905	327.12
300.136	345.12
300.366	360.12
300.597	363.12
300.827	353.12
301.057	359.12
301.288	362.12
301.518	374.12
301.748	344.12
301.979	356.12
302.209	357.12
302.439	359.12
302.669	355.12
302.9	349.12
303.13	363.12
303.36	371.12
303.59	361.12
303.82	355.12
304.051	383.12
304.281	364.12
304.511	371.12
304.741	355.12
304.971	369.12
305.201	357.12
305.431	369.12
305.661	371.12
305.891	355.12
306.121	353.12
306.352	346.12
306.582	385.12
306.812	373.12
307.042	381.12
307.272	377.12
307.502	346.12
307.731	373.12
307.961	373.12
308.191	357.12
308.421	349.12
308.651	374.12
308.881	360.12
309.111	362.12
309.341	372.12
309.571	387.12
309.8	382.12
310.03	389.12
310.26	403.12
310.49	395.12
310.72	410.12
310.949	406.12
311.179	427.12
311.409	414.12
311.639	390.12
311.868	404.12
312.098	405.12
312.328	410.12
312.557	416.12
312.787	412.12
313.017	422.12
313.246	428.12
313.476	415.12
313.706	415.12
313.935	404.12
314.165	439.12
314.394	441.12
314.624	425.12
314.853	417.12
315.083	400.12
315.312	417.12
315.542	409.12
315.771	402.12
316.001	436.12
316.23	401.12
316.46	409.12
316.689	400.12
316.919	415.12
317.148	441.12
317.377	440.12
317.607	428.12
317.836	417.12
318.065	380.12
318.295	404.12
318.524	403.12
318.753	422.12
318.983	413.12
319.212	414.12
319.441	415.12
319.67	417.12
319.9	419.12
320.129	402.12
320.358	404.12
320.587	399.12
320.816	420.12
321.046	435.12
321.275	429.12
321.504	416.12
321.733	433.12
321.962	426.12
322.191	441.12
322.42	453.12
322.649	445.12
322.878	475.12
323.108	474.12
323.337	471.12
323.566	484.12
323.795	527.12
324.024	565.12
324.253	622.12
324.482	857.12
324.71	1289.12
324.939	1773.12
325.168	1529.12
325.397	809.12
325.626	596.12
325.855	535.12
326.084	491.12
326.313	525.12
326.542	499.12
326.77	546.12
326.999	614.12
327.228	815.12
327.457	1136.12
327.686	1346.12
327.914	911.12
328.143	651.12
328.372	599.12
328.6	547.12
328.829	531.12
329.058	562.12
329.287	560.12
329.515	537.12
329.744	485.12
329.972	493.12
330.201	491.12
330.43	530.12
330.658	568.12
330.887	571.12
331.115	585.12
331.344	512.12
331.572	499.12
331.801	499.12
332.03	535.12
332.258	501.12
332.486	494.12
332.715	476.12
332.943	502.12
333.172	504.12
333.4	517.12
333.629	515.12
333.857	519.12
334.085	538.12
334.314	513.12
334.542	509.12
334.771	507.12
334.999	513.12
335.227	502.12
335.455	509.12
335.684	488.12
335.912	513.12
336.14	487.12
336.369	477.12
336.597	490.12
336.825	482.12
337.053	489.12
337.281	488.12
337.51	477.12
337.738	485.12
337.966	481.12
338.194	489.12
338.422	478.12
338.65	482.12
338.878	480.12
339.106	470.12
339.334	464.12
339.562	457.12
339.79	462.12
340.018	468.12
340.246	482.12
340.474	460.12
340.702	470.12
340.93	454.12
341.158	463.12
341.386	468.12
341.614	479.12
341.842	468.12
342.07	449.12
342.298	451.12
342.526	452.12
342.754	445.12
342.981	446.12
343.209	446.12
343.437	473.12
343.665	475.12
343.893	493.12
344.12	487.12
344.348	508.12
344.576	486.12
344.804	502.12
345.031	480.12
345.259	471.12
345.487	461.12
345.714	446.12
345.942	453.12
346.17	463.12
346.397	457.12
346.625	450.12
346.853	427.12
347.08	430.12
347.308	453.12
347.535	444.12
347.763	424.12
347.99	441.12
348.218	449.12
348.445	474.12
348.673	467.12
348.9	436.12
349.128	452.12
349.355	434.12
349.583	431.12
349.81	433.12
350.037	440.12
350.265	432.12
350.492	438.12
350.72	417.12
350.947	430.12
351.174	430.12
351.402	452.12
351.629	463.12
351.856	441.12
352.083	441.12
352.311	454.12
352.538	462.12
352.765	462.12
352.992	451.12
353.22	433.12
353.447	420.12
353.674	435.12
353.901	411.12
354.128	421.12
354.355	417.12
354.583	419.12
354.81	417.12
355.037	423.12
355.264	414.12
355.491	411.12
355.718	394.12
355.945	409.12
356.172	413.12
356.399	400.12
356.626	400.12
356.853	414.12
357.08	422.12
357.307	407.12
357.534	434.12
357.761	419.12
357.988	421.12
358.215	433.12
358.441	424.12
358.668	381.12
358.895	409.12
359.122	408.12
359.349	428.12
359.576	428.12
359.802	444.12
360.029	472.12
360.256	459.12
360.483	454.12
360.709	433.12
360.936	433.12
361.163	415.12
361.39	426.12
361.616	445.12
361.843	429.12
362.07	418.12
362.296	418.12
362.523	428.12
362.749	420.12
362.976	412.12
363.203	423.12
363.429	418.12
363.656	419.12
363.882	409.12
364.109	436.12
364.335	405.12
364.562	425.12
364.788	419.12
365.015	406.12
365.241	405.12
365.468	404.12
365.694	419.12
365.92	427.12
366.147	433.12
366.373	431.12
366.599	401.12
366.826	424.12
367.052	431.12
367.278	389.12
367.505	407.12
367.731	413.12
367.957	417.12
368.184	425.12
368.41	423.12
368.636	407.12
368.862	429.12
369.089	432.12
369.315	433.12
369.541	419.12
369.767	418.12
369.993	420.12
370.219	402.12
370.445	423.12
370.672	429.12
370.898	414.12
371.124	421.12
371.35	412.12
371.576	423.12
371.802	433.12
372.028	443.12
372.254	415.12
372.48	433.12
372.706	422.12
372.932	426.12
373.158	431.12
373.384	439.12
373.61	427.12
373.835	411.12
374.061	413.12
374.287	424.12
374.513	441.12
374.739	445.12
374.965	441.12
375.191	434.12
375.416	439.12
375.642	428.12
375.868	460.12
376.094	428.12
376.319	431.12
376.545	421.12
376.771	414.12
376.997	408.12
377.222	406.12
377.448	413.12
377.674	412.12
377.899	408.12
378.125	425.12
378.35	419.12
378.576	421.12
378.802	422.12
379.027	423.12
379.253	430.12
379.478	435.12
379.704	419.12
379.929	441.12
380.155	419.12
380.38	417.12
380.606	406.12
380.831	406.12
381.057	424.12
381.282	410.12
381.507	422.12
381.733	437.12
381.958	426.12
382.184	448.12
382.409	426.12
382.634	449.12
382.86	443.12
383.085	428.12
383.31	420.12
383.535	435.12
383.761	451.12
383.986	451.12
384.211	442.12
384.436	443.12
384.662	468.12
384.887	473.12
385.112	477.12
385.337	458.12
385.562	462.12
385.787	470.12
386.013	483.12
386.238	497.12
386.463	477.12
386.688	478.12
386.913	470.12
387.138	466.12
387.363	465.12
387.588	453.12
387.813	466.12
388.038	439.12
388.263	470.12
388.488	473.12
388.713	488.12
388.938	459.12
389.163	471.12
389.387	463.12
389.612	454.12
389.837	460.12
390.062	456.12
390.287	476.12
390.512	461.12
390.736	445.12
390.961	473.12
391.186	455.12
391.411	491.12
391.636	484.12
391.86	484.12
392.085	502.12
392.31	497.12
392.534	505.12
392.759	486.12
392.984	461.12
393.208	474.12
393.433	476.12
393.658	487.12
393.882	485.12
394.107	489.12
394.331	494.12
394.556	467.12
394.78	484.12
395.005	475.12
395.229	485.12
395.454	494.12
395.678	501.12
395.903	498.12
396.127	523.12
396.352	491.12
396.576	492.12
396.801	494.12
397.025	494.12
397.249	501.12
397.474	513.12
397.698	513.12
397.922	515.12
398.147	505.12
398.371	512.12
398.595	531.12
398.82	526.12
399.044	579.12
399.268	589.12
399.492	628.12
399.717	665.12
399.941	705.12
400.165	696.12
400.389	680.12
400.613	633.12
400.837	589.12
401.062	561.12
401.286	529.12
401.51	548.12
401.734	542.12
401.958	558.12
402.182	561.12
402.406	567.12
402.63	574.12
402.854	554.12
403.078	554.12
403.302	548.12
403.526	577.12
403.75	592.12
403.974	582.12
404.198	559.12
404.422	585.12
404.645	574.12
404.869	561.12
405.093	588.12
405.317	587.12
405.541	634.12
405.765	582.12
405.988	579.12
406.212	603.12
406.436	601.12
406.66	646.12
406.883	613.12
407.107	628.12
407.331	671.12
407.555	718.12
407.778	709.12
408.002	682.12
408.226	626.12
408.449	619.12
408.673	622.12
408.896	623.12
409.12	657.12
409.344	620.12
409.567	575.12
409.791	591.12
410.014	589.12
410.238	561.12
410.461	563.12
410.685	552.12
410.908	552.12
411.132	610.12
411.355	634.12
411.578	591.12
411.802	566.12
412.025	552.12
412.249	534.12
412.472	551.12
412.695	534.12
412.919	551.12
413.142	558.12
413.365	550.12
413.589	526.12
413.812	546.12
414.035	520.12
414.258	538.12
414.482	523.12
414.705	516.12
414.928	513.12
415.151	540.12
415.374	501.12
415.597	526.12
415.821	509.12
416.044	525.12
416.267	546.12
416.49	530.12
416.713	519.12
416.936	522.12
417.159	517.12
417.382	539.12
417.605	515.12
417.828	510.12
418.051	538.12
418.274	523.12
418.497	517.12
418.72	529.12
418.943	519.12
419.166	566.12
419.389	576.12
419.611	545.12
419.834	556.12
420.057	552.12
420.28	551.12
420.503	520.12
420.726	522.12
420.948	541.12
421.171	583.12
421.394	611.12
421.617	561.12
421.839	525.12
422.062	553.12
422.285	555.12
422.507	631.12
422.73	667.12
422.953	638.12
423.175	591.12
423.398	573.12
423.621	561.12
423.843	579.12
424.066	581.12
424.288	581.12
424.511	569.12
424.733	618.12
424.956	696.12
425.178	683.12
425.401	683.12
425.623	692.12
425.846	594.12
426.068	583.12
426.291	554.12
426.513	567.12
426.735	566.12
426.958	587.12
427.18	661.12
427.402	782.12
427.625	859.12
427.847	734.12
428.069	592.12
428.292	563.12
428.514	533.12
428.736	531.12
428.958	542.12
429.181	525.12
429.403	492.12
429.625	527.12
429.847	559.12
430.069	604.12
430.292	584.12
430.514	512.12
430.736	519.12
430.958	512.12
431.18	503.12
431.402	489.12
431.624	500.12
431.846	493.12
432.068	504.12
432.29	490.12
432.512	514.12
432.734	489.12
432.956	501.12
433.178	481.12
433.4	501.12
433.622	519.12
433.844	520.12
434.066	493.12
434.287	500.12
434.509	509.12
434.731	522.12
434.953	519.12
435.175	542.12
435.397	572.12
435.618	557.12
435.84	591.12
436.062	665.12
436.284	732.12
436.505	626.12
436.727	589.12
436.949	533.12
437.17	531.12
437.392	518.12
437.614	570.12
437.835	586.12
438.057	640.12
438.278	705.12
438.5	715.12
438.721	799.12
438.943	748.12
439.165	617.12
439.386	550.12
439.608	577.12
439.829	563.12
440.05	588.12
440.272	616.12
440.493	590.12
440.715	554.12
440.936	527.12
441.158	518.12
441.379	530.12
441.6	550.12
441.822	587.12
442.043	600.12
442.264	676.12
442.486	717.12
442.707	593.12
442.928	594.12
443.149	569.12
443.371	583.12
443.592	605.12
443.813	724.12
444.034	764.12
444.255	643.12
444.476	595.12
444.698	597.12
444.919	599.12
445.14	699.12
445.361	636.12
445.582	590.12
445.803	644.12
446.024	720.12
446.245	762.12
446.466	653.12
446.687	574.12
446.908	557.12
447.129	542.12
447.35	506.12
447.571	524.12
447.792	512.12
448.013	508.12
448.234	538.12
448.455	579.12
448.675	667.12
448.896	781.12
449.117	656.12
449.338	612.12
449.559	713.12
449.779	787.12
450	662.12
450.221	540.12
450.442	488.12
450.662	475.12
450.883	491.12
451.104	503.12
451.324	494.12
451.545	521.12
451.766	484.12
451.986	484.12
452.207	437.12
452.428	455.12
452.648	460.12
452.869	482.12
453.089	465.12
453.31	494.12
453.53	471.12
453.751	462.12
453.971	453.12
454.192	471.12
454.412	467.12
454.633	440.12
454.853	441.12
455.073	445.12
455.294	483.12
455.514	534.12
455.734	538.12
455.955	453.12
456.175	431.12
456.395	435.12
456.616	446.12
456.836	441.12
457.056	439.12
457.276	429.12
457.497	441.12
457.717	437.12
457.937	444.12
458.157	447.12
458.377	471.12
458.598	459.12
458.818	525.12
459.038	573.12
459.258	601.12
459.478	547.12
459.698	494.12
459.918	494.12
460.138	502.12
460.358	547.12
460.578	538.12
460.798	532.12
461.018	527.12
461.238	514.12
461.458	528.12
461.678	521.12
461.898	546.12
462.118	541.12
462.338	534.12
462.558	562.12
462.777	581.12
462.997	590.12
463.217	607.12
463.437	619.12
463.657	575.12
463.876	570.12
464.096	580.12
464.316	581.12
464.536	565.12
464.755	573.12
464.975	585.12
465.195	611.12
465.414	649.12
465.634	572.12
465.854	515.12
466.073	502.12
466.293	477.12
466.512	503.12
466.732	484.12
466.951	467.12
467.171	499.12
467.391	476.12
467.61	483.12
467.829	507.12
468.049	490.12
468.268	478.12
468.488	474.12
468.707	462.12
468.927	477.12
469.146	468.12
469.365	470.12
469.585	455.12
469.804	468.12
470.023	490.12
470.243	472.12
470.462	502.12
470.681	519.12
470.901	505.12
471.12	485.12
471.339	482.12
471.558	487.12
471.777	497.12
471.997	461.12
472.216	485.12
472.435	454.12
472.654	478.12
472.873	467.12
473.092	459.12
473.311	457.12
473.53	458.12
473.749	477.12
473.968	497.12
474.187	577.12
474.406	604.12
474.625	504.12
474.844	485.12
475.063	479.12
475.282	478.12
475.501	470.12
475.72	481.12
475.939	485.12
476.158	482.12
476.377	509.12
476.596	497.12
476.814	508.12
477.033	513.12
477.252	505.12
477.471	521.12
477.69	517.12
477.908	518.12
478.127	519.12
478.346	546.12
478.564	530.12
478.783	547.12
479.002	573.12
479.22	559.12
479.439	558.12
479.658	582.12
479.876	559.12
480.095	608.12
480.313	645.12
480.532	634.12
480.751	611.12
480.969	604.12
481.188	582.12
481.406	587.12
481.624	616.12
481.843	570.12
482.061	566.12
482.28	574.12
482.498	543.12
482.717	537.12
482.935	554.12
483.153	546.12
483.372	555.12
483.59	564.12
483.808	552.12
484.027	565.12
484.245	558.12
484.463	541.12
484.681	562.12
484.9	584.12
485.118	579.12
485.336	572.12
485.554	570.12
485.772	590.12
485.99	590.12
486.209	578.12
486.427	579.12
486.645	601.12
486.863	598.12
487.081	585.12
487.299	593.12
487.517	603.12
487.735	588.12
487.953	589.12
488.171	607.12
488.389	580.12
488.607	607.12
488.825	587.12
489.043	601.12
489.261	584.12
489.479	581.12
489.696	595.12
489.914	613.12
490.132	611.12
490.35	603.12
490.568	606.12
490.786	626.12
491.003	670.12
491.221	646.12
491.439	659.12
491.657	655.12
491.874	649.12
492.092	670.12
492.31	653.12
492.527	667.12
492.745	659.12
492.963	678.12
493.18	643.12
493.398	667.12
493.615	677.12
493.833	659.12
494.05	683.12
494.268	702.12
494.485	692.12
494.703	662.12
494.92	690.12
495.138	678.12
495.355	689.12
495.573	674.12
495.79	676.12
496.008	714.12
496.225	709.12
496.442	680.12
496.66	706.12
496.877	682.12
497.094	707.12
497.312	711.12
497.529	724.12
497.746	740.12
497.963	749.12
498.181	783.12
498.398	789.12
498.615	819.12
498.832	825.12
499.049	865.12
499.267	884.12
499.484	934.12
499.701	988.12
499.918	1067.12
500.135	1126.12
500.352	1186.12
500.569	1199.12
500.786	1185.12
501.003	1171.12
501.22	1145.12
501.437	1095.12
501.654	1018.12
501.871	979.12
