Data from 1985.PennyLincolnUp.Lamp.En5.5.200Scan.071819.P1_HRD10591_17-01-22-970.txt Node
Date: Thu Jul 18 17:01:22 EDT 2019
User: cochatt
Spectrometer: HR+D1059
Trigger mode: 1
Integration Time (sec): 1.000000E-1
Scans to average: 1
Electric dark correction enabled: true
Nonlinearity correction enabled: false
Boxcar width: 0
XAxis mode: Wavelengths
Number of Pixels in Spectrum: 2048
>>>>>Begin Spectral Data<<<<<
223.165	-1.69
223.4	-1.69
223.635	-1.69
223.869	-13.69
224.104	-19.69
224.338	-4.69
224.573	-5.69
224.808	-22.69
225.042	-9.69
225.277	-15.69
225.511	-13.69
225.746	-0.69
225.98	22.31
226.215	10.31
226.449	14.31
226.683	5.31
226.918	27.31
227.152	28.31
227.387	38.31
227.621	54.31
227.856	44.31
228.09	42.31
228.324	37.31
228.559	51.31
228.793	54.31
229.027	87.31
229.262	106.31
229.496	108.31
229.73	114.31
229.964	116.31
230.199	118.31
230.433	97.31
230.667	86.31
230.901	104.31
231.136	108.31
231.37	105.31
231.604	107.31
231.838	107.31
232.072	91.31
232.306	121.31
232.541	104.31
232.775	112.31
233.009	119.31
233.243	119.31
233.477	112.31
233.711	120.31
233.945	113.31
234.179	113.31
234.413	105.31
234.647	105.31
234.881	112.31
235.115	128.31
235.349	125.31
235.583	121.31
235.817	118.31
236.051	125.31
236.285	116.31
236.519	128.31
236.753	122.31
236.987	140.31
237.221	155.31
237.455	187.31
237.689	132.31
237.922	129.31
238.156	128.31
238.39	108.31
238.624	123.31
238.858	126.31
239.091	113.31
239.325	121.31
239.559	124.31
239.793	118.31
240.027	117.31
240.26	141.31
240.494	155.31
240.728	129.31
240.961	136.31
241.195	124.31
241.429	128.31
241.662	123.31
241.896	127.31
242.13	140.31
242.363	136.31
242.597	143.31
242.83	125.31
243.064	127.31
243.298	138.31
243.531	141.31
243.765	132.31
243.998	134.31
244.232	142.31
244.465	131.31
244.699	127.31
244.932	130.31
245.166	133.31
245.399	146.31
245.633	122.31
245.866	152.31
246.099	138.31
246.333	152.31
246.566	138.31
246.8	150.31
247.033	143.31
247.266	157.31
247.5	149.31
247.733	152.31
247.966	161.31
248.2	152.31
248.433	153.31
248.666	165.31
248.899	155.31
249.133	163.31
249.366	173.31
249.599	173.31
249.832	167.31
250.066	173.31
250.299	148.31
250.532	188.31
250.765	185.31
250.998	190.31
251.231	202.31
251.465	200.31
251.698	179.31
251.931	181.31
252.164	187.31
252.397	173.31
252.63	176.31
252.863	178.31
253.096	205.31
253.329	206.31
253.562	196.31
253.795	200.31
254.028	190.31
254.261	180.31
254.494	207.31
254.727	206.31
254.96	238.31
255.193	230.31
255.426	223.31
255.659	201.31
255.892	204.31
256.124	204.31
256.357	196.31
256.59	193.31
256.823	183.31
257.056	198.31
257.289	199.31
257.521	188.31
257.754	188.31
257.987	193.31
258.22	196.31
258.452	202.31
258.685	186.31
258.918	202.31
259.151	209.31
259.383	192.31
259.616	202.31
259.849	197.31
260.081	217.31
260.314	223.31
260.547	218.31
260.779	216.31
261.012	217.31
261.244	204.31
261.477	193.31
261.71	206.31
261.942	198.31
262.175	229.31
262.407	204.31
262.64	181.31
262.872	213.31
263.105	188.31
263.337	216.31
263.57	201.31
263.802	189.31
264.035	214.31
264.267	209.31
264.499	204.31
264.732	210.31
264.964	194.31
265.197	206.31
265.429	204.31
265.661	216.31
265.894	212.31
266.126	212.31
266.358	220.31
266.591	233.31
266.823	213.31
267.055	226.31
267.287	228.31
267.52	222.31
267.752	227.31
267.984	222.31
268.216	226.31
268.448	238.31
268.681	227.31
268.913	232.31
269.145	245.31
269.377	235.31
269.609	254.31
269.841	241.31
270.073	263.31
270.306	267.31
270.538	273.31
270.77	269.31
271.002	262.31
271.234	269.31
271.466	259.31
271.698	288.31
271.93	300.31
272.162	293.31
272.394	272.31
272.626	277.31
272.858	271.31
273.09	265.31
273.322	254.31
273.553	238.31
273.785	255.31
274.017	247.31
274.249	256.31
274.481	240.31
274.713	279.31
274.945	263.31
275.176	266.31
275.408	257.31
275.64	265.31
275.872	269.31
276.104	248.31
276.335	264.31
276.567	257.31
276.799	281.31
277.031	301.31
277.262	313.31
277.494	291.31
277.726	294.31
277.957	273.31
278.189	283.31
278.421	274.31
278.652	266.31
278.884	276.31
279.115	274.31
279.347	264.31
279.579	276.31
279.81	291.31
280.042	265.31
280.273	258.31
280.505	270.31
280.736	274.31
280.968	281.31
281.199	278.31
281.431	287.31
281.662	268.31
281.894	274.31
282.125	260.31
282.356	283.31
282.588	301.31
282.819	284.31
283.051	280.31
283.282	268.31
283.513	256.31
283.745	289.31
283.976	278.31
284.207	293.31
284.439	271.31
284.67	270.31
284.901	285.31
285.132	289.31
285.364	278.31
285.595	282.31
285.826	281.31
286.057	286.31
286.288	289.31
286.52	292.31
286.751	286.31
286.982	287.31
287.213	299.31
287.444	282.31
287.675	278.31
287.906	307.31
288.138	315.31
288.369	295.31
288.6	307.31
288.831	304.31
289.062	299.31
289.293	304.31
289.524	301.31
289.755	300.31
289.986	284.31
290.217	290.31
290.448	270.31
290.679	277.31
290.91	296.31
291.141	293.31
291.371	307.31
291.602	301.31
291.833	296.31
292.064	296.31
292.295	306.31
292.526	317.31
292.757	309.31
292.987	305.31
293.218	304.31
293.449	294.31
293.68	298.31
293.91	307.31
294.141	291.31
294.372	306.31
294.603	308.31
294.833	312.31
295.064	315.31
295.295	331.31
295.525	308.31
295.756	309.31
295.987	308.31
296.217	306.31
296.448	310.31
296.679	322.31
296.909	324.31
297.14	319.31
297.37	323.31
297.601	305.31
297.831	305.31
298.062	330.31
298.292	334.31
298.523	312.31
298.753	332.31
298.984	338.31
299.214	328.31
299.445	324.31
299.675	337.31
299.905	329.31
300.136	320.31
300.366	332.31
300.597	337.31
300.827	345.31
301.057	338.31
301.288	323.31
301.518	335.31
301.748	330.31
301.979	347.31
302.209	337.31
302.439	343.31
302.669	339.31
302.9	341.31
303.13	328.31
303.36	326.31
303.59	344.31
303.82	353.31
304.051	348.31
304.281	328.31
304.511	353.31
304.741	336.31
304.971	331.31
305.201	354.31
305.431	348.31
305.661	348.31
305.891	342.31
306.121	365.31
306.352	344.31
306.582	339.31
306.812	337.31
307.042	350.31
307.272	350.31
307.502	337.31
307.731	338.31
307.961	338.31
308.191	321.31
308.421	352.31
308.651	350.31
308.881	355.31
309.111	350.31
309.341	351.31
309.571	362.31
309.8	343.31
310.03	365.31
310.26	373.31
310.49	376.31
310.72	362.31
310.949	374.31
311.179	376.31
311.409	374.31
311.639	379.31
311.868	381.31
312.098	385.31
312.328	383.31
312.557	394.31
312.787	378.31
313.017	398.31
313.246	398.31
313.476	379.31
313.706	395.31
313.935	402.31
314.165	392.31
314.394	387.31
314.624	404.31
314.853	377.31
315.083	420.31
315.312	378.31
315.542	376.31
315.771	380.31
316.001	391.31
316.23	391.31
316.46	383.31
316.689	402.31
316.919	369.31
317.148	386.31
317.377	383.31
317.607	385.31
317.836	376.31
318.065	361.31
318.295	380.31
318.524	386.31
318.753	402.31
318.983	379.31
319.212	364.31
319.441	384.31
319.67	382.31
319.9	406.31
320.129	385.31
320.358	369.31
320.587	396.31
320.816	387.31
321.046	386.31
321.275	385.31
321.504	409.31
321.733	408.31
321.962	401.31
322.191	414.31
322.42	397.31
322.649	405.31
322.878	422.31
323.108	421.31
323.337	434.31
323.566	446.31
323.795	469.31
324.024	488.31
324.253	565.31
324.482	727.31
324.71	1029.31
324.939	1426.31
325.168	1212.31
325.397	700.31
325.626	544.31
325.855	483.31
326.084	447.31
326.313	448.31
326.542	457.31
326.77	478.31
326.999	528.31
327.228	690.31
327.457	932.31
327.686	1090.31
327.914	760.31
328.143	580.31
328.372	521.31
328.6	500.31
328.829	468.31
329.058	487.31
329.287	490.31
329.515	488.31
329.744	474.31
329.972	458.31
330.201	455.31
330.43	473.31
330.658	480.31
330.887	499.31
331.115	514.31
331.344	472.31
331.572	467.31
331.801	462.31
332.03	455.31
332.258	470.31
332.486	454.31
332.715	468.31
332.943	462.31
333.172	502.31
333.4	464.31
333.629	468.31
333.857	480.31
334.085	497.31
334.314	466.31
334.542	455.31
334.771	480.31
334.999	458.31
335.227	459.31
335.455	478.31
335.684	438.31
335.912	438.31
336.14	459.31
336.369	467.31
336.597	445.31
336.825	469.31
337.053	475.31
337.281	473.31
337.51	461.31
337.738	471.31
337.966	437.31
338.194	450.31
338.422	453.31
338.65	466.31
338.878	452.31
339.106	417.31
339.334	434.31
339.562	440.31
339.79	433.31
340.018	404.31
340.246	417.31
340.474	441.31
340.702	425.31
340.93	421.31
341.158	433.31
341.386	434.31
341.614	441.31
341.842	425.31
342.07	429.31
342.298	428.31
342.526	421.31
342.754	424.31
342.981	434.31
343.209	429.31
343.437	427.31
343.665	421.31
343.893	448.31
344.12	461.31
344.348	466.31
344.576	449.31
344.804	439.31
345.031	435.31
345.259	449.31
345.487	430.31
345.714	428.31
345.942	399.31
346.17	398.31
346.397	412.31
346.625	399.31
346.853	425.31
347.08	414.31
347.308	416.31
347.535	405.31
347.763	411.31
347.99	407.31
348.218	429.31
348.445	419.31
348.673	416.31
348.9	410.31
349.128	421.31
349.355	410.31
349.583	423.31
349.81	409.31
350.037	388.31
350.265	385.31
350.492	378.31
350.72	395.31
350.947	404.31
351.174	418.31
351.402	405.31
351.629	386.31
351.856	419.31
352.083	414.31
352.311	419.31
352.538	396.31
352.765	385.31
352.992	395.31
353.22	404.31
353.447	414.31
353.674	391.31
353.901	398.31
354.128	363.31
354.355	384.31
354.583	390.31
354.81	379.31
355.037	386.31
355.264	401.31
355.491	381.31
355.718	386.31
355.945	388.31
356.172	381.31
356.399	371.31
356.626	398.31
356.853	359.31
357.08	396.31
357.307	380.31
357.534	376.31
357.761	393.31
357.988	408.31
358.215	384.31
358.441	398.31
358.668	385.31
358.895	396.31
359.122	382.31
359.349	402.31
359.576	409.31
359.802	395.31
360.029	402.31
360.256	416.31
360.483	410.31
360.709	416.31
360.936	409.31
361.163	393.31
361.39	410.31
361.616	405.31
361.843	393.31
362.07	389.31
362.296	410.31
362.523	416.31
362.749	402.31
362.976	418.31
363.203	402.31
363.429	390.31
363.656	406.31
363.882	393.31
364.109	401.31
364.335	395.31
364.562	384.31
364.788	392.31
365.015	385.31
365.241	389.31
365.468	390.31
365.694	400.31
365.92	369.31
366.147	380.31
366.373	390.31
366.599	411.31
366.826	372.31
367.052	395.31
367.278	396.31
367.505	387.31
367.731	376.31
367.957	382.31
368.184	390.31
368.41	393.31
368.636	382.31
368.862	414.31
369.089	413.31
369.315	382.31
369.541	373.31
369.767	412.31
369.993	410.31
370.219	402.31
370.445	385.31
370.672	394.31
370.898	413.31
371.124	404.31
371.35	418.31
371.576	404.31
371.802	417.31
372.028	399.31
372.254	409.31
372.48	407.31
372.706	413.31
372.932	395.31
373.158	416.31
373.384	403.31
373.61	412.31
373.835	416.31
374.061	389.31
374.287	419.31
374.513	417.31
374.739	413.31
374.965	397.31
375.191	385.31
375.416	410.31
375.642	416.31
375.868	414.31
376.094	392.31
376.319	385.31
376.545	386.31
376.771	412.31
376.997	377.31
377.222	403.31
377.448	394.31
377.674	387.31
377.899	384.31
378.125	374.31
378.35	372.31
378.576	364.31
378.802	381.31
379.027	394.31
379.253	401.31
379.478	402.31
379.704	374.31
379.929	388.31
380.155	404.31
380.38	395.31
380.606	396.31
380.831	385.31
381.057	390.31
381.282	399.31
381.507	400.31
381.733	409.31
381.958	395.31
382.184	390.31
382.409	391.31
382.634	416.31
382.86	418.31
383.085	398.31
383.31	400.31
383.535	436.31
383.761	406.31
383.986	414.31
384.211	424.31
384.436	438.31
384.662	417.31
384.887	457.31
385.112	433.31
385.337	444.31
385.562	430.31
385.787	420.31
386.013	459.31
386.238	442.31
386.463	426.31
386.688	449.31
386.913	436.31
387.138	470.31
387.363	443.31
387.588	436.31
387.813	419.31
388.038	428.31
388.263	436.31
388.488	452.31
388.713	430.31
388.938	449.31
389.163	422.31
389.387	437.31
389.612	436.31
389.837	425.31
390.062	450.31
390.287	442.31
390.512	433.31
390.736	433.31
390.961	426.31
391.186	429.31
391.411	475.31
391.636	461.31
391.86	455.31
392.085	458.31
392.31	434.31
392.534	475.31
392.759	448.31
392.984	434.31
393.208	471.31
393.433	458.31
393.658	468.31
393.882	470.31
394.107	467.31
394.331	424.31
394.556	477.31
394.78	458.31
395.005	461.31
395.229	451.31
395.454	476.31
395.678	484.31
395.903	465.31
396.127	476.31
396.352	498.31
396.576	465.31
396.801	474.31
397.025	472.31
397.249	470.31
397.474	482.31
397.698	479.31
397.922	493.31
398.147	521.31
398.371	503.31
398.595	513.31
398.82	514.31
399.044	517.31
399.268	580.31
399.492	603.31
399.717	641.31
399.941	632.31
400.165	672.31
400.389	633.31
400.613	590.31
400.837	544.31
401.062	544.31
401.286	527.31
401.51	525.31
401.734	514.31
401.958	486.31
402.182	521.31
402.406	529.31
402.63	532.31
402.854	528.31
403.078	539.31
403.302	544.31
403.526	553.31
403.75	536.31
403.974	541.31
404.198	517.31
404.422	546.31
404.645	532.31
404.869	542.31
405.093	545.31
405.317	585.31
405.541	575.31
405.765	531.31
405.988	538.31
406.212	544.31
406.436	541.31
406.66	580.31
406.883	564.31
407.107	593.31
407.331	627.31
407.555	688.31
407.778	660.31
408.002	628.31
408.226	585.31
408.449	590.31
408.673	579.31
408.896	582.31
409.12	620.31
409.344	561.31
409.567	534.31
409.791	533.31
410.014	542.31
410.238	529.31
410.461	513.31
410.685	540.31
410.908	515.31
411.132	553.31
411.355	581.31
411.578	565.31
411.802	517.31
412.025	523.31
412.249	514.31
412.472	506.31
412.695	512.31
412.919	503.31
413.142	506.31
413.365	480.31
413.589	489.31
413.812	481.31
414.035	497.31
414.258	502.31
414.482	496.31
414.705	508.31
414.928	490.31
415.151	470.31
415.374	502.31
415.597	492.31
415.821	485.31
416.044	487.31
416.267	484.31
416.49	489.31
416.713	467.31
416.936	494.31
417.159	481.31
417.382	490.31
417.605	472.31
417.828	506.31
418.051	502.31
418.274	502.31
418.497	498.31
418.72	485.31
418.943	494.31
419.166	518.31
419.389	546.31
419.611	535.31
419.834	533.31
420.057	530.31
420.28	518.31
420.503	513.31
420.726	510.31
420.948	504.31
421.171	526.31
421.394	545.31
421.617	518.31
421.839	478.31
422.062	524.31
422.285	512.31
422.507	555.31
422.73	617.31
422.953	596.31
423.175	543.31
423.398	535.31
423.621	532.31
423.843	548.31
424.066	557.31
424.288	538.31
424.511	549.31
424.733	590.31
424.956	627.31
425.178	605.31
425.401	594.31
425.623	650.31
425.846	557.31
426.068	526.31
426.291	519.31
426.513	496.31
426.735	513.31
426.958	548.31
427.18	582.31
427.402	707.31
427.625	760.31
427.847	618.31
428.069	539.31
428.292	504.31
428.514	523.31
428.736	497.31
428.958	486.31
429.181	477.31
429.403	480.31
429.625	479.31
429.847	526.31
430.069	566.31
430.292	545.31
430.514	492.31
430.736	482.31
430.958	460.31
431.18	485.31
431.402	484.31
431.624	462.31
431.846	458.31
432.068	472.31
432.29	449.31
432.512	470.31
432.734	471.31
432.956	457.31
433.178	464.31
433.4	470.31
433.622	472.31
433.844	470.31
434.066	465.31
434.287	465.31
434.509	482.31
434.731	490.31
434.953	482.31
435.175	497.31
435.397	494.31
435.618	508.31
435.84	542.31
436.062	632.31
436.284	643.31
436.505	581.31
436.727	531.31
436.949	487.31
437.17	498.31
437.392	480.31
437.614	504.31
437.835	487.31
438.057	564.31
438.278	629.31
438.5	641.31
438.721	696.31
438.943	684.31
439.165	535.31
439.386	519.31
439.608	506.31
439.829	495.31
440.05	516.31
440.272	562.31
440.493	503.31
440.715	481.31
440.936	496.31
441.158	475.31
441.379	474.31
441.6	508.31
441.822	545.31
442.043	547.31
442.264	610.31
442.486	637.31
442.707	560.31
442.928	526.31
443.149	524.31
443.371	549.31
443.592	585.31
443.813	666.31
444.034	704.31
444.255	594.31
444.476	548.31
444.698	572.31
444.919	570.31
445.14	667.31
445.361	601.31
445.582	545.31
445.803	593.31
446.024	670.31
446.245	658.31
446.466	614.31
446.687	546.31
446.908	492.31
447.129	487.31
447.35	468.31
447.571	478.31
447.792	479.31
448.013	447.31
448.234	492.31
448.455	509.31
448.675	578.31
448.896	697.31
449.117	601.31
449.338	574.31
449.559	636.31
449.779	730.31
450	599.31
450.221	476.31
450.442	470.31
450.662	442.31
450.883	462.31
451.104	453.31
451.324	459.31
451.545	433.31
451.766	425.31
451.986	442.31
452.207	416.31
452.428	433.31
452.648	450.31
452.869	436.31
453.089	436.31
453.31	434.31
453.53	421.31
453.751	419.31
453.971	408.31
454.192	455.31
454.412	412.31
454.633	419.31
454.853	428.31
455.073	428.31
455.294	454.31
455.514	495.31
455.734	474.31
455.955	416.31
456.175	419.31
456.395	419.31
456.616	423.31
456.836	414.31
457.056	418.31
457.276	381.31
457.497	416.31
457.717	425.31
457.937	416.31
458.157	426.31
458.377	427.31
458.598	443.31
458.818	475.31
459.038	495.31
459.258	556.31
459.478	484.31
459.698	494.31
459.918	462.31
460.138	490.31
460.358	483.31
460.578	500.31
460.798	497.31
461.018	529.31
461.238	498.31
461.458	507.31
461.678	510.31
461.898	514.31
462.118	491.31
462.338	516.31
462.558	540.31
462.777	534.31
462.997	555.31
463.217	562.31
463.437	589.31
463.657	564.31
463.876	551.31
464.096	543.31
464.316	524.31
464.536	546.31
464.755	515.31
464.975	535.31
465.195	555.31
465.414	565.31
465.634	523.31
465.854	491.31
466.073	476.31
466.293	470.31
466.512	448.31
466.732	444.31
466.951	447.31
467.171	450.31
467.391	445.31
467.61	467.31
467.829	466.31
468.049	456.31
468.268	457.31
468.488	432.31
468.707	436.31
468.927	446.31
469.146	434.31
469.365	450.31
469.585	445.31
469.804	453.31
470.023	439.31
470.243	453.31
470.462	465.31
470.681	473.31
470.901	445.31
471.12	456.31
471.339	452.31
471.558	460.31
471.777	451.31
471.997	453.31
472.216	453.31
472.435	432.31
472.654	435.31
472.873	443.31
473.092	439.31
473.311	432.31
473.53	450.31
473.749	445.31
473.968	484.31
474.187	536.31
474.406	553.31
474.625	477.31
474.844	459.31
475.063	457.31
475.282	435.31
475.501	468.31
475.72	449.31
475.939	452.31
476.158	472.31
476.377	454.31
476.596	448.31
476.814	470.31
477.033	468.31
477.252	473.31
477.471	480.31
477.69	468.31
477.908	488.31
478.127	518.31
478.346	468.31
478.564	509.31
478.783	512.31
479.002	520.31
479.22	527.31
479.439	549.31
479.658	532.31
479.876	534.31
480.095	561.31
480.313	580.31
480.532	577.31
480.751	548.31
480.969	556.31
481.188	547.31
481.406	556.31
481.624	542.31
481.843	533.31
482.061	514.31
482.28	541.31
482.498	500.31
482.717	503.31
482.935	513.31
483.153	513.31
483.372	506.31
483.59	540.31
483.808	533.31
484.027	503.31
484.245	520.31
484.463	540.31
484.681	538.31
484.9	545.31
485.118	533.31
485.336	532.31
485.554	548.31
485.772	552.31
485.99	553.31
486.209	526.31
486.427	539.31
486.645	530.31
486.863	540.31
487.081	512.31
487.299	544.31
487.517	532.31
487.735	553.31
487.953	534.31
488.171	547.31
488.389	536.31
488.607	547.31
488.825	553.31
489.043	538.31
489.261	560.31
489.479	572.31
489.696	547.31
489.914	573.31
490.132	580.31
490.35	589.31
490.568	568.31
490.786	566.31
491.003	588.31
491.221	591.31
491.439	598.31
491.657	589.31
491.874	588.31
492.092	606.31
492.31	612.31
492.527	587.31
492.745	625.31
492.963	603.31
493.18	602.31
493.398	611.31
493.615	621.31
493.833	634.31
494.05	637.31
494.268	629.31
494.485	628.31
494.703	612.31
494.92	622.31
495.138	614.31
495.355	636.31
495.573	651.31
495.79	618.31
496.008	640.31
496.225	640.31
496.442	662.31
496.66	640.31
496.877	666.31
497.094	654.31
497.312	659.31
497.529	644.31
497.746	690.31
497.963	694.31
498.181	733.31
498.398	730.31
498.615	744.31
498.832	789.31
499.049	792.31
499.267	822.31
499.484	864.31
499.701	920.31
499.918	952.31
500.135	1050.31
500.352	1133.31
500.569	1158.31
500.786	1170.31
501.003	1108.31
501.22	1057.31
501.437	990.31
501.654	936.31
501.871	892.31
