Data from 1985.PennyLincolnUp.Lamp.En5.5.200Scan.071819.P1_HRD10591_17-02-53-970.txt Node
Date: Thu Jul 18 17:02:53 EDT 2019
User: cochatt
Spectrometer: HR+D1059
Trigger mode: 1
Integration Time (sec): 1.000000E-1
Scans to average: 1
Electric dark correction enabled: true
Nonlinearity correction enabled: false
Boxcar width: 0
XAxis mode: Wavelengths
Number of Pixels in Spectrum: 2048
>>>>>Begin Spectral Data<<<<<
223.165	-1.19
223.4	-1.19
223.635	-1.19
223.869	-5.19
224.104	-15.19
224.338	-12.19
224.573	-16.19
224.808	-24.19
225.042	-21.19
225.277	6.81
225.511	-3.19
225.746	3.81
225.98	-5.19
226.215	12.81
226.449	19.81
226.683	30.81
226.918	1.81
227.152	27.81
227.387	36.81
227.621	32.81
227.856	43.81
228.09	54.81
228.324	45.81
228.559	54.81
228.793	71.81
229.027	88.81
229.262	112.81
229.496	115.81
229.73	117.81
229.964	149.81
230.199	133.81
230.433	113.81
230.667	96.81
230.901	121.81
231.136	113.81
231.37	119.81
231.604	103.81
231.838	102.81
232.072	129.81
232.306	109.81
232.541	107.81
232.775	111.81
233.009	106.81
233.243	113.81
233.477	115.81
233.711	114.81
233.945	109.81
234.179	117.81
234.413	103.81
234.647	106.81
234.881	123.81
235.115	132.81
235.349	133.81
235.583	124.81
235.817	113.81
236.051	126.81
236.285	117.81
236.519	123.81
236.753	144.81
236.987	145.81
237.221	167.81
237.455	202.81
237.689	163.81
237.922	142.81
238.156	135.81
238.39	122.81
238.624	129.81
238.858	129.81
239.091	118.81
239.325	114.81
239.559	119.81
239.793	133.81
240.027	125.81
240.26	146.81
240.494	150.81
240.728	142.81
240.961	141.81
241.195	133.81
241.429	153.81
241.662	133.81
241.896	139.81
242.13	133.81
242.363	149.81
242.597	148.81
242.83	137.81
243.064	149.81
243.298	146.81
243.531	155.81
243.765	147.81
243.998	150.81
244.232	140.81
244.465	163.81
244.699	146.81
244.932	140.81
245.166	143.81
245.399	137.81
245.633	156.81
245.866	135.81
246.099	148.81
246.333	142.81
246.566	149.81
246.8	147.81
247.033	157.81
247.266	160.81
247.5	157.81
247.733	167.81
247.966	193.81
248.2	168.81
248.433	168.81
248.666	163.81
248.899	186.81
249.133	185.81
249.366	206.81
249.599	190.81
249.832	172.81
250.066	179.81
250.299	188.81
250.532	196.81
250.765	181.81
250.998	203.81
251.231	217.81
251.465	203.81
251.698	197.81
251.931	209.81
252.164	186.81
252.397	183.81
252.63	186.81
252.863	224.81
253.096	226.81
253.329	230.81
253.562	229.81
253.795	224.81
254.028	211.81
254.261	219.81
254.494	203.81
254.727	244.81
254.96	247.81
255.193	251.81
255.426	233.81
255.659	213.81
255.892	231.81
256.124	221.81
256.357	215.81
256.59	220.81
256.823	208.81
257.056	194.81
257.289	223.81
257.521	203.81
257.754	218.81
257.987	206.81
258.22	222.81
258.452	211.81
258.685	198.81
258.918	220.81
259.151	216.81
259.383	219.81
259.616	211.81
259.849	232.81
260.081	238.81
260.314	260.81
260.547	265.81
260.779	231.81
261.012	226.81
261.244	227.81
261.477	222.81
261.71	222.81
261.942	228.81
262.175	247.81
262.407	259.81
262.64	210.81
262.872	227.81
263.105	225.81
263.337	232.81
263.57	224.81
263.802	193.81
264.035	207.81
264.267	221.81
264.499	210.81
264.732	205.81
264.964	233.81
265.197	198.81
265.429	246.81
265.661	245.81
265.894	220.81
266.126	237.81
266.358	206.81
266.591	220.81
266.823	225.81
267.055	236.81
267.287	241.81
267.52	234.81
267.752	221.81
267.984	214.81
268.216	241.81
268.448	248.81
268.681	249.81
268.913	241.81
269.145	262.81
269.377	292.81
269.609	295.81
269.841	281.81
270.073	271.81
270.306	281.81
270.538	310.81
270.77	316.81
271.002	299.81
271.234	314.81
271.466	288.81
271.698	318.81
271.93	303.81
272.162	326.81
272.394	313.81
272.626	310.81
272.858	307.81
273.09	280.81
273.322	285.81
273.553	270.81
273.785	287.81
274.017	287.81
274.249	275.81
274.481	282.81
274.713	286.81
274.945	295.81
275.176	275.81
275.408	288.81
275.64	293.81
275.872	257.81
276.104	269.81
276.335	275.81
276.567	284.81
276.799	282.81
277.031	310.81
277.262	316.81
277.494	311.81
277.726	299.81
277.957	292.81
278.189	282.81
278.421	284.81
278.652	290.81
278.884	274.81
279.115	278.81
279.347	283.81
279.579	285.81
279.81	286.81
280.042	287.81
280.273	254.81
280.505	280.81
280.736	297.81
280.968	282.81
281.199	305.81
281.431	271.81
281.662	285.81
281.894	288.81
282.125	300.81
282.356	297.81
282.588	327.81
282.819	335.81
283.051	316.81
283.282	273.81
283.513	291.81
283.745	293.81
283.976	298.81
284.207	307.81
284.439	307.81
284.67	316.81
284.901	312.81
285.132	296.81
285.364	294.81
285.595	294.81
285.826	318.81
286.057	312.81
286.288	311.81
286.52	300.81
286.751	308.81
286.982	292.81
287.213	305.81
287.444	310.81
287.675	328.81
287.906	330.81
288.138	332.81
288.369	328.81
288.6	329.81
288.831	333.81
289.062	320.81
289.293	311.81
289.524	308.81
289.755	314.81
289.986	313.81
290.217	313.81
290.448	329.81
290.679	328.81
290.91	321.81
291.141	321.81
291.371	313.81
291.602	312.81
291.833	302.81
292.064	314.81
292.295	317.81
292.526	316.81
292.757	315.81
292.987	317.81
293.218	301.81
293.449	329.81
293.68	305.81
293.91	338.81
294.141	330.81
294.372	316.81
294.603	337.81
294.833	331.81
295.064	346.81
295.295	339.81
295.525	332.81
295.756	327.81
295.987	342.81
296.217	363.81
296.448	371.81
296.679	335.81
296.909	325.81
297.14	318.81
297.37	324.81
297.601	313.81
297.831	314.81
298.062	337.81
298.292	330.81
298.523	361.81
298.753	341.81
298.984	335.81
299.214	353.81
299.445	321.81
299.675	345.81
299.905	356.81
300.136	331.81
300.366	355.81
300.597	353.81
300.827	354.81
301.057	363.81
301.288	375.81
301.518	361.81
301.748	379.81
301.979	352.81
302.209	370.81
302.439	348.81
302.669	347.81
302.9	361.81
303.13	346.81
303.36	359.81
303.59	369.81
303.82	375.81
304.051	370.81
304.281	374.81
304.511	380.81
304.741	358.81
304.971	355.81
305.201	363.81
305.431	343.81
305.661	353.81
305.891	347.81
306.121	373.81
306.352	357.81
306.582	377.81
306.812	377.81
307.042	354.81
307.272	365.81
307.502	364.81
307.731	339.81
307.961	348.81
308.191	343.81
308.421	377.81
308.651	377.81
308.881	358.81
309.111	376.81
309.341	368.81
309.571	385.81
309.8	378.81
310.03	405.81
310.26	401.81
310.49	400.81
310.72	421.81
310.949	420.81
311.179	443.81
311.409	405.81
311.639	391.81
311.868	405.81
312.098	426.81
312.328	407.81
312.557	426.81
312.787	442.81
313.017	435.81
313.246	416.81
313.476	419.81
313.706	406.81
313.935	401.81
314.165	425.81
314.394	443.81
314.624	417.81
314.853	419.81
315.083	423.81
315.312	420.81
315.542	422.81
315.771	396.81
316.001	401.81
316.23	414.81
316.46	407.81
316.689	407.81
316.919	408.81
317.148	447.81
317.377	417.81
317.607	423.81
317.836	419.81
318.065	412.81
318.295	437.81
318.524	405.81
318.753	401.81
318.983	410.81
319.212	409.81
319.441	408.81
319.67	410.81
319.9	409.81
320.129	430.81
320.358	409.81
320.587	425.81
320.816	407.81
321.046	430.81
321.275	427.81
321.504	424.81
321.733	430.81
321.962	420.81
322.191	459.81
322.42	443.81
322.649	461.81
322.878	483.81
323.108	488.81
323.337	508.81
323.566	520.81
323.795	544.81
324.024	587.81
324.253	710.81
324.482	945.81
324.71	1467.81
324.939	2041.81
325.168	1721.81
325.397	916.81
325.626	651.81
325.855	559.81
326.084	541.81
326.313	521.81
326.542	524.81
326.77	562.81
326.999	661.81
327.228	871.81
327.457	1249.81
327.686	1526.81
327.914	1007.81
328.143	702.81
328.372	630.81
328.6	613.81
328.829	557.81
329.058	592.81
329.287	591.81
329.515	573.81
329.744	527.81
329.972	522.81
330.201	519.81
330.43	563.81
330.658	587.81
330.887	629.81
331.115	614.81
331.344	552.81
331.572	516.81
331.801	513.81
332.03	519.81
332.258	513.81
332.486	486.81
332.715	500.81
332.943	483.81
333.172	515.81
333.4	525.81
333.629	530.81
333.857	525.81
334.085	512.81
334.314	529.81
334.542	539.81
334.771	557.81
334.999	538.81
335.227	511.81
335.455	515.81
335.684	496.81
335.912	506.81
336.14	478.81
336.369	493.81
336.597	487.81
336.825	490.81
337.053	483.81
337.281	488.81
337.51	497.81
337.738	494.81
337.966	495.81
338.194	470.81
338.422	489.81
338.65	488.81
338.878	469.81
339.106	461.81
339.334	465.81
339.562	484.81
339.79	470.81
340.018	481.81
340.246	473.81
340.474	457.81
340.702	454.81
340.93	458.81
341.158	447.81
341.386	478.81
341.614	470.81
341.842	455.81
342.07	457.81
342.298	447.81
342.526	463.81
342.754	449.81
342.981	421.81
343.209	439.81
343.437	458.81
343.665	484.81
343.893	483.81
344.12	522.81
344.348	492.81
344.576	476.81
344.804	492.81
345.031	472.81
345.259	483.81
345.487	475.81
345.714	465.81
345.942	454.81
346.17	456.81
346.397	450.81
346.625	419.81
346.853	441.81
347.08	415.81
347.308	457.81
347.535	462.81
347.763	424.81
347.99	453.81
348.218	457.81
348.445	464.81
348.673	455.81
348.9	431.81
349.128	431.81
349.355	428.81
349.583	446.81
349.81	414.81
350.037	428.81
350.265	423.81
350.492	420.81
350.72	406.81
350.947	404.81
351.174	428.81
351.402	442.81
351.629	453.81
351.856	456.81
352.083	416.81
352.311	459.81
352.538	480.81
352.765	455.81
352.992	428.81
353.22	456.81
353.447	431.81
353.674	425.81
353.901	429.81
354.128	436.81
354.355	410.81
354.583	430.81
354.81	414.81
355.037	415.81
355.264	415.81
355.491	424.81
355.718	412.81
355.945	410.81
356.172	413.81
356.399	414.81
356.626	431.81
356.853	418.81
357.08	414.81
357.307	417.81
357.534	419.81
357.761	394.81
357.988	430.81
358.215	395.81
358.441	407.81
358.668	424.81
358.895	416.81
359.122	430.81
359.349	409.81
359.576	433.81
359.802	461.81
360.029	483.81
360.256	516.81
360.483	478.81
360.709	438.81
360.936	440.81
361.163	444.81
361.39	438.81
361.616	442.81
361.843	427.81
362.07	418.81
362.296	429.81
362.523	433.81
362.749	414.81
362.976	430.81
363.203	413.81
363.429	419.81
363.656	408.81
363.882	418.81
364.109	441.81
364.335	414.81
364.562	423.81
364.788	415.81
365.015	414.81
365.241	413.81
365.468	415.81
365.694	409.81
365.92	412.81
366.147	425.81
366.373	415.81
366.599	411.81
366.826	422.81
367.052	416.81
367.278	414.81
367.505	403.81
367.731	411.81
367.957	386.81
368.184	412.81
368.41	397.81
368.636	447.81
368.862	441.81
369.089	414.81
369.315	399.81
369.541	413.81
369.767	414.81
369.993	407.81
370.219	405.81
370.445	421.81
370.672	418.81
370.898	412.81
371.124	423.81
371.35	425.81
371.576	419.81
371.802	429.81
372.028	441.81
372.254	413.81
372.48	411.81
372.706	441.81
372.932	433.81
373.158	418.81
373.384	427.81
373.61	419.81
373.835	410.81
374.061	421.81
374.287	451.81
374.513	448.81
374.739	430.81
374.965	446.81
375.191	429.81
375.416	423.81
375.642	444.81
375.868	409.81
376.094	437.81
376.319	417.81
376.545	417.81
376.771	386.81
376.997	444.81
377.222	415.81
377.448	404.81
377.674	419.81
377.899	407.81
378.125	406.81
378.35	411.81
378.576	408.81
378.802	421.81
379.027	411.81
379.253	408.81
379.478	416.81
379.704	409.81
379.929	428.81
380.155	411.81
380.38	433.81
380.606	427.81
380.831	419.81
381.057	424.81
381.282	417.81
381.507	415.81
381.733	412.81
381.958	405.81
382.184	434.81
382.409	426.81
382.634	423.81
382.86	428.81
383.085	429.81
383.31	426.81
383.535	430.81
383.761	443.81
383.986	457.81
384.211	428.81
384.436	454.81
384.662	449.81
384.887	457.81
385.112	471.81
385.337	462.81
385.562	452.81
385.787	467.81
386.013	482.81
386.238	465.81
386.463	456.81
386.688	453.81
386.913	438.81
387.138	468.81
387.363	441.81
387.588	459.81
387.813	449.81
388.038	460.81
388.263	450.81
388.488	447.81
388.713	448.81
388.938	471.81
389.163	470.81
389.387	460.81
389.612	465.81
389.837	463.81
390.062	446.81
390.287	480.81
390.512	459.81
390.736	457.81
390.961	473.81
391.186	453.81
391.411	465.81
391.636	488.81
391.86	470.81
392.085	489.81
392.31	477.81
392.534	487.81
392.759	482.81
392.984	481.81
393.208	459.81
393.433	466.81
393.658	472.81
393.882	470.81
394.107	482.81
394.331	509.81
394.556	453.81
394.78	473.81
395.005	480.81
395.229	457.81
395.454	499.81
395.678	493.81
395.903	484.81
396.127	486.81
396.352	516.81
396.576	494.81
396.801	485.81
397.025	497.81
397.249	497.81
397.474	486.81
397.698	485.81
397.922	505.81
398.147	533.81
398.371	526.81
398.595	511.81
398.82	525.81
399.044	552.81
399.268	600.81
399.492	627.81
399.717	653.81
399.941	691.81
400.165	687.81
400.389	677.81
400.613	611.81
400.837	571.81
401.062	579.81
401.286	550.81
401.51	544.81
401.734	535.81
401.958	520.81
402.182	556.81
402.406	561.81
402.63	584.81
402.854	558.81
403.078	542.81
403.302	569.81
403.526	585.81
403.75	590.81
403.974	598.81
404.198	581.81
404.422	606.81
404.645	574.81
404.869	565.81
405.093	612.81
405.317	607.81
405.541	641.81
405.765	593.81
405.988	564.81
406.212	588.81
406.436	626.81
406.66	653.81
406.883	625.81
407.107	635.81
407.331	707.81
407.555	732.81
407.778	745.81
408.002	682.81
408.226	629.81
408.449	617.81
408.673	620.81
408.896	634.81
409.12	645.81
409.344	628.81
409.567	579.81
409.791	567.81
410.014	556.81
410.238	557.81
410.461	562.81
410.685	556.81
410.908	575.81
411.132	598.81
411.355	651.81
411.578	609.81
411.802	556.81
412.025	547.81
412.249	565.81
412.472	579.81
412.695	600.81
412.919	586.81
413.142	570.81
413.365	544.81
413.589	525.81
413.812	547.81
414.035	542.81
414.258	506.81
414.482	510.81
414.705	527.81
414.928	509.81
415.151	539.81
415.374	524.81
415.597	520.81
415.821	516.81
416.044	523.81
416.267	521.81
416.49	534.81
416.713	515.81
416.936	507.81
417.159	526.81
417.382	517.81
417.605	517.81
417.828	538.81
418.051	544.81
418.274	534.81
418.497	509.81
418.72	526.81
418.943	531.81
419.166	544.81
419.389	570.81
419.611	537.81
419.834	558.81
420.057	553.81
420.28	543.81
420.503	531.81
420.726	533.81
420.948	545.81
421.171	577.81
421.394	613.81
421.617	557.81
421.839	546.81
422.062	550.81
422.285	537.81
422.507	591.81
422.73	671.81
422.953	651.81
423.175	601.81
423.398	551.81
423.621	570.81
423.843	568.81
424.066	574.81
424.288	575.81
424.511	605.81
424.733	623.81
424.956	707.81
425.178	658.81
425.401	679.81
425.623	690.81
425.846	592.81
426.068	553.81
426.291	557.81
426.513	559.81
426.735	567.81
426.958	605.81
427.18	676.81
427.402	810.81
427.625	877.81
427.847	764.81
428.069	622.81
428.292	577.81
428.514	540.81
428.736	510.81
428.958	524.81
429.181	494.81
429.403	502.81
429.625	514.81
429.847	541.81
430.069	601.81
430.292	597.81
430.514	529.81
430.736	532.81
430.958	502.81
431.18	477.81
431.402	503.81
431.624	487.81
431.846	486.81
432.068	522.81
432.29	497.81
432.512	490.81
432.734	506.81
432.956	495.81
433.178	517.81
433.4	520.81
433.622	505.81
433.844	504.81
434.066	484.81
434.287	496.81
434.509	510.81
434.731	518.81
434.953	513.81
435.175	552.81
435.397	549.81
435.618	572.81
435.84	594.81
436.062	659.81
436.284	733.81
436.505	602.81
436.727	561.81
436.949	538.81
437.17	516.81
437.392	511.81
437.614	513.81
437.835	551.81
438.057	618.81
438.278	707.81
438.5	723.81
438.721	804.81
438.943	755.81
439.165	609.81
439.386	569.81
439.608	570.81
439.829	561.81
440.05	567.81
440.272	631.81
440.493	569.81
440.715	525.81
440.936	543.81
441.158	529.81
441.379	529.81
441.6	540.81
441.822	565.81
442.043	594.81
442.264	679.81
442.486	679.81
442.707	611.81
442.928	561.81
443.149	597.81
443.371	571.81
443.592	641.81
443.813	758.81
444.034	776.81
444.255	651.81
444.476	613.81
444.698	621.81
444.919	599.81
445.14	707.81
445.361	645.81
445.582	607.81
445.803	659.81
446.024	751.81
446.245	757.81
446.466	669.81
446.687	586.81
446.908	550.81
447.129	525.81
447.35	538.81
447.571	501.81
447.792	527.81
448.013	511.81
448.234	528.81
448.455	561.81
448.675	668.81
448.896	774.81
449.117	671.81
449.338	629.81
449.559	724.81
449.779	810.81
450	631.81
450.221	545.81
450.442	522.81
450.662	513.81
450.883	531.81
451.104	513.81
451.324	496.81
451.545	500.81
451.766	463.81
451.986	458.81
452.207	437.81
452.428	470.81
452.648	471.81
452.869	453.81
453.089	479.81
453.31	481.81
453.53	459.81
453.751	451.81
453.971	451.81
454.192	474.81
454.412	459.81
454.633	459.81
454.853	447.81
455.073	452.81
455.294	467.81
455.514	534.81
455.734	515.81
455.955	469.81
456.175	429.81
456.395	437.81
456.616	434.81
456.836	443.81
457.056	433.81
457.276	412.81
457.497	426.81
457.717	425.81
457.937	434.81
458.157	427.81
458.377	474.81
458.598	469.81
458.818	527.81
459.038	634.81
459.258	618.81
459.478	553.81
459.698	501.81
459.918	508.81
460.138	497.81
460.358	516.81
460.578	526.81
460.798	522.81
461.018	546.81
461.238	534.81
461.458	513.81
461.678	520.81
461.898	543.81
462.118	533.81
462.338	537.81
462.558	555.81
462.777	553.81
462.997	584.81
463.217	622.81
463.437	615.81
463.657	583.81
463.876	570.81
464.096	582.81
464.316	579.81
464.536	599.81
464.755	569.81
464.975	588.81
465.195	592.81
465.414	654.81
465.634	610.81
465.854	538.81
466.073	510.81
466.293	517.81
466.512	488.81
466.732	476.81
466.951	471.81
467.171	476.81
467.391	468.81
467.61	490.81
467.829	483.81
468.049	479.81
468.268	480.81
468.488	473.81
468.707	465.81
468.927	456.81
469.146	443.81
469.365	458.81
469.585	445.81
469.804	488.81
470.023	468.81
470.243	485.81
470.462	476.81
470.681	520.81
470.901	499.81
471.12	474.81
471.339	489.81
471.558	484.81
471.777	478.81
471.997	486.81
472.216	469.81
472.435	481.81
472.654	468.81
472.873	479.81
473.092	471.81
473.311	464.81
473.53	470.81
473.749	486.81
473.968	533.81
474.187	592.81
474.406	599.81
474.625	548.81
474.844	489.81
475.063	475.81
475.282	477.81
475.501	485.81
475.72	479.81
475.939	505.81
476.158	493.81
476.377	495.81
476.596	475.81
476.814	494.81
477.033	502.81
477.252	521.81
477.471	517.81
477.69	512.81
477.908	517.81
478.127	526.81
478.346	547.81
478.564	550.81
478.783	541.81
479.002	555.81
479.22	556.81
479.439	561.81
479.658	577.81
479.876	606.81
480.095	625.81
480.313	622.81
480.532	605.81
480.751	587.81
480.969	586.81
481.188	609.81
481.406	643.81
481.624	581.81
481.843	569.81
482.061	559.81
482.28	560.81
482.498	561.81
482.717	546.81
482.935	550.81
483.153	538.81
483.372	557.81
483.59	539.81
483.808	505.81
484.027	548.81
484.245	570.81
484.463	569.81
484.681	558.81
484.9	553.81
485.118	573.81
485.336	589.81
485.554	582.81
485.772	558.81
485.99	555.81
486.209	575.81
486.427	581.81
486.645	600.81
486.863	599.81
487.081	588.81
487.299	604.81
487.517	590.81
487.735	605.81
487.953	590.81
488.171	590.81
488.389	587.81
488.607	611.81
488.825	575.81
489.043	584.81
489.261	590.81
489.479	613.81
489.696	604.81
489.914	621.81
490.132	614.81
490.35	615.81
490.568	599.81
490.786	648.81
491.003	606.81
491.221	649.81
491.439	673.81
491.657	664.81
491.874	650.81
492.092	666.81
492.31	665.81
492.527	679.81
492.745	664.81
492.963	669.81
493.18	696.81
493.398	703.81
493.615	689.81
493.833	697.81
494.05	711.81
494.268	689.81
494.485	694.81
494.703	661.81
494.92	681.81
495.138	691.81
495.355	679.81
495.573	687.81
495.79	693.81
496.008	718.81
496.225	735.81
496.442	709.81
496.66	705.81
496.877	690.81
497.094	678.81
497.312	712.81
497.529	737.81
497.746	751.81
497.963	765.81
498.181	781.81
498.398	810.81
498.615	828.81
498.832	825.81
499.049	847.81
499.267	883.81
499.484	937.81
499.701	950.81
499.918	1031.81
500.135	1078.81
500.352	1174.81
500.569	1212.81
500.786	1173.81
501.003	1159.81
501.22	1109.81
501.437	1021.81
501.654	970.81
501.871	963.81
