Data from 1985.PennyLincolnUp.Lamp.En5.5.200Scan.071819.P1_HRD10591_17-03-20-970.txt Node
Date: Thu Jul 18 17:03:20 EDT 2019
User: cochatt
Spectrometer: HR+D1059
Trigger mode: 1
Integration Time (sec): 1.000000E-1
Scans to average: 1
Electric dark correction enabled: true
Nonlinearity correction enabled: false
Boxcar width: 0
XAxis mode: Wavelengths
Number of Pixels in Spectrum: 2048
>>>>>Begin Spectral Data<<<<<
223.165	-24.56
223.4	-24.56
223.635	-24.56
223.869	-7.56
224.104	-23.56
224.338	-14.56
224.573	-11.56
224.808	-13.56
225.042	-5.56
225.277	-7.56
225.511	-2.56
225.746	-1.56
225.98	13.44
226.215	10.44
226.449	6.44
226.683	35.44
226.918	20.44
227.152	26.44
227.387	21.44
227.621	41.44
227.856	39.44
228.09	42.44
228.324	49.44
228.559	54.44
228.793	68.44
229.027	90.44
229.262	103.44
229.496	100.44
229.73	128.44
229.964	130.44
230.199	119.44
230.433	111.44
230.667	115.44
230.901	105.44
231.136	100.44
231.37	88.44
231.604	106.44
231.838	105.44
232.072	118.44
232.306	120.44
232.541	105.44
232.775	103.44
233.009	119.44
233.243	95.44
233.477	95.44
233.711	102.44
233.945	112.44
234.179	114.44
234.413	116.44
234.647	113.44
234.881	108.44
235.115	114.44
235.349	118.44
235.583	119.44
235.817	119.44
236.051	118.44
236.285	120.44
236.519	99.44
236.753	126.44
236.987	141.44
237.221	165.44
237.455	217.44
237.689	180.44
237.922	142.44
238.156	133.44
238.39	129.44
238.624	130.44
238.858	121.44
239.091	117.44
239.325	124.44
239.559	125.44
239.793	119.44
240.027	128.44
240.26	122.44
240.494	137.44
240.728	140.44
240.961	155.44
241.195	137.44
241.429	132.44
241.662	128.44
241.896	102.44
242.13	140.44
242.363	126.44
242.597	138.44
242.83	125.44
243.064	152.44
243.298	128.44
243.531	138.44
243.765	137.44
243.998	143.44
244.232	130.44
244.465	136.44
244.699	134.44
244.932	135.44
245.166	146.44
245.399	155.44
245.633	126.44
245.866	139.44
246.099	156.44
246.333	155.44
246.566	162.44
246.8	142.44
247.033	149.44
247.266	141.44
247.5	159.44
247.733	174.44
247.966	169.44
248.2	165.44
248.433	174.44
248.666	164.44
248.899	185.44
249.133	192.44
249.366	205.44
249.599	196.44
249.832	168.44
250.066	184.44
250.299	190.44
250.532	204.44
250.765	214.44
250.998	209.44
251.231	197.44
251.465	203.44
251.698	206.44
251.931	204.44
252.164	183.44
252.397	187.44
252.63	205.44
252.863	190.44
253.096	209.44
253.329	208.44
253.562	227.44
253.795	204.44
254.028	207.44
254.261	224.44
254.494	223.44
254.727	249.44
254.96	278.44
255.193	265.44
255.426	229.44
255.659	232.44
255.892	220.44
256.124	228.44
256.357	216.44
256.59	209.44
256.823	209.44
257.056	218.44
257.289	199.44
257.521	203.44
257.754	221.44
257.987	203.44
258.22	209.44
258.452	214.44
258.685	205.44
258.918	208.44
259.151	222.44
259.383	215.44
259.616	225.44
259.849	196.44
260.081	227.44
260.314	243.44
260.547	255.44
260.779	233.44
261.012	226.44
261.244	213.44
261.477	227.44
261.71	228.44
261.942	221.44
262.175	240.44
262.407	237.44
262.64	224.44
262.872	216.44
263.105	209.44
263.337	208.44
263.57	228.44
263.802	236.44
264.035	199.44
264.267	208.44
264.499	201.44
264.732	201.44
264.964	208.44
265.197	209.44
265.429	213.44
265.661	222.44
265.894	217.44
266.126	230.44
266.358	222.44
266.591	233.44
266.823	239.44
267.055	228.44
267.287	242.44
267.52	234.44
267.752	252.44
267.984	228.44
268.216	227.44
268.448	228.44
268.681	252.44
268.913	264.44
269.145	261.44
269.377	285.44
269.609	282.44
269.841	274.44
270.073	261.44
270.306	300.44
270.538	318.44
270.77	309.44
271.002	306.44
271.234	290.44
271.466	289.44
271.698	310.44
271.93	324.44
272.162	320.44
272.394	318.44
272.626	329.44
272.858	266.44
273.09	282.44
273.322	289.44
273.553	263.44
273.785	283.44
274.017	263.44
274.249	261.44
274.481	260.44
274.713	288.44
274.945	278.44
275.176	271.44
275.408	259.44
275.64	269.44
275.872	262.44
276.104	260.44
276.335	288.44
276.567	285.44
276.799	316.44
277.031	328.44
277.262	325.44
277.494	334.44
277.726	327.44
277.957	295.44
278.189	310.44
278.421	286.44
278.652	286.44
278.884	282.44
279.115	291.44
279.347	286.44
279.579	288.44
279.81	286.44
280.042	281.44
280.273	281.44
280.505	294.44
280.736	282.44
280.968	280.44
281.199	297.44
281.431	282.44
281.662	273.44
281.894	268.44
282.125	289.44
282.356	292.44
282.588	325.44
282.819	329.44
283.051	306.44
283.282	278.44
283.513	284.44
283.745	305.44
283.976	315.44
284.207	314.44
284.439	316.44
284.67	304.44
284.901	300.44
285.132	305.44
285.364	318.44
285.595	302.44
285.826	298.44
286.057	302.44
286.288	293.44
286.52	306.44
286.751	313.44
286.982	307.44
287.213	309.44
287.444	302.44
287.675	304.44
287.906	341.44
288.138	328.44
288.369	338.44
288.6	328.44
288.831	335.44
289.062	321.44
289.293	325.44
289.524	310.44
289.755	323.44
289.986	313.44
290.217	308.44
290.448	315.44
290.679	322.44
290.91	312.44
291.141	316.44
291.371	309.44
291.602	318.44
291.833	316.44
292.064	309.44
292.295	312.44
292.526	309.44
292.757	320.44
292.987	342.44
293.218	333.44
293.449	333.44
293.68	342.44
293.91	333.44
294.141	328.44
294.372	323.44
294.603	315.44
294.833	311.44
295.064	316.44
295.295	321.44
295.525	330.44
295.756	327.44
295.987	332.44
296.217	338.44
296.448	370.44
296.679	333.44
296.909	351.44
297.14	342.44
297.37	318.44
297.601	356.44
297.831	349.44
298.062	310.44
298.292	345.44
298.523	349.44
298.753	329.44
298.984	361.44
299.214	323.44
299.445	349.44
299.675	338.44
299.905	330.44
300.136	343.44
300.366	341.44
300.597	351.44
300.827	373.44
301.057	344.44
301.288	364.44
301.518	378.44
301.748	379.44
301.979	361.44
302.209	350.44
302.439	370.44
302.669	374.44
302.9	376.44
303.13	368.44
303.36	367.44
303.59	371.44
303.82	381.44
304.051	367.44
304.281	369.44
304.511	353.44
304.741	376.44
304.971	344.44
305.201	359.44
305.431	366.44
305.661	358.44
305.891	361.44
306.121	367.44
306.352	372.44
306.582	371.44
306.812	363.44
307.042	369.44
307.272	354.44
307.502	369.44
307.731	386.44
307.961	364.44
308.191	371.44
308.421	377.44
308.651	374.44
308.881	362.44
309.111	380.44
309.341	380.44
309.571	382.44
309.8	409.44
310.03	386.44
310.26	421.44
310.49	410.44
310.72	422.44
310.949	429.44
311.179	428.44
311.409	407.44
311.639	404.44
311.868	410.44
312.098	404.44
312.328	413.44
312.557	440.44
312.787	432.44
313.017	444.44
313.246	411.44
313.476	408.44
313.706	409.44
313.935	409.44
314.165	419.44
314.394	439.44
314.624	438.44
314.853	423.44
315.083	432.44
315.312	410.44
315.542	423.44
315.771	406.44
316.001	420.44
316.23	400.44
316.46	414.44
316.689	424.44
316.919	431.44
317.148	428.44
317.377	419.44
317.607	416.44
317.836	405.44
318.065	406.44
318.295	398.44
318.524	406.44
318.753	411.44
318.983	398.44
319.212	422.44
319.441	418.44
319.67	429.44
319.9	415.44
320.129	416.44
320.358	401.44
320.587	414.44
320.816	436.44
321.046	428.44
321.275	444.44
321.504	417.44
321.733	417.44
321.962	437.44
322.191	432.44
322.42	458.44
322.649	469.44
322.878	472.44
323.108	511.44
323.337	508.44
323.566	536.44
323.795	537.44
324.024	589.44
324.253	684.44
324.482	989.44
324.71	1433.44
324.939	2066.44
325.168	1797.44
325.397	910.44
325.626	646.44
325.855	585.44
326.084	539.44
326.313	540.44
326.542	549.44
326.77	574.44
326.999	651.44
327.228	860.44
327.457	1315.44
327.686	1540.44
327.914	1032.44
328.143	728.44
328.372	632.44
328.6	593.44
328.829	582.44
329.058	575.44
329.287	603.44
329.515	553.44
329.744	553.44
329.972	521.44
330.201	536.44
330.43	578.44
330.658	611.44
330.887	639.44
331.115	612.44
331.344	557.44
331.572	508.44
331.801	517.44
332.03	522.44
332.258	533.44
332.486	477.44
332.715	526.44
332.943	519.44
333.172	502.44
333.4	508.44
333.629	525.44
333.857	542.44
334.085	568.44
334.314	587.44
334.542	574.44
334.771	583.44
334.999	547.44
335.227	514.44
335.455	512.44
335.684	514.44
335.912	513.44
336.14	493.44
336.369	512.44
336.597	517.44
336.825	482.44
337.053	497.44
337.281	501.44
337.51	480.44
337.738	480.44
337.966	484.44
338.194	469.44
338.422	477.44
338.65	474.44
338.878	465.44
339.106	460.44
339.334	471.44
339.562	473.44
339.79	481.44
340.018	435.44
340.246	474.44
340.474	456.44
340.702	468.44
340.93	470.44
341.158	475.44
341.386	472.44
341.614	481.44
341.842	471.44
342.07	462.44
342.298	439.44
342.526	450.44
342.754	444.44
342.981	448.44
343.209	453.44
343.437	472.44
343.665	476.44
343.893	496.44
344.12	522.44
344.348	510.44
344.576	481.44
344.804	495.44
345.031	480.44
345.259	484.44
345.487	479.44
345.714	466.44
345.942	463.44
346.17	449.44
346.397	434.44
346.625	438.44
346.853	432.44
347.08	433.44
347.308	481.44
347.535	469.44
347.763	452.44
347.99	448.44
348.218	454.44
348.445	464.44
348.673	450.44
348.9	455.44
349.128	437.44
349.355	421.44
349.583	412.44
349.81	431.44
350.037	429.44
350.265	413.44
350.492	437.44
350.72	445.44
350.947	442.44
351.174	449.44
351.402	442.44
351.629	458.44
351.856	435.44
352.083	462.44
352.311	445.44
352.538	459.44
352.765	456.44
352.992	424.44
353.22	430.44
353.447	428.44
353.674	441.44
353.901	431.44
354.128	432.44
354.355	399.44
354.583	414.44
354.81	415.44
355.037	406.44
355.264	430.44
355.491	404.44
355.718	389.44
355.945	456.44
356.172	430.44
356.399	434.44
356.626	417.44
356.853	429.44
357.08	403.44
357.307	402.44
357.534	424.44
357.761	424.44
357.988	429.44
358.215	416.44
358.441	429.44
358.668	423.44
358.895	420.44
359.122	430.44
359.349	434.44
359.576	429.44
359.802	472.44
360.029	470.44
360.256	471.44
360.483	468.44
360.709	434.44
360.936	438.44
361.163	428.44
361.39	436.44
361.616	442.44
361.843	462.44
362.07	430.44
362.296	438.44
362.523	443.44
362.749	449.44
362.976	429.44
363.203	421.44
363.429	419.44
363.656	418.44
363.882	417.44
364.109	413.44
364.335	404.44
364.562	400.44
364.788	407.44
365.015	415.44
365.241	406.44
365.468	430.44
365.694	419.44
365.92	435.44
366.147	415.44
366.373	416.44
366.599	430.44
366.826	418.44
367.052	413.44
367.278	415.44
367.505	419.44
367.731	408.44
367.957	418.44
368.184	428.44
368.41	447.44
368.636	435.44
368.862	447.44
369.089	436.44
369.315	426.44
369.541	406.44
369.767	425.44
369.993	424.44
370.219	412.44
370.445	418.44
370.672	402.44
370.898	435.44
371.124	425.44
371.35	420.44
371.576	432.44
371.802	436.44
372.028	427.44
372.254	411.44
372.48	407.44
372.706	424.44
372.932	435.44
373.158	434.44
373.384	415.44
373.61	433.44
373.835	428.44
374.061	406.44
374.287	439.44
374.513	439.44
374.739	452.44
374.965	431.44
375.191	433.44
375.416	453.44
375.642	450.44
375.868	424.44
376.094	428.44
376.319	430.44
376.545	441.44
376.771	421.44
376.997	432.44
377.222	420.44
377.448	417.44
377.674	405.44
377.899	404.44
378.125	401.44
378.35	410.44
378.576	415.44
378.802	412.44
379.027	426.44
379.253	420.44
379.478	410.44
379.704	425.44
379.929	427.44
380.155	407.44
380.38	407.44
380.606	415.44
380.831	402.44
381.057	422.44
381.282	414.44
381.507	423.44
381.733	453.44
381.958	422.44
382.184	414.44
382.409	425.44
382.634	435.44
382.86	447.44
383.085	434.44
383.31	438.44
383.535	445.44
383.761	436.44
383.986	452.44
384.211	449.44
384.436	452.44
384.662	442.44
384.887	444.44
385.112	454.44
385.337	462.44
385.562	460.44
385.787	463.44
386.013	497.44
386.238	475.44
386.463	466.44
386.688	472.44
386.913	462.44
387.138	468.44
387.363	461.44
387.588	458.44
387.813	449.44
388.038	466.44
388.263	483.44
388.488	479.44
388.713	450.44
388.938	474.44
389.163	464.44
389.387	461.44
389.612	452.44
389.837	458.44
390.062	465.44
390.287	467.44
390.512	477.44
390.736	456.44
390.961	468.44
391.186	468.44
391.411	473.44
391.636	490.44
391.86	496.44
392.085	489.44
392.31	481.44
392.534	513.44
392.759	496.44
392.984	492.44
393.208	457.44
393.433	458.44
393.658	471.44
393.882	482.44
394.107	485.44
394.331	465.44
394.556	478.44
394.78	496.44
395.005	495.44
395.229	494.44
395.454	503.44
395.678	508.44
395.903	494.44
396.127	517.44
396.352	495.44
396.576	482.44
396.801	484.44
397.025	487.44
397.249	504.44
397.474	503.44
397.698	501.44
397.922	518.44
398.147	516.44
398.371	544.44
398.595	533.44
398.82	537.44
399.044	564.44
399.268	600.44
399.492	629.44
399.717	688.44
399.941	685.44
400.165	676.44
400.389	666.44
400.613	666.44
400.837	604.44
401.062	602.44
401.286	549.44
401.51	544.44
401.734	558.44
401.958	553.44
402.182	557.44
402.406	568.44
402.63	592.44
402.854	570.44
403.078	590.44
403.302	582.44
403.526	580.44
403.75	594.44
403.974	553.44
404.198	578.44
404.422	594.44
404.645	598.44
404.869	578.44
405.093	610.44
405.317	641.44
405.541	678.44
405.765	629.44
405.988	581.44
406.212	612.44
406.436	617.44
406.66	623.44
406.883	616.44
407.107	648.44
407.331	697.44
407.555	755.44
407.778	768.44
408.002	671.44
408.226	653.44
408.449	649.44
408.673	631.44
408.896	632.44
409.12	665.44
409.344	645.44
409.567	584.44
409.791	590.44
410.014	552.44
410.238	586.44
410.461	560.44
410.685	587.44
410.908	581.44
411.132	620.44
411.355	623.44
411.578	592.44
411.802	560.44
412.025	562.44
412.249	573.44
412.472	589.44
412.695	620.44
412.919	601.44
413.142	564.44
413.365	560.44
413.589	541.44
413.812	545.44
414.035	536.44
414.258	526.44
414.482	530.44
414.705	536.44
414.928	533.44
415.151	524.44
415.374	530.44
415.597	561.44
415.821	537.44
416.044	526.44
416.267	511.44
416.49	527.44
416.713	529.44
416.936	509.44
417.159	521.44
417.382	542.44
417.605	529.44
417.828	522.44
418.051	545.44
418.274	537.44
418.497	544.44
418.72	541.44
418.943	543.44
419.166	541.44
419.389	578.44
419.611	578.44
419.834	536.44
420.057	558.44
420.28	533.44
420.503	580.44
420.726	546.44
420.948	541.44
421.171	590.44
421.394	628.44
421.617	553.44
421.839	544.44
422.062	574.44
422.285	582.44
422.507	604.44
422.73	670.44
422.953	630.44
423.175	593.44
423.398	597.44
423.621	582.44
423.843	614.44
424.066	604.44
424.288	597.44
424.511	597.44
424.733	678.44
424.956	713.44
425.178	698.44
425.401	680.44
425.623	695.44
425.846	620.44
426.068	596.44
426.291	590.44
426.513	565.44
426.735	562.44
426.958	617.44
427.18	702.44
427.402	830.44
427.625	891.44
427.847	801.44
428.069	670.44
428.292	611.44
428.514	540.44
428.736	538.44
428.958	522.44
429.181	531.44
429.403	498.44
429.625	506.44
429.847	563.44
430.069	608.44
430.292	618.44
430.514	540.44
430.736	530.44
430.958	514.44
431.18	534.44
431.402	501.44
431.624	478.44
431.846	495.44
432.068	471.44
432.29	529.44
432.512	500.44
432.734	499.44
432.956	508.44
433.178	516.44
433.4	544.44
433.622	518.44
433.844	525.44
434.066	498.44
434.287	498.44
434.509	514.44
434.731	535.44
434.953	539.44
435.175	545.44
435.397	578.44
435.618	569.44
435.84	613.44
436.062	696.44
436.284	737.44
436.505	625.44
436.727	570.44
436.949	548.44
437.17	510.44
437.392	509.44
437.614	514.44
437.835	570.44
438.057	638.44
438.278	716.44
438.5	719.44
438.721	801.44
438.943	741.44
439.165	610.44
439.386	583.44
439.608	564.44
439.829	561.44
440.05	591.44
440.272	635.44
440.493	569.44
440.715	546.44
440.936	530.44
441.158	536.44
441.379	530.44
441.6	551.44
441.822	579.44
442.043	593.44
442.264	674.44
442.486	720.44
442.707	633.44
442.928	577.44
443.149	562.44
443.371	615.44
443.592	662.44
443.813	768.44
444.034	788.44
444.255	670.44
444.476	604.44
444.698	608.44
444.919	614.44
445.14	731.44
445.361	677.44
445.582	605.44
445.803	674.44
446.024	746.44
446.245	743.44
446.466	698.44
446.687	597.44
446.908	533.44
447.129	517.44
447.35	515.44
447.571	505.44
447.792	512.44
448.013	522.44
448.234	532.44
448.455	575.44
448.675	682.44
448.896	790.44
449.117	650.44
449.338	638.44
449.559	754.44
449.779	844.44
450	685.44
450.221	566.44
450.442	530.44
450.662	496.44
450.883	502.44
451.104	510.44
451.324	506.44
451.545	480.44
451.766	482.44
451.986	474.44
452.207	466.44
452.428	468.44
452.648	449.44
452.869	465.44
453.089	494.44
453.31	483.44
453.53	471.44
453.751	471.44
453.971	470.44
454.192	494.44
454.412	460.44
454.633	459.44
454.853	452.44
455.073	470.44
455.294	498.44
455.514	537.44
455.734	524.44
455.955	470.44
456.175	444.44
456.395	439.44
456.616	446.44
456.836	429.44
457.056	446.44
457.276	417.44
457.497	452.44
457.717	447.44
457.937	457.44
458.157	448.44
458.377	459.44
458.598	480.44
458.818	514.44
459.038	613.44
459.258	613.44
459.478	545.44
459.698	504.44
459.918	516.44
460.138	516.44
460.358	535.44
460.578	544.44
460.798	543.44
461.018	541.44
461.238	516.44
461.458	518.44
461.678	530.44
461.898	552.44
462.118	524.44
462.338	554.44
462.558	539.44
462.777	553.44
462.997	599.44
463.217	607.44
463.437	596.44
463.657	575.44
463.876	589.44
464.096	581.44
464.316	596.44
464.536	563.44
464.755	586.44
464.975	592.44
465.195	617.44
465.414	670.44
465.634	618.44
465.854	542.44
466.073	517.44
466.293	506.44
466.512	488.44
466.732	502.44
466.951	482.44
467.171	480.44
467.391	482.44
467.61	526.44
467.829	504.44
468.049	498.44
468.268	473.44
468.488	476.44
468.707	470.44
468.927	467.44
469.146	466.44
469.365	462.44
469.585	479.44
469.804	481.44
470.023	497.44
470.243	499.44
470.462	480.44
470.681	503.44
470.901	526.44
471.12	512.44
471.339	496.44
471.558	487.44
471.777	485.44
471.997	482.44
472.216	479.44
472.435	516.44
472.654	485.44
472.873	478.44
473.092	469.44
473.311	485.44
473.53	493.44
473.749	497.44
473.968	516.44
474.187	605.44
474.406	634.44
474.625	528.44
474.844	508.44
475.063	494.44
475.282	483.44
475.501	477.44
475.72	484.44
475.939	487.44
476.158	508.44
476.377	504.44
476.596	506.44
476.814	519.44
477.033	521.44
477.252	525.44
477.471	510.44
477.69	516.44
477.908	536.44
478.127	495.44
478.346	529.44
478.564	527.44
478.783	538.44
479.002	574.44
479.22	612.44
479.439	607.44
479.658	597.44
479.876	607.44
480.095	615.44
480.313	628.44
480.532	616.44
480.751	597.44
480.969	623.44
481.188	634.44
481.406	663.44
481.624	593.44
481.843	590.44
482.061	581.44
482.28	572.44
482.498	551.44
482.717	562.44
482.935	574.44
483.153	560.44
483.372	575.44
483.59	559.44
483.808	568.44
484.027	548.44
484.245	567.44
484.463	558.44
484.681	585.44
484.9	564.44
485.118	599.44
485.336	593.44
485.554	614.44
485.772	578.44
485.99	577.44
486.209	590.44
486.427	592.44
486.645	610.44
486.863	600.44
487.081	589.44
487.299	592.44
487.517	597.44
487.735	602.44
487.953	604.44
488.171	594.44
488.389	631.44
488.607	589.44
488.825	627.44
489.043	621.44
489.261	645.44
489.479	625.44
489.696	610.44
489.914	596.44
490.132	624.44
490.35	617.44
490.568	658.44
490.786	641.44
491.003	650.44
491.221	643.44
491.439	687.44
491.657	665.44
491.874	678.44
492.092	685.44
492.31	672.44
492.527	678.44
492.745	692.44
492.963	708.44
493.18	708.44
493.398	716.44
493.615	720.44
493.833	706.44
494.05	688.44
494.268	708.44
494.485	692.44
494.703	693.44
494.92	713.44
495.138	717.44
495.355	716.44
495.573	706.44
495.79	703.44
496.008	692.44
496.225	707.44
496.442	720.44
496.66	729.44
496.877	706.44
497.094	714.44
497.312	720.44
497.529	766.44
497.746	758.44
497.963	791.44
498.181	808.44
498.398	807.44
498.615	844.44
498.832	855.44
499.049	868.44
499.267	889.44
499.484	920.44
499.701	980.44
499.918	1060.44
500.135	1103.44
500.352	1204.44
500.569	1192.44
500.786	1202.44
501.003	1208.44
501.22	1143.44
501.437	1074.44
501.654	1016.44
501.871	960.44
