Data from 1985.PennyLincolnUp.Lamp.En5.5.200Scan.071819.P1_HRD10591_17-02-33-970.txt Node
Date: Thu Jul 18 17:02:33 EDT 2019
User: cochatt
Spectrometer: HR+D1059
Trigger mode: 1
Integration Time (sec): 1.000000E-1
Scans to average: 1
Electric dark correction enabled: true
Nonlinearity correction enabled: false
Boxcar width: 0
XAxis mode: Wavelengths
Number of Pixels in Spectrum: 2048
>>>>>Begin Spectral Data<<<<<
223.165	-16.94
223.4	-16.94
223.635	-16.94
223.869	-24.94
224.104	-17.94
224.338	-1.94
224.573	-5.94
224.808	-17.94
225.042	-3.94
225.277	-8.94
225.511	-5.94
225.746	4.06
225.98	16.06
226.215	-2.94
226.449	14.06
226.683	11.06
226.918	24.06
227.152	38.06
227.387	30.06
227.621	40.06
227.856	37.06
228.09	50.06
228.324	41.06
228.559	53.06
228.793	70.06
229.027	87.06
229.262	93.06
229.496	112.06
229.73	130.06
229.964	137.06
230.199	131.06
230.433	111.06
230.667	106.06
230.901	109.06
231.136	117.06
231.37	110.06
231.604	116.06
231.838	109.06
232.072	106.06
232.306	123.06
232.541	126.06
232.775	126.06
233.009	116.06
233.243	117.06
233.477	126.06
233.711	122.06
233.945	124.06
234.179	126.06
234.413	124.06
234.647	119.06
234.881	104.06
235.115	116.06
235.349	120.06
235.583	122.06
235.817	121.06
236.051	126.06
236.285	127.06
236.519	112.06
236.753	128.06
236.987	154.06
237.221	180.06
237.455	220.06
237.689	167.06
237.922	130.06
238.156	122.06
238.39	114.06
238.624	124.06
238.858	128.06
239.091	118.06
239.325	108.06
239.559	124.06
239.793	126.06
240.027	138.06
240.26	139.06
240.494	151.06
240.728	148.06
240.961	150.06
241.195	147.06
241.429	135.06
241.662	131.06
241.896	126.06
242.13	130.06
242.363	130.06
242.597	136.06
242.83	155.06
243.064	150.06
243.298	151.06
243.531	143.06
243.765	130.06
243.998	141.06
244.232	143.06
244.465	150.06
244.699	141.06
244.932	154.06
245.166	128.06
245.399	159.06
245.633	145.06
245.866	134.06
246.099	150.06
246.333	144.06
246.566	148.06
246.8	146.06
247.033	155.06
247.266	151.06
247.5	158.06
247.733	170.06
247.966	166.06
248.2	164.06
248.433	166.06
248.666	183.06
248.899	183.06
249.133	206.06
249.366	188.06
249.599	199.06
249.832	170.06
250.066	168.06
250.299	172.06
250.532	185.06
250.765	193.06
250.998	207.06
251.231	229.06
251.465	206.06
251.698	186.06
251.931	192.06
252.164	184.06
252.397	171.06
252.63	214.06
252.863	207.06
253.096	203.06
253.329	198.06
253.562	212.06
253.795	191.06
254.028	201.06
254.261	212.06
254.494	213.06
254.727	247.06
254.96	263.06
255.193	251.06
255.426	250.06
255.659	223.06
255.892	226.06
256.124	206.06
256.357	212.06
256.59	216.06
256.823	220.06
257.056	198.06
257.289	212.06
257.521	208.06
257.754	211.06
257.987	195.06
258.22	201.06
258.452	203.06
258.685	185.06
258.918	202.06
259.151	205.06
259.383	240.06
259.616	214.06
259.849	225.06
260.081	229.06
260.314	237.06
260.547	242.06
260.779	242.06
261.012	246.06
261.244	229.06
261.477	220.06
261.71	232.06
261.942	242.06
262.175	246.06
262.407	213.06
262.64	220.06
262.872	224.06
263.105	211.06
263.337	216.06
263.57	219.06
263.802	216.06
264.035	215.06
264.267	213.06
264.499	220.06
264.732	239.06
264.964	225.06
265.197	217.06
265.429	214.06
265.661	223.06
265.894	204.06
266.126	224.06
266.358	233.06
266.591	215.06
266.823	234.06
267.055	243.06
267.287	232.06
267.52	235.06
267.752	235.06
267.984	245.06
268.216	244.06
268.448	248.06
268.681	241.06
268.913	258.06
269.145	275.06
269.377	306.06
269.609	286.06
269.841	278.06
270.073	271.06
270.306	302.06
270.538	320.06
270.77	320.06
271.002	286.06
271.234	291.06
271.466	293.06
271.698	315.06
271.93	318.06
272.162	343.06
272.394	342.06
272.626	287.06
272.858	275.06
273.09	292.06
273.322	275.06
273.553	274.06
273.785	276.06
274.017	266.06
274.249	262.06
274.481	283.06
274.713	271.06
274.945	288.06
275.176	280.06
275.408	275.06
275.64	269.06
275.872	288.06
276.104	301.06
276.335	293.06
276.567	292.06
276.799	293.06
277.031	302.06
277.262	335.06
277.494	319.06
277.726	292.06
277.957	290.06
278.189	280.06
278.421	286.06
278.652	269.06
278.884	272.06
279.115	288.06
279.347	292.06
279.579	290.06
279.81	292.06
280.042	280.06
280.273	301.06
280.505	289.06
280.736	292.06
280.968	294.06
281.199	288.06
281.431	283.06
281.662	290.06
281.894	291.06
282.125	291.06
282.356	308.06
282.588	320.06
282.819	325.06
283.051	308.06
283.282	279.06
283.513	292.06
283.745	300.06
283.976	300.06
284.207	298.06
284.439	284.06
284.67	311.06
284.901	291.06
285.132	288.06
285.364	283.06
285.595	292.06
285.826	301.06
286.057	299.06
286.288	315.06
286.52	305.06
286.751	322.06
286.982	292.06
287.213	310.06
287.444	301.06
287.675	330.06
287.906	315.06
288.138	332.06
288.369	334.06
288.6	313.06
288.831	342.06
289.062	319.06
289.293	311.06
289.524	308.06
289.755	328.06
289.986	326.06
290.217	320.06
290.448	319.06
290.679	310.06
290.91	322.06
291.141	328.06
291.371	322.06
291.602	318.06
291.833	301.06
292.064	310.06
292.295	321.06
292.526	319.06
292.757	326.06
292.987	328.06
293.218	327.06
293.449	318.06
293.68	320.06
293.91	320.06
294.141	319.06
294.372	324.06
294.603	328.06
294.833	338.06
295.064	329.06
295.295	340.06
295.525	346.06
295.756	316.06
295.987	343.06
296.217	326.06
296.448	367.06
296.679	334.06
296.909	333.06
297.14	334.06
297.37	358.06
297.601	363.06
297.831	326.06
298.062	335.06
298.292	341.06
298.523	335.06
298.753	346.06
298.984	342.06
299.214	328.06
299.445	349.06
299.675	344.06
299.905	354.06
300.136	362.06
300.366	341.06
300.597	359.06
300.827	347.06
301.057	350.06
301.288	358.06
301.518	364.06
301.748	372.06
301.979	362.06
302.209	378.06
302.439	386.06
302.669	357.06
302.9	372.06
303.13	370.06
303.36	358.06
303.59	372.06
303.82	365.06
304.051	380.06
304.281	356.06
304.511	364.06
304.741	361.06
304.971	355.06
305.201	376.06
305.431	370.06
305.661	376.06
305.891	375.06
306.121	357.06
306.352	382.06
306.582	351.06
306.812	353.06
307.042	363.06
307.272	373.06
307.502	372.06
307.731	374.06
307.961	380.06
308.191	368.06
308.421	365.06
308.651	382.06
308.881	369.06
309.111	367.06
309.341	376.06
309.571	381.06
309.8	387.06
310.03	415.06
310.26	395.06
310.49	384.06
310.72	392.06
310.949	420.06
311.179	428.06
311.409	419.06
311.639	394.06
311.868	396.06
312.098	405.06
312.328	401.06
312.557	434.06
312.787	438.06
313.017	453.06
313.246	424.06
313.476	411.06
313.706	408.06
313.935	406.06
314.165	410.06
314.394	431.06
314.624	439.06
314.853	415.06
315.083	437.06
315.312	414.06
315.542	422.06
315.771	428.06
316.001	403.06
316.23	401.06
316.46	408.06
316.689	405.06
316.919	405.06
317.148	425.06
317.377	418.06
317.607	442.06
317.836	408.06
318.065	401.06
318.295	412.06
318.524	412.06
318.753	406.06
318.983	429.06
319.212	432.06
319.441	423.06
319.67	438.06
319.9	419.06
320.129	427.06
320.358	428.06
320.587	395.06
320.816	415.06
321.046	432.06
321.275	426.06
321.504	440.06
321.733	440.06
321.962	444.06
322.191	442.06
322.42	471.06
322.649	470.06
322.878	444.06
323.108	485.06
323.337	496.06
323.566	526.06
323.795	547.06
324.024	582.06
324.253	682.06
324.482	948.06
324.71	1421.06
324.939	1973.06
325.168	1683.06
325.397	942.06
325.626	633.06
325.855	542.06
326.084	542.06
326.313	510.06
326.542	525.06
326.77	587.06
326.999	645.06
327.228	845.06
327.457	1250.06
327.686	1520.06
327.914	1024.06
328.143	694.06
328.372	620.06
328.6	595.06
328.829	558.06
329.058	562.06
329.287	587.06
329.515	557.06
329.744	523.06
329.972	536.06
330.201	511.06
330.43	521.06
330.658	575.06
330.887	618.06
331.115	608.06
331.344	540.06
331.572	534.06
331.801	523.06
332.03	498.06
332.258	518.06
332.486	517.06
332.715	504.06
332.943	493.06
333.172	520.06
333.4	529.06
333.629	534.06
333.857	538.06
334.085	550.06
334.314	534.06
334.542	557.06
334.771	528.06
334.999	524.06
335.227	525.06
335.455	496.06
335.684	483.06
335.912	485.06
336.14	489.06
336.369	509.06
336.597	510.06
336.825	488.06
337.053	497.06
337.281	490.06
337.51	464.06
337.738	484.06
337.966	486.06
338.194	483.06
338.422	475.06
338.65	490.06
338.878	475.06
339.106	469.06
339.334	462.06
339.562	476.06
339.79	462.06
340.018	492.06
340.246	466.06
340.474	464.06
340.702	475.06
340.93	477.06
341.158	463.06
341.386	465.06
341.614	466.06
341.842	452.06
342.07	459.06
342.298	470.06
342.526	460.06
342.754	442.06
342.981	472.06
343.209	445.06
343.437	466.06
343.665	476.06
343.893	493.06
344.12	526.06
344.348	473.06
344.576	466.06
344.804	479.06
345.031	482.06
345.259	485.06
345.487	474.06
345.714	453.06
345.942	459.06
346.17	447.06
346.397	451.06
346.625	440.06
346.853	438.06
347.08	454.06
347.308	447.06
347.535	454.06
347.763	490.06
347.99	457.06
348.218	465.06
348.445	452.06
348.673	473.06
348.9	460.06
349.128	445.06
349.355	451.06
349.583	430.06
349.81	412.06
350.037	428.06
350.265	424.06
350.492	429.06
350.72	429.06
350.947	442.06
351.174	464.06
351.402	453.06
351.629	444.06
351.856	439.06
352.083	455.06
352.311	459.06
352.538	442.06
352.765	446.06
352.992	448.06
353.22	454.06
353.447	443.06
353.674	448.06
353.901	424.06
354.128	409.06
354.355	413.06
354.583	439.06
354.81	435.06
355.037	413.06
355.264	407.06
355.491	399.06
355.718	422.06
355.945	415.06
356.172	427.06
356.399	391.06
356.626	416.06
356.853	418.06
357.08	403.06
357.307	424.06
357.534	423.06
357.761	431.06
357.988	422.06
358.215	400.06
358.441	417.06
358.668	427.06
358.895	418.06
359.122	414.06
359.349	409.06
359.576	434.06
359.802	457.06
360.029	482.06
360.256	503.06
360.483	480.06
360.709	438.06
360.936	451.06
361.163	444.06
361.39	441.06
361.616	455.06
361.843	435.06
362.07	443.06
362.296	435.06
362.523	425.06
362.749	434.06
362.976	436.06
363.203	430.06
363.429	434.06
363.656	418.06
363.882	414.06
364.109	432.06
364.335	424.06
364.562	402.06
364.788	403.06
365.015	423.06
365.241	426.06
365.468	419.06
365.694	429.06
365.92	413.06
366.147	420.06
366.373	437.06
366.599	420.06
366.826	423.06
367.052	406.06
367.278	434.06
367.505	417.06
367.731	417.06
367.957	432.06
368.184	431.06
368.41	425.06
368.636	419.06
368.862	442.06
369.089	443.06
369.315	411.06
369.541	435.06
369.767	394.06
369.993	416.06
370.219	428.06
370.445	430.06
370.672	421.06
370.898	415.06
371.124	436.06
371.35	402.06
371.576	418.06
371.802	434.06
372.028	439.06
372.254	431.06
372.48	447.06
372.706	427.06
372.932	420.06
373.158	413.06
373.384	434.06
373.61	422.06
373.835	407.06
374.061	423.06
374.287	431.06
374.513	432.06
374.739	440.06
374.965	447.06
375.191	448.06
375.416	431.06
375.642	426.06
375.868	442.06
376.094	430.06
376.319	422.06
376.545	420.06
376.771	412.06
376.997	418.06
377.222	413.06
377.448	426.06
377.674	434.06
377.899	400.06
378.125	410.06
378.35	426.06
378.576	412.06
378.802	429.06
379.027	427.06
379.253	416.06
379.478	425.06
379.704	431.06
379.929	427.06
380.155	415.06
380.38	424.06
380.606	432.06
380.831	420.06
381.057	421.06
381.282	438.06
381.507	438.06
381.733	430.06
381.958	409.06
382.184	433.06
382.409	405.06
382.634	432.06
382.86	425.06
383.085	415.06
383.31	422.06
383.535	440.06
383.761	440.06
383.986	439.06
384.211	435.06
384.436	450.06
384.662	475.06
384.887	450.06
385.112	460.06
385.337	482.06
385.562	451.06
385.787	484.06
386.013	468.06
386.238	468.06
386.463	486.06
386.688	472.06
386.913	457.06
387.138	469.06
387.363	484.06
387.588	456.06
387.813	477.06
388.038	471.06
388.263	465.06
388.488	448.06
388.713	476.06
388.938	473.06
389.163	467.06
389.387	444.06
389.612	447.06
389.837	450.06
390.062	453.06
390.287	449.06
390.512	435.06
390.736	438.06
390.961	487.06
391.186	463.06
391.411	467.06
391.636	463.06
391.86	489.06
392.085	510.06
392.31	501.06
392.534	519.06
392.759	479.06
392.984	472.06
393.208	485.06
393.433	467.06
393.658	487.06
393.882	470.06
394.107	459.06
394.331	482.06
394.556	471.06
394.78	483.06
395.005	485.06
395.229	474.06
395.454	500.06
395.678	495.06
395.903	513.06
396.127	527.06
396.352	516.06
396.576	496.06
396.801	482.06
397.025	486.06
397.249	500.06
397.474	490.06
397.698	499.06
397.922	516.06
398.147	546.06
398.371	540.06
398.595	547.06
398.82	557.06
399.044	559.06
399.268	587.06
399.492	638.06
399.717	665.06
399.941	708.06
400.165	701.06
400.389	696.06
400.613	646.06
400.837	571.06
401.062	558.06
401.286	555.06
401.51	543.06
401.734	564.06
401.958	545.06
402.182	547.06
402.406	556.06
402.63	558.06
402.854	581.06
403.078	574.06
403.302	564.06
403.526	598.06
403.75	574.06
403.974	595.06
404.198	574.06
404.422	571.06
404.645	596.06
404.869	581.06
405.093	599.06
405.317	615.06
405.541	629.06
405.765	602.06
405.988	568.06
406.212	589.06
406.436	635.06
406.66	604.06
406.883	613.06
407.107	632.06
407.331	674.06
407.555	744.06
407.778	740.06
408.002	658.06
408.226	642.06
408.449	626.06
408.673	624.06
408.896	609.06
409.12	643.06
409.344	628.06
409.567	570.06
409.791	580.06
410.014	580.06
410.238	574.06
410.461	584.06
410.685	571.06
410.908	589.06
411.132	598.06
411.355	613.06
411.578	592.06
411.802	562.06
412.025	536.06
412.249	540.06
412.472	562.06
412.695	578.06
412.919	571.06
413.142	541.06
413.365	530.06
413.589	547.06
413.812	541.06
414.035	535.06
414.258	525.06
414.482	528.06
414.705	539.06
414.928	531.06
415.151	508.06
415.374	524.06
415.597	514.06
415.821	510.06
416.044	525.06
416.267	550.06
416.49	524.06
416.713	508.06
416.936	501.06
417.159	521.06
417.382	548.06
417.605	521.06
417.828	537.06
418.051	528.06
418.274	536.06
418.497	519.06
418.72	524.06
418.943	521.06
419.166	556.06
419.389	591.06
419.611	534.06
419.834	570.06
420.057	543.06
420.28	558.06
420.503	566.06
420.726	524.06
420.948	538.06
421.171	602.06
421.394	608.06
421.617	568.06
421.839	558.06
422.062	564.06
422.285	558.06
422.507	619.06
422.73	690.06
422.953	666.06
423.175	601.06
423.398	538.06
423.621	569.06
423.843	585.06
424.066	579.06
424.288	562.06
424.511	592.06
424.733	636.06
424.956	734.06
425.178	682.06
425.401	680.06
425.623	709.06
425.846	590.06
426.068	543.06
426.291	568.06
426.513	562.06
426.735	557.06
426.958	606.06
427.18	696.06
427.402	809.06
427.625	871.06
427.847	749.06
428.069	626.06
428.292	564.06
428.514	549.06
428.736	536.06
428.958	533.06
429.181	523.06
429.403	523.06
429.625	508.06
429.847	546.06
430.069	574.06
430.292	607.06
430.514	529.06
430.736	501.06
430.958	517.06
431.18	504.06
431.402	500.06
431.624	500.06
431.846	480.06
432.068	482.06
432.29	502.06
432.512	502.06
432.734	487.06
432.956	513.06
433.178	502.06
433.4	516.06
433.622	473.06
433.844	480.06
434.066	511.06
434.287	482.06
434.509	499.06
434.731	535.06
434.953	535.06
435.175	560.06
435.397	551.06
435.618	570.06
435.84	603.06
436.062	681.06
436.284	746.06
436.505	619.06
436.727	566.06
436.949	542.06
437.17	540.06
437.392	524.06
437.614	518.06
437.835	571.06
438.057	672.06
438.278	747.06
438.5	734.06
438.721	813.06
438.943	750.06
439.165	602.06
439.386	551.06
439.608	577.06
439.829	568.06
440.05	555.06
440.272	618.06
440.493	599.06
440.715	545.06
440.936	542.06
441.158	546.06
441.379	510.06
441.6	567.06
441.822	594.06
442.043	610.06
442.264	694.06
442.486	705.06
442.707	597.06
442.928	557.06
443.149	590.06
443.371	626.06
443.592	632.06
443.813	701.06
444.034	743.06
444.255	659.06
444.476	618.06
444.698	591.06
444.919	600.06
445.14	704.06
445.361	641.06
445.582	608.06
445.803	658.06
446.024	760.06
446.245	722.06
446.466	675.06
446.687	590.06
446.908	543.06
447.129	527.06
447.35	517.06
447.571	510.06
447.792	501.06
448.013	517.06
448.234	543.06
448.455	582.06
448.675	663.06
448.896	780.06
449.117	654.06
449.338	623.06
449.559	726.06
449.779	795.06
450	667.06
450.221	554.06
450.442	527.06
450.662	512.06
450.883	486.06
451.104	533.06
451.324	524.06
451.545	472.06
451.766	477.06
451.986	472.06
452.207	465.06
452.428	475.06
452.648	474.06
452.869	470.06
453.089	482.06
453.31	499.06
453.53	450.06
453.751	469.06
453.971	467.06
454.192	493.06
454.412	482.06
454.633	476.06
454.853	485.06
455.073	464.06
455.294	480.06
455.514	557.06
455.734	515.06
455.955	458.06
456.175	431.06
456.395	424.06
456.616	431.06
456.836	434.06
457.056	442.06
457.276	420.06
457.497	447.06
457.717	453.06
457.937	429.06
458.157	450.06
458.377	446.06
458.598	467.06
458.818	535.06
459.038	599.06
459.258	619.06
459.478	570.06
459.698	527.06
459.918	502.06
460.138	518.06
460.358	517.06
460.578	548.06
460.798	532.06
461.018	555.06
461.238	554.06
461.458	538.06
461.678	535.06
461.898	527.06
462.118	536.06
462.338	542.06
462.558	554.06
462.777	586.06
462.997	610.06
463.217	601.06
463.437	602.06
463.657	576.06
463.876	600.06
464.096	577.06
464.316	596.06
464.536	615.06
464.755	564.06
464.975	558.06
465.195	602.06
465.414	645.06
465.634	600.06
465.854	530.06
466.073	522.06
466.293	512.06
466.512	493.06
466.732	483.06
466.951	491.06
467.171	465.06
467.391	483.06
467.61	509.06
467.829	485.06
468.049	486.06
468.268	469.06
468.488	474.06
468.707	471.06
468.927	448.06
469.146	442.06
469.365	446.06
469.585	467.06
469.804	494.06
470.023	507.06
470.243	486.06
470.462	500.06
470.681	540.06
470.901	507.06
471.12	461.06
471.339	513.06
471.558	483.06
471.777	467.06
471.997	485.06
472.216	483.06
472.435	468.06
472.654	483.06
472.873	478.06
473.092	473.06
473.311	485.06
473.53	478.06
473.749	477.06
473.968	519.06
474.187	580.06
474.406	624.06
474.625	518.06
474.844	498.06
475.063	491.06
475.282	472.06
475.501	476.06
475.72	503.06
475.939	495.06
476.158	489.06
476.377	480.06
476.596	499.06
476.814	514.06
477.033	513.06
477.252	523.06
477.471	508.06
477.69	540.06
477.908	527.06
478.127	549.06
478.346	544.06
478.564	562.06
478.783	537.06
479.002	559.06
479.22	582.06
479.439	584.06
479.658	603.06
479.876	578.06
480.095	584.06
480.313	636.06
480.532	620.06
480.751	604.06
480.969	620.06
481.188	599.06
481.406	596.06
481.624	576.06
481.843	574.06
482.061	558.06
482.28	539.06
482.498	535.06
482.717	536.06
482.935	535.06
483.153	544.06
483.372	550.06
483.59	546.06
483.808	544.06
484.027	534.06
484.245	553.06
484.463	554.06
484.681	578.06
484.9	547.06
485.118	557.06
485.336	584.06
485.554	575.06
485.772	565.06
485.99	549.06
486.209	584.06
486.427	583.06
486.645	598.06
486.863	608.06
487.081	620.06
487.299	576.06
487.517	596.06
487.735	577.06
487.953	602.06
488.171	604.06
488.389	575.06
488.607	602.06
488.825	606.06
489.043	597.06
489.261	567.06
489.479	612.06
489.696	631.06
489.914	620.06
490.132	642.06
490.35	602.06
490.568	634.06
490.786	630.06
491.003	610.06
491.221	650.06
491.439	678.06
491.657	656.06
491.874	649.06
492.092	661.06
492.31	682.06
492.527	650.06
492.745	647.06
492.963	678.06
493.18	677.06
493.398	697.06
493.615	686.06
493.833	666.06
494.05	695.06
494.268	690.06
494.485	710.06
494.703	686.06
494.92	694.06
495.138	687.06
495.355	698.06
495.573	690.06
495.79	719.06
496.008	710.06
496.225	706.06
496.442	702.06
496.66	719.06
496.877	713.06
497.094	745.06
497.312	711.06
497.529	725.06
497.746	738.06
497.963	761.06
498.181	771.06
498.398	792.06
498.615	829.06
498.832	854.06
499.049	873.06
499.267	884.06
499.484	952.06
499.701	995.06
499.918	1047.06
500.135	1090.06
500.352	1170.06
500.569	1222.06
500.786	1214.06
501.003	1166.06
501.22	1093.06
501.437	1079.06
501.654	1014.06
501.871	995.06
