Data from 1985.PennyLincolnUp.Lamp.En5.5.200Scan.071819.P1_HRD10591_17-03-47-971.txt Node
Date: Thu Jul 18 17:03:47 EDT 2019
User: cochatt
Spectrometer: HR+D1059
Trigger mode: 1
Integration Time (sec): 1.000000E-1
Scans to average: 1
Electric dark correction enabled: true
Nonlinearity correction enabled: false
Boxcar width: 0
XAxis mode: Wavelengths
Number of Pixels in Spectrum: 2048
>>>>>Begin Spectral Data<<<<<
223.165	-9.38
223.4	-9.38
223.635	-9.38
223.869	-3.38
224.104	-9.38
224.338	-20.38
224.573	-20.38
224.808	-7.38
225.042	-14.38
225.277	-6.38
225.511	8.62
225.746	5.62
225.98	3.62
226.215	-0.38
226.449	9.62
226.683	16.62
226.918	20.62
227.152	26.62
227.387	21.62
227.621	28.62
227.856	34.62
228.09	33.62
228.324	51.62
228.559	59.62
228.793	57.62
229.027	108.62
229.262	125.62
229.496	114.62
229.73	120.62
229.964	160.62
230.199	119.62
230.433	124.62
230.667	112.62
230.901	103.62
231.136	101.62
231.37	117.62
231.604	111.62
231.838	123.62
232.072	104.62
232.306	95.62
232.541	122.62
232.775	130.62
233.009	133.62
233.243	123.62
233.477	123.62
233.711	118.62
233.945	114.62
234.179	114.62
234.413	113.62
234.647	119.62
234.881	126.62
235.115	122.62
235.349	125.62
235.583	123.62
235.817	130.62
236.051	129.62
236.285	140.62
236.519	120.62
236.753	114.62
236.987	130.62
237.221	191.62
237.455	231.62
237.689	177.62
237.922	130.62
238.156	130.62
238.39	132.62
238.624	132.62
238.858	128.62
239.091	115.62
239.325	125.62
239.559	132.62
239.793	137.62
240.027	144.62
240.26	127.62
240.494	153.62
240.728	148.62
240.961	157.62
241.195	141.62
241.429	151.62
241.662	145.62
241.896	141.62
242.13	135.62
242.363	132.62
242.597	153.62
242.83	145.62
243.064	135.62
243.298	144.62
243.531	131.62
243.765	139.62
243.998	138.62
244.232	140.62
244.465	134.62
244.699	148.62
244.932	147.62
245.166	153.62
245.399	147.62
245.633	152.62
245.866	160.62
246.099	161.62
246.333	137.62
246.566	156.62
246.8	168.62
247.033	152.62
247.266	155.62
247.5	167.62
247.733	179.62
247.966	172.62
248.2	176.62
248.433	162.62
248.666	180.62
248.899	180.62
249.133	179.62
249.366	226.62
249.599	203.62
249.832	208.62
250.066	193.62
250.299	175.62
250.532	202.62
250.765	232.62
250.998	243.62
251.231	227.62
251.465	207.62
251.698	192.62
251.931	202.62
252.164	185.62
252.397	197.62
252.63	199.62
252.863	195.62
253.096	216.62
253.329	222.62
253.562	226.62
253.795	220.62
254.028	219.62
254.261	212.62
254.494	243.62
254.727	267.62
254.96	276.62
255.193	264.62
255.426	255.62
255.659	239.62
255.892	240.62
256.124	256.62
256.357	255.62
256.59	251.62
256.823	220.62
257.056	221.62
257.289	221.62
257.521	219.62
257.754	220.62
257.987	213.62
258.22	218.62
258.452	215.62
258.685	228.62
258.918	215.62
259.151	227.62
259.383	224.62
259.616	231.62
259.849	240.62
260.081	255.62
260.314	246.62
260.547	251.62
260.779	258.62
261.012	247.62
261.244	244.62
261.477	239.62
261.71	228.62
261.942	246.62
262.175	239.62
262.407	228.62
262.64	243.62
262.872	219.62
263.105	216.62
263.337	208.62
263.57	203.62
263.802	223.62
264.035	225.62
264.267	235.62
264.499	215.62
264.732	223.62
264.964	241.62
265.197	240.62
265.429	237.62
265.661	249.62
265.894	233.62
266.126	246.62
266.358	235.62
266.591	227.62
266.823	245.62
267.055	249.62
267.287	239.62
267.52	249.62
267.752	257.62
267.984	248.62
268.216	255.62
268.448	246.62
268.681	277.62
268.913	265.62
269.145	290.62
269.377	319.62
269.609	301.62
269.841	276.62
270.073	309.62
270.306	314.62
270.538	328.62
270.77	347.62
271.002	334.62
271.234	292.62
271.466	311.62
271.698	336.62
271.93	341.62
272.162	357.62
272.394	329.62
272.626	325.62
272.858	300.62
273.09	299.62
273.322	277.62
273.553	287.62
273.785	287.62
274.017	274.62
274.249	291.62
274.481	282.62
274.713	298.62
274.945	268.62
275.176	275.62
275.408	295.62
275.64	288.62
275.872	275.62
276.104	303.62
276.335	289.62
276.567	299.62
276.799	298.62
277.031	320.62
277.262	345.62
277.494	341.62
277.726	328.62
277.957	297.62
278.189	312.62
278.421	282.62
278.652	287.62
278.884	292.62
279.115	297.62
279.347	295.62
279.579	307.62
279.81	301.62
280.042	274.62
280.273	290.62
280.505	295.62
280.736	278.62
280.968	300.62
281.199	305.62
281.431	298.62
281.662	298.62
281.894	301.62
282.125	295.62
282.356	327.62
282.588	329.62
282.819	337.62
283.051	301.62
283.282	302.62
283.513	313.62
283.745	313.62
283.976	317.62
284.207	324.62
284.439	317.62
284.67	310.62
284.901	316.62
285.132	314.62
285.364	323.62
285.595	323.62
285.826	307.62
286.057	318.62
286.288	301.62
286.52	332.62
286.751	329.62
286.982	333.62
287.213	311.62
287.444	319.62
287.675	323.62
287.906	321.62
288.138	338.62
288.369	336.62
288.6	335.62
288.831	331.62
289.062	338.62
289.293	313.62
289.524	332.62
289.755	314.62
289.986	316.62
290.217	330.62
290.448	333.62
290.679	328.62
290.91	325.62
291.141	308.62
291.371	345.62
291.602	312.62
291.833	335.62
292.064	324.62
292.295	320.62
292.526	328.62
292.757	341.62
292.987	329.62
293.218	318.62
293.449	343.62
293.68	340.62
293.91	330.62
294.141	336.62
294.372	335.62
294.603	332.62
294.833	329.62
295.064	329.62
295.295	344.62
295.525	338.62
295.756	356.62
295.987	365.62
296.217	385.62
296.448	360.62
296.679	345.62
296.909	336.62
297.14	327.62
297.37	351.62
297.601	341.62
297.831	354.62
298.062	348.62
298.292	349.62
298.523	342.62
298.753	362.62
298.984	351.62
299.214	372.62
299.445	374.62
299.675	356.62
299.905	351.62
300.136	357.62
300.366	357.62
300.597	371.62
300.827	377.62
301.057	383.62
301.288	385.62
301.518	385.62
301.748	344.62
301.979	385.62
302.209	382.62
302.439	391.62
302.669	367.62
302.9	370.62
303.13	380.62
303.36	373.62
303.59	372.62
303.82	401.62
304.051	381.62
304.281	356.62
304.511	370.62
304.741	374.62
304.971	379.62
305.201	371.62
305.431	364.62
305.661	371.62
305.891	351.62
306.121	385.62
306.352	369.62
306.582	393.62
306.812	392.62
307.042	391.62
307.272	371.62
307.502	379.62
307.731	381.62
307.961	382.62
308.191	375.62
308.421	381.62
308.651	372.62
308.881	381.62
309.111	406.62
309.341	405.62
309.571	402.62
309.8	403.62
310.03	433.62
310.26	412.62
310.49	433.62
310.72	426.62
310.949	431.62
311.179	458.62
311.409	413.62
311.639	432.62
311.868	411.62
312.098	420.62
312.328	420.62
312.557	444.62
312.787	460.62
313.017	449.62
313.246	450.62
313.476	428.62
313.706	428.62
313.935	422.62
314.165	456.62
314.394	450.62
314.624	444.62
314.853	438.62
315.083	437.62
315.312	426.62
315.542	427.62
315.771	432.62
316.001	423.62
316.23	447.62
316.46	456.62
316.689	417.62
316.919	430.62
317.148	436.62
317.377	443.62
317.607	428.62
317.836	427.62
318.065	420.62
318.295	402.62
318.524	414.62
318.753	420.62
318.983	429.62
319.212	411.62
319.441	438.62
319.67	433.62
319.9	431.62
320.129	440.62
320.358	451.62
320.587	441.62
320.816	447.62
321.046	459.62
321.275	436.62
321.504	439.62
321.733	473.62
321.962	454.62
322.191	463.62
322.42	458.62
322.649	508.62
322.878	505.62
323.108	507.62
323.337	529.62
323.566	543.62
323.795	557.62
324.024	596.62
324.253	726.62
324.482	989.62
324.71	1483.62
324.939	2143.62
325.168	1801.62
325.397	947.62
325.626	687.62
325.855	604.62
326.084	561.62
326.313	561.62
326.542	570.62
326.77	585.62
326.999	675.62
327.228	895.62
327.457	1329.62
327.686	1569.62
327.914	1062.62
328.143	739.62
328.372	639.62
328.6	641.62
328.829	594.62
329.058	629.62
329.287	623.62
329.515	598.62
329.744	565.62
329.972	567.62
330.201	598.62
330.43	635.62
330.658	651.62
330.887	658.62
331.115	649.62
331.344	560.62
331.572	525.62
331.801	566.62
332.03	549.62
332.258	539.62
332.486	537.62
332.715	552.62
332.943	515.62
333.172	569.62
333.4	545.62
333.629	578.62
333.857	592.62
334.085	598.62
334.314	596.62
334.542	618.62
334.771	651.62
334.999	589.62
335.227	554.62
335.455	556.62
335.684	555.62
335.912	534.62
336.14	525.62
336.369	516.62
336.597	501.62
336.825	540.62
337.053	520.62
337.281	488.62
337.51	513.62
337.738	501.62
337.966	512.62
338.194	503.62
338.422	505.62
338.65	481.62
338.878	491.62
339.106	498.62
339.334	515.62
339.562	487.62
339.79	497.62
340.018	479.62
340.246	482.62
340.474	501.62
340.702	497.62
340.93	483.62
341.158	464.62
341.386	485.62
341.614	493.62
341.842	476.62
342.07	484.62
342.298	464.62
342.526	460.62
342.754	454.62
342.981	464.62
343.209	470.62
343.437	493.62
343.665	480.62
343.893	485.62
344.12	513.62
344.348	504.62
344.576	501.62
344.804	515.62
345.031	481.62
345.259	495.62
345.487	506.62
345.714	484.62
345.942	479.62
346.17	467.62
346.397	447.62
346.625	448.62
346.853	470.62
347.08	456.62
347.308	486.62
347.535	459.62
347.763	485.62
347.99	480.62
348.218	472.62
348.445	488.62
348.673	472.62
348.9	475.62
349.128	440.62
349.355	453.62
349.583	441.62
349.81	453.62
350.037	451.62
350.265	439.62
350.492	440.62
350.72	456.62
350.947	467.62
351.174	470.62
351.402	453.62
351.629	450.62
351.856	458.62
352.083	471.62
352.311	487.62
352.538	491.62
352.765	465.62
352.992	446.62
353.22	445.62
353.447	447.62
353.674	447.62
353.901	441.62
354.128	434.62
354.355	423.62
354.583	432.62
354.81	454.62
355.037	439.62
355.264	448.62
355.491	429.62
355.718	436.62
355.945	435.62
356.172	425.62
356.399	431.62
356.626	417.62
356.853	407.62
357.08	431.62
357.307	428.62
357.534	412.62
357.761	413.62
357.988	433.62
358.215	425.62
358.441	421.62
358.668	421.62
358.895	444.62
359.122	434.62
359.349	445.62
359.576	443.62
359.802	464.62
360.029	482.62
360.256	507.62
360.483	495.62
360.709	443.62
360.936	454.62
361.163	449.62
361.39	471.62
361.616	468.62
361.843	431.62
362.07	438.62
362.296	451.62
362.523	466.62
362.749	461.62
362.976	455.62
363.203	469.62
363.429	441.62
363.656	413.62
363.882	437.62
364.109	436.62
364.335	429.62
364.562	443.62
364.788	425.62
365.015	436.62
365.241	445.62
365.468	428.62
365.694	461.62
365.92	442.62
366.147	448.62
366.373	422.62
366.599	421.62
366.826	427.62
367.052	447.62
367.278	426.62
367.505	426.62
367.731	417.62
367.957	441.62
368.184	435.62
368.41	419.62
368.636	458.62
368.862	450.62
369.089	461.62
369.315	437.62
369.541	423.62
369.767	440.62
369.993	415.62
370.219	425.62
370.445	437.62
370.672	439.62
370.898	425.62
371.124	437.62
371.35	442.62
371.576	434.62
371.802	428.62
372.028	428.62
372.254	428.62
372.48	447.62
372.706	448.62
372.932	440.62
373.158	427.62
373.384	448.62
373.61	443.62
373.835	436.62
374.061	438.62
374.287	431.62
374.513	440.62
374.739	444.62
374.965	468.62
375.191	449.62
375.416	429.62
375.642	447.62
375.868	433.62
376.094	450.62
376.319	429.62
376.545	432.62
376.771	428.62
376.997	440.62
377.222	428.62
377.448	424.62
377.674	419.62
377.899	424.62
378.125	421.62
378.35	422.62
378.576	431.62
378.802	443.62
379.027	425.62
379.253	444.62
379.478	404.62
379.704	433.62
379.929	428.62
380.155	419.62
380.38	431.62
380.606	439.62
380.831	429.62
381.057	441.62
381.282	443.62
381.507	432.62
381.733	434.62
381.958	424.62
382.184	435.62
382.409	434.62
382.634	451.62
382.86	456.62
383.085	441.62
383.31	442.62
383.535	465.62
383.761	451.62
383.986	453.62
384.211	449.62
384.436	481.62
384.662	463.62
384.887	482.62
385.112	442.62
385.337	473.62
385.562	480.62
385.787	502.62
386.013	464.62
386.238	481.62
386.463	492.62
386.688	511.62
386.913	476.62
387.138	497.62
387.363	481.62
387.588	462.62
387.813	500.62
388.038	465.62
388.263	474.62
388.488	481.62
388.713	489.62
388.938	486.62
389.163	499.62
389.387	484.62
389.612	497.62
389.837	485.62
390.062	460.62
390.287	479.62
390.512	469.62
390.736	468.62
390.961	481.62
391.186	488.62
391.411	493.62
391.636	501.62
391.86	509.62
392.085	500.62
392.31	514.62
392.534	515.62
392.759	499.62
392.984	506.62
393.208	467.62
393.433	483.62
393.658	480.62
393.882	480.62
394.107	514.62
394.331	493.62
394.556	483.62
394.78	491.62
395.005	493.62
395.229	500.62
395.454	493.62
395.678	515.62
395.903	496.62
396.127	529.62
396.352	534.62
396.576	507.62
396.801	492.62
397.025	501.62
397.249	514.62
397.474	511.62
397.698	532.62
397.922	531.62
398.147	549.62
398.371	545.62
398.595	537.62
398.82	555.62
399.044	573.62
399.268	597.62
399.492	645.62
399.717	692.62
399.941	689.62
400.165	700.62
400.389	698.62
400.613	626.62
400.837	620.62
401.062	599.62
401.286	584.62
401.51	543.62
401.734	558.62
401.958	556.62
402.182	548.62
402.406	578.62
402.63	616.62
402.854	575.62
403.078	570.62
403.302	595.62
403.526	618.62
403.75	586.62
403.974	593.62
404.198	571.62
404.422	605.62
404.645	616.62
404.869	621.62
405.093	667.62
405.317	655.62
405.541	719.62
405.765	654.62
405.988	618.62
406.212	621.62
406.436	655.62
406.66	649.62
406.883	632.62
407.107	661.62
407.331	704.62
407.555	784.62
407.778	754.62
408.002	708.62
408.226	658.62
408.449	647.62
408.673	639.62
408.896	635.62
409.12	676.62
409.344	689.62
409.567	607.62
409.791	586.62
410.014	568.62
410.238	567.62
410.461	582.62
410.685	584.62
410.908	580.62
411.132	642.62
411.355	642.62
411.578	630.62
411.802	569.62
412.025	563.62
412.249	600.62
412.472	613.62
412.695	640.62
412.919	645.62
413.142	601.62
413.365	583.62
413.589	568.62
413.812	559.62
414.035	578.62
414.258	560.62
414.482	578.62
414.705	547.62
414.928	541.62
415.151	554.62
415.374	556.62
415.597	516.62
415.821	549.62
416.044	557.62
416.267	537.62
416.49	535.62
416.713	528.62
416.936	551.62
417.159	547.62
417.382	528.62
417.605	549.62
417.828	550.62
418.051	594.62
418.274	549.62
418.497	552.62
418.72	526.62
418.943	524.62
419.166	551.62
419.389	604.62
419.611	591.62
419.834	588.62
420.057	596.62
420.28	599.62
420.503	554.62
420.726	566.62
420.948	571.62
421.171	611.62
421.394	651.62
421.617	581.62
421.839	583.62
422.062	568.62
422.285	571.62
422.507	633.62
422.73	714.62
422.953	704.62
423.175	643.62
423.398	601.62
423.621	607.62
423.843	614.62
424.066	608.62
424.288	589.62
424.511	596.62
424.733	659.62
424.956	728.62
425.178	730.62
425.401	713.62
425.623	736.62
425.846	603.62
426.068	587.62
426.291	601.62
426.513	601.62
426.735	585.62
426.958	611.62
427.18	692.62
427.402	839.62
427.625	907.62
427.847	796.62
428.069	676.62
428.292	633.62
428.514	565.62
428.736	543.62
428.958	539.62
429.181	535.62
429.403	544.62
429.625	556.62
429.847	573.62
430.069	645.62
430.292	632.62
430.514	530.62
430.736	521.62
430.958	522.62
431.18	529.62
431.402	513.62
431.624	516.62
431.846	523.62
432.068	494.62
432.29	521.62
432.512	493.62
432.734	527.62
432.956	507.62
433.178	519.62
433.4	530.62
433.622	523.62
433.844	521.62
434.066	516.62
434.287	527.62
434.509	527.62
434.731	551.62
434.953	538.62
435.175	558.62
435.397	601.62
435.618	581.62
435.84	630.62
436.062	703.62
436.284	765.62
436.505	631.62
436.727	577.62
436.949	529.62
437.17	513.62
437.392	538.62
437.614	560.62
437.835	564.62
438.057	683.62
438.278	759.62
438.5	752.62
438.721	829.62
438.943	779.62
439.165	627.62
439.386	584.62
439.608	602.62
439.829	584.62
440.05	594.62
440.272	676.62
440.493	608.62
440.715	579.62
440.936	555.62
441.158	546.62
441.379	553.62
441.6	569.62
441.822	601.62
442.043	619.62
442.264	706.62
442.486	717.62
442.707	637.62
442.928	593.62
443.149	603.62
443.371	626.62
443.592	665.62
443.813	747.62
444.034	823.62
444.255	673.62
444.476	637.62
444.698	615.62
444.919	620.62
445.14	740.62
445.361	648.62
445.582	639.62
445.803	663.62
446.024	786.62
446.245	781.62
446.466	716.62
446.687	644.62
446.908	570.62
447.129	560.62
447.35	553.62
447.571	550.62
447.792	528.62
448.013	531.62
448.234	549.62
448.455	606.62
448.675	691.62
448.896	834.62
449.117	705.62
449.338	651.62
449.559	753.62
449.779	861.62
450	676.62
450.221	549.62
450.442	540.62
450.662	523.62
450.883	530.62
451.104	560.62
451.324	545.62
451.545	500.62
451.766	491.62
451.986	485.62
452.207	470.62
452.428	477.62
452.648	499.62
452.869	472.62
453.089	497.62
453.31	527.62
453.53	509.62
453.751	459.62
453.971	482.62
454.192	496.62
454.412	497.62
454.633	476.62
454.853	484.62
455.073	474.62
455.294	493.62
455.514	565.62
455.734	535.62
455.955	451.62
456.175	470.62
456.395	447.62
456.616	427.62
456.836	463.62
457.056	433.62
457.276	451.62
457.497	462.62
457.717	448.62
457.937	455.62
458.157	493.62
458.377	468.62
458.598	479.62
458.818	552.62
459.038	619.62
459.258	640.62
459.478	552.62
459.698	533.62
459.918	572.62
460.138	545.62
460.358	541.62
460.578	542.62
460.798	575.62
461.018	554.62
461.238	543.62
461.458	547.62
461.678	522.62
461.898	529.62
462.118	513.62
462.338	564.62
462.558	555.62
462.777	584.62
462.997	628.62
463.217	617.62
463.437	632.62
463.657	612.62
463.876	602.62
464.096	608.62
464.316	570.62
464.536	608.62
464.755	611.62
464.975	592.62
465.195	620.62
465.414	660.62
465.634	575.62
465.854	523.62
466.073	553.62
466.293	520.62
466.512	488.62
466.732	519.62
466.951	500.62
467.171	485.62
467.391	513.62
467.61	485.62
467.829	515.62
468.049	508.62
468.268	487.62
468.488	493.62
468.707	497.62
468.927	511.62
469.146	473.62
469.365	484.62
469.585	485.62
469.804	509.62
470.023	495.62
470.243	496.62
470.462	514.62
470.681	522.62
470.901	530.62
471.12	516.62
471.339	503.62
471.558	503.62
471.777	517.62
471.997	496.62
472.216	500.62
472.435	539.62
472.654	535.62
472.873	522.62
473.092	501.62
473.311	504.62
473.53	514.62
473.749	498.62
473.968	558.62
474.187	635.62
474.406	639.62
474.625	545.62
474.844	522.62
475.063	497.62
475.282	492.62
475.501	511.62
475.72	520.62
475.939	511.62
476.158	524.62
476.377	514.62
476.596	508.62
476.814	517.62
477.033	534.62
477.252	527.62
477.471	518.62
477.69	521.62
477.908	550.62
478.127	577.62
478.346	564.62
478.564	563.62
478.783	565.62
479.002	585.62
479.22	591.62
479.439	594.62
479.658	592.62
479.876	604.62
480.095	639.62
480.313	665.62
480.532	613.62
480.751	634.62
480.969	630.62
481.188	670.62
481.406	705.62
481.624	628.62
481.843	603.62
482.061	579.62
482.28	604.62
482.498	574.62
482.717	584.62
482.935	574.62
483.153	587.62
483.372	577.62
483.59	571.62
483.808	568.62
484.027	572.62
484.245	586.62
484.463	586.62
484.681	607.62
484.9	585.62
485.118	598.62
485.336	592.62
485.554	609.62
485.772	590.62
485.99	612.62
486.209	591.62
486.427	617.62
486.645	620.62
486.863	635.62
487.081	625.62
487.299	623.62
487.517	631.62
487.735	600.62
487.953	607.62
488.171	600.62
488.389	610.62
488.607	617.62
488.825	652.62
489.043	631.62
489.261	639.62
489.479	644.62
489.696	633.62
489.914	633.62
490.132	656.62
490.35	638.62
490.568	649.62
490.786	684.62
491.003	674.62
491.221	675.62
491.439	676.62
491.657	707.62
491.874	721.62
492.092	725.62
492.31	704.62
492.527	692.62
492.745	730.62
492.963	737.62
493.18	737.62
493.398	747.62
493.615	753.62
493.833	754.62
494.05	755.62
494.268	743.62
494.485	742.62
494.703	736.62
494.92	730.62
495.138	745.62
495.355	739.62
495.573	752.62
495.79	746.62
496.008	737.62
496.225	725.62
496.442	753.62
496.66	737.62
496.877	759.62
497.094	711.62
497.312	716.62
497.529	740.62
497.746	794.62
497.963	773.62
498.181	812.62
498.398	826.62
498.615	860.62
498.832	864.62
499.049	910.62
499.267	947.62
499.484	968.62
499.701	1029.62
499.918	1107.62
500.135	1145.62
500.352	1184.62
500.569	1252.62
500.786	1221.62
501.003	1197.62
501.22	1135.62
501.437	1094.62
501.654	1051.62
501.871	1010.62
