Data from 1985.PennyLincolnUp.Lamp.En5.5.200Scan.071819.P1_HRD10591_17-02-23-970.txt Node
Date: Thu Jul 18 17:02:23 EDT 2019
User: cochatt
Spectrometer: HR+D1059
Trigger mode: 1
Integration Time (sec): 1.000000E-1
Scans to average: 1
Electric dark correction enabled: true
Nonlinearity correction enabled: false
Boxcar width: 0
XAxis mode: Wavelengths
Number of Pixels in Spectrum: 2048
>>>>>Begin Spectral Data<<<<<
223.165	-3.56
223.4	-3.56
223.635	-3.56
223.869	-25.56
224.104	-20.56
224.338	-21.56
224.573	-24.56
224.808	-8.56
225.042	-19.56
225.277	-4.56
225.511	3.44
225.746	6.44
225.98	0.44
226.215	22.44
226.449	22.44
226.683	19.44
226.918	25.44
227.152	28.44
227.387	32.44
227.621	40.44
227.856	42.44
228.09	51.44
228.324	36.44
228.559	39.44
228.793	56.44
229.027	97.44
229.262	98.44
229.496	96.44
229.73	123.44
229.964	145.44
230.199	125.44
230.433	103.44
230.667	109.44
230.901	118.44
231.136	93.44
231.37	105.44
231.604	104.44
231.838	88.44
232.072	117.44
232.306	104.44
232.541	114.44
232.775	123.44
233.009	119.44
233.243	120.44
233.477	130.44
233.711	117.44
233.945	117.44
234.179	111.44
234.413	117.44
234.647	97.44
234.881	101.44
235.115	105.44
235.349	98.44
235.583	108.44
235.817	129.44
236.051	119.44
236.285	116.44
236.519	105.44
236.753	123.44
236.987	129.44
237.221	170.44
237.455	197.44
237.689	185.44
237.922	141.44
238.156	117.44
238.39	126.44
238.624	125.44
238.858	125.44
239.091	119.44
239.325	123.44
239.559	107.44
239.793	109.44
240.027	116.44
240.26	139.44
240.494	147.44
240.728	134.44
240.961	157.44
241.195	145.44
241.429	132.44
241.662	126.44
241.896	127.44
242.13	118.44
242.363	131.44
242.597	139.44
242.83	134.44
243.064	133.44
243.298	131.44
243.531	133.44
243.765	153.44
243.998	133.44
244.232	134.44
244.465	139.44
244.699	126.44
244.932	146.44
245.166	145.44
245.399	147.44
245.633	137.44
245.866	144.44
246.099	140.44
246.333	147.44
246.566	141.44
246.8	152.44
247.033	135.44
247.266	143.44
247.5	151.44
247.733	170.44
247.966	161.44
248.2	162.44
248.433	160.44
248.666	177.44
248.899	193.44
249.133	190.44
249.366	192.44
249.599	187.44
249.832	164.44
250.066	161.44
250.299	161.44
250.532	184.44
250.765	184.44
250.998	218.44
251.231	198.44
251.465	207.44
251.698	197.44
251.931	184.44
252.164	172.44
252.397	181.44
252.63	168.44
252.863	189.44
253.096	209.44
253.329	212.44
253.562	215.44
253.795	204.44
254.028	207.44
254.261	196.44
254.494	202.44
254.727	239.44
254.96	263.44
255.193	242.44
255.426	216.44
255.659	209.44
255.892	205.44
256.124	204.44
256.357	213.44
256.59	195.44
256.823	188.44
257.056	199.44
257.289	200.44
257.521	201.44
257.754	216.44
257.987	209.44
258.22	199.44
258.452	204.44
258.685	205.44
258.918	209.44
259.151	190.44
259.383	202.44
259.616	213.44
259.849	207.44
260.081	225.44
260.314	239.44
260.547	261.44
260.779	212.44
261.012	219.44
261.244	215.44
261.477	215.44
261.71	225.44
261.942	216.44
262.175	234.44
262.407	212.44
262.64	213.44
262.872	202.44
263.105	199.44
263.337	193.44
263.57	201.44
263.802	217.44
264.035	204.44
264.267	197.44
264.499	207.44
264.732	226.44
264.964	215.44
265.197	209.44
265.429	208.44
265.661	205.44
265.894	200.44
266.126	226.44
266.358	213.44
266.591	228.44
266.823	203.44
267.055	220.44
267.287	218.44
267.52	233.44
267.752	231.44
267.984	218.44
268.216	229.44
268.448	236.44
268.681	237.44
268.913	239.44
269.145	247.44
269.377	262.44
269.609	264.44
269.841	266.44
270.073	256.44
270.306	276.44
270.538	304.44
270.77	297.44
271.002	300.44
271.234	282.44
271.466	292.44
271.698	295.44
271.93	301.44
272.162	303.44
272.394	309.44
272.626	288.44
272.858	281.44
273.09	265.44
273.322	286.44
273.553	250.44
273.785	269.44
274.017	251.44
274.249	259.44
274.481	285.44
274.713	245.44
274.945	287.44
275.176	271.44
275.408	269.44
275.64	259.44
275.872	261.44
276.104	272.44
276.335	277.44
276.567	300.44
276.799	277.44
277.031	278.44
277.262	302.44
277.494	298.44
277.726	305.44
277.957	293.44
278.189	287.44
278.421	286.44
278.652	289.44
278.884	272.44
279.115	266.44
279.347	281.44
279.579	266.44
279.81	259.44
280.042	262.44
280.273	261.44
280.505	271.44
280.736	277.44
280.968	271.44
281.199	278.44
281.431	276.44
281.662	288.44
281.894	280.44
282.125	273.44
282.356	292.44
282.588	307.44
282.819	307.44
283.051	298.44
283.282	295.44
283.513	296.44
283.745	276.44
283.976	292.44
284.207	270.44
284.439	303.44
284.67	289.44
284.901	281.44
285.132	285.44
285.364	295.44
285.595	296.44
285.826	285.44
286.057	285.44
286.288	278.44
286.52	271.44
286.751	285.44
286.982	309.44
287.213	290.44
287.444	303.44
287.675	306.44
287.906	314.44
288.138	286.44
288.369	309.44
288.6	333.44
288.831	308.44
289.062	325.44
289.293	316.44
289.524	315.44
289.755	312.44
289.986	313.44
290.217	286.44
290.448	297.44
290.679	304.44
290.91	310.44
291.141	282.44
291.371	305.44
291.602	313.44
291.833	299.44
292.064	308.44
292.295	314.44
292.526	304.44
292.757	316.44
292.987	304.44
293.218	307.44
293.449	313.44
293.68	315.44
293.91	287.44
294.141	303.44
294.372	319.44
294.603	319.44
294.833	307.44
295.064	316.44
295.295	322.44
295.525	299.44
295.756	323.44
295.987	311.44
296.217	349.44
296.448	340.44
296.679	326.44
296.909	319.44
297.14	310.44
297.37	331.44
297.601	309.44
297.831	327.44
298.062	307.44
298.292	328.44
298.523	329.44
298.753	328.44
298.984	343.44
299.214	326.44
299.445	335.44
299.675	335.44
299.905	340.44
300.136	337.44
300.366	332.44
300.597	343.44
300.827	332.44
301.057	339.44
301.288	345.44
301.518	347.44
301.748	341.44
301.979	350.44
302.209	360.44
302.439	358.44
302.669	357.44
302.9	345.44
303.13	342.44
303.36	326.44
303.59	361.44
303.82	376.44
304.051	361.44
304.281	349.44
304.511	355.44
304.741	348.44
304.971	359.44
305.201	356.44
305.431	357.44
305.661	345.44
305.891	325.44
306.121	347.44
306.352	345.44
306.582	347.44
306.812	365.44
307.042	349.44
307.272	344.44
307.502	336.44
307.731	363.44
307.961	383.44
308.191	361.44
308.421	346.44
308.651	357.44
308.881	358.44
309.111	341.44
309.341	372.44
309.571	375.44
309.8	369.44
310.03	396.44
310.26	373.44
310.49	385.44
310.72	389.44
310.949	409.44
311.179	388.44
311.409	400.44
311.639	406.44
311.868	398.44
312.098	378.44
312.328	382.44
312.557	387.44
312.787	423.44
313.017	419.44
313.246	413.44
313.476	408.44
313.706	401.44
313.935	420.44
314.165	420.44
314.394	415.44
314.624	436.44
314.853	403.44
315.083	423.44
315.312	395.44
315.542	384.44
315.771	393.44
316.001	386.44
316.23	388.44
316.46	402.44
316.689	397.44
316.919	399.44
317.148	377.44
317.377	391.44
317.607	397.44
317.836	396.44
318.065	396.44
318.295	390.44
318.524	409.44
318.753	390.44
318.983	401.44
319.212	405.44
319.441	384.44
319.67	403.44
319.9	389.44
320.129	396.44
320.358	400.44
320.587	401.44
320.816	420.44
321.046	403.44
321.275	419.44
321.504	405.44
321.733	412.44
321.962	424.44
322.191	422.44
322.42	431.44
322.649	441.44
322.878	463.44
323.108	462.44
323.337	467.44
323.566	493.44
323.795	534.44
324.024	572.44
324.253	659.44
324.482	903.44
324.71	1363.44
324.939	1905.44
325.168	1627.44
325.397	844.44
325.626	633.44
325.855	546.44
326.084	508.44
326.313	484.44
326.542	479.44
326.77	556.44
326.999	613.44
327.228	813.44
327.457	1176.44
327.686	1434.44
327.914	962.44
328.143	655.44
328.372	612.44
328.6	561.44
328.829	527.44
329.058	543.44
329.287	583.44
329.515	546.44
329.744	496.44
329.972	501.44
330.201	495.44
330.43	522.44
330.658	533.44
330.887	581.44
331.115	575.44
331.344	535.44
331.572	499.44
331.801	493.44
332.03	511.44
332.258	485.44
332.486	477.44
332.715	478.44
332.943	497.44
333.172	507.44
333.4	503.44
333.629	505.44
333.857	525.44
334.085	504.44
334.314	497.44
334.542	508.44
334.771	528.44
334.999	485.44
335.227	498.44
335.455	484.44
335.684	479.44
335.912	474.44
336.14	480.44
336.369	470.44
336.597	484.44
336.825	475.44
337.053	466.44
337.281	454.44
337.51	438.44
337.738	458.44
337.966	461.44
338.194	466.44
338.422	477.44
338.65	435.44
338.878	442.44
339.106	454.44
339.334	437.44
339.562	441.44
339.79	473.44
340.018	449.44
340.246	433.44
340.474	462.44
340.702	454.44
340.93	447.44
341.158	448.44
341.386	455.44
341.614	434.44
341.842	453.44
342.07	442.44
342.298	445.44
342.526	442.44
342.754	420.44
342.981	436.44
343.209	436.44
343.437	459.44
343.665	453.44
343.893	467.44
344.12	461.44
344.348	492.44
344.576	469.44
344.804	459.44
345.031	465.44
345.259	467.44
345.487	470.44
345.714	451.44
345.942	447.44
346.17	464.44
346.397	434.44
346.625	435.44
346.853	425.44
347.08	423.44
347.308	417.44
347.535	443.44
347.763	425.44
347.99	429.44
348.218	436.44
348.445	434.44
348.673	438.44
348.9	413.44
349.128	420.44
349.355	413.44
349.583	401.44
349.81	409.44
350.037	422.44
350.265	442.44
350.492	410.44
350.72	407.44
350.947	415.44
351.174	416.44
351.402	429.44
351.629	428.44
351.856	431.44
352.083	425.44
352.311	441.44
352.538	431.44
352.765	442.44
352.992	427.44
353.22	411.44
353.447	430.44
353.674	396.44
353.901	404.44
354.128	384.44
354.355	393.44
354.583	416.44
354.81	411.44
355.037	417.44
355.264	397.44
355.491	385.44
355.718	395.44
355.945	396.44
356.172	410.44
356.399	389.44
356.626	411.44
356.853	403.44
357.08	379.44
357.307	421.44
357.534	402.44
357.761	394.44
357.988	396.44
358.215	399.44
358.441	392.44
358.668	394.44
358.895	409.44
359.122	410.44
359.349	415.44
359.576	417.44
359.802	429.44
360.029	449.44
360.256	445.44
360.483	451.44
360.709	427.44
360.936	410.44
361.163	425.44
361.39	410.44
361.616	424.44
361.843	416.44
362.07	427.44
362.296	428.44
362.523	422.44
362.749	431.44
362.976	397.44
363.203	415.44
363.429	419.44
363.656	413.44
363.882	402.44
364.109	403.44
364.335	411.44
364.562	408.44
364.788	399.44
365.015	422.44
365.241	422.44
365.468	404.44
365.694	423.44
365.92	396.44
366.147	397.44
366.373	391.44
366.599	394.44
366.826	404.44
367.052	394.44
367.278	403.44
367.505	401.44
367.731	408.44
367.957	427.44
368.184	383.44
368.41	404.44
368.636	424.44
368.862	419.44
369.089	402.44
369.315	401.44
369.541	378.44
369.767	398.44
369.993	408.44
370.219	409.44
370.445	407.44
370.672	402.44
370.898	385.44
371.124	400.44
371.35	405.44
371.576	406.44
371.802	411.44
372.028	392.44
372.254	392.44
372.48	401.44
372.706	398.44
372.932	411.44
373.158	416.44
373.384	425.44
373.61	418.44
373.835	388.44
374.061	410.44
374.287	403.44
374.513	428.44
374.739	411.44
374.965	439.44
375.191	432.44
375.416	405.44
375.642	392.44
375.868	420.44
376.094	408.44
376.319	398.44
376.545	402.44
376.771	403.44
376.997	413.44
377.222	406.44
377.448	393.44
377.674	396.44
377.899	393.44
378.125	395.44
378.35	408.44
378.576	397.44
378.802	400.44
379.027	395.44
379.253	393.44
379.478	396.44
379.704	414.44
379.929	426.44
380.155	416.44
380.38	404.44
380.606	388.44
380.831	384.44
381.057	409.44
381.282	425.44
381.507	395.44
381.733	430.44
381.958	415.44
382.184	432.44
382.409	432.44
382.634	413.44
382.86	409.44
383.085	429.44
383.31	436.44
383.535	431.44
383.761	420.44
383.986	428.44
384.211	443.44
384.436	449.44
384.662	437.44
384.887	451.44
385.112	444.44
385.337	417.44
385.562	433.44
385.787	455.44
386.013	445.44
386.238	469.44
386.463	439.44
386.688	457.44
386.913	434.44
387.138	442.44
387.363	458.44
387.588	440.44
387.813	442.44
388.038	457.44
388.263	453.44
388.488	450.44
388.713	449.44
388.938	439.44
389.163	440.44
389.387	436.44
389.612	439.44
389.837	426.44
390.062	428.44
390.287	464.44
390.512	442.44
390.736	449.44
390.961	454.44
391.186	461.44
391.411	449.44
391.636	445.44
391.86	466.44
392.085	471.44
392.31	482.44
392.534	458.44
392.759	449.44
392.984	476.44
393.208	461.44
393.433	440.44
393.658	450.44
393.882	457.44
394.107	458.44
394.331	447.44
394.556	449.44
394.78	479.44
395.005	469.44
395.229	448.44
395.454	447.44
395.678	475.44
395.903	482.44
396.127	484.44
396.352	466.44
396.576	476.44
396.801	472.44
397.025	454.44
397.249	496.44
397.474	479.44
397.698	490.44
397.922	519.44
398.147	492.44
398.371	516.44
398.595	513.44
398.82	517.44
399.044	545.44
399.268	546.44
399.492	605.44
399.717	635.44
399.941	684.44
400.165	669.44
400.389	671.44
400.613	601.44
400.837	586.44
401.062	528.44
401.286	533.44
401.51	533.44
401.734	539.44
401.958	522.44
402.182	532.44
402.406	522.44
402.63	533.44
402.854	536.44
403.078	549.44
403.302	541.44
403.526	547.44
403.75	563.44
403.974	554.44
404.198	541.44
404.422	555.44
404.645	565.44
404.869	548.44
405.093	569.44
405.317	575.44
405.541	631.44
405.765	585.44
405.988	567.44
406.212	576.44
406.436	596.44
406.66	633.44
406.883	617.44
407.107	623.44
407.331	657.44
407.555	740.44
407.778	723.44
408.002	641.44
408.226	589.44
408.449	612.44
408.673	590.44
408.896	607.44
409.12	637.44
409.344	595.44
409.567	561.44
409.791	545.44
410.014	517.44
410.238	536.44
410.461	537.44
410.685	523.44
410.908	549.44
411.132	579.44
411.355	594.44
411.578	575.44
411.802	529.44
412.025	508.44
412.249	539.44
412.472	540.44
412.695	570.44
412.919	521.44
413.142	526.44
413.365	506.44
413.589	525.44
413.812	485.44
414.035	513.44
414.258	509.44
414.482	497.44
414.705	504.44
414.928	508.44
415.151	500.44
415.374	531.44
415.597	504.44
415.821	512.44
416.044	504.44
416.267	517.44
416.49	501.44
416.713	514.44
416.936	504.44
417.159	500.44
417.382	522.44
417.605	512.44
417.828	500.44
418.051	525.44
418.274	522.44
418.497	533.44
418.72	535.44
418.943	480.44
419.166	501.44
419.389	524.44
419.611	548.44
419.834	516.44
420.057	539.44
420.28	522.44
420.503	505.44
420.726	507.44
420.948	525.44
421.171	561.44
421.394	553.44
421.617	561.44
421.839	527.44
422.062	515.44
422.285	513.44
422.507	565.44
422.73	649.44
422.953	616.44
423.175	551.44
423.398	547.44
423.621	553.44
423.843	597.44
424.066	579.44
424.288	569.44
424.511	579.44
424.733	617.44
424.956	682.44
425.178	684.44
425.401	654.44
425.623	658.44
425.846	565.44
426.068	567.44
426.291	560.44
426.513	523.44
426.735	545.44
426.958	552.44
427.18	635.44
427.402	753.44
427.625	826.44
427.847	708.44
428.069	590.44
428.292	549.44
428.514	531.44
428.736	512.44
428.958	493.44
429.181	490.44
429.403	505.44
429.625	524.44
429.847	525.44
430.069	573.44
430.292	589.44
430.514	499.44
430.736	490.44
430.958	495.44
431.18	475.44
431.402	477.44
431.624	459.44
431.846	471.44
432.068	477.44
432.29	482.44
432.512	469.44
432.734	481.44
432.956	463.44
433.178	496.44
433.4	489.44
433.622	487.44
433.844	490.44
434.066	490.44
434.287	481.44
434.509	484.44
434.731	491.44
434.953	497.44
435.175	536.44
435.397	529.44
435.618	539.44
435.84	583.44
436.062	664.44
436.284	704.44
436.505	586.44
436.727	556.44
436.949	524.44
437.17	504.44
437.392	498.44
437.614	519.44
437.835	522.44
438.057	627.44
438.278	699.44
438.5	717.44
438.721	749.44
438.943	714.44
439.165	606.44
439.386	546.44
439.608	561.44
439.829	532.44
440.05	566.44
440.272	576.44
440.493	568.44
440.715	540.44
440.936	537.44
441.158	525.44
441.379	520.44
441.6	524.44
441.822	552.44
442.043	566.44
442.264	639.44
442.486	671.44
442.707	599.44
442.928	555.44
443.149	565.44
443.371	573.44
443.592	625.44
443.813	699.44
444.034	779.44
444.255	641.44
444.476	584.44
444.698	575.44
444.919	562.44
445.14	673.44
445.361	639.44
445.582	607.44
445.803	637.44
446.024	724.44
446.245	717.44
446.466	665.44
446.687	551.44
446.908	491.44
447.129	507.44
447.35	492.44
447.571	499.44
447.792	467.44
448.013	510.44
448.234	522.44
448.455	544.44
448.675	655.44
448.896	756.44
449.117	648.44
449.338	601.44
449.559	663.44
449.779	793.44
450	628.44
450.221	529.44
450.442	470.44
450.662	489.44
450.883	503.44
451.104	505.44
451.324	485.44
451.545	467.44
451.766	457.44
451.986	447.44
452.207	436.44
452.428	444.44
452.648	443.44
452.869	454.44
453.089	443.44
453.31	457.44
453.53	437.44
453.751	449.44
453.971	463.44
454.192	463.44
454.412	440.44
454.633	441.44
454.853	440.44
455.073	443.44
455.294	474.44
455.514	520.44
455.734	500.44
455.955	445.44
456.175	403.44
456.395	420.44
456.616	412.44
456.836	426.44
457.056	427.44
457.276	412.44
457.497	415.44
457.717	428.44
457.937	428.44
458.157	450.44
458.377	447.44
458.598	463.44
458.818	511.44
459.038	585.44
459.258	599.44
459.478	527.44
459.698	475.44
459.918	506.44
460.138	490.44
460.358	516.44
460.578	524.44
460.798	522.44
461.018	504.44
461.238	499.44
461.458	503.44
461.678	503.44
461.898	517.44
462.118	516.44
462.338	528.44
462.558	533.44
462.777	538.44
462.997	574.44
463.217	584.44
463.437	589.44
463.657	552.44
463.876	555.44
464.096	551.44
464.316	568.44
464.536	569.44
464.755	537.44
464.975	548.44
465.195	580.44
465.414	644.44
465.634	573.44
465.854	500.44
466.073	486.44
466.293	487.44
466.512	486.44
466.732	455.44
466.951	454.44
467.171	458.44
467.391	489.44
467.61	455.44
467.829	468.44
468.049	476.44
468.268	452.44
468.488	435.44
468.707	438.44
468.927	443.44
469.146	438.44
469.365	434.44
469.585	459.44
469.804	442.44
470.023	467.44
470.243	460.44
470.462	484.44
470.681	503.44
470.901	495.44
471.12	462.44
471.339	461.44
471.558	461.44
471.777	457.44
471.997	472.44
472.216	448.44
472.435	455.44
472.654	458.44
472.873	462.44
473.092	437.44
473.311	468.44
473.53	461.44
473.749	480.44
473.968	509.44
474.187	558.44
474.406	590.44
474.625	514.44
474.844	479.44
475.063	450.44
475.282	474.44
475.501	461.44
475.72	465.44
475.939	461.44
476.158	456.44
476.377	463.44
476.596	474.44
476.814	487.44
477.033	492.44
477.252	480.44
477.471	489.44
477.69	498.44
477.908	523.44
478.127	500.44
478.346	517.44
478.564	519.44
478.783	543.44
479.002	517.44
479.22	528.44
479.439	537.44
479.658	584.44
479.876	562.44
480.095	560.44
480.313	618.44
480.532	600.44
480.751	567.44
480.969	573.44
481.188	577.44
481.406	577.44
481.624	570.44
481.843	548.44
482.061	501.44
482.28	533.44
482.498	522.44
482.717	529.44
482.935	514.44
483.153	522.44
483.372	522.44
483.59	529.44
483.808	534.44
484.027	512.44
484.245	527.44
484.463	538.44
484.681	548.44
484.9	543.44
485.118	555.44
485.336	557.44
485.554	548.44
485.772	547.44
485.99	529.44
486.209	559.44
486.427	569.44
486.645	568.44
486.863	578.44
487.081	572.44
487.299	576.44
487.517	556.44
487.735	600.44
487.953	568.44
488.171	571.44
488.389	572.44
488.607	583.44
488.825	600.44
489.043	566.44
489.261	597.44
489.479	557.44
489.696	559.44
489.914	577.44
490.132	575.44
490.35	602.44
490.568	600.44
490.786	625.44
491.003	599.44
491.221	621.44
491.439	617.44
491.657	619.44
491.874	615.44
492.092	662.44
492.31	666.44
492.527	664.44
492.745	646.44
492.963	634.44
493.18	651.44
493.398	645.44
493.615	652.44
493.833	648.44
494.05	662.44
494.268	654.44
494.485	671.44
494.703	649.44
494.92	668.44
495.138	642.44
495.355	640.44
495.573	660.44
495.79	668.44
496.008	680.44
496.225	645.44
496.442	677.44
496.66	669.44
496.877	647.44
497.094	674.44
497.312	688.44
497.529	700.44
497.746	715.44
497.963	726.44
498.181	756.44
498.398	752.44
498.615	789.44
498.832	818.44
499.049	835.44
499.267	868.44
499.484	908.44
499.701	929.44
499.918	968.44
500.135	1073.44
500.352	1136.44
500.569	1149.44
500.786	1143.44
501.003	1115.44
501.22	1073.44
501.437	1014.44
501.654	960.44
501.871	953.44
502.088	881.44
