Data from 1985.PennyLincolnUp.Lamp.En5.5.200Scan.071819.P1_HRD10591_17-03-07-971.txt Node
Date: Thu Jul 18 17:03:07 EDT 2019
User: cochatt
Spectrometer: HR+D1059
Trigger mode: 1
Integration Time (sec): 1.000000E-1
Scans to average: 1
Electric dark correction enabled: true
Nonlinearity correction enabled: false
Boxcar width: 0
XAxis mode: Wavelengths
Number of Pixels in Spectrum: 2048
>>>>>Begin Spectral Data<<<<<
223.165	-21.44
223.4	-21.44
223.635	-21.44
223.869	1.56
224.104	-20.44
224.338	-16.44
224.573	-17.44
224.808	-18.44
225.042	-7.44
225.277	4.56
225.511	2.56
225.746	-5.44
225.98	12.56
226.215	13.56
226.449	9.56
226.683	21.56
226.918	20.56
227.152	20.56
227.387	34.56
227.621	43.56
227.856	45.56
228.09	47.56
228.324	54.56
228.559	65.56
228.793	65.56
229.027	90.56
229.262	101.56
229.496	121.56
229.73	113.56
229.964	137.56
230.199	120.56
230.433	110.56
230.667	115.56
230.901	113.56
231.136	116.56
231.37	108.56
231.604	117.56
231.838	102.56
232.072	111.56
232.306	107.56
232.541	122.56
232.775	111.56
233.009	119.56
233.243	129.56
233.477	111.56
233.711	103.56
233.945	124.56
234.179	122.56
234.413	124.56
234.647	120.56
234.881	126.56
235.115	123.56
235.349	121.56
235.583	117.56
235.817	118.56
236.051	121.56
236.285	129.56
236.519	114.56
236.753	134.56
236.987	163.56
237.221	189.56
237.455	233.56
237.689	167.56
237.922	122.56
238.156	151.56
238.39	121.56
238.624	138.56
238.858	155.56
239.091	137.56
239.325	113.56
239.559	118.56
239.793	122.56
240.027	99.56
240.26	141.56
240.494	160.56
240.728	138.56
240.961	165.56
241.195	149.56
241.429	134.56
241.662	154.56
241.896	149.56
242.13	132.56
242.363	141.56
242.597	145.56
242.83	136.56
243.064	137.56
243.298	143.56
243.531	136.56
243.765	149.56
243.998	136.56
244.232	146.56
244.465	149.56
244.699	147.56
244.932	151.56
245.166	156.56
245.399	163.56
245.633	142.56
245.866	141.56
246.099	146.56
246.333	165.56
246.566	153.56
246.8	141.56
247.033	168.56
247.266	173.56
247.5	156.56
247.733	180.56
247.966	177.56
248.2	185.56
248.433	191.56
248.666	162.56
248.899	161.56
249.133	180.56
249.366	211.56
249.599	195.56
249.832	163.56
250.066	180.56
250.299	188.56
250.532	191.56
250.765	217.56
250.998	216.56
251.231	219.56
251.465	201.56
251.698	194.56
251.931	206.56
252.164	196.56
252.397	196.56
252.63	210.56
252.863	199.56
253.096	218.56
253.329	236.56
253.562	242.56
253.795	197.56
254.028	213.56
254.261	225.56
254.494	213.56
254.727	252.56
254.96	293.56
255.193	255.56
255.426	234.56
255.659	222.56
255.892	218.56
256.124	212.56
256.357	226.56
256.59	212.56
256.823	203.56
257.056	212.56
257.289	207.56
257.521	215.56
257.754	207.56
257.987	207.56
258.22	202.56
258.452	199.56
258.685	201.56
258.918	219.56
259.151	225.56
259.383	220.56
259.616	221.56
259.849	238.56
260.081	236.56
260.314	260.56
260.547	265.56
260.779	241.56
261.012	245.56
261.244	238.56
261.477	216.56
261.71	229.56
261.942	239.56
262.175	242.56
262.407	233.56
262.64	215.56
262.872	228.56
263.105	220.56
263.337	219.56
263.57	225.56
263.802	219.56
264.035	217.56
264.267	227.56
264.499	229.56
264.732	231.56
264.964	227.56
265.197	231.56
265.429	216.56
265.661	215.56
265.894	217.56
266.126	220.56
266.358	218.56
266.591	231.56
266.823	219.56
267.055	237.56
267.287	237.56
267.52	248.56
267.752	263.56
267.984	249.56
268.216	271.56
268.448	255.56
268.681	264.56
268.913	245.56
269.145	278.56
269.377	284.56
269.609	302.56
269.841	282.56
270.073	293.56
270.306	307.56
270.538	334.56
270.77	338.56
271.002	314.56
271.234	307.56
271.466	303.56
271.698	307.56
271.93	337.56
272.162	322.56
272.394	326.56
272.626	317.56
272.858	305.56
273.09	295.56
273.322	272.56
273.553	283.56
273.785	284.56
274.017	274.56
274.249	269.56
274.481	273.56
274.713	287.56
274.945	309.56
275.176	265.56
275.408	286.56
275.64	285.56
275.872	254.56
276.104	289.56
276.335	295.56
276.567	290.56
276.799	310.56
277.031	326.56
277.262	326.56
277.494	309.56
277.726	330.56
277.957	325.56
278.189	307.56
278.421	285.56
278.652	311.56
278.884	277.56
279.115	288.56
279.347	295.56
279.579	275.56
279.81	273.56
280.042	285.56
280.273	296.56
280.505	298.56
280.736	278.56
280.968	305.56
281.199	292.56
281.431	295.56
281.662	289.56
281.894	302.56
282.125	316.56
282.356	323.56
282.588	325.56
282.819	317.56
283.051	316.56
283.282	295.56
283.513	313.56
283.745	283.56
283.976	316.56
284.207	318.56
284.439	311.56
284.67	310.56
284.901	299.56
285.132	321.56
285.364	313.56
285.595	325.56
285.826	304.56
286.057	314.56
286.288	310.56
286.52	303.56
286.751	317.56
286.982	337.56
287.213	329.56
287.444	313.56
287.675	317.56
287.906	333.56
288.138	345.56
288.369	329.56
288.6	329.56
288.831	327.56
289.062	322.56
289.293	326.56
289.524	335.56
289.755	325.56
289.986	320.56
290.217	323.56
290.448	328.56
290.679	341.56
290.91	338.56
291.141	314.56
291.371	311.56
291.602	308.56
291.833	318.56
292.064	316.56
292.295	331.56
292.526	333.56
292.757	327.56
292.987	322.56
293.218	333.56
293.449	341.56
293.68	324.56
293.91	341.56
294.141	328.56
294.372	326.56
294.603	331.56
294.833	345.56
295.064	340.56
295.295	344.56
295.525	334.56
295.756	339.56
295.987	346.56
296.217	392.56
296.448	357.56
296.679	324.56
296.909	342.56
297.14	330.56
297.37	335.56
297.601	331.56
297.831	343.56
298.062	355.56
298.292	351.56
298.523	346.56
298.753	348.56
298.984	348.56
299.214	365.56
299.445	342.56
299.675	338.56
299.905	366.56
300.136	351.56
300.366	349.56
300.597	341.56
300.827	349.56
301.057	358.56
301.288	379.56
301.518	377.56
301.748	383.56
301.979	379.56
302.209	377.56
302.439	376.56
302.669	372.56
302.9	382.56
303.13	373.56
303.36	375.56
303.59	373.56
303.82	393.56
304.051	376.56
304.281	386.56
304.511	367.56
304.741	368.56
304.971	381.56
305.201	346.56
305.431	383.56
305.661	364.56
305.891	382.56
306.121	385.56
306.352	398.56
306.582	375.56
306.812	387.56
307.042	382.56
307.272	375.56
307.502	369.56
307.731	382.56
307.961	383.56
308.191	395.56
308.421	356.56
308.651	387.56
308.881	385.56
309.111	381.56
309.341	374.56
309.571	416.56
309.8	405.56
310.03	415.56
310.26	409.56
310.49	425.56
310.72	414.56
310.949	419.56
311.179	444.56
311.409	419.56
311.639	399.56
311.868	429.56
312.098	421.56
312.328	434.56
312.557	443.56
312.787	457.56
313.017	443.56
313.246	415.56
313.476	415.56
313.706	430.56
313.935	442.56
314.165	451.56
314.394	447.56
314.624	435.56
314.853	430.56
315.083	417.56
315.312	433.56
315.542	418.56
315.771	410.56
316.001	406.56
316.23	423.56
316.46	421.56
316.689	415.56
316.919	414.56
317.148	430.56
317.377	427.56
317.607	440.56
317.836	421.56
318.065	402.56
318.295	425.56
318.524	436.56
318.753	413.56
318.983	427.56
319.212	413.56
319.441	439.56
319.67	427.56
319.9	427.56
320.129	430.56
320.358	432.56
320.587	435.56
320.816	460.56
321.046	455.56
321.275	436.56
321.504	437.56
321.733	450.56
321.962	443.56
322.191	457.56
322.42	468.56
322.649	457.56
322.878	489.56
323.108	486.56
323.337	517.56
323.566	539.56
323.795	562.56
324.024	604.56
324.253	725.56
324.482	991.56
324.71	1465.56
324.939	2096.56
325.168	1740.56
325.397	941.56
325.626	681.56
325.855	575.56
326.084	545.56
326.313	525.56
326.542	551.56
326.77	584.56
326.999	677.56
327.228	879.56
327.457	1355.56
327.686	1599.56
327.914	1063.56
328.143	722.56
328.372	613.56
328.6	614.56
328.829	611.56
329.058	600.56
329.287	603.56
329.515	583.56
329.744	555.56
329.972	516.56
330.201	549.56
330.43	588.56
330.658	585.56
330.887	641.56
331.115	622.56
331.344	561.56
331.572	543.56
331.801	537.56
332.03	537.56
332.258	522.56
332.486	519.56
332.715	514.56
332.943	516.56
333.172	518.56
333.4	521.56
333.629	558.56
333.857	569.56
334.085	568.56
334.314	568.56
334.542	570.56
334.771	595.56
334.999	543.56
335.227	542.56
335.455	532.56
335.684	509.56
335.912	538.56
336.14	498.56
336.369	518.56
336.597	536.56
336.825	494.56
337.053	505.56
337.281	507.56
337.51	488.56
337.738	493.56
337.966	486.56
338.194	525.56
338.422	502.56
338.65	490.56
338.878	494.56
339.106	491.56
339.334	495.56
339.562	457.56
339.79	465.56
340.018	466.56
340.246	468.56
340.474	491.56
340.702	483.56
340.93	477.56
341.158	473.56
341.386	486.56
341.614	483.56
341.842	473.56
342.07	475.56
342.298	451.56
342.526	481.56
342.754	471.56
342.981	468.56
343.209	463.56
343.437	482.56
343.665	500.56
343.893	494.56
344.12	505.56
344.348	506.56
344.576	497.56
344.804	494.56
345.031	514.56
345.259	479.56
345.487	494.56
345.714	471.56
345.942	472.56
346.17	449.56
346.397	462.56
346.625	448.56
346.853	438.56
347.08	443.56
347.308	476.56
347.535	469.56
347.763	462.56
347.99	472.56
348.218	445.56
348.445	468.56
348.673	469.56
348.9	438.56
349.128	443.56
349.355	459.56
349.583	450.56
349.81	433.56
350.037	455.56
350.265	452.56
350.492	447.56
350.72	438.56
350.947	452.56
351.174	442.56
351.402	445.56
351.629	460.56
351.856	449.56
352.083	458.56
352.311	486.56
352.538	476.56
352.765	452.56
352.992	471.56
353.22	449.56
353.447	446.56
353.674	447.56
353.901	451.56
354.128	441.56
354.355	441.56
354.583	423.56
354.81	434.56
355.037	412.56
355.264	439.56
355.491	441.56
355.718	427.56
355.945	423.56
356.172	419.56
356.399	414.56
356.626	426.56
356.853	443.56
357.08	430.56
357.307	413.56
357.534	453.56
357.761	439.56
357.988	444.56
358.215	425.56
358.441	427.56
358.668	429.56
358.895	456.56
359.122	436.56
359.349	425.56
359.576	445.56
359.802	485.56
360.029	476.56
360.256	502.56
360.483	484.56
360.709	472.56
360.936	438.56
361.163	422.56
361.39	439.56
361.616	451.56
361.843	460.56
362.07	435.56
362.296	439.56
362.523	461.56
362.749	455.56
362.976	454.56
363.203	460.56
363.429	453.56
363.656	429.56
363.882	429.56
364.109	438.56
364.335	427.56
364.562	437.56
364.788	439.56
365.015	430.56
365.241	426.56
365.468	438.56
365.694	433.56
365.92	446.56
366.147	444.56
366.373	442.56
366.599	434.56
366.826	439.56
367.052	428.56
367.278	405.56
367.505	429.56
367.731	423.56
367.957	415.56
368.184	438.56
368.41	435.56
368.636	437.56
368.862	453.56
369.089	432.56
369.315	435.56
369.541	409.56
369.767	423.56
369.993	438.56
370.219	427.56
370.445	428.56
370.672	420.56
370.898	423.56
371.124	438.56
371.35	415.56
371.576	413.56
371.802	421.56
372.028	418.56
372.254	443.56
372.48	414.56
372.706	441.56
372.932	442.56
373.158	422.56
373.384	436.56
373.61	444.56
373.835	438.56
374.061	438.56
374.287	458.56
374.513	461.56
374.739	455.56
374.965	444.56
375.191	437.56
375.416	441.56
375.642	420.56
375.868	463.56
376.094	452.56
376.319	436.56
376.545	431.56
376.771	434.56
376.997	424.56
377.222	418.56
377.448	417.56
377.674	420.56
377.899	420.56
378.125	418.56
378.35	417.56
378.576	448.56
378.802	426.56
379.027	414.56
379.253	427.56
379.478	415.56
379.704	433.56
379.929	437.56
380.155	419.56
380.38	421.56
380.606	438.56
380.831	426.56
381.057	440.56
381.282	421.56
381.507	412.56
381.733	426.56
381.958	430.56
382.184	417.56
382.409	433.56
382.634	444.56
382.86	453.56
383.085	455.56
383.31	464.56
383.535	449.56
383.761	456.56
383.986	468.56
384.211	441.56
384.436	438.56
384.662	453.56
384.887	468.56
385.112	473.56
385.337	457.56
385.562	478.56
385.787	468.56
386.013	481.56
386.238	486.56
386.463	486.56
386.688	493.56
386.913	474.56
387.138	460.56
387.363	477.56
387.588	489.56
387.813	492.56
388.038	480.56
388.263	471.56
388.488	447.56
388.713	482.56
388.938	461.56
389.163	460.56
389.387	489.56
389.612	481.56
389.837	459.56
390.062	487.56
390.287	490.56
390.512	470.56
390.736	474.56
390.961	467.56
391.186	469.56
391.411	481.56
391.636	499.56
391.86	495.56
392.085	495.56
392.31	485.56
392.534	492.56
392.759	486.56
392.984	475.56
393.208	478.56
393.433	490.56
393.658	492.56
393.882	490.56
394.107	500.56
394.331	511.56
394.556	511.56
394.78	485.56
395.005	478.56
395.229	486.56
395.454	493.56
395.678	517.56
395.903	525.56
396.127	539.56
396.352	524.56
396.576	510.56
396.801	506.56
397.025	519.56
397.249	493.56
397.474	522.56
397.698	528.56
397.922	508.56
398.147	540.56
398.371	545.56
398.595	528.56
398.82	571.56
399.044	595.56
399.268	614.56
399.492	647.56
399.717	738.56
399.941	721.56
400.165	716.56
400.389	691.56
400.613	619.56
400.837	589.56
401.062	579.56
401.286	568.56
401.51	569.56
401.734	579.56
401.958	572.56
402.182	572.56
402.406	579.56
402.63	591.56
402.854	592.56
403.078	572.56
403.302	583.56
403.526	577.56
403.75	571.56
403.974	576.56
404.198	579.56
404.422	595.56
404.645	596.56
404.869	632.56
405.093	619.56
405.317	633.56
405.541	675.56
405.765	612.56
405.988	616.56
406.212	650.56
406.436	644.56
406.66	637.56
406.883	633.56
407.107	669.56
407.331	702.56
407.555	767.56
407.778	775.56
408.002	726.56
408.226	636.56
408.449	651.56
408.673	620.56
408.896	660.56
409.12	715.56
409.344	665.56
409.567	596.56
409.791	571.56
410.014	578.56
410.238	591.56
410.461	595.56
410.685	583.56
410.908	597.56
411.132	615.56
411.355	634.56
411.578	621.56
411.802	572.56
412.025	581.56
412.249	595.56
412.472	600.56
412.695	623.56
412.919	578.56
413.142	558.56
413.365	541.56
413.589	535.56
413.812	541.56
414.035	539.56
414.258	538.56
414.482	545.56
414.705	547.56
414.928	559.56
415.151	532.56
415.374	556.56
415.597	515.56
415.821	521.56
416.044	547.56
416.267	556.56
416.49	547.56
416.713	538.56
416.936	533.56
417.159	518.56
417.382	535.56
417.605	572.56
417.828	542.56
418.051	566.56
418.274	546.56
418.497	542.56
418.72	553.56
418.943	546.56
419.166	570.56
419.389	586.56
419.611	575.56
419.834	578.56
420.057	574.56
420.28	555.56
420.503	561.56
420.726	539.56
420.948	562.56
421.171	625.56
421.394	613.56
421.617	574.56
421.839	563.56
422.062	551.56
422.285	569.56
422.507	635.56
422.73	692.56
422.953	665.56
423.175	614.56
423.398	597.56
423.621	573.56
423.843	596.56
424.066	599.56
424.288	587.56
424.511	596.56
424.733	661.56
424.956	735.56
425.178	712.56
425.401	691.56
425.623	699.56
425.846	628.56
426.068	584.56
426.291	585.56
426.513	574.56
426.735	595.56
426.958	629.56
427.18	691.56
427.402	819.56
427.625	909.56
427.847	791.56
428.069	661.56
428.292	621.56
428.514	580.56
428.736	561.56
428.958	547.56
429.181	537.56
429.403	545.56
429.625	546.56
429.847	576.56
430.069	635.56
430.292	623.56
430.514	557.56
430.736	523.56
430.958	532.56
431.18	505.56
431.402	519.56
431.624	526.56
431.846	512.56
432.068	526.56
432.29	520.56
432.512	505.56
432.734	524.56
432.956	518.56
433.178	529.56
433.4	529.56
433.622	511.56
433.844	521.56
434.066	496.56
434.287	522.56
434.509	528.56
434.731	553.56
434.953	553.56
435.175	549.56
435.397	577.56
435.618	585.56
435.84	607.56
436.062	681.56
436.284	764.56
436.505	643.56
436.727	587.56
436.949	542.56
437.17	537.56
437.392	545.56
437.614	544.56
437.835	557.56
438.057	652.56
438.278	735.56
438.5	753.56
438.721	809.56
438.943	773.56
439.165	625.56
439.386	578.56
439.608	561.56
439.829	585.56
440.05	602.56
440.272	635.56
440.493	622.56
440.715	563.56
440.936	546.56
441.158	561.56
441.379	549.56
441.6	558.56
441.822	576.56
442.043	626.56
442.264	695.56
442.486	723.56
442.707	638.56
442.928	599.56
443.149	611.56
443.371	631.56
443.592	666.56
443.813	746.56
444.034	806.56
444.255	669.56
444.476	604.56
444.698	630.56
444.919	631.56
445.14	747.56
445.361	664.56
445.582	643.56
445.803	689.56
446.024	783.56
446.245	758.56
446.466	701.56
446.687	613.56
446.908	567.56
447.129	532.56
447.35	544.56
447.571	537.56
447.792	522.56
448.013	541.56
448.234	557.56
448.455	581.56
448.675	686.56
448.896	803.56
449.117	681.56
449.338	629.56
449.559	749.56
449.779	857.56
450	654.56
450.221	545.56
450.442	515.56
450.662	519.56
450.883	503.56
451.104	539.56
451.324	522.56
451.545	517.56
451.766	497.56
451.986	470.56
452.207	455.56
452.428	470.56
452.648	486.56
452.869	467.56
453.089	477.56
453.31	499.56
453.53	485.56
453.751	459.56
453.971	472.56
454.192	492.56
454.412	472.56
454.633	476.56
454.853	470.56
455.073	469.56
455.294	497.56
455.514	543.56
455.734	549.56
455.955	473.56
456.175	453.56
456.395	467.56
456.616	453.56
456.836	448.56
457.056	444.56
457.276	426.56
457.497	455.56
457.717	452.56
457.937	467.56
458.157	460.56
458.377	469.56
458.598	486.56
458.818	567.56
459.038	637.56
459.258	646.56
459.478	571.56
459.698	531.56
459.918	523.56
460.138	553.56
460.358	549.56
460.578	548.56
460.798	561.56
461.018	555.56
461.238	544.56
461.458	565.56
461.678	555.56
461.898	566.56
462.118	554.56
462.338	585.56
462.558	571.56
462.777	587.56
462.997	608.56
463.217	640.56
463.437	644.56
463.657	604.56
463.876	593.56
464.096	590.56
464.316	598.56
464.536	613.56
464.755	598.56
464.975	604.56
465.195	614.56
465.414	689.56
465.634	597.56
465.854	563.56
466.073	502.56
466.293	537.56
466.512	504.56
466.732	487.56
466.951	499.56
467.171	470.56
467.391	513.56
467.61	478.56
467.829	521.56
468.049	511.56
468.268	494.56
468.488	473.56
468.707	461.56
468.927	460.56
469.146	466.56
469.365	454.56
469.585	470.56
469.804	480.56
470.023	509.56
470.243	516.56
470.462	488.56
470.681	544.56
470.901	524.56
471.12	508.56
471.339	492.56
471.558	510.56
471.777	515.56
471.997	488.56
472.216	485.56
472.435	500.56
472.654	499.56
472.873	499.56
473.092	480.56
473.311	490.56
473.53	486.56
473.749	507.56
473.968	538.56
474.187	609.56
474.406	631.56
474.625	540.56
474.844	492.56
475.063	501.56
475.282	499.56
475.501	503.56
475.72	513.56
475.939	481.56
476.158	494.56
476.377	501.56
476.596	479.56
476.814	507.56
477.033	503.56
477.252	511.56
477.471	515.56
477.69	554.56
477.908	553.56
478.127	555.56
478.346	541.56
478.564	549.56
478.783	567.56
479.002	577.56
479.22	583.56
479.439	602.56
479.658	588.56
479.876	625.56
480.095	612.56
480.313	661.56
480.532	633.56
480.751	621.56
480.969	640.56
481.188	633.56
481.406	650.56
481.624	609.56
481.843	603.56
482.061	584.56
482.28	577.56
482.498	573.56
482.717	575.56
482.935	574.56
483.153	570.56
483.372	589.56
483.59	573.56
483.808	563.56
484.027	581.56
484.245	561.56
484.463	578.56
484.681	595.56
484.9	561.56
485.118	596.56
485.336	602.56
485.554	598.56
485.772	614.56
485.99	594.56
486.209	583.56
486.427	593.56
486.645	602.56
486.863	610.56
487.081	626.56
487.299	622.56
487.517	623.56
487.735	619.56
487.953	610.56
488.171	606.56
488.389	606.56
488.607	625.56
488.825	607.56
489.043	617.56
489.261	613.56
489.479	612.56
489.696	619.56
489.914	616.56
490.132	626.56
490.35	614.56
490.568	668.56
490.786	645.56
491.003	645.56
491.221	693.56
491.439	680.56
491.657	699.56
491.874	675.56
492.092	697.56
492.31	699.56
492.527	713.56
492.745	697.56
492.963	708.56
493.18	702.56
493.398	725.56
493.615	713.56
493.833	734.56
494.05	705.56
494.268	727.56
494.485	708.56
494.703	715.56
494.92	706.56
495.138	708.56
495.355	715.56
495.573	717.56
495.79	733.56
496.008	721.56
496.225	717.56
496.442	699.56
496.66	710.56
496.877	720.56
497.094	734.56
497.312	750.56
497.529	756.56
497.746	773.56
497.963	785.56
498.181	839.56
498.398	827.56
498.615	847.56
498.832	848.56
499.049	894.56
499.267	940.56
499.484	955.56
499.701	1038.56
499.918	1069.56
500.135	1143.56
500.352	1208.56
500.569	1251.56
500.786	1256.56
501.003	1187.56
501.22	1122.56
501.437	1089.56
501.654	1032.56
501.871	999.56
