Data from 1985.PennyLincolnUp.Lamp.En5.5.200Scan.071819.P1_HRD10591_17-03-14-970.txt Node
Date: Thu Jul 18 17:03:14 EDT 2019
User: cochatt
Spectrometer: HR+D1059
Trigger mode: 1
Integration Time (sec): 1.000000E-1
Scans to average: 1
Electric dark correction enabled: true
Nonlinearity correction enabled: false
Boxcar width: 0
XAxis mode: Wavelengths
Number of Pixels in Spectrum: 2048
>>>>>Begin Spectral Data<<<<<
223.165	-13.5
223.4	-13.5
223.635	-13.5
223.869	-13.5
224.104	-14.5
224.338	-17.5
224.573	-10.5
224.808	-5.5
225.042	-7.5
225.277	-27.5
225.511	-9.5
225.746	8.5
225.98	2.5
226.215	27.5
226.449	2.5
226.683	17.5
226.918	30.5
227.152	30.5
227.387	25.5
227.621	42.5
227.856	24.5
228.09	52.5
228.324	48.5
228.559	41.5
228.793	76.5
229.027	87.5
229.262	101.5
229.496	114.5
229.73	143.5
229.964	146.5
230.199	133.5
230.433	97.5
230.667	117.5
230.901	92.5
231.136	121.5
231.37	99.5
231.604	101.5
231.838	116.5
232.072	116.5
232.306	114.5
232.541	121.5
232.775	110.5
233.009	124.5
233.243	112.5
233.477	126.5
233.711	117.5
233.945	117.5
234.179	103.5
234.413	112.5
234.647	120.5
234.881	114.5
235.115	116.5
235.349	121.5
235.583	120.5
235.817	117.5
236.051	121.5
236.285	124.5
236.519	107.5
236.753	130.5
236.987	144.5
237.221	164.5
237.455	230.5
237.689	172.5
237.922	144.5
238.156	135.5
238.39	147.5
238.624	115.5
238.858	120.5
239.091	132.5
239.325	113.5
239.559	140.5
239.793	128.5
240.027	133.5
240.26	134.5
240.494	147.5
240.728	148.5
240.961	146.5
241.195	169.5
241.429	160.5
241.662	146.5
241.896	152.5
242.13	140.5
242.363	128.5
242.597	130.5
242.83	139.5
243.064	153.5
243.298	161.5
243.531	148.5
243.765	134.5
243.998	134.5
244.232	139.5
244.465	159.5
244.699	156.5
244.932	152.5
245.166	148.5
245.399	150.5
245.633	155.5
245.866	148.5
246.099	161.5
246.333	147.5
246.566	149.5
246.8	156.5
247.033	158.5
247.266	158.5
247.5	172.5
247.733	186.5
247.966	196.5
248.2	172.5
248.433	157.5
248.666	169.5
248.899	187.5
249.133	195.5
249.366	205.5
249.599	197.5
249.832	190.5
250.066	197.5
250.299	186.5
250.532	190.5
250.765	213.5
250.998	235.5
251.231	231.5
251.465	205.5
251.698	203.5
251.931	188.5
252.164	203.5
252.397	210.5
252.63	217.5
252.863	218.5
253.096	216.5
253.329	217.5
253.562	223.5
253.795	224.5
254.028	212.5
254.261	227.5
254.494	241.5
254.727	264.5
254.96	280.5
255.193	267.5
255.426	242.5
255.659	238.5
255.892	242.5
256.124	251.5
256.357	234.5
256.59	222.5
256.823	213.5
257.056	224.5
257.289	221.5
257.521	200.5
257.754	210.5
257.987	224.5
258.22	234.5
258.452	213.5
258.685	227.5
258.918	209.5
259.151	221.5
259.383	219.5
259.616	233.5
259.849	228.5
260.081	246.5
260.314	248.5
260.547	266.5
260.779	268.5
261.012	237.5
261.244	240.5
261.477	226.5
261.71	220.5
261.942	231.5
262.175	240.5
262.407	232.5
262.64	238.5
262.872	227.5
263.105	242.5
263.337	230.5
263.57	215.5
263.802	234.5
264.035	235.5
264.267	237.5
264.499	240.5
264.732	236.5
264.964	236.5
265.197	229.5
265.429	231.5
265.661	222.5
265.894	229.5
266.126	227.5
266.358	243.5
266.591	228.5
266.823	247.5
267.055	240.5
267.287	241.5
267.52	228.5
267.752	240.5
267.984	256.5
268.216	234.5
268.448	258.5
268.681	250.5
268.913	261.5
269.145	277.5
269.377	277.5
269.609	271.5
269.841	285.5
270.073	289.5
270.306	321.5
270.538	330.5
270.77	347.5
271.002	318.5
271.234	304.5
271.466	308.5
271.698	327.5
271.93	347.5
272.162	316.5
272.394	307.5
272.626	332.5
272.858	301.5
273.09	294.5
273.322	297.5
273.553	295.5
273.785	277.5
274.017	280.5
274.249	289.5
274.481	288.5
274.713	289.5
274.945	301.5
275.176	286.5
275.408	284.5
275.64	284.5
275.872	286.5
276.104	291.5
276.335	299.5
276.567	305.5
276.799	304.5
277.031	343.5
277.262	344.5
277.494	350.5
277.726	331.5
277.957	327.5
278.189	283.5
278.421	298.5
278.652	314.5
278.884	295.5
279.115	295.5
279.347	281.5
279.579	270.5
279.81	301.5
280.042	293.5
280.273	300.5
280.505	296.5
280.736	289.5
280.968	314.5
281.199	295.5
281.431	316.5
281.662	284.5
281.894	297.5
282.125	304.5
282.356	312.5
282.588	345.5
282.819	346.5
283.051	310.5
283.282	315.5
283.513	313.5
283.745	300.5
283.976	313.5
284.207	330.5
284.439	328.5
284.67	317.5
284.901	323.5
285.132	310.5
285.364	304.5
285.595	332.5
285.826	312.5
286.057	317.5
286.288	326.5
286.52	311.5
286.751	318.5
286.982	319.5
287.213	317.5
287.444	326.5
287.675	341.5
287.906	345.5
288.138	348.5
288.369	350.5
288.6	337.5
288.831	324.5
289.062	347.5
289.293	349.5
289.524	317.5
289.755	334.5
289.986	345.5
290.217	305.5
290.448	341.5
290.679	345.5
290.91	335.5
291.141	324.5
291.371	333.5
291.602	323.5
291.833	317.5
292.064	331.5
292.295	345.5
292.526	326.5
292.757	325.5
292.987	328.5
293.218	337.5
293.449	331.5
293.68	341.5
293.91	338.5
294.141	334.5
294.372	353.5
294.603	318.5
294.833	321.5
295.064	351.5
295.295	334.5
295.525	339.5
295.756	342.5
295.987	332.5
296.217	374.5
296.448	380.5
296.679	351.5
296.909	340.5
297.14	341.5
297.37	336.5
297.601	360.5
297.831	340.5
298.062	333.5
298.292	357.5
298.523	376.5
298.753	362.5
298.984	363.5
299.214	357.5
299.445	335.5
299.675	352.5
299.905	348.5
300.136	381.5
300.366	356.5
300.597	362.5
300.827	358.5
301.057	362.5
301.288	382.5
301.518	370.5
301.748	375.5
301.979	370.5
302.209	375.5
302.439	383.5
302.669	395.5
302.9	361.5
303.13	366.5
303.36	389.5
303.59	388.5
303.82	390.5
304.051	398.5
304.281	390.5
304.511	385.5
304.741	382.5
304.971	382.5
305.201	387.5
305.431	368.5
305.661	384.5
305.891	374.5
306.121	375.5
306.352	386.5
306.582	361.5
306.812	365.5
307.042	385.5
307.272	371.5
307.502	388.5
307.731	385.5
307.961	382.5
308.191	387.5
308.421	381.5
308.651	386.5
308.881	406.5
309.111	389.5
309.341	387.5
309.571	405.5
309.8	413.5
310.03	397.5
310.26	412.5
310.49	413.5
310.72	434.5
310.949	434.5
311.179	454.5
311.409	440.5
311.639	413.5
311.868	437.5
312.098	427.5
312.328	436.5
312.557	449.5
312.787	454.5
313.017	471.5
313.246	462.5
313.476	436.5
313.706	414.5
313.935	429.5
314.165	460.5
314.394	448.5
314.624	451.5
314.853	447.5
315.083	441.5
315.312	428.5
315.542	427.5
315.771	432.5
316.001	436.5
316.23	417.5
316.46	413.5
316.689	447.5
316.919	435.5
317.148	438.5
317.377	444.5
317.607	421.5
317.836	423.5
318.065	419.5
318.295	420.5
318.524	420.5
318.753	425.5
318.983	425.5
319.212	421.5
319.441	434.5
319.67	448.5
319.9	444.5
320.129	427.5
320.358	434.5
320.587	427.5
320.816	428.5
321.046	466.5
321.275	452.5
321.504	460.5
321.733	450.5
321.962	465.5
322.191	466.5
322.42	477.5
322.649	485.5
322.878	487.5
323.108	493.5
323.337	528.5
323.566	544.5
323.795	564.5
324.024	632.5
324.253	746.5
324.482	1028.5
324.71	1542.5
324.939	2176.5
325.168	1866.5
325.397	988.5
325.626	684.5
325.855	586.5
326.084	564.5
326.313	548.5
326.542	566.5
326.77	625.5
326.999	681.5
327.228	932.5
327.457	1383.5
327.686	1656.5
327.914	1088.5
328.143	755.5
328.372	664.5
328.6	617.5
328.829	619.5
329.058	610.5
329.287	657.5
329.515	572.5
329.744	556.5
329.972	548.5
330.201	560.5
330.43	591.5
330.658	611.5
330.887	640.5
331.115	647.5
331.344	581.5
331.572	556.5
331.801	562.5
332.03	572.5
332.258	570.5
332.486	538.5
332.715	527.5
332.943	530.5
333.172	543.5
333.4	538.5
333.629	556.5
333.857	552.5
334.085	570.5
334.314	580.5
334.542	614.5
334.771	620.5
334.999	569.5
335.227	556.5
335.455	540.5
335.684	520.5
335.912	521.5
336.14	520.5
336.369	505.5
336.597	499.5
336.825	531.5
337.053	519.5
337.281	492.5
337.51	520.5
337.738	524.5
337.966	493.5
338.194	502.5
338.422	509.5
338.65	504.5
338.878	498.5
339.106	487.5
339.334	484.5
339.562	479.5
339.79	496.5
340.018	461.5
340.246	487.5
340.474	510.5
340.702	472.5
340.93	487.5
341.158	473.5
341.386	490.5
341.614	500.5
341.842	487.5
342.07	500.5
342.298	478.5
342.526	483.5
342.754	468.5
342.981	491.5
343.209	468.5
343.437	490.5
343.665	481.5
343.893	507.5
344.12	518.5
344.348	508.5
344.576	512.5
344.804	503.5
345.031	502.5
345.259	522.5
345.487	471.5
345.714	473.5
345.942	470.5
346.17	475.5
346.397	457.5
346.625	453.5
346.853	467.5
347.08	453.5
347.308	464.5
347.535	485.5
347.763	491.5
347.99	487.5
348.218	489.5
348.445	503.5
348.673	483.5
348.9	482.5
349.128	458.5
349.355	450.5
349.583	445.5
349.81	444.5
350.037	452.5
350.265	457.5
350.492	458.5
350.72	444.5
350.947	467.5
351.174	446.5
351.402	482.5
351.629	459.5
351.856	462.5
352.083	478.5
352.311	482.5
352.538	465.5
352.765	458.5
352.992	483.5
353.22	457.5
353.447	460.5
353.674	441.5
353.901	460.5
354.128	446.5
354.355	434.5
354.583	426.5
354.81	430.5
355.037	435.5
355.264	424.5
355.491	438.5
355.718	426.5
355.945	425.5
356.172	416.5
356.399	424.5
356.626	405.5
356.853	435.5
357.08	437.5
357.307	418.5
357.534	451.5
357.761	426.5
357.988	418.5
358.215	434.5
358.441	418.5
358.668	436.5
358.895	436.5
359.122	452.5
359.349	462.5
359.576	448.5
359.802	475.5
360.029	490.5
360.256	502.5
360.483	465.5
360.709	460.5
360.936	450.5
361.163	448.5
361.39	477.5
361.616	462.5
361.843	431.5
362.07	442.5
362.296	433.5
362.523	442.5
362.749	466.5
362.976	437.5
363.203	450.5
363.429	426.5
363.656	449.5
363.882	442.5
364.109	433.5
364.335	444.5
364.562	442.5
364.788	427.5
365.015	432.5
365.241	447.5
365.468	445.5
365.694	442.5
365.92	461.5
366.147	450.5
366.373	425.5
366.599	441.5
366.826	436.5
367.052	433.5
367.278	435.5
367.505	439.5
367.731	436.5
367.957	449.5
368.184	434.5
368.41	433.5
368.636	452.5
368.862	462.5
369.089	434.5
369.315	438.5
369.541	439.5
369.767	444.5
369.993	453.5
370.219	454.5
370.445	446.5
370.672	437.5
370.898	436.5
371.124	444.5
371.35	412.5
371.576	422.5
371.802	430.5
372.028	441.5
372.254	436.5
372.48	434.5
372.706	445.5
372.932	460.5
373.158	438.5
373.384	428.5
373.61	453.5
373.835	439.5
374.061	427.5
374.287	444.5
374.513	458.5
374.739	452.5
374.965	451.5
375.191	448.5
375.416	459.5
375.642	456.5
375.868	426.5
376.094	436.5
376.319	436.5
376.545	436.5
376.771	434.5
376.997	435.5
377.222	454.5
377.448	448.5
377.674	441.5
377.899	436.5
378.125	440.5
378.35	428.5
378.576	414.5
378.802	429.5
379.027	445.5
379.253	422.5
379.478	445.5
379.704	432.5
379.929	426.5
380.155	421.5
380.38	418.5
380.606	437.5
380.831	449.5
381.057	432.5
381.282	440.5
381.507	440.5
381.733	448.5
381.958	429.5
382.184	436.5
382.409	443.5
382.634	444.5
382.86	431.5
383.085	444.5
383.31	453.5
383.535	449.5
383.761	453.5
383.986	461.5
384.211	454.5
384.436	469.5
384.662	462.5
384.887	472.5
385.112	475.5
385.337	505.5
385.562	486.5
385.787	497.5
386.013	490.5
386.238	483.5
386.463	491.5
386.688	479.5
386.913	492.5
387.138	481.5
387.363	484.5
387.588	486.5
387.813	470.5
388.038	481.5
388.263	481.5
388.488	480.5
388.713	486.5
388.938	482.5
389.163	492.5
389.387	470.5
389.612	459.5
389.837	501.5
390.062	492.5
390.287	486.5
390.512	476.5
390.736	473.5
390.961	490.5
391.186	494.5
391.411	489.5
391.636	500.5
391.86	514.5
392.085	514.5
392.31	534.5
392.534	510.5
392.759	508.5
392.984	490.5
393.208	496.5
393.433	478.5
393.658	475.5
393.882	462.5
394.107	469.5
394.331	462.5
394.556	497.5
394.78	520.5
395.005	504.5
395.229	489.5
395.454	496.5
395.678	530.5
395.903	527.5
396.127	532.5
396.352	520.5
396.576	502.5
396.801	484.5
397.025	514.5
397.249	518.5
397.474	532.5
397.698	547.5
397.922	521.5
398.147	541.5
398.371	539.5
398.595	542.5
398.82	554.5
399.044	569.5
399.268	610.5
399.492	655.5
399.717	680.5
399.941	722.5
400.165	715.5
400.389	727.5
400.613	646.5
400.837	605.5
401.062	578.5
401.286	564.5
401.51	562.5
401.734	566.5
401.958	576.5
402.182	579.5
402.406	583.5
402.63	580.5
402.854	583.5
403.078	599.5
403.302	606.5
403.526	603.5
403.75	581.5
403.974	581.5
404.198	573.5
404.422	590.5
404.645	602.5
404.869	615.5
405.093	612.5
405.317	672.5
405.541	700.5
405.765	632.5
405.988	627.5
406.212	621.5
406.436	660.5
406.66	664.5
406.883	648.5
407.107	666.5
407.331	706.5
407.555	776.5
407.778	756.5
408.002	722.5
408.226	638.5
408.449	670.5
408.673	639.5
408.896	663.5
409.12	714.5
409.344	654.5
409.567	586.5
409.791	598.5
410.014	602.5
410.238	590.5
410.461	576.5
410.685	587.5
410.908	590.5
411.132	614.5
411.355	638.5
411.578	596.5
411.802	593.5
412.025	584.5
412.249	582.5
412.472	588.5
412.695	624.5
412.919	601.5
413.142	589.5
413.365	558.5
413.589	568.5
413.812	549.5
414.035	553.5
414.258	533.5
414.482	552.5
414.705	554.5
414.928	563.5
415.151	546.5
415.374	551.5
415.597	539.5
415.821	541.5
416.044	546.5
416.267	539.5
416.49	533.5
416.713	541.5
416.936	529.5
417.159	531.5
417.382	555.5
417.605	562.5
417.828	544.5
418.051	562.5
418.274	562.5
418.497	567.5
418.72	580.5
418.943	555.5
419.166	558.5
419.389	609.5
419.611	580.5
419.834	578.5
420.057	588.5
420.28	566.5
420.503	576.5
420.726	579.5
420.948	573.5
421.171	621.5
421.394	643.5
421.617	584.5
421.839	577.5
422.062	585.5
422.285	582.5
422.507	650.5
422.73	710.5
422.953	674.5
423.175	596.5
423.398	606.5
423.621	587.5
423.843	613.5
424.066	609.5
424.288	602.5
424.511	614.5
424.733	675.5
424.956	749.5
425.178	704.5
425.401	713.5
425.623	718.5
425.846	635.5
426.068	608.5
426.291	584.5
426.513	594.5
426.735	619.5
426.958	635.5
427.18	701.5
427.402	832.5
427.625	926.5
427.847	812.5
428.069	690.5
428.292	627.5
428.514	584.5
428.736	552.5
428.958	558.5
429.181	541.5
429.403	553.5
429.625	533.5
429.847	596.5
430.069	642.5
430.292	645.5
430.514	565.5
430.736	547.5
430.958	529.5
431.18	521.5
431.402	503.5
431.624	510.5
431.846	529.5
432.068	541.5
432.29	538.5
432.512	513.5
432.734	520.5
432.956	515.5
433.178	518.5
433.4	554.5
433.622	507.5
433.844	526.5
434.066	525.5
434.287	521.5
434.509	526.5
434.731	540.5
434.953	545.5
435.175	567.5
435.397	590.5
435.618	602.5
435.84	621.5
436.062	695.5
436.284	792.5
436.505	639.5
436.727	603.5
436.949	559.5
437.17	533.5
437.392	544.5
437.614	562.5
437.835	579.5
438.057	674.5
438.278	764.5
438.5	770.5
438.721	829.5
438.943	796.5
439.165	630.5
439.386	581.5
439.608	570.5
439.829	586.5
440.05	626.5
440.272	668.5
440.493	632.5
440.715	571.5
440.936	542.5
441.158	533.5
441.379	560.5
441.6	592.5
441.822	608.5
442.043	644.5
442.264	702.5
442.486	754.5
442.707	657.5
442.928	629.5
443.149	595.5
443.371	652.5
443.592	656.5
443.813	774.5
444.034	840.5
444.255	691.5
444.476	610.5
444.698	634.5
444.919	611.5
445.14	727.5
445.361	683.5
445.582	658.5
445.803	703.5
446.024	803.5
446.245	810.5
446.466	709.5
446.687	617.5
446.908	598.5
447.129	538.5
447.35	529.5
447.571	526.5
447.792	538.5
448.013	539.5
448.234	550.5
448.455	593.5
448.675	686.5
448.896	818.5
449.117	700.5
449.338	654.5
449.559	769.5
449.779	876.5
450	684.5
450.221	581.5
450.442	544.5
450.662	521.5
450.883	531.5
451.104	541.5
451.324	521.5
451.545	518.5
451.766	501.5
451.986	463.5
452.207	483.5
452.428	486.5
452.648	470.5
452.869	487.5
453.089	490.5
453.31	487.5
453.53	489.5
453.751	474.5
453.971	485.5
454.192	498.5
454.412	504.5
454.633	470.5
454.853	478.5
455.073	475.5
455.294	523.5
455.514	561.5
455.734	550.5
455.955	481.5
456.175	474.5
456.395	469.5
456.616	457.5
456.836	450.5
457.056	454.5
457.276	426.5
457.497	458.5
457.717	458.5
457.937	457.5
458.157	462.5
458.377	468.5
458.598	488.5
458.818	560.5
459.038	634.5
459.258	644.5
459.478	575.5
459.698	534.5
459.918	540.5
460.138	526.5
460.358	547.5
460.578	566.5
460.798	543.5
461.018	548.5
461.238	540.5
461.458	520.5
461.678	532.5
461.898	550.5
462.118	560.5
462.338	550.5
462.558	582.5
462.777	573.5
462.997	627.5
463.217	637.5
463.437	646.5
463.657	620.5
463.876	613.5
464.096	602.5
464.316	590.5
464.536	604.5
464.755	598.5
464.975	605.5
465.195	627.5
465.414	705.5
465.634	609.5
465.854	544.5
466.073	532.5
466.293	546.5
466.512	484.5
466.732	497.5
466.951	471.5
467.171	481.5
467.391	488.5
467.61	509.5
467.829	532.5
468.049	500.5
468.268	522.5
468.488	481.5
468.707	475.5
468.927	468.5
469.146	484.5
469.365	478.5
469.585	505.5
469.804	504.5
470.023	504.5
470.243	492.5
470.462	518.5
470.681	532.5
470.901	524.5
471.12	519.5
471.339	514.5
471.558	476.5
471.777	508.5
471.997	477.5
472.216	519.5
472.435	521.5
472.654	530.5
472.873	487.5
473.092	498.5
473.311	496.5
473.53	488.5
473.749	474.5
473.968	551.5
474.187	654.5
474.406	674.5
474.625	551.5
474.844	516.5
475.063	483.5
475.282	490.5
475.501	499.5
475.72	498.5
475.939	516.5
476.158	512.5
476.377	517.5
476.596	498.5
476.814	546.5
477.033	514.5
477.252	514.5
477.471	517.5
477.69	542.5
477.908	560.5
478.127	540.5
478.346	576.5
478.564	580.5
478.783	564.5
479.002	590.5
479.22	589.5
479.439	590.5
479.658	616.5
479.876	634.5
480.095	632.5
480.313	670.5
480.532	654.5
480.751	616.5
480.969	626.5
481.188	654.5
481.406	644.5
481.624	624.5
481.843	615.5
482.061	596.5
482.28	585.5
482.498	576.5
482.717	567.5
482.935	550.5
483.153	540.5
483.372	570.5
483.59	537.5
483.808	583.5
484.027	560.5
484.245	561.5
484.463	570.5
484.681	577.5
484.9	603.5
485.118	619.5
485.336	592.5
485.554	601.5
485.772	629.5
485.99	593.5
486.209	582.5
486.427	610.5
486.645	610.5
486.863	604.5
487.081	609.5
487.299	618.5
487.517	609.5
487.735	621.5
487.953	601.5
488.171	621.5
488.389	615.5
488.607	625.5
488.825	628.5
489.043	613.5
489.261	644.5
489.479	628.5
489.696	651.5
489.914	642.5
490.132	646.5
490.35	646.5
490.568	638.5
490.786	673.5
491.003	662.5
491.221	693.5
491.439	679.5
491.657	712.5
491.874	697.5
492.092	704.5
492.31	741.5
492.527	703.5
492.745	717.5
492.963	737.5
493.18	717.5
493.398	709.5
493.615	715.5
493.833	718.5
494.05	734.5
494.268	736.5
494.485	709.5
494.703	724.5
494.92	719.5
495.138	742.5
495.355	718.5
495.573	727.5
495.79	730.5
496.008	758.5
496.225	728.5
496.442	730.5
496.66	736.5
496.877	739.5
497.094	735.5
497.312	745.5
497.529	745.5
497.746	804.5
497.963	803.5
498.181	805.5
498.398	829.5
498.615	851.5
498.832	869.5
499.049	920.5
499.267	968.5
499.484	996.5
499.701	1027.5
499.918	1073.5
500.135	1145.5
500.352	1216.5
500.569	1282.5
500.786	1249.5
501.003	1248.5
501.22	1172.5
501.437	1109.5
501.654	1075.5
501.871	1012.5
502.088	957.5
502.305	913.5
502.522	855.5
502.739	875.5
502.956	843.5
503.172	845.5
503.389	801.5
503.606	776.5
503.823	784.5
504.04	757.5
504.256	765.5
504.473	785.5
504.69	777.5
504.907	760.5
505.123	749.5
505.34	736.5
505.557	721.5
505.773	678.5
505.99	707.5
506.207	706.5
506.423	704.5
506.64	664.5
506.856	665.5
507.073	690.5
507.289	662.5
507.506	667.5
507.722	689.5
507.939	672.5
508.155	666.5
508.372	675.5
508.588	660.5
508.805	621.5
509.021	656.5
509.238	680.5
509.454	665.5
509.67	667.5
509.887	642.5
510.103	640.5
510.319	664.5
510.536	744.5
510.752	1248.5
510.968	1023.5
511.184	658.5
511.401	630.5
511.617	636.5
511.833	627.5
512.049	628.5
512.265	633.5
512.481	601.5
512.698	622.5
512.914	594.5
513.13	621.5
513.346	610.5
513.562	605.5
513.778	617.5
513.994	608.5
514.21	621.5
514.426	668.5
514.642	714.5
514.858	691.5
515.074	749.5
515.29	889.5
515.506	1332.5
515.721	1142.5
515.937	769.5
516.153	683.5
516.369	690.5
516.585	672.5
516.801	642.5
517.016	675.5
517.232	689.5
517.448	684.5
517.664	695.5
517.879	676.5
518.095	667.5
518.311	687.5
518.527	664.5
518.742	681.5
518.958	659.5
519.173	626.5
519.389	638.5
519.605	634.5
