Data from 1985.PennyLincolnUp.Lamp.En5.5.200Scan.071819.P1_HRD10591_17-03-37-971.txt Node
Date: Thu Jul 18 17:03:37 EDT 2019
User: cochatt
Spectrometer: HR+D1059
Trigger mode: 1
Integration Time (sec): 1.000000E-1
Scans to average: 1
Electric dark correction enabled: true
Nonlinearity correction enabled: false
Boxcar width: 0
XAxis mode: Wavelengths
Number of Pixels in Spectrum: 2048
>>>>>Begin Spectral Data<<<<<
223.165	-14.75
223.4	-14.75
223.635	-14.75
223.869	-4.75
224.104	-17.75
224.338	-13.75
224.573	-23.75
224.808	-12.75
225.042	-6.75
225.277	-17.75
225.511	0.25
225.746	1.25
225.98	17.25
226.215	11.25
226.449	11.25
226.683	19.25
226.918	18.25
227.152	33.25
227.387	46.25
227.621	35.25
227.856	51.25
228.09	51.25
228.324	50.25
228.559	57.25
228.793	62.25
229.027	95.25
229.262	97.25
229.496	123.25
229.73	133.25
229.964	149.25
230.199	127.25
230.433	123.25
230.667	113.25
230.901	107.25
231.136	115.25
231.37	111.25
231.604	100.25
231.838	122.25
232.072	117.25
232.306	114.25
232.541	93.25
232.775	125.25
233.009	108.25
233.243	115.25
233.477	110.25
233.711	127.25
233.945	130.25
234.179	118.25
234.413	105.25
234.647	101.25
234.881	109.25
235.115	124.25
235.349	123.25
235.583	137.25
235.817	131.25
236.051	133.25
236.285	120.25
236.519	106.25
236.753	142.25
236.987	149.25
237.221	181.25
237.455	229.25
237.689	185.25
237.922	146.25
238.156	125.25
238.39	128.25
238.624	126.25
238.858	133.25
239.091	122.25
239.325	120.25
239.559	118.25
239.793	131.25
240.027	133.25
240.26	129.25
240.494	164.25
240.728	149.25
240.961	166.25
241.195	149.25
241.429	157.25
241.662	142.25
241.896	135.25
242.13	143.25
242.363	146.25
242.597	138.25
242.83	141.25
243.064	147.25
243.298	152.25
243.531	146.25
243.765	141.25
243.998	139.25
244.232	154.25
244.465	152.25
244.699	150.25
244.932	143.25
245.166	146.25
245.399	149.25
245.633	148.25
245.866	141.25
246.099	155.25
246.333	149.25
246.566	150.25
246.8	150.25
247.033	164.25
247.266	167.25
247.5	158.25
247.733	167.25
247.966	169.25
248.2	163.25
248.433	169.25
248.666	179.25
248.899	197.25
249.133	200.25
249.366	206.25
249.599	214.25
249.832	190.25
250.066	178.25
250.299	185.25
250.532	189.25
250.765	213.25
250.998	217.25
251.231	234.25
251.465	222.25
251.698	203.25
251.931	194.25
252.164	201.25
252.397	213.25
252.63	194.25
252.863	206.25
253.096	210.25
253.329	233.25
253.562	217.25
253.795	210.25
254.028	225.25
254.261	226.25
254.494	238.25
254.727	249.25
254.96	271.25
255.193	266.25
255.426	259.25
255.659	242.25
255.892	257.25
256.124	232.25
256.357	262.25
256.59	243.25
256.823	223.25
257.056	223.25
257.289	221.25
257.521	221.25
257.754	218.25
257.987	220.25
258.22	231.25
258.452	230.25
258.685	229.25
258.918	230.25
259.151	223.25
259.383	222.25
259.616	225.25
259.849	224.25
260.081	253.25
260.314	255.25
260.547	277.25
260.779	258.25
261.012	242.25
261.244	233.25
261.477	235.25
261.71	230.25
261.942	224.25
262.175	255.25
262.407	245.25
262.64	221.25
262.872	230.25
263.105	212.25
263.337	225.25
263.57	207.25
263.802	225.25
264.035	240.25
264.267	213.25
264.499	229.25
264.732	230.25
264.964	236.25
265.197	212.25
265.429	234.25
265.661	230.25
265.894	219.25
266.126	238.25
266.358	221.25
266.591	243.25
266.823	233.25
267.055	231.25
267.287	232.25
267.52	232.25
267.752	253.25
267.984	266.25
268.216	255.25
268.448	235.25
268.681	257.25
268.913	253.25
269.145	291.25
269.377	293.25
269.609	306.25
269.841	282.25
270.073	283.25
270.306	302.25
270.538	322.25
270.77	331.25
271.002	317.25
271.234	312.25
271.466	309.25
271.698	321.25
271.93	332.25
272.162	320.25
272.394	335.25
272.626	330.25
272.858	298.25
273.09	301.25
273.322	295.25
273.553	294.25
273.785	283.25
274.017	288.25
274.249	283.25
274.481	291.25
274.713	291.25
274.945	275.25
275.176	264.25
275.408	277.25
275.64	283.25
275.872	280.25
276.104	286.25
276.335	298.25
276.567	300.25
276.799	311.25
277.031	328.25
277.262	333.25
277.494	337.25
277.726	329.25
277.957	322.25
278.189	298.25
278.421	308.25
278.652	310.25
278.884	308.25
279.115	307.25
279.347	294.25
279.579	291.25
279.81	298.25
280.042	288.25
280.273	295.25
280.505	282.25
280.736	299.25
280.968	308.25
281.199	309.25
281.431	299.25
281.662	305.25
281.894	315.25
282.125	302.25
282.356	318.25
282.588	342.25
282.819	329.25
283.051	309.25
283.282	294.25
283.513	308.25
283.745	293.25
283.976	328.25
284.207	303.25
284.439	317.25
284.67	309.25
284.901	307.25
285.132	322.25
285.364	325.25
285.595	332.25
285.826	292.25
286.057	300.25
286.288	318.25
286.52	338.25
286.751	303.25
286.982	322.25
287.213	318.25
287.444	317.25
287.675	334.25
287.906	339.25
288.138	362.25
288.369	347.25
288.6	334.25
288.831	338.25
289.062	327.25
289.293	330.25
289.524	321.25
289.755	343.25
289.986	317.25
290.217	324.25
290.448	340.25
290.679	339.25
290.91	328.25
291.141	298.25
291.371	314.25
291.602	325.25
291.833	329.25
292.064	337.25
292.295	338.25
292.526	345.25
292.757	337.25
292.987	324.25
293.218	341.25
293.449	335.25
293.68	335.25
293.91	338.25
294.141	342.25
294.372	343.25
294.603	336.25
294.833	353.25
295.064	336.25
295.295	355.25
295.525	332.25
295.756	333.25
295.987	338.25
296.217	374.25
296.448	366.25
296.679	339.25
296.909	346.25
297.14	347.25
297.37	344.25
297.601	341.25
297.831	337.25
298.062	333.25
298.292	339.25
298.523	344.25
298.753	337.25
298.984	347.25
299.214	372.25
299.445	364.25
299.675	359.25
299.905	382.25
300.136	354.25
300.366	353.25
300.597	341.25
300.827	359.25
301.057	373.25
301.288	397.25
301.518	389.25
301.748	380.25
301.979	381.25
302.209	392.25
302.439	374.25
302.669	363.25
302.9	388.25
303.13	377.25
303.36	374.25
303.59	395.25
303.82	392.25
304.051	389.25
304.281	401.25
304.511	389.25
304.741	374.25
304.971	379.25
305.201	372.25
305.431	361.25
305.661	362.25
305.891	375.25
306.121	384.25
306.352	379.25
306.582	382.25
306.812	379.25
307.042	392.25
307.272	395.25
307.502	363.25
307.731	387.25
307.961	373.25
308.191	374.25
308.421	383.25
308.651	388.25
308.881	396.25
309.111	385.25
309.341	385.25
309.571	409.25
309.8	410.25
310.03	398.25
310.26	413.25
310.49	407.25
310.72	422.25
310.949	441.25
311.179	442.25
311.409	420.25
311.639	435.25
311.868	391.25
312.098	427.25
312.328	424.25
312.557	438.25
312.787	437.25
313.017	457.25
313.246	446.25
313.476	418.25
313.706	404.25
313.935	446.25
314.165	445.25
314.394	439.25
314.624	453.25
314.853	436.25
315.083	437.25
315.312	421.25
315.542	429.25
315.771	411.25
316.001	429.25
316.23	419.25
316.46	428.25
316.689	437.25
316.919	420.25
317.148	453.25
317.377	446.25
317.607	446.25
317.836	427.25
318.065	431.25
318.295	428.25
318.524	442.25
318.753	435.25
318.983	417.25
319.212	430.25
319.441	433.25
319.67	422.25
319.9	443.25
320.129	422.25
320.358	432.25
320.587	439.25
320.816	421.25
321.046	437.25
321.275	428.25
321.504	444.25
321.733	462.25
321.962	438.25
322.191	436.25
322.42	481.25
322.649	492.25
322.878	484.25
323.108	516.25
323.337	519.25
323.566	536.25
323.795	599.25
324.024	617.25
324.253	709.25
324.482	977.25
324.71	1502.25
324.939	2140.25
325.168	1782.25
325.397	918.25
325.626	682.25
325.855	579.25
326.084	565.25
326.313	537.25
326.542	539.25
326.77	609.25
326.999	708.25
327.228	929.25
327.457	1341.25
327.686	1618.25
327.914	1055.25
328.143	739.25
328.372	670.25
328.6	632.25
328.829	603.25
329.058	619.25
329.287	632.25
329.515	592.25
329.744	559.25
329.972	541.25
330.201	594.25
330.43	622.25
330.658	616.25
330.887	653.25
331.115	637.25
331.344	581.25
331.572	549.25
331.801	528.25
332.03	545.25
332.258	542.25
332.486	517.25
332.715	522.25
332.943	537.25
333.172	520.25
333.4	536.25
333.629	531.25
333.857	592.25
334.085	575.25
334.314	589.25
334.542	586.25
334.771	622.25
334.999	575.25
335.227	557.25
335.455	539.25
335.684	524.25
335.912	538.25
336.14	529.25
336.369	518.25
336.597	509.25
336.825	499.25
337.053	505.25
337.281	493.25
337.51	499.25
337.738	504.25
337.966	524.25
338.194	509.25
338.422	508.25
338.65	518.25
338.878	499.25
339.106	481.25
339.334	509.25
339.562	476.25
339.79	487.25
340.018	479.25
340.246	477.25
340.474	502.25
340.702	481.25
340.93	474.25
341.158	494.25
341.386	485.25
341.614	471.25
341.842	489.25
342.07	453.25
342.298	477.25
342.526	473.25
342.754	477.25
342.981	460.25
343.209	474.25
343.437	475.25
343.665	475.25
343.893	487.25
344.12	518.25
344.348	529.25
344.576	509.25
344.804	500.25
345.031	487.25
345.259	482.25
345.487	468.25
345.714	460.25
345.942	465.25
346.17	471.25
346.397	463.25
346.625	473.25
346.853	469.25
347.08	461.25
347.308	460.25
347.535	457.25
347.763	462.25
347.99	469.25
348.218	484.25
348.445	479.25
348.673	501.25
348.9	488.25
349.128	473.25
349.355	463.25
349.583	448.25
349.81	444.25
350.037	455.25
350.265	451.25
350.492	457.25
350.72	453.25
350.947	449.25
351.174	459.25
351.402	476.25
351.629	469.25
351.856	482.25
352.083	454.25
352.311	447.25
352.538	470.25
352.765	489.25
352.992	474.25
353.22	469.25
353.447	477.25
353.674	454.25
353.901	456.25
354.128	446.25
354.355	423.25
354.583	436.25
354.81	437.25
355.037	446.25
355.264	443.25
355.491	425.25
355.718	425.25
355.945	429.25
356.172	416.25
356.399	421.25
356.626	449.25
356.853	438.25
357.08	417.25
357.307	431.25
357.534	425.25
357.761	405.25
357.988	417.25
358.215	448.25
358.441	426.25
358.668	426.25
358.895	451.25
359.122	435.25
359.349	435.25
359.576	462.25
359.802	470.25
360.029	489.25
360.256	497.25
360.483	504.25
360.709	452.25
360.936	454.25
361.163	460.25
361.39	454.25
361.616	463.25
361.843	443.25
362.07	450.25
362.296	436.25
362.523	430.25
362.749	456.25
362.976	445.25
363.203	441.25
363.429	442.25
363.656	440.25
363.882	444.25
364.109	433.25
364.335	438.25
364.562	412.25
364.788	418.25
365.015	445.25
365.241	445.25
365.468	438.25
365.694	428.25
365.92	450.25
366.147	418.25
366.373	423.25
366.599	418.25
366.826	411.25
367.052	429.25
367.278	429.25
367.505	424.25
367.731	460.25
367.957	455.25
368.184	439.25
368.41	441.25
368.636	433.25
368.862	432.25
369.089	435.25
369.315	435.25
369.541	432.25
369.767	440.25
369.993	441.25
370.219	453.25
370.445	423.25
370.672	418.25
370.898	413.25
371.124	417.25
371.35	433.25
371.576	440.25
371.802	444.25
372.028	430.25
372.254	427.25
372.48	438.25
372.706	440.25
372.932	435.25
373.158	430.25
373.384	426.25
373.61	430.25
373.835	453.25
374.061	451.25
374.287	434.25
374.513	460.25
374.739	443.25
374.965	471.25
375.191	433.25
375.416	469.25
375.642	451.25
375.868	448.25
376.094	455.25
376.319	423.25
376.545	428.25
376.771	440.25
376.997	450.25
377.222	427.25
377.448	430.25
377.674	428.25
377.899	430.25
378.125	446.25
378.35	444.25
378.576	451.25
378.802	420.25
379.027	411.25
379.253	430.25
379.478	422.25
379.704	443.25
379.929	414.25
380.155	417.25
380.38	439.25
380.606	447.25
380.831	445.25
381.057	443.25
381.282	433.25
381.507	453.25
381.733	454.25
381.958	441.25
382.184	427.25
382.409	434.25
382.634	433.25
382.86	434.25
383.085	449.25
383.31	459.25
383.535	464.25
383.761	452.25
383.986	463.25
384.211	468.25
384.436	451.25
384.662	463.25
384.887	485.25
385.112	470.25
385.337	490.25
385.562	473.25
385.787	489.25
386.013	504.25
386.238	491.25
386.463	490.25
386.688	490.25
386.913	475.25
387.138	485.25
387.363	503.25
387.588	480.25
387.813	483.25
388.038	472.25
388.263	471.25
388.488	482.25
388.713	467.25
388.938	478.25
389.163	498.25
389.387	469.25
389.612	473.25
389.837	463.25
390.062	489.25
390.287	458.25
390.512	498.25
390.736	480.25
390.961	486.25
391.186	464.25
391.411	487.25
391.636	505.25
391.86	527.25
392.085	531.25
392.31	522.25
392.534	514.25
392.759	492.25
392.984	492.25
393.208	480.25
393.433	500.25
393.658	497.25
393.882	485.25
394.107	470.25
394.331	484.25
394.556	506.25
394.78	478.25
395.005	503.25
395.229	477.25
395.454	469.25
395.678	514.25
395.903	496.25
396.127	552.25
396.352	558.25
396.576	493.25
396.801	503.25
397.025	512.25
397.249	531.25
397.474	527.25
397.698	510.25
397.922	529.25
398.147	539.25
398.371	530.25
398.595	548.25
398.82	556.25
399.044	614.25
399.268	614.25
399.492	662.25
399.717	713.25
399.941	714.25
400.165	729.25
400.389	717.25
400.613	638.25
400.837	585.25
401.062	579.25
401.286	583.25
401.51	556.25
401.734	552.25
401.958	559.25
402.182	561.25
402.406	585.25
402.63	578.25
402.854	586.25
403.078	581.25
403.302	584.25
403.526	613.25
403.75	614.25
403.974	611.25
404.198	588.25
404.422	604.25
404.645	605.25
404.869	602.25
405.093	638.25
405.317	666.25
405.541	691.25
405.765	635.25
405.988	621.25
406.212	625.25
406.436	640.25
406.66	648.25
406.883	654.25
407.107	654.25
407.331	710.25
407.555	762.25
407.778	762.25
408.002	726.25
408.226	641.25
408.449	634.25
408.673	646.25
408.896	655.25
409.12	678.25
409.344	670.25
409.567	598.25
409.791	602.25
410.014	577.25
410.238	555.25
410.461	574.25
410.685	583.25
410.908	576.25
411.132	611.25
411.355	639.25
411.578	619.25
411.802	595.25
412.025	580.25
412.249	588.25
412.472	627.25
412.695	645.25
412.919	637.25
413.142	586.25
413.365	566.25
413.589	566.25
413.812	542.25
414.035	546.25
414.258	554.25
414.482	561.25
414.705	554.25
414.928	537.25
415.151	551.25
415.374	561.25
415.597	538.25
415.821	519.25
416.044	554.25
416.267	548.25
416.49	521.25
416.713	531.25
416.936	534.25
417.159	542.25
417.382	529.25
417.605	541.25
417.828	542.25
418.051	575.25
418.274	541.25
418.497	545.25
418.72	551.25
418.943	553.25
419.166	556.25
419.389	605.25
419.611	586.25
419.834	586.25
420.057	575.25
420.28	576.25
420.503	572.25
420.726	549.25
420.948	581.25
421.171	605.25
421.394	646.25
421.617	579.25
421.839	549.25
422.062	552.25
422.285	575.25
422.507	621.25
422.73	680.25
422.953	679.25
423.175	603.25
423.398	588.25
423.621	584.25
423.843	597.25
424.066	604.25
424.288	583.25
424.511	614.25
424.733	665.25
424.956	722.25
425.178	702.25
425.401	708.25
425.623	740.25
425.846	618.25
426.068	606.25
426.291	573.25
426.513	589.25
426.735	598.25
426.958	634.25
427.18	705.25
427.402	813.25
427.625	914.25
427.847	811.25
428.069	697.25
428.292	615.25
428.514	568.25
428.736	546.25
428.958	548.25
429.181	539.25
429.403	514.25
429.625	542.25
429.847	583.25
430.069	645.25
430.292	641.25
430.514	545.25
430.736	543.25
430.958	523.25
431.18	525.25
431.402	508.25
431.624	486.25
431.846	511.25
432.068	511.25
432.29	534.25
432.512	510.25
432.734	524.25
432.956	528.25
433.178	513.25
433.4	524.25
433.622	518.25
433.844	518.25
434.066	503.25
434.287	521.25
434.509	518.25
434.731	530.25
434.953	569.25
435.175	563.25
435.397	585.25
435.618	588.25
435.84	623.25
436.062	710.25
436.284	762.25
436.505	619.25
436.727	599.25
436.949	532.25
437.17	515.25
437.392	535.25
437.614	548.25
437.835	580.25
438.057	666.25
438.278	780.25
438.5	744.25
438.721	844.25
438.943	773.25
439.165	608.25
439.386	580.25
439.608	568.25
439.829	577.25
440.05	595.25
440.272	662.25
440.493	627.25
440.715	551.25
440.936	540.25
441.158	559.25
441.379	550.25
441.6	556.25
441.822	601.25
442.043	665.25
442.264	701.25
442.486	758.25
442.707	645.25
442.928	583.25
443.149	613.25
443.371	626.25
443.592	661.25
443.813	750.25
444.034	810.25
444.255	695.25
444.476	638.25
444.698	617.25
444.919	609.25
445.14	751.25
445.361	673.25
445.582	647.25
445.803	684.25
446.024	751.25
446.245	770.25
446.466	705.25
446.687	610.25
446.908	562.25
447.129	558.25
447.35	557.25
447.571	531.25
447.792	527.25
448.013	523.25
448.234	534.25
448.455	583.25
448.675	703.25
448.896	814.25
449.117	697.25
449.338	641.25
449.559	772.25
449.779	830.25
450	683.25
450.221	568.25
450.442	499.25
450.662	507.25
450.883	518.25
451.104	535.25
451.324	524.25
451.545	537.25
451.766	493.25
451.986	467.25
452.207	481.25
452.428	493.25
452.648	481.25
452.869	500.25
453.089	480.25
453.31	494.25
453.53	489.25
453.751	490.25
453.971	494.25
454.192	493.25
454.412	476.25
454.633	478.25
454.853	453.25
455.073	469.25
455.294	507.25
455.514	557.25
455.734	536.25
455.955	471.25
456.175	454.25
456.395	452.25
456.616	448.25
456.836	436.25
457.056	453.25
457.276	419.25
457.497	438.25
457.717	483.25
457.937	474.25
458.157	452.25
458.377	464.25
458.598	502.25
458.818	544.25
459.038	625.25
459.258	637.25
459.478	563.25
459.698	533.25
459.918	522.25
460.138	545.25
460.358	559.25
460.578	540.25
460.798	543.25
461.018	559.25
461.238	561.25
461.458	553.25
461.678	557.25
461.898	540.25
462.118	557.25
462.338	548.25
462.558	580.25
462.777	594.25
462.997	637.25
463.217	641.25
463.437	632.25
463.657	612.25
463.876	608.25
464.096	591.25
464.316	561.25
464.536	598.25
464.755	606.25
464.975	596.25
465.195	628.25
465.414	680.25
465.634	603.25
465.854	569.25
466.073	538.25
466.293	511.25
466.512	514.25
466.732	502.25
466.951	501.25
467.171	498.25
467.391	491.25
467.61	504.25
467.829	499.25
468.049	489.25
468.268	510.25
468.488	501.25
468.707	483.25
468.927	470.25
469.146	474.25
469.365	485.25
469.585	460.25
469.804	487.25
470.023	526.25
470.243	505.25
470.462	523.25
470.681	533.25
470.901	543.25
471.12	531.25
471.339	510.25
471.558	498.25
471.777	491.25
471.997	469.25
472.216	508.25
472.435	533.25
472.654	519.25
472.873	487.25
473.092	494.25
473.311	491.25
473.53	497.25
473.749	499.25
473.968	522.25
474.187	630.25
474.406	636.25
474.625	551.25
474.844	514.25
475.063	522.25
475.282	487.25
475.501	500.25
475.72	517.25
475.939	499.25
476.158	515.25
476.377	506.25
476.596	501.25
476.814	517.25
477.033	526.25
477.252	526.25
477.471	535.25
477.69	548.25
477.908	532.25
478.127	536.25
478.346	541.25
478.564	543.25
478.783	575.25
479.002	574.25
479.22	573.25
479.439	596.25
479.658	590.25
479.876	595.25
480.095	622.25
480.313	639.25
480.532	657.25
480.751	615.25
480.969	623.25
481.188	667.25
481.406	715.25
481.624	650.25
481.843	593.25
482.061	591.25
482.28	585.25
482.498	569.25
482.717	577.25
482.935	586.25
483.153	586.25
483.372	555.25
483.59	593.25
483.808	580.25
484.027	559.25
484.245	602.25
484.463	591.25
484.681	589.25
484.9	577.25
485.118	584.25
485.336	595.25
485.554	599.25
485.772	609.25
485.99	597.25
486.209	609.25
486.427	596.25
486.645	608.25
486.863	617.25
487.081	613.25
487.299	627.25
487.517	612.25
487.735	632.25
487.953	625.25
488.171	615.25
488.389	637.25
488.607	615.25
488.825	619.25
489.043	605.25
489.261	636.25
489.479	649.25
489.696	634.25
489.914	622.25
490.132	641.25
490.35	635.25
490.568	657.25
490.786	660.25
491.003	676.25
491.221	683.25
491.439	675.25
491.657	705.25
491.874	715.25
492.092	700.25
492.31	701.25
492.527	734.25
492.745	706.25
492.963	711.25
493.18	732.25
493.398	732.25
493.615	740.25
493.833	737.25
494.05	729.25
494.268	718.25
494.485	713.25
494.703	723.25
494.92	719.25
495.138	732.25
495.355	737.25
495.573	741.25
495.79	718.25
496.008	727.25
496.225	720.25
496.442	745.25
496.66	731.25
496.877	733.25
497.094	732.25
497.312	755.25
497.529	734.25
497.746	789.25
497.963	780.25
498.181	827.25
498.398	825.25
498.615	843.25
498.832	893.25
499.049	913.25
499.267	924.25
499.484	969.25
499.701	1016.25
499.918	1079.25
500.135	1180.25
500.352	1225.25
500.569	1240.25
500.786	1269.25
501.003	1232.25
501.22	1155.25
501.437	1111.25
501.654	1058.25
501.871	1006.25
