Data from 1985.PennyLincolnUp.Lamp.En5.5.200Scan.071819.P1_HRD10591_17-02-13-969.txt Node
Date: Thu Jul 18 17:02:13 EDT 2019
User: cochatt
Spectrometer: HR+D1059
Trigger mode: 1
Integration Time (sec): 1.000000E-1
Scans to average: 1
Electric dark correction enabled: true
Nonlinearity correction enabled: false
Boxcar width: 0
XAxis mode: Wavelengths
Number of Pixels in Spectrum: 2048
>>>>>Begin Spectral Data<<<<<
223.165	-21.94
223.4	-21.94
223.635	-21.94
223.869	-28.94
224.104	-12.94
224.338	-3.94
224.573	-6.94
224.808	-12.94
225.042	-26.94
225.277	-4.94
225.511	2.06
225.746	9.06
225.98	10.06
226.215	7.06
226.449	23.06
226.683	10.06
226.918	25.06
227.152	33.06
227.387	26.06
227.621	36.06
227.856	45.06
228.09	56.06
228.324	59.06
228.559	45.06
228.793	65.06
229.027	90.06
229.262	98.06
229.496	100.06
229.73	116.06
229.964	143.06
230.199	121.06
230.433	112.06
230.667	113.06
230.901	89.06
231.136	105.06
231.37	107.06
231.604	115.06
231.838	105.06
232.072	121.06
232.306	105.06
232.541	115.06
232.775	113.06
233.009	112.06
233.243	116.06
233.477	108.06
233.711	121.06
233.945	104.06
234.179	115.06
234.413	117.06
234.647	116.06
234.881	112.06
235.115	117.06
235.349	121.06
235.583	120.06
235.817	119.06
236.051	122.06
236.285	137.06
236.519	112.06
236.753	121.06
236.987	155.06
237.221	171.06
237.455	215.06
237.689	177.06
237.922	133.06
238.156	119.06
238.39	118.06
238.624	139.06
238.858	116.06
239.091	113.06
239.325	130.06
239.559	114.06
239.793	122.06
240.027	134.06
240.26	134.06
240.494	137.06
240.728	139.06
240.961	132.06
241.195	140.06
241.429	141.06
241.662	142.06
241.896	120.06
242.13	135.06
242.363	143.06
242.597	123.06
242.83	134.06
243.064	135.06
243.298	155.06
243.531	123.06
243.765	125.06
243.998	128.06
244.232	151.06
244.465	131.06
244.699	141.06
244.932	158.06
245.166	143.06
245.399	148.06
245.633	145.06
245.866	160.06
246.099	143.06
246.333	155.06
246.566	154.06
246.8	166.06
247.033	150.06
247.266	154.06
247.5	137.06
247.733	172.06
247.966	167.06
248.2	154.06
248.433	175.06
248.666	182.06
248.899	179.06
249.133	181.06
249.366	197.06
249.599	193.06
249.832	179.06
250.066	149.06
250.299	195.06
250.532	177.06
250.765	201.06
250.998	211.06
251.231	207.06
251.465	208.06
251.698	196.06
251.931	195.06
252.164	189.06
252.397	185.06
252.63	196.06
252.863	184.06
253.096	202.06
253.329	226.06
253.562	220.06
253.795	211.06
254.028	206.06
254.261	208.06
254.494	228.06
254.727	233.06
254.96	256.06
255.193	259.06
255.426	226.06
255.659	223.06
255.892	228.06
256.124	220.06
256.357	196.06
256.59	213.06
256.823	200.06
257.056	200.06
257.289	197.06
257.521	204.06
257.754	203.06
257.987	208.06
258.22	213.06
258.452	204.06
258.685	203.06
258.918	197.06
259.151	200.06
259.383	224.06
259.616	217.06
259.849	216.06
260.081	242.06
260.314	224.06
260.547	251.06
260.779	245.06
261.012	230.06
261.244	211.06
261.477	217.06
261.71	226.06
261.942	226.06
262.175	234.06
262.407	218.06
262.64	205.06
262.872	206.06
263.105	217.06
263.337	225.06
263.57	216.06
263.802	201.06
264.035	225.06
264.267	216.06
264.499	224.06
264.732	208.06
264.964	219.06
265.197	219.06
265.429	220.06
265.661	221.06
265.894	212.06
266.126	219.06
266.358	211.06
266.591	233.06
266.823	247.06
267.055	239.06
267.287	240.06
267.52	221.06
267.752	250.06
267.984	256.06
268.216	230.06
268.448	247.06
268.681	257.06
268.913	255.06
269.145	265.06
269.377	266.06
269.609	251.06
269.841	258.06
270.073	274.06
270.306	281.06
270.538	311.06
270.77	311.06
271.002	299.06
271.234	290.06
271.466	303.06
271.698	307.06
271.93	305.06
272.162	309.06
272.394	315.06
272.626	298.06
272.858	289.06
273.09	287.06
273.322	279.06
273.553	275.06
273.785	277.06
274.017	276.06
274.249	269.06
274.481	281.06
274.713	275.06
274.945	282.06
275.176	256.06
275.408	267.06
275.64	251.06
275.872	270.06
276.104	299.06
276.335	269.06
276.567	293.06
276.799	289.06
277.031	306.06
277.262	325.06
277.494	308.06
277.726	289.06
277.957	293.06
278.189	288.06
278.421	276.06
278.652	277.06
278.884	279.06
279.115	287.06
279.347	284.06
279.579	282.06
279.81	267.06
280.042	269.06
280.273	280.06
280.505	283.06
280.736	280.06
280.968	276.06
281.199	286.06
281.431	290.06
281.662	288.06
281.894	298.06
282.125	295.06
282.356	308.06
282.588	313.06
282.819	323.06
283.051	291.06
283.282	286.06
283.513	307.06
283.745	297.06
283.976	296.06
284.207	309.06
284.439	291.06
284.67	288.06
284.901	299.06
285.132	296.06
285.364	292.06
285.595	299.06
285.826	297.06
286.057	306.06
286.288	309.06
286.52	288.06
286.751	294.06
286.982	294.06
287.213	297.06
287.444	304.06
287.675	289.06
287.906	305.06
288.138	321.06
288.369	319.06
288.6	307.06
288.831	311.06
289.062	323.06
289.293	312.06
289.524	316.06
289.755	309.06
289.986	315.06
290.217	309.06
290.448	308.06
290.679	292.06
290.91	328.06
291.141	321.06
291.371	315.06
291.602	312.06
291.833	309.06
292.064	337.06
292.295	330.06
292.526	337.06
292.757	324.06
292.987	311.06
293.218	317.06
293.449	311.06
293.68	311.06
293.91	307.06
294.141	321.06
294.372	332.06
294.603	323.06
294.833	311.06
295.064	342.06
295.295	330.06
295.525	316.06
295.756	321.06
295.987	313.06
296.217	343.06
296.448	339.06
296.679	336.06
296.909	336.06
297.14	313.06
297.37	330.06
297.601	329.06
297.831	339.06
298.062	319.06
298.292	332.06
298.523	337.06
298.753	362.06
298.984	344.06
299.214	338.06
299.445	339.06
299.675	319.06
299.905	346.06
300.136	347.06
300.366	338.06
300.597	334.06
300.827	358.06
301.057	324.06
301.288	366.06
301.518	367.06
301.748	349.06
301.979	354.06
302.209	349.06
302.439	364.06
302.669	340.06
302.9	347.06
303.13	366.06
303.36	359.06
303.59	372.06
303.82	377.06
304.051	404.06
304.281	377.06
304.511	356.06
304.741	371.06
304.971	358.06
305.201	367.06
305.431	356.06
305.661	331.06
305.891	378.06
306.121	364.06
306.352	383.06
306.582	373.06
306.812	347.06
307.042	361.06
307.272	349.06
307.502	354.06
307.731	367.06
307.961	369.06
308.191	376.06
308.421	373.06
308.651	380.06
308.881	396.06
309.111	349.06
309.341	364.06
309.571	364.06
309.8	378.06
310.03	377.06
310.26	412.06
310.49	395.06
310.72	397.06
310.949	423.06
311.179	428.06
311.409	416.06
311.639	394.06
311.868	418.06
312.098	393.06
312.328	391.06
312.557	413.06
312.787	428.06
313.017	426.06
313.246	420.06
313.476	401.06
313.706	402.06
313.935	400.06
314.165	416.06
314.394	428.06
314.624	425.06
314.853	421.06
315.083	398.06
315.312	386.06
315.542	410.06
315.771	417.06
316.001	385.06
316.23	424.06
316.46	418.06
316.689	421.06
316.919	401.06
317.148	415.06
317.377	427.06
317.607	398.06
317.836	411.06
318.065	394.06
318.295	382.06
318.524	411.06
318.753	416.06
318.983	411.06
319.212	424.06
319.441	418.06
319.67	419.06
319.9	417.06
320.129	417.06
320.358	393.06
320.587	407.06
320.816	408.06
321.046	420.06
321.275	417.06
321.504	416.06
321.733	426.06
321.962	421.06
322.191	436.06
322.42	460.06
322.649	470.06
322.878	467.06
323.108	450.06
323.337	491.06
323.566	524.06
323.795	544.06
324.024	584.06
324.253	685.06
324.482	930.06
324.71	1381.06
324.939	1924.06
325.168	1641.06
325.397	892.06
325.626	632.06
325.855	570.06
326.084	506.06
326.313	516.06
326.542	518.06
326.77	552.06
326.999	640.06
327.228	827.06
327.457	1225.06
327.686	1471.06
327.914	982.06
328.143	663.06
328.372	591.06
328.6	585.06
328.829	544.06
329.058	573.06
329.287	578.06
329.515	560.06
329.744	517.06
329.972	531.06
330.201	496.06
330.43	523.06
330.658	568.06
330.887	601.06
331.115	590.06
331.344	547.06
331.572	505.06
331.801	497.06
332.03	514.06
332.258	509.06
332.486	477.06
332.715	497.06
332.943	500.06
333.172	512.06
333.4	518.06
333.629	519.06
333.857	538.06
334.085	524.06
334.314	506.06
334.542	509.06
334.771	502.06
334.999	506.06
335.227	485.06
335.455	518.06
335.684	501.06
335.912	505.06
336.14	484.06
336.369	492.06
336.597	513.06
336.825	497.06
337.053	490.06
337.281	506.06
337.51	495.06
337.738	473.06
337.966	475.06
338.194	476.06
338.422	467.06
338.65	460.06
338.878	465.06
339.106	451.06
339.334	457.06
339.562	450.06
339.79	459.06
340.018	459.06
340.246	447.06
340.474	476.06
340.702	465.06
340.93	441.06
341.158	455.06
341.386	444.06
341.614	485.06
341.842	444.06
342.07	458.06
342.298	458.06
342.526	453.06
342.754	454.06
342.981	457.06
343.209	461.06
343.437	447.06
343.665	486.06
343.893	485.06
344.12	474.06
344.348	488.06
344.576	476.06
344.804	481.06
345.031	490.06
345.259	467.06
345.487	461.06
345.714	463.06
345.942	440.06
346.17	450.06
346.397	438.06
346.625	455.06
346.853	427.06
347.08	432.06
347.308	441.06
347.535	444.06
347.763	443.06
347.99	432.06
348.218	443.06
348.445	435.06
348.673	425.06
348.9	443.06
349.128	420.06
349.355	425.06
349.583	438.06
349.81	438.06
350.037	414.06
350.265	451.06
350.492	420.06
350.72	424.06
350.947	452.06
351.174	436.06
351.402	429.06
351.629	446.06
351.856	447.06
352.083	444.06
352.311	450.06
352.538	454.06
352.765	462.06
352.992	474.06
353.22	428.06
353.447	433.06
353.674	426.06
353.901	421.06
354.128	407.06
354.355	419.06
354.583	409.06
354.81	408.06
355.037	404.06
355.264	425.06
355.491	393.06
355.718	409.06
355.945	400.06
356.172	391.06
356.399	430.06
356.626	412.06
356.853	403.06
357.08	421.06
357.307	414.06
357.534	413.06
357.761	412.06
357.988	418.06
358.215	422.06
358.441	418.06
358.668	413.06
358.895	417.06
359.122	410.06
359.349	440.06
359.576	431.06
359.802	457.06
360.029	490.06
360.256	488.06
360.483	470.06
360.709	454.06
360.936	440.06
361.163	418.06
361.39	431.06
361.616	433.06
361.843	435.06
362.07	448.06
362.296	433.06
362.523	424.06
362.749	444.06
362.976	412.06
363.203	425.06
363.429	435.06
363.656	418.06
363.882	422.06
364.109	423.06
364.335	413.06
364.562	402.06
364.788	423.06
365.015	431.06
365.241	413.06
365.468	401.06
365.694	395.06
365.92	416.06
366.147	405.06
366.373	402.06
366.599	408.06
366.826	378.06
367.052	409.06
367.278	434.06
367.505	407.06
367.731	420.06
367.957	411.06
368.184	401.06
368.41	415.06
368.636	420.06
368.862	442.06
369.089	411.06
369.315	403.06
369.541	407.06
369.767	408.06
369.993	416.06
370.219	414.06
370.445	402.06
370.672	413.06
370.898	401.06
371.124	420.06
371.35	422.06
371.576	421.06
371.802	418.06
372.028	406.06
372.254	403.06
372.48	409.06
372.706	427.06
372.932	446.06
373.158	429.06
373.384	426.06
373.61	433.06
373.835	432.06
374.061	402.06
374.287	427.06
374.513	435.06
374.739	421.06
374.965	440.06
375.191	409.06
375.416	460.06
375.642	427.06
375.868	428.06
376.094	420.06
376.319	427.06
376.545	425.06
376.771	410.06
376.997	406.06
377.222	401.06
377.448	396.06
377.674	410.06
377.899	404.06
378.125	403.06
378.35	409.06
378.576	412.06
378.802	393.06
379.027	401.06
379.253	380.06
379.478	401.06
379.704	418.06
379.929	428.06
380.155	408.06
380.38	426.06
380.606	395.06
380.831	412.06
381.057	416.06
381.282	417.06
381.507	421.06
381.733	413.06
381.958	409.06
382.184	422.06
382.409	422.06
382.634	419.06
382.86	426.06
383.085	423.06
383.31	437.06
383.535	437.06
383.761	410.06
383.986	433.06
384.211	462.06
384.436	442.06
384.662	447.06
384.887	450.06
385.112	453.06
385.337	456.06
385.562	459.06
385.787	463.06
386.013	495.06
386.238	468.06
386.463	479.06
386.688	485.06
386.913	461.06
387.138	438.06
387.363	463.06
387.588	468.06
387.813	470.06
388.038	452.06
388.263	451.06
388.488	447.06
388.713	450.06
388.938	465.06
389.163	460.06
389.387	456.06
389.612	444.06
389.837	432.06
390.062	452.06
390.287	421.06
390.512	453.06
390.736	447.06
390.961	469.06
391.186	460.06
391.411	466.06
391.636	474.06
391.86	490.06
392.085	476.06
392.31	472.06
392.534	472.06
392.759	493.06
392.984	479.06
393.208	476.06
393.433	467.06
393.658	452.06
393.882	471.06
394.107	484.06
394.331	466.06
394.556	456.06
394.78	467.06
395.005	453.06
395.229	467.06
395.454	479.06
395.678	495.06
395.903	487.06
396.127	495.06
396.352	520.06
396.576	511.06
396.801	475.06
397.025	471.06
397.249	484.06
397.474	509.06
397.698	482.06
397.922	497.06
398.147	520.06
398.371	519.06
398.595	527.06
398.82	531.06
399.044	538.06
399.268	581.06
399.492	633.06
399.717	658.06
399.941	674.06
400.165	679.06
400.389	658.06
400.613	619.06
400.837	574.06
401.062	560.06
401.286	543.06
401.51	548.06
401.734	538.06
401.958	541.06
402.182	547.06
402.406	566.06
402.63	560.06
402.854	573.06
403.078	542.06
403.302	565.06
403.526	575.06
403.75	551.06
403.974	582.06
404.198	550.06
404.422	573.06
404.645	564.06
404.869	570.06
405.093	561.06
405.317	639.06
405.541	629.06
405.765	570.06
405.988	582.06
406.212	589.06
406.436	602.06
406.66	632.06
406.883	623.06
407.107	621.06
407.331	684.06
407.555	727.06
407.778	736.06
408.002	671.06
408.226	650.06
408.449	634.06
408.673	598.06
408.896	602.06
409.12	656.06
409.344	620.06
409.567	577.06
409.791	556.06
410.014	565.06
410.238	550.06
410.461	559.06
410.685	559.06
410.908	572.06
411.132	595.06
411.355	595.06
411.578	599.06
411.802	546.06
412.025	547.06
412.249	532.06
412.472	559.06
412.695	533.06
412.919	538.06
413.142	536.06
413.365	505.06
413.589	514.06
413.812	497.06
414.035	520.06
414.258	509.06
414.482	517.06
414.705	533.06
414.928	522.06
415.151	511.06
415.374	504.06
415.597	489.06
415.821	526.06
416.044	519.06
416.267	529.06
416.49	523.06
416.713	479.06
416.936	512.06
417.159	502.06
417.382	520.06
417.605	523.06
417.828	525.06
418.051	547.06
418.274	540.06
418.497	521.06
418.72	522.06
418.943	519.06
419.166	543.06
419.389	578.06
419.611	576.06
419.834	555.06
420.057	527.06
420.28	539.06
420.503	509.06
420.726	514.06
420.948	539.06
421.171	557.06
421.394	633.06
421.617	553.06
421.839	532.06
422.062	532.06
422.285	528.06
422.507	587.06
422.73	657.06
422.953	639.06
423.175	559.06
423.398	561.06
423.621	552.06
423.843	576.06
424.066	593.06
424.288	572.06
424.511	610.06
424.733	631.06
424.956	695.06
425.178	664.06
425.401	666.06
425.623	672.06
425.846	610.06
426.068	554.06
426.291	579.06
426.513	571.06
426.735	552.06
426.958	594.06
427.18	655.06
427.402	757.06
427.625	873.06
427.847	748.06
428.069	636.06
428.292	592.06
428.514	535.06
428.736	539.06
428.958	516.06
429.181	505.06
429.403	485.06
429.625	500.06
429.847	562.06
430.069	612.06
430.292	593.06
430.514	532.06
430.736	501.06
430.958	516.06
431.18	472.06
431.402	479.06
431.624	486.06
431.846	483.06
432.068	481.06
432.29	484.06
432.512	506.06
432.734	523.06
432.956	498.06
433.178	514.06
433.4	503.06
433.622	495.06
433.844	495.06
434.066	488.06
434.287	500.06
434.509	492.06
434.731	511.06
434.953	513.06
435.175	538.06
435.397	543.06
435.618	538.06
435.84	570.06
436.062	658.06
436.284	727.06
436.505	614.06
436.727	548.06
436.949	531.06
437.17	473.06
437.392	524.06
437.614	531.06
437.835	535.06
438.057	630.06
438.278	716.06
438.5	700.06
438.721	788.06
438.943	744.06
439.165	613.06
439.386	575.06
439.608	559.06
439.829	551.06
440.05	579.06
440.272	609.06
440.493	578.06
440.715	553.06
440.936	533.06
441.158	523.06
441.379	522.06
441.6	544.06
441.822	570.06
442.043	591.06
442.264	664.06
442.486	719.06
442.707	605.06
442.928	570.06
443.149	579.06
443.371	583.06
443.592	623.06
443.813	715.06
444.034	747.06
444.255	661.06
444.476	601.06
444.698	606.06
444.919	590.06
445.14	687.06
445.361	632.06
445.582	628.06
445.803	659.06
446.024	742.06
446.245	767.06
446.466	691.06
446.687	577.06
446.908	520.06
447.129	519.06
447.35	492.06
447.571	515.06
447.792	503.06
448.013	525.06
448.234	514.06
448.455	535.06
448.675	652.06
448.896	782.06
449.117	634.06
449.338	617.06
449.559	689.06
449.779	777.06
450	630.06
450.221	533.06
450.442	479.06
450.662	491.06
450.883	513.06
451.104	525.06
451.324	498.06
451.545	483.06
451.766	452.06
451.986	448.06
452.207	441.06
452.428	445.06
452.648	458.06
452.869	447.06
453.089	477.06
453.31	483.06
453.53	457.06
453.751	452.06
453.971	456.06
454.192	478.06
454.412	453.06
454.633	446.06
454.853	453.06
455.073	450.06
455.294	466.06
455.514	517.06
455.734	487.06
455.955	445.06
456.175	433.06
456.395	439.06
456.616	448.06
456.836	452.06
457.056	417.06
457.276	444.06
457.497	433.06
457.717	438.06
457.937	440.06
458.157	447.06
458.377	437.06
458.598	478.06
458.818	535.06
459.038	580.06
459.258	589.06
459.478	536.06
459.698	496.06
459.918	488.06
460.138	527.06
460.358	519.06
460.578	524.06
460.798	525.06
461.018	502.06
461.238	516.06
461.458	533.06
461.678	516.06
461.898	532.06
462.118	512.06
462.338	539.06
462.558	559.06
462.777	573.06
462.997	589.06
463.217	612.06
463.437	616.06
463.657	587.06
463.876	575.06
464.096	570.06
464.316	587.06
464.536	585.06
464.755	578.06
464.975	589.06
465.195	615.06
465.414	658.06
465.634	573.06
465.854	524.06
466.073	508.06
466.293	504.06
466.512	488.06
466.732	454.06
466.951	459.06
467.171	482.06
467.391	474.06
467.61	456.06
467.829	495.06
468.049	471.06
468.268	476.06
468.488	449.06
468.707	459.06
468.927	460.06
469.146	461.06
469.365	460.06
469.585	459.06
469.804	486.06
470.023	492.06
470.243	494.06
470.462	500.06
470.681	508.06
470.901	498.06
471.12	457.06
471.339	488.06
471.558	479.06
471.777	492.06
471.997	465.06
472.216	475.06
472.435	462.06
472.654	461.06
472.873	468.06
473.092	449.06
473.311	476.06
473.53	465.06
473.749	487.06
473.968	485.06
474.187	595.06
474.406	618.06
474.625	511.06
474.844	488.06
475.063	475.06
475.282	478.06
475.501	449.06
475.72	490.06
475.939	486.06
476.158	501.06
476.377	479.06
476.596	483.06
476.814	497.06
477.033	501.06
477.252	490.06
477.471	511.06
477.69	515.06
477.908	523.06
478.127	527.06
478.346	534.06
478.564	541.06
478.783	542.06
479.002	567.06
479.22	562.06
479.439	553.06
479.658	576.06
479.876	584.06
480.095	565.06
480.313	592.06
480.532	594.06
480.751	586.06
480.969	592.06
481.188	572.06
481.406	595.06
481.624	573.06
481.843	554.06
482.061	553.06
482.28	552.06
482.498	542.06
482.717	533.06
482.935	543.06
483.153	571.06
483.372	544.06
483.59	545.06
483.808	533.06
484.027	549.06
484.245	575.06
484.463	568.06
484.681	554.06
484.9	546.06
485.118	545.06
485.336	577.06
485.554	581.06
485.772	567.06
485.99	553.06
486.209	559.06
486.427	552.06
486.645	573.06
486.863	580.06
487.081	591.06
487.299	565.06
487.517	599.06
487.735	594.06
487.953	581.06
488.171	579.06
488.389	579.06
488.607	576.06
488.825	577.06
489.043	592.06
489.261	605.06
489.479	585.06
489.696	587.06
489.914	583.06
490.132	613.06
490.35	596.06
490.568	604.06
490.786	606.06
491.003	624.06
491.221	652.06
491.439	655.06
491.657	615.06
491.874	669.06
492.092	651.06
492.31	644.06
492.527	662.06
492.745	653.06
492.963	646.06
493.18	647.06
493.398	654.06
493.615	667.06
493.833	679.06
494.05	698.06
494.268	672.06
494.485	680.06
494.703	691.06
494.92	682.06
495.138	691.06
495.355	710.06
495.573	685.06
495.79	681.06
496.008	690.06
496.225	697.06
496.442	682.06
496.66	699.06
496.877	693.06
497.094	707.06
497.312	696.06
497.529	709.06
497.746	726.06
497.963	733.06
498.181	765.06
498.398	767.06
498.615	816.06
498.832	831.06
499.049	854.06
499.267	891.06
499.484	907.06
499.701	977.06
499.918	1034.06
500.135	1115.06
500.352	1172.06
500.569	1164.06
500.786	1187.06
501.003	1166.06
501.22	1092.06
501.437	1023.06
501.654	1011.06
501.871	934.06
