Data from 1985.PennyLincolnUp.Lamp.En5.5.200Scan.071819.P1_HRD10591_17-01-13-970.txt Node
Date: Thu Jul 18 17:01:13 EDT 2019
User: cochatt
Spectrometer: HR+D1059
Trigger mode: 1
Integration Time (sec): 1.000000E-1
Scans to average: 1
Electric dark correction enabled: true
Nonlinearity correction enabled: false
Boxcar width: 0
XAxis mode: Wavelengths
Number of Pixels in Spectrum: 2048
>>>>>Begin Spectral Data<<<<<
223.165	-17.25
223.4	-17.25
223.635	-17.25
223.869	-27.25
224.104	-7.25
224.338	-13.25
224.573	-24.25
224.808	-18.25
225.042	-12.25
225.277	-7.25
225.511	-0.25
225.746	4.75
225.98	16.75
226.215	4.75
226.449	22.75
226.683	20.75
226.918	29.75
227.152	27.75
227.387	20.75
227.621	35.75
227.856	23.75
228.09	49.75
228.324	27.75
228.559	52.75
228.793	68.75
229.027	75.75
229.262	84.75
229.496	89.75
229.73	100.75
229.964	118.75
230.199	97.75
230.433	92.75
230.667	108.75
230.901	103.75
231.136	101.75
231.37	94.75
231.604	94.75
231.838	115.75
232.072	106.75
232.306	96.75
232.541	104.75
232.775	100.75
233.009	94.75
233.243	108.75
233.477	110.75
233.711	107.75
233.945	116.75
234.179	110.75
234.413	114.75
234.647	122.75
234.881	110.75
235.115	99.75
235.349	104.75
235.583	118.75
235.817	106.75
236.051	124.75
236.285	108.75
236.519	101.75
236.753	126.75
236.987	125.75
237.221	142.75
237.455	173.75
237.689	133.75
237.922	145.75
238.156	122.75
238.39	98.75
238.624	116.75
238.858	127.75
239.091	97.75
239.325	87.75
239.559	110.75
239.793	106.75
240.027	123.75
240.26	112.75
240.494	117.75
240.728	123.75
240.961	123.75
241.195	158.75
241.429	117.75
241.662	117.75
241.896	115.75
242.13	124.75
242.363	122.75
242.597	121.75
242.83	115.75
243.064	131.75
243.298	101.75
243.531	134.75
243.765	124.75
243.998	131.75
244.232	130.75
244.465	119.75
244.699	128.75
244.932	119.75
245.166	139.75
245.399	116.75
245.633	121.75
245.866	124.75
246.099	137.75
246.333	138.75
246.566	135.75
246.8	134.75
247.033	127.75
247.266	149.75
247.5	150.75
247.733	162.75
247.966	151.75
248.2	155.75
248.433	162.75
248.666	165.75
248.899	142.75
249.133	154.75
249.366	164.75
249.599	152.75
249.832	159.75
250.066	161.75
250.299	163.75
250.532	166.75
250.765	166.75
250.998	175.75
251.231	185.75
251.465	184.75
251.698	174.75
251.931	180.75
252.164	175.75
252.397	163.75
252.63	173.75
252.863	192.75
253.096	201.75
253.329	192.75
253.562	195.75
253.795	182.75
254.028	179.75
254.261	178.75
254.494	197.75
254.727	200.75
254.96	216.75
255.193	205.75
255.426	192.75
255.659	194.75
255.892	184.75
256.124	190.75
256.357	180.75
256.59	182.75
256.823	186.75
257.056	167.75
257.289	189.75
257.521	186.75
257.754	186.75
257.987	188.75
258.22	193.75
258.452	190.75
258.685	190.75
258.918	181.75
259.151	202.75
259.383	189.75
259.616	213.75
259.849	194.75
260.081	188.75
260.314	208.75
260.547	220.75
260.779	208.75
261.012	194.75
261.244	214.75
261.477	201.75
261.71	192.75
261.942	195.75
262.175	222.75
262.407	188.75
262.64	193.75
262.872	197.75
263.105	205.75
263.337	211.75
263.57	210.75
263.802	208.75
264.035	205.75
264.267	194.75
264.499	190.75
264.732	196.75
264.964	196.75
265.197	195.75
265.429	192.75
265.661	194.75
265.894	207.75
266.126	194.75
266.358	212.75
266.591	198.75
266.823	211.75
267.055	221.75
267.287	211.75
267.52	221.75
267.752	206.75
267.984	211.75
268.216	215.75
268.448	222.75
268.681	244.75
268.913	232.75
269.145	228.75
269.377	236.75
269.609	237.75
269.841	252.75
270.073	233.75
270.306	256.75
270.538	268.75
270.77	258.75
271.002	248.75
271.234	227.75
271.466	254.75
271.698	254.75
271.93	246.75
272.162	268.75
272.394	257.75
272.626	263.75
272.858	263.75
273.09	248.75
273.322	252.75
273.553	236.75
273.785	245.75
274.017	236.75
274.249	244.75
274.481	237.75
274.713	242.75
274.945	244.75
275.176	262.75
275.408	262.75
275.64	236.75
275.872	243.75
276.104	230.75
276.335	241.75
276.567	235.75
276.799	261.75
277.031	281.75
277.262	284.75
277.494	278.75
277.726	261.75
277.957	251.75
278.189	270.75
278.421	223.75
278.652	263.75
278.884	278.75
279.115	238.75
279.347	252.75
279.579	254.75
279.81	265.75
280.042	257.75
280.273	256.75
280.505	259.75
280.736	251.75
280.968	262.75
281.199	257.75
281.431	272.75
281.662	276.75
281.894	260.75
282.125	257.75
282.356	279.75
282.588	299.75
282.819	286.75
283.051	262.75
283.282	279.75
283.513	261.75
283.745	273.75
283.976	290.75
284.207	279.75
284.439	282.75
284.67	262.75
284.901	273.75
285.132	285.75
285.364	286.75
285.595	276.75
285.826	287.75
286.057	268.75
286.288	270.75
286.52	286.75
286.751	272.75
286.982	285.75
287.213	280.75
287.444	278.75
287.675	290.75
287.906	295.75
288.138	282.75
288.369	280.75
288.6	288.75
288.831	298.75
289.062	298.75
289.293	291.75
289.524	288.75
289.755	280.75
289.986	292.75
290.217	264.75
290.448	299.75
290.679	296.75
290.91	280.75
291.141	287.75
291.371	294.75
291.602	285.75
291.833	288.75
292.064	294.75
292.295	288.75
292.526	291.75
292.757	298.75
292.987	310.75
293.218	281.75
293.449	286.75
293.68	294.75
293.91	299.75
294.141	300.75
294.372	302.75
294.603	293.75
294.833	314.75
295.064	296.75
295.295	290.75
295.525	291.75
295.756	311.75
295.987	292.75
296.217	308.75
296.448	326.75
296.679	314.75
296.909	303.75
297.14	298.75
297.37	310.75
297.601	316.75
297.831	318.75
298.062	303.75
298.292	311.75
298.523	319.75
298.753	295.75
298.984	315.75
299.214	323.75
299.445	317.75
299.675	317.75
299.905	316.75
300.136	298.75
300.366	330.75
300.597	327.75
300.827	317.75
301.057	336.75
301.288	330.75
301.518	331.75
301.748	341.75
301.979	352.75
302.209	327.75
302.439	357.75
302.669	365.75
302.9	338.75
303.13	315.75
303.36	302.75
303.59	320.75
303.82	319.75
304.051	339.75
304.281	345.75
304.511	343.75
304.741	319.75
304.971	336.75
305.201	327.75
305.431	334.75
305.661	320.75
305.891	334.75
306.121	322.75
306.352	327.75
306.582	341.75
306.812	355.75
307.042	337.75
307.272	341.75
307.502	342.75
307.731	338.75
307.961	351.75
308.191	339.75
308.421	327.75
308.651	338.75
308.881	325.75
309.111	337.75
309.341	340.75
309.571	350.75
309.8	341.75
310.03	352.75
310.26	354.75
310.49	362.75
310.72	357.75
310.949	360.75
311.179	370.75
311.409	357.75
311.639	350.75
311.868	366.75
312.098	359.75
312.328	358.75
312.557	367.75
312.787	357.75
313.017	370.75
313.246	366.75
313.476	354.75
313.706	371.75
313.935	368.75
314.165	387.75
314.394	384.75
314.624	364.75
314.853	366.75
315.083	373.75
315.312	381.75
315.542	366.75
315.771	373.75
316.001	368.75
316.23	367.75
316.46	372.75
316.689	351.75
316.919	372.75
317.148	384.75
317.377	376.75
317.607	368.75
317.836	383.75
318.065	372.75
318.295	370.75
318.524	373.75
318.753	364.75
318.983	366.75
319.212	371.75
319.441	360.75
319.67	386.75
319.9	359.75
320.129	368.75
320.358	358.75
320.587	372.75
320.816	368.75
321.046	377.75
321.275	379.75
321.504	364.75
321.733	385.75
321.962	381.75
322.191	399.75
322.42	387.75
322.649	400.75
322.878	400.75
323.108	387.75
323.337	417.75
323.566	416.75
323.795	444.75
324.024	453.75
324.253	486.75
324.482	625.75
324.71	848.75
324.939	1178.75
325.168	1052.75
325.397	607.75
325.626	483.75
325.855	437.75
326.084	428.75
326.313	443.75
326.542	420.75
326.77	439.75
326.999	512.75
327.228	610.75
327.457	791.75
327.686	925.75
327.914	666.75
328.143	500.75
328.372	478.75
328.6	462.75
328.829	441.75
329.058	459.75
329.287	444.75
329.515	440.75
329.744	451.75
329.972	415.75
330.201	458.75
330.43	444.75
330.658	447.75
330.887	479.75
331.115	463.75
331.344	450.75
331.572	438.75
331.801	427.75
332.03	431.75
332.258	438.75
332.486	455.75
332.715	441.75
332.943	471.75
333.172	460.75
333.4	480.75
333.629	484.75
333.857	454.75
334.085	474.75
334.314	466.75
334.542	472.75
334.771	477.75
334.999	464.75
335.227	456.75
335.455	445.75
335.684	456.75
335.912	466.75
336.14	462.75
336.369	447.75
336.597	475.75
336.825	439.75
337.053	419.75
337.281	444.75
337.51	442.75
337.738	445.75
337.966	410.75
338.194	432.75
338.422	444.75
338.65	431.75
338.878	411.75
339.106	438.75
339.334	422.75
339.562	414.75
339.79	423.75
340.018	424.75
340.246	422.75
340.474	419.75
340.702	412.75
340.93	426.75
341.158	412.75
341.386	404.75
341.614	400.75
341.842	431.75
342.07	415.75
342.298	436.75
342.526	390.75
342.754	420.75
342.981	395.75
343.209	420.75
343.437	448.75
343.665	442.75
343.893	444.75
344.12	456.75
344.348	450.75
344.576	433.75
344.804	440.75
345.031	439.75
345.259	444.75
345.487	423.75
345.714	412.75
345.942	388.75
346.17	392.75
346.397	406.75
346.625	400.75
346.853	391.75
347.08	392.75
347.308	387.75
347.535	403.75
347.763	428.75
347.99	405.75
348.218	414.75
348.445	383.75
348.673	423.75
348.9	393.75
349.128	384.75
349.355	407.75
349.583	377.75
349.81	386.75
350.037	401.75
350.265	392.75
350.492	388.75
350.72	380.75
350.947	373.75
351.174	400.75
351.402	398.75
351.629	390.75
351.856	396.75
352.083	404.75
352.311	391.75
352.538	392.75
352.765	388.75
352.992	398.75
353.22	388.75
353.447	383.75
353.674	385.75
353.901	403.75
354.128	385.75
354.355	385.75
354.583	400.75
354.81	392.75
355.037	374.75
355.264	391.75
355.491	397.75
355.718	396.75
355.945	384.75
356.172	390.75
356.399	394.75
356.626	362.75
356.853	373.75
357.08	378.75
357.307	387.75
357.534	382.75
357.761	394.75
357.988	396.75
358.215	381.75
358.441	397.75
358.668	393.75
358.895	410.75
359.122	388.75
359.349	370.75
359.576	385.75
359.802	390.75
360.029	407.75
360.256	412.75
360.483	426.75
360.709	391.75
360.936	434.75
361.163	390.75
361.39	387.75
361.616	384.75
361.843	403.75
362.07	371.75
362.296	370.75
362.523	395.75
362.749	412.75
362.976	392.75
363.203	392.75
363.429	374.75
363.656	392.75
363.882	370.75
364.109	386.75
364.335	396.75
364.562	391.75
364.788	367.75
365.015	387.75
365.241	371.75
365.468	367.75
365.694	368.75
365.92	351.75
366.147	372.75
366.373	366.75
366.599	392.75
366.826	371.75
367.052	390.75
367.278	379.75
367.505	396.75
367.731	397.75
367.957	397.75
368.184	380.75
368.41	380.75
368.636	407.75
368.862	398.75
369.089	387.75
369.315	371.75
369.541	406.75
369.767	376.75
369.993	378.75
370.219	386.75
370.445	378.75
370.672	380.75
370.898	384.75
371.124	367.75
371.35	396.75
371.576	402.75
371.802	395.75
372.028	389.75
372.254	396.75
372.48	402.75
372.706	396.75
372.932	381.75
373.158	400.75
373.384	410.75
373.61	397.75
373.835	416.75
374.061	413.75
374.287	393.75
374.513	428.75
374.739	418.75
374.965	428.75
375.191	401.75
375.416	420.75
375.642	401.75
375.868	382.75
376.094	383.75
376.319	402.75
376.545	390.75
376.771	395.75
376.997	394.75
377.222	416.75
377.448	404.75
377.674	379.75
377.899	369.75
378.125	389.75
378.35	395.75
378.576	382.75
378.802	396.75
379.027	408.75
379.253	403.75
379.478	405.75
379.704	390.75
379.929	396.75
380.155	398.75
380.38	390.75
380.606	383.75
380.831	392.75
381.057	389.75
381.282	410.75
381.507	404.75
381.733	390.75
381.958	396.75
382.184	396.75
382.409	404.75
382.634	402.75
382.86	413.75
383.085	426.75
383.31	412.75
383.535	412.75
383.761	421.75
383.986	422.75
384.211	421.75
384.436	435.75
384.662	451.75
384.887	439.75
385.112	438.75
385.337	438.75
385.562	447.75
385.787	442.75
386.013	447.75
386.238	445.75
386.463	457.75
386.688	429.75
386.913	445.75
387.138	439.75
387.363	450.75
387.588	441.75
387.813	431.75
388.038	449.75
388.263	469.75
388.488	468.75
388.713	423.75
388.938	444.75
389.163	442.75
389.387	445.75
389.612	443.75
389.837	433.75
390.062	422.75
390.287	442.75
390.512	448.75
390.736	441.75
390.961	435.75
391.186	439.75
391.411	458.75
391.636	452.75
391.86	461.75
392.085	476.75
392.31	476.75
392.534	461.75
392.759	444.75
392.984	466.75
393.208	458.75
393.433	465.75
393.658	435.75
393.882	445.75
394.107	469.75
394.331	432.75
394.556	447.75
394.78	451.75
395.005	461.75
395.229	443.75
395.454	448.75
395.678	447.75
395.903	461.75
396.127	482.75
396.352	474.75
396.576	453.75
396.801	483.75
397.025	464.75
397.249	476.75
397.474	454.75
397.698	464.75
397.922	508.75
398.147	508.75
398.371	499.75
398.595	496.75
398.82	498.75
399.044	526.75
399.268	554.75
399.492	593.75
399.717	648.75
399.941	652.75
400.165	645.75
400.389	627.75
400.613	575.75
400.837	545.75
401.062	529.75
401.286	503.75
401.51	508.75
401.734	506.75
401.958	525.75
402.182	526.75
402.406	508.75
402.63	528.75
402.854	507.75
403.078	536.75
403.302	527.75
403.526	530.75
403.75	536.75
403.974	538.75
404.198	534.75
404.422	555.75
404.645	549.75
404.869	532.75
405.093	552.75
405.317	555.75
405.541	539.75
405.765	548.75
405.988	531.75
406.212	566.75
406.436	568.75
406.66	564.75
406.883	568.75
407.107	603.75
407.331	640.75
407.555	666.75
407.778	671.75
408.002	626.75
408.226	592.75
408.449	566.75
408.673	580.75
408.896	583.75
409.12	613.75
409.344	582.75
409.567	525.75
409.791	536.75
410.014	543.75
410.238	527.75
410.461	519.75
410.685	542.75
410.908	532.75
411.132	542.75
411.355	563.75
411.578	576.75
411.802	529.75
412.025	538.75
412.249	526.75
412.472	529.75
412.695	532.75
412.919	503.75
413.142	514.75
413.365	524.75
413.589	486.75
413.812	502.75
414.035	483.75
414.258	477.75
414.482	495.75
414.705	514.75
414.928	502.75
415.151	501.75
415.374	493.75
415.597	490.75
415.821	499.75
416.044	476.75
416.267	493.75
416.49	473.75
416.713	477.75
416.936	504.75
417.159	471.75
417.382	474.75
417.605	497.75
417.828	520.75
418.051	523.75
418.274	505.75
418.497	512.75
418.72	491.75
418.943	491.75
419.166	518.75
419.389	554.75
419.611	513.75
419.834	508.75
420.057	508.75
420.28	500.75
420.503	506.75
420.726	502.75
420.948	495.75
421.171	510.75
421.394	538.75
421.617	530.75
421.839	477.75
422.062	511.75
422.285	501.75
422.507	554.75
422.73	574.75
422.953	602.75
423.175	529.75
423.398	532.75
423.621	526.75
423.843	519.75
424.066	520.75
424.288	528.75
424.511	556.75
424.733	580.75
424.956	632.75
425.178	591.75
425.401	583.75
425.623	611.75
425.846	544.75
426.068	520.75
426.291	510.75
426.513	497.75
426.735	520.75
426.958	538.75
427.18	591.75
427.402	697.75
427.625	741.75
427.847	610.75
428.069	558.75
428.292	515.75
428.514	493.75
428.736	479.75
428.958	477.75
429.181	471.75
429.403	471.75
429.625	469.75
429.847	512.75
430.069	524.75
430.292	543.75
430.514	479.75
430.736	468.75
430.958	483.75
431.18	464.75
431.402	462.75
431.624	475.75
431.846	477.75
432.068	501.75
432.29	462.75
432.512	455.75
432.734	451.75
432.956	455.75
433.178	466.75
433.4	479.75
433.622	470.75
433.844	464.75
434.066	473.75
434.287	436.75
434.509	482.75
434.731	485.75
434.953	500.75
435.175	520.75
435.397	522.75
435.618	520.75
435.84	530.75
436.062	614.75
436.284	627.75
436.505	522.75
436.727	504.75
436.949	497.75
437.17	476.75
437.392	467.75
437.614	455.75
437.835	469.75
438.057	527.75
438.278	625.75
438.5	630.75
438.721	679.75
438.943	651.75
439.165	540.75
439.386	497.75
439.608	484.75
439.829	495.75
440.05	489.75
440.272	528.75
440.493	534.75
440.715	485.75
440.936	486.75
441.158	499.75
441.379	494.75
441.6	480.75
441.822	494.75
442.043	520.75
442.264	606.75
442.486	603.75
442.707	546.75
442.928	516.75
443.149	522.75
443.371	527.75
443.592	573.75
443.813	628.75
444.034	661.75
444.255	580.75
444.476	530.75
444.698	562.75
444.919	552.75
445.14	693.75
445.361	593.75
445.582	557.75
445.803	599.75
446.024	632.75
446.245	636.75
446.466	586.75
446.687	531.75
446.908	484.75
447.129	486.75
447.35	480.75
447.571	494.75
447.792	451.75
448.013	455.75
448.234	442.75
448.455	483.75
448.675	583.75
448.896	641.75
449.117	572.75
449.338	556.75
449.559	593.75
449.779	687.75
450	564.75
450.221	480.75
450.442	453.75
450.662	462.75
450.883	460.75
451.104	468.75
451.324	428.75
451.545	442.75
451.766	440.75
451.986	431.75
452.207	441.75
452.428	410.75
452.648	411.75
452.869	435.75
453.089	434.75
453.31	432.75
453.53	425.75
453.751	400.75
453.971	405.75
454.192	416.75
454.412	410.75
454.633	409.75
454.853	411.75
455.073	391.75
455.294	433.75
455.514	467.75
455.734	463.75
455.955	426.75
456.175	424.75
456.395	404.75
456.616	404.75
456.836	390.75
457.056	384.75
457.276	401.75
457.497	412.75
457.717	398.75
457.937	408.75
458.157	426.75
458.377	402.75
458.598	422.75
458.818	445.75
459.038	513.75
459.258	522.75
459.478	484.75
459.698	452.75
459.918	456.75
460.138	493.75
460.358	503.75
460.578	513.75
460.798	496.75
461.018	507.75
461.238	507.75
461.458	523.75
461.678	483.75
461.898	508.75
462.118	530.75
462.338	533.75
462.558	540.75
462.777	552.75
462.997	575.75
463.217	604.75
463.437	589.75
463.657	569.75
463.876	575.75
464.096	558.75
464.316	530.75
464.536	551.75
464.755	540.75
464.975	534.75
465.195	533.75
465.414	541.75
465.634	523.75
465.854	482.75
466.073	455.75
466.293	478.75
466.512	437.75
466.732	446.75
466.951	440.75
467.171	441.75
467.391	468.75
467.61	450.75
467.829	439.75
468.049	444.75
468.268	436.75
468.488	426.75
468.707	413.75
468.927	434.75
469.146	407.75
469.365	470.75
469.585	450.75
469.804	448.75
470.023	463.75
470.243	441.75
470.462	468.75
470.681	473.75
470.901	452.75
471.12	456.75
471.339	451.75
471.558	442.75
471.777	460.75
471.997	460.75
472.216	442.75
472.435	430.75
472.654	442.75
472.873	437.75
473.092	442.75
473.311	420.75
473.53	448.75
473.749	451.75
473.968	471.75
474.187	526.75
474.406	535.75
474.625	476.75
474.844	458.75
475.063	444.75
475.282	446.75
475.501	470.75
475.72	463.75
475.939	462.75
476.158	454.75
476.377	479.75
476.596	434.75
476.814	464.75
477.033	454.75
477.252	450.75
477.471	471.75
477.69	480.75
477.908	482.75
478.127	527.75
478.346	487.75
478.564	520.75
478.783	493.75
479.002	517.75
479.22	549.75
479.439	539.75
479.658	535.75
479.876	542.75
480.095	562.75
480.313	566.75
480.532	567.75
480.751	543.75
480.969	547.75
481.188	536.75
481.406	560.75
481.624	501.75
481.843	536.75
482.061	504.75
482.28	528.75
482.498	524.75
482.717	515.75
482.935	532.75
483.153	512.75
483.372	518.75
483.59	527.75
483.808	515.75
484.027	524.75
484.245	519.75
484.463	536.75
484.681	527.75
484.9	509.75
485.118	522.75
485.336	528.75
485.554	550.75
485.772	533.75
485.99	559.75
486.209	548.75
486.427	559.75
486.645	551.75
486.863	552.75
487.081	541.75
487.299	556.75
487.517	542.75
487.735	549.75
487.953	560.75
488.171	544.75
488.389	545.75
488.607	537.75
488.825	541.75
489.043	556.75
489.261	550.75
489.479	550.75
489.696	531.75
489.914	552.75
490.132	567.75
490.35	556.75
490.568	562.75
490.786	592.75
491.003	558.75
491.221	584.75
491.439	592.75
491.657	596.75
491.874	582.75
492.092	581.75
492.31	603.75
492.527	610.75
492.745	614.75
492.963	602.75
493.18	613.75
493.398	620.75
493.615	616.75
493.833	630.75
494.05	607.75
494.268	621.75
494.485	601.75
494.703	607.75
494.92	620.75
495.138	629.75
495.355	629.75
495.573	631.75
495.79	647.75
496.008	629.75
496.225	634.75
496.442	643.75
496.66	647.75
496.877	634.75
497.094	668.75
497.312	677.75
497.529	672.75
497.746	700.75
497.963	702.75
498.181	746.75
498.398	744.75
498.615	758.75
498.832	790.75
499.049	817.75
499.267	886.75
499.484	911.75
499.701	926.75
499.918	978.75
500.135	1059.75
500.352	1148.75
500.569	1187.75
500.786	1182.75
501.003	1127.75
501.22	1069.75
501.437	982.75
501.654	933.75
501.871	904.75
502.088	872.75
