Data from 1985.PennyLincolnUp.Lamp.En5.5.200Scan.071819.P1_HRD10591_17-03-58-970.txt Node
Date: Thu Jul 18 17:03:58 EDT 2019
User: cochatt
Spectrometer: HR+D1059
Trigger mode: 1
Integration Time (sec): 1.000000E-1
Scans to average: 1
Electric dark correction enabled: true
Nonlinearity correction enabled: false
Boxcar width: 0
XAxis mode: Wavelengths
Number of Pixels in Spectrum: 2048
>>>>>Begin Spectral Data<<<<<
223.165	-20.5
223.4	-20.5
223.635	-20.5
223.869	-7.5
224.104	-27.5
224.338	-15.5
224.573	-26.5
224.808	-15.5
225.042	-4.5
225.277	4.5
225.511	1.5
225.746	10.5
225.98	13.5
226.215	2.5
226.449	9.5
226.683	22.5
226.918	22.5
227.152	30.5
227.387	28.5
227.621	40.5
227.856	51.5
228.09	55.5
228.324	48.5
228.559	58.5
228.793	59.5
229.027	103.5
229.262	86.5
229.496	107.5
229.73	126.5
229.964	145.5
230.199	126.5
230.433	102.5
230.667	119.5
230.901	105.5
231.136	111.5
231.37	111.5
231.604	111.5
231.838	127.5
232.072	106.5
232.306	114.5
232.541	135.5
232.775	126.5
233.009	114.5
233.243	122.5
233.477	120.5
233.711	127.5
233.945	124.5
234.179	104.5
234.413	106.5
234.647	122.5
234.881	121.5
235.115	123.5
235.349	114.5
235.583	127.5
235.817	114.5
236.051	122.5
236.285	132.5
236.519	130.5
236.753	116.5
236.987	132.5
237.221	164.5
237.455	184.5
237.689	175.5
237.922	146.5
238.156	127.5
238.39	118.5
238.624	114.5
238.858	138.5
239.091	130.5
239.325	125.5
239.559	126.5
239.793	138.5
240.027	135.5
240.26	152.5
240.494	155.5
240.728	143.5
240.961	154.5
241.195	140.5
241.429	151.5
241.662	140.5
241.896	117.5
242.13	138.5
242.363	142.5
242.597	150.5
242.83	148.5
243.064	150.5
243.298	139.5
243.531	152.5
243.765	142.5
243.998	131.5
244.232	127.5
244.465	147.5
244.699	155.5
244.932	156.5
245.166	159.5
245.399	143.5
245.633	157.5
245.866	142.5
246.099	150.5
246.333	157.5
246.566	140.5
246.8	150.5
247.033	154.5
247.266	146.5
247.5	167.5
247.733	176.5
247.966	174.5
248.2	169.5
248.433	183.5
248.666	186.5
248.899	178.5
249.133	186.5
249.366	198.5
249.599	197.5
249.832	182.5
250.066	188.5
250.299	185.5
250.532	204.5
250.765	221.5
250.998	242.5
251.231	222.5
251.465	189.5
251.698	200.5
251.931	182.5
252.164	189.5
252.397	190.5
252.63	222.5
252.863	202.5
253.096	223.5
253.329	211.5
253.562	213.5
253.795	219.5
254.028	215.5
254.261	211.5
254.494	225.5
254.727	263.5
254.96	258.5
255.193	256.5
255.426	242.5
255.659	219.5
255.892	245.5
256.124	266.5
256.357	247.5
256.59	248.5
256.823	231.5
257.056	218.5
257.289	189.5
257.521	218.5
257.754	201.5
257.987	207.5
258.22	203.5
258.452	226.5
258.685	189.5
258.918	198.5
259.151	223.5
259.383	226.5
259.616	230.5
259.849	227.5
260.081	232.5
260.314	251.5
260.547	264.5
260.779	246.5
261.012	238.5
261.244	245.5
261.477	216.5
261.71	248.5
261.942	212.5
262.175	236.5
262.407	235.5
262.64	212.5
262.872	204.5
263.105	207.5
263.337	226.5
263.57	220.5
263.802	232.5
264.035	219.5
264.267	216.5
264.499	210.5
264.732	214.5
264.964	218.5
265.197	202.5
265.429	216.5
265.661	203.5
265.894	221.5
266.126	218.5
266.358	225.5
266.591	230.5
266.823	222.5
267.055	230.5
267.287	237.5
267.52	212.5
267.752	244.5
267.984	231.5
268.216	235.5
268.448	239.5
268.681	246.5
268.913	248.5
269.145	269.5
269.377	273.5
269.609	261.5
269.841	280.5
270.073	270.5
270.306	291.5
270.538	315.5
270.77	296.5
271.002	307.5
271.234	294.5
271.466	314.5
271.698	310.5
271.93	309.5
272.162	325.5
272.394	315.5
272.626	301.5
272.858	294.5
273.09	290.5
273.322	288.5
273.553	265.5
273.785	278.5
274.017	266.5
274.249	290.5
274.481	282.5
274.713	281.5
274.945	272.5
275.176	293.5
275.408	290.5
275.64	250.5
275.872	264.5
276.104	286.5
276.335	285.5
276.567	290.5
276.799	302.5
277.031	307.5
277.262	325.5
277.494	338.5
277.726	314.5
277.957	317.5
278.189	303.5
278.421	282.5
278.652	289.5
278.884	286.5
279.115	306.5
279.347	262.5
279.579	312.5
279.81	275.5
280.042	283.5
280.273	266.5
280.505	267.5
280.736	294.5
280.968	300.5
281.199	288.5
281.431	293.5
281.662	296.5
281.894	294.5
282.125	302.5
282.356	318.5
282.588	320.5
282.819	318.5
283.051	295.5
283.282	297.5
283.513	301.5
283.745	304.5
283.976	311.5
284.207	311.5
284.439	291.5
284.67	307.5
284.901	312.5
285.132	294.5
285.364	303.5
285.595	292.5
285.826	290.5
286.057	309.5
286.288	306.5
286.52	307.5
286.751	308.5
286.982	306.5
287.213	330.5
287.444	322.5
287.675	302.5
287.906	322.5
288.138	318.5
288.369	332.5
288.6	334.5
288.831	322.5
289.062	322.5
289.293	312.5
289.524	323.5
289.755	313.5
289.986	324.5
290.217	312.5
290.448	321.5
290.679	302.5
290.91	308.5
291.141	322.5
291.371	331.5
291.602	321.5
291.833	308.5
292.064	317.5
292.295	325.5
292.526	311.5
292.757	330.5
292.987	297.5
293.218	315.5
293.449	331.5
293.68	333.5
293.91	324.5
294.141	329.5
294.372	300.5
294.603	325.5
294.833	334.5
295.064	327.5
295.295	324.5
295.525	311.5
295.756	328.5
295.987	333.5
296.217	371.5
296.448	363.5
296.679	344.5
296.909	345.5
297.14	340.5
297.37	317.5
297.601	343.5
297.831	342.5
298.062	357.5
298.292	333.5
298.523	362.5
298.753	345.5
298.984	316.5
299.214	336.5
299.445	357.5
299.675	345.5
299.905	344.5
300.136	357.5
300.366	361.5
300.597	359.5
300.827	360.5
301.057	361.5
301.288	351.5
301.518	378.5
301.748	361.5
301.979	368.5
302.209	364.5
302.439	388.5
302.669	374.5
302.9	362.5
303.13	365.5
303.36	358.5
303.59	369.5
303.82	374.5
304.051	378.5
304.281	367.5
304.511	374.5
304.741	386.5
304.971	356.5
305.201	356.5
305.431	365.5
305.661	362.5
305.891	362.5
306.121	382.5
306.352	367.5
306.582	386.5
306.812	362.5
307.042	363.5
307.272	382.5
307.502	388.5
307.731	381.5
307.961	376.5
308.191	389.5
308.421	380.5
308.651	362.5
308.881	361.5
309.111	368.5
309.341	365.5
309.571	369.5
309.8	385.5
310.03	386.5
310.26	399.5
310.49	398.5
310.72	392.5
310.949	410.5
311.179	426.5
311.409	415.5
311.639	404.5
311.868	392.5
312.098	405.5
312.328	424.5
312.557	418.5
312.787	422.5
313.017	444.5
313.246	398.5
313.476	412.5
313.706	430.5
313.935	423.5
314.165	408.5
314.394	435.5
314.624	440.5
314.853	424.5
315.083	411.5
315.312	410.5
315.542	422.5
315.771	408.5
316.001	419.5
316.23	400.5
316.46	410.5
316.689	416.5
316.919	410.5
317.148	426.5
317.377	422.5
317.607	403.5
317.836	415.5
318.065	422.5
318.295	414.5
318.524	414.5
318.753	411.5
318.983	420.5
319.212	406.5
319.441	414.5
319.67	426.5
319.9	407.5
320.129	390.5
320.358	436.5
320.587	411.5
320.816	453.5
321.046	426.5
321.275	426.5
321.504	425.5
321.733	426.5
321.962	447.5
322.191	450.5
322.42	465.5
322.649	459.5
322.878	480.5
323.108	467.5
323.337	485.5
323.566	492.5
323.795	532.5
324.024	590.5
324.253	696.5
324.482	943.5
324.71	1408.5
324.939	1926.5
325.168	1646.5
325.397	918.5
325.626	635.5
325.855	589.5
326.084	535.5
326.313	526.5
326.542	506.5
326.77	581.5
326.999	619.5
327.228	879.5
327.457	1283.5
327.686	1470.5
327.914	1028.5
328.143	709.5
328.372	652.5
328.6	608.5
328.829	582.5
329.058	584.5
329.287	576.5
329.515	558.5
329.744	529.5
329.972	551.5
330.201	565.5
330.43	595.5
330.658	637.5
330.887	629.5
331.115	613.5
331.344	546.5
331.572	522.5
331.801	538.5
332.03	535.5
332.258	520.5
332.486	500.5
332.715	501.5
332.943	509.5
333.172	506.5
333.4	511.5
333.629	530.5
333.857	542.5
334.085	575.5
334.314	590.5
334.542	646.5
334.771	630.5
334.999	586.5
335.227	542.5
335.455	534.5
335.684	511.5
335.912	495.5
336.14	492.5
336.369	506.5
336.597	517.5
336.825	528.5
337.053	491.5
337.281	475.5
337.51	497.5
337.738	499.5
337.966	467.5
338.194	473.5
338.422	482.5
338.65	489.5
338.878	480.5
339.106	464.5
339.334	463.5
339.562	441.5
339.79	451.5
340.018	470.5
340.246	463.5
340.474	478.5
340.702	450.5
340.93	464.5
341.158	455.5
341.386	466.5
341.614	459.5
341.842	454.5
342.07	454.5
342.298	457.5
342.526	462.5
342.754	445.5
342.981	455.5
343.209	468.5
343.437	470.5
343.665	471.5
343.893	493.5
344.12	495.5
344.348	501.5
344.576	491.5
344.804	477.5
345.031	494.5
345.259	482.5
345.487	474.5
345.714	461.5
345.942	436.5
346.17	446.5
346.397	439.5
346.625	452.5
346.853	440.5
347.08	431.5
347.308	440.5
347.535	455.5
347.763	457.5
347.99	451.5
348.218	446.5
348.445	447.5
348.673	453.5
348.9	459.5
349.128	457.5
349.355	428.5
349.583	430.5
349.81	441.5
350.037	438.5
350.265	425.5
350.492	429.5
350.72	428.5
350.947	447.5
351.174	444.5
351.402	455.5
351.629	440.5
351.856	427.5
352.083	452.5
352.311	423.5
352.538	463.5
352.765	467.5
352.992	456.5
353.22	440.5
353.447	429.5
353.674	449.5
353.901	427.5
354.128	429.5
354.355	420.5
354.583	415.5
354.81	425.5
355.037	412.5
355.264	424.5
355.491	425.5
355.718	416.5
355.945	414.5
356.172	405.5
356.399	400.5
356.626	411.5
356.853	429.5
357.08	397.5
357.307	419.5
357.534	410.5
357.761	405.5
357.988	429.5
358.215	425.5
358.441	414.5
358.668	407.5
358.895	424.5
359.122	422.5
359.349	423.5
359.576	434.5
359.802	464.5
360.029	466.5
360.256	464.5
360.483	462.5
360.709	465.5
360.936	454.5
361.163	451.5
361.39	436.5
361.616	443.5
361.843	427.5
362.07	436.5
362.296	421.5
362.523	448.5
362.749	443.5
362.976	421.5
363.203	418.5
363.429	415.5
363.656	422.5
363.882	425.5
364.109	423.5
364.335	423.5
364.562	422.5
364.788	414.5
365.015	438.5
365.241	421.5
365.468	420.5
365.694	417.5
365.92	409.5
366.147	439.5
366.373	411.5
366.599	418.5
366.826	396.5
367.052	404.5
367.278	439.5
367.505	414.5
367.731	432.5
367.957	409.5
368.184	410.5
368.41	437.5
368.636	442.5
368.862	428.5
369.089	418.5
369.315	412.5
369.541	422.5
369.767	443.5
369.993	408.5
370.219	434.5
370.445	428.5
370.672	420.5
370.898	394.5
371.124	420.5
371.35	402.5
371.576	416.5
371.802	415.5
372.028	425.5
372.254	422.5
372.48	430.5
372.706	425.5
372.932	426.5
373.158	426.5
373.384	441.5
373.61	419.5
373.835	431.5
374.061	435.5
374.287	432.5
374.513	424.5
374.739	451.5
374.965	438.5
375.191	446.5
375.416	407.5
375.642	438.5
375.868	447.5
376.094	426.5
376.319	410.5
376.545	426.5
376.771	401.5
376.997	415.5
377.222	406.5
377.448	388.5
377.674	418.5
377.899	411.5
378.125	409.5
378.35	415.5
378.576	405.5
378.802	409.5
379.027	397.5
379.253	419.5
379.478	405.5
379.704	429.5
379.929	410.5
380.155	400.5
380.38	398.5
380.606	401.5
380.831	399.5
381.057	424.5
381.282	413.5
381.507	413.5
381.733	421.5
381.958	429.5
382.184	424.5
382.409	410.5
382.634	420.5
382.86	419.5
383.085	421.5
383.31	444.5
383.535	444.5
383.761	461.5
383.986	445.5
384.211	445.5
384.436	446.5
384.662	444.5
384.887	447.5
385.112	476.5
385.337	447.5
385.562	451.5
385.787	462.5
386.013	479.5
386.238	452.5
386.463	467.5
386.688	459.5
386.913	466.5
387.138	477.5
387.363	454.5
387.588	461.5
387.813	464.5
388.038	464.5
388.263	479.5
388.488	469.5
388.713	491.5
388.938	464.5
389.163	455.5
389.387	465.5
389.612	448.5
389.837	467.5
390.062	470.5
390.287	450.5
390.512	462.5
390.736	466.5
390.961	482.5
391.186	465.5
391.411	466.5
391.636	457.5
391.86	492.5
392.085	484.5
392.31	481.5
392.534	479.5
392.759	487.5
392.984	485.5
393.208	476.5
393.433	473.5
393.658	474.5
393.882	481.5
394.107	469.5
394.331	494.5
394.556	452.5
394.78	455.5
395.005	490.5
395.229	482.5
395.454	482.5
395.678	487.5
395.903	515.5
396.127	518.5
396.352	511.5
396.576	487.5
396.801	469.5
397.025	475.5
397.249	459.5
397.474	516.5
397.698	500.5
397.922	503.5
398.147	507.5
398.371	517.5
398.595	518.5
398.82	518.5
399.044	563.5
399.268	600.5
399.492	632.5
399.717	651.5
399.941	684.5
400.165	702.5
400.389	669.5
400.613	611.5
400.837	556.5
401.062	558.5
401.286	534.5
401.51	544.5
401.734	558.5
401.958	542.5
402.182	558.5
402.406	543.5
402.63	556.5
402.854	547.5
403.078	569.5
403.302	565.5
403.526	598.5
403.75	564.5
403.974	596.5
404.198	575.5
404.422	574.5
404.645	565.5
404.869	600.5
405.093	631.5
405.317	651.5
405.541	697.5
405.765	622.5
405.988	599.5
406.212	604.5
406.436	617.5
406.66	627.5
406.883	609.5
407.107	646.5
407.331	684.5
407.555	735.5
407.778	735.5
408.002	696.5
408.226	619.5
408.449	621.5
408.673	582.5
408.896	634.5
409.12	655.5
409.344	628.5
409.567	574.5
409.791	554.5
410.014	585.5
410.238	563.5
410.461	555.5
410.685	548.5
410.908	595.5
411.132	600.5
411.355	652.5
411.578	620.5
411.802	566.5
412.025	548.5
412.249	582.5
412.472	599.5
412.695	640.5
412.919	612.5
413.142	587.5
413.365	572.5
413.589	548.5
413.812	536.5
414.035	532.5
414.258	526.5
414.482	518.5
414.705	545.5
414.928	540.5
415.151	544.5
415.374	524.5
415.597	518.5
415.821	525.5
416.044	509.5
416.267	511.5
416.49	514.5
416.713	495.5
416.936	525.5
417.159	532.5
417.382	541.5
417.605	538.5
417.828	550.5
418.051	557.5
418.274	540.5
418.497	516.5
418.72	538.5
418.943	526.5
419.166	539.5
419.389	566.5
419.611	566.5
419.834	549.5
420.057	560.5
420.28	576.5
420.503	552.5
420.726	567.5
420.948	564.5
421.171	574.5
421.394	605.5
421.617	535.5
421.839	529.5
422.062	577.5
422.285	543.5
422.507	616.5
422.73	642.5
422.953	650.5
423.175	594.5
423.398	548.5
423.621	538.5
423.843	567.5
424.066	598.5
424.288	565.5
424.511	593.5
424.733	632.5
424.956	699.5
425.178	684.5
425.401	674.5
425.623	691.5
425.846	598.5
426.068	578.5
426.291	567.5
426.513	548.5
426.735	562.5
426.958	586.5
427.18	702.5
427.402	794.5
427.625	844.5
427.847	750.5
428.069	669.5
428.292	578.5
428.514	562.5
428.736	515.5
428.958	511.5
429.181	510.5
429.403	511.5
429.625	517.5
429.847	565.5
430.069	627.5
430.292	607.5
430.514	542.5
430.736	515.5
430.958	494.5
431.18	495.5
431.402	482.5
431.624	487.5
431.846	514.5
432.068	514.5
432.29	499.5
432.512	507.5
432.734	502.5
432.956	494.5
433.178	495.5
433.4	506.5
433.622	503.5
433.844	499.5
434.066	495.5
434.287	494.5
434.509	532.5
434.731	512.5
434.953	541.5
435.175	554.5
435.397	562.5
435.618	565.5
435.84	600.5
436.062	654.5
436.284	751.5
436.505	598.5
436.727	544.5
436.949	548.5
437.17	530.5
437.392	509.5
437.614	524.5
437.835	538.5
438.057	638.5
438.278	717.5
438.5	711.5
438.721	793.5
438.943	730.5
439.165	600.5
439.386	582.5
439.608	553.5
439.829	564.5
440.05	584.5
440.272	603.5
440.493	576.5
440.715	550.5
440.936	524.5
441.158	537.5
441.379	525.5
441.6	538.5
441.822	558.5
442.043	596.5
442.264	664.5
442.486	708.5
442.707	611.5
442.928	562.5
443.149	565.5
443.371	598.5
443.592	641.5
443.813	728.5
444.034	768.5
444.255	661.5
444.476	592.5
444.698	582.5
444.919	568.5
445.14	716.5
445.361	640.5
445.582	600.5
445.803	671.5
446.024	760.5
446.245	748.5
446.466	670.5
446.687	602.5
446.908	567.5
447.129	512.5
447.35	521.5
447.571	494.5
447.792	502.5
448.013	492.5
448.234	519.5
448.455	558.5
448.675	677.5
448.896	780.5
449.117	668.5
449.338	619.5
449.559	687.5
449.779	806.5
450	642.5
450.221	556.5
450.442	525.5
450.662	486.5
450.883	502.5
451.104	520.5
451.324	501.5
451.545	500.5
451.766	463.5
451.986	460.5
452.207	461.5
452.428	468.5
452.648	450.5
452.869	438.5
453.089	439.5
453.31	477.5
453.53	467.5
453.751	455.5
453.971	459.5
454.192	475.5
454.412	458.5
454.633	461.5
454.853	440.5
455.073	448.5
455.294	472.5
455.514	531.5
455.734	528.5
455.955	454.5
456.175	426.5
456.395	452.5
456.616	434.5
456.836	452.5
457.056	450.5
457.276	415.5
457.497	432.5
457.717	446.5
457.937	443.5
458.157	427.5
458.377	448.5
458.598	483.5
458.818	520.5
459.038	608.5
459.258	624.5
459.478	546.5
459.698	508.5
459.918	505.5
460.138	493.5
460.358	532.5
460.578	518.5
460.798	526.5
461.018	527.5
461.238	495.5
461.458	527.5
461.678	492.5
461.898	527.5
462.118	516.5
462.338	532.5
462.558	549.5
462.777	572.5
462.997	602.5
463.217	599.5
463.437	608.5
463.657	575.5
463.876	591.5
464.096	565.5
464.316	564.5
464.536	559.5
464.755	586.5
464.975	568.5
465.195	584.5
465.414	657.5
465.634	565.5
465.854	534.5
466.073	503.5
466.293	490.5
466.512	477.5
466.732	478.5
466.951	490.5
467.171	470.5
467.391	486.5
467.61	515.5
467.829	514.5
468.049	509.5
468.268	482.5
468.488	480.5
468.707	475.5
468.927	470.5
469.146	479.5
469.365	480.5
469.585	471.5
469.804	503.5
470.023	473.5
470.243	476.5
470.462	495.5
470.681	515.5
470.901	488.5
471.12	496.5
471.339	478.5
471.558	498.5
471.777	483.5
471.997	486.5
472.216	494.5
472.435	538.5
472.654	522.5
472.873	492.5
473.092	487.5
473.311	462.5
473.53	484.5
473.749	491.5
473.968	525.5
474.187	612.5
474.406	622.5
474.625	528.5
474.844	506.5
475.063	504.5
475.282	459.5
475.501	475.5
475.72	500.5
475.939	484.5
476.158	506.5
476.377	488.5
476.596	493.5
476.814	499.5
477.033	508.5
477.252	496.5
477.471	532.5
477.69	531.5
477.908	532.5
478.127	526.5
478.346	527.5
478.564	538.5
478.783	538.5
479.002	589.5
479.22	559.5
479.439	579.5
479.658	575.5
479.876	586.5
480.095	602.5
480.313	618.5
480.532	617.5
480.751	616.5
480.969	601.5
481.188	678.5
481.406	696.5
481.624	603.5
481.843	586.5
482.061	563.5
482.28	556.5
482.498	549.5
482.717	548.5
482.935	580.5
483.153	535.5
483.372	528.5
483.59	559.5
483.808	545.5
484.027	556.5
484.245	575.5
484.463	570.5
484.681	563.5
484.9	585.5
485.118	591.5
485.336	580.5
485.554	579.5
485.772	580.5
485.99	558.5
486.209	602.5
486.427	596.5
486.645	587.5
486.863	597.5
487.081	583.5
487.299	593.5
487.517	580.5
487.735	593.5
487.953	611.5
488.171	588.5
488.389	576.5
488.607	603.5
488.825	595.5
489.043	590.5
489.261	593.5
489.479	604.5
489.696	597.5
489.914	629.5
490.132	622.5
490.35	630.5
490.568	630.5
490.786	640.5
491.003	661.5
491.221	654.5
491.439	666.5
491.657	666.5
491.874	671.5
492.092	686.5
492.31	705.5
492.527	686.5
492.745	696.5
492.963	716.5
493.18	716.5
493.398	688.5
493.615	700.5
493.833	720.5
494.05	703.5
494.268	721.5
494.485	706.5
494.703	708.5
494.92	710.5
495.138	693.5
495.355	700.5
495.573	664.5
495.79	701.5
496.008	710.5
496.225	716.5
496.442	704.5
496.66	721.5
496.877	705.5
497.094	739.5
497.312	724.5
497.529	712.5
497.746	760.5
497.963	759.5
498.181	790.5
498.398	795.5
498.615	834.5
498.832	853.5
499.049	867.5
499.267	896.5
499.484	935.5
499.701	968.5
499.918	1029.5
500.135	1101.5
500.352	1164.5
500.569	1195.5
500.786	1199.5
501.003	1166.5
501.22	1083.5
501.437	1050.5
501.654	975.5
501.871	989.5
502.088	924.5
502.305	867.5
502.522	834.5
502.739	827.5
502.956	806.5
503.172	770.5
503.389	734.5
503.606	764.5
503.823	747.5
504.04	731.5
504.256	737.5
504.473	724.5
504.69	729.5
504.907	717.5
505.123	710.5
505.34	712.5
505.557	683.5
505.773	660.5
505.99	657.5
506.207	655.5
506.423	656.5
506.64	674.5
506.856	658.5
507.073	646.5
507.289	638.5
507.506	631.5
507.722	636.5
507.939	680.5
508.155	648.5
508.372	622.5
508.588	603.5
508.805	624.5
509.021	618.5
509.238	625.5
509.454	660.5
509.67	640.5
509.887	623.5
510.103	631.5
510.319	616.5
510.536	720.5
510.752	1124.5
510.968	927.5
511.184	658.5
511.401	606.5
511.617	615.5
511.833	614.5
512.049	584.5
512.265	608.5
512.481	612.5
512.698	587.5
512.914	578.5
513.13	583.5
513.346	566.5
513.562	585.5
513.778	602.5
513.994	605.5
514.21	598.5
514.426	596.5
514.642	637.5
514.858	694.5
515.074	685.5
515.29	808.5
515.506	1151.5
515.721	994.5
515.937	678.5
516.153	646.5
516.369	631.5
516.585	642.5
516.801	632.5
517.016	619.5
517.232	649.5
517.448	639.5
517.664	651.5
517.879	643.5
518.095	661.5
518.311	653.5
518.527	646.5
518.742	644.5
518.958	632.5
519.173	598.5
519.389	585.5
519.605	620.5
519.82	602.5
