Data from 1985.PennyLincolnUp.Lamp.En5.5.200Scan.071819.P1_HRD10591_17-01-48-970.txt Node
Date: Thu Jul 18 17:01:48 EDT 2019
User: cochatt
Spectrometer: HR+D1059
Trigger mode: 1
Integration Time (sec): 1.000000E-1
Scans to average: 1
Electric dark correction enabled: true
Nonlinearity correction enabled: false
Boxcar width: 0
XAxis mode: Wavelengths
Number of Pixels in Spectrum: 2048
>>>>>Begin Spectral Data<<<<<
223.165	-9.25
223.4	-9.25
223.635	-9.25
223.869	-15.25
224.104	-13.25
224.338	-13.25
224.573	-9.25
224.808	-17.25
225.042	-6.25
225.277	-7.25
225.511	-5.25
225.746	6.75
225.98	-3.25
226.215	0.75
226.449	9.75
226.683	24.75
226.918	24.75
227.152	32.75
227.387	47.75
227.621	45.75
227.856	44.75
228.09	47.75
228.324	50.75
228.559	72.75
228.793	52.75
229.027	97.75
229.262	99.75
229.496	119.75
229.73	122.75
229.964	147.75
230.199	129.75
230.433	120.75
230.667	112.75
230.901	119.75
231.136	110.75
231.37	109.75
231.604	113.75
231.838	122.75
232.072	120.75
232.306	112.75
232.541	116.75
232.775	121.75
233.009	119.75
233.243	105.75
233.477	106.75
233.711	113.75
233.945	130.75
234.179	119.75
234.413	118.75
234.647	106.75
234.881	134.75
235.115	132.75
235.349	125.75
235.583	115.75
235.817	118.75
236.051	124.75
236.285	124.75
236.519	123.75
236.753	132.75
236.987	146.75
237.221	182.75
237.455	207.75
237.689	150.75
237.922	137.75
238.156	154.75
238.39	126.75
238.624	138.75
238.858	130.75
239.091	124.75
239.325	125.75
239.559	127.75
239.793	125.75
240.027	130.75
240.26	141.75
240.494	149.75
240.728	145.75
240.961	147.75
241.195	151.75
241.429	138.75
241.662	129.75
241.896	128.75
242.13	119.75
242.363	130.75
242.597	132.75
242.83	134.75
243.064	139.75
243.298	152.75
243.531	141.75
243.765	146.75
243.998	147.75
244.232	143.75
244.465	136.75
244.699	139.75
244.932	140.75
245.166	154.75
245.399	158.75
245.633	140.75
245.866	163.75
246.099	142.75
246.333	160.75
246.566	151.75
246.8	166.75
247.033	146.75
247.266	163.75
247.5	161.75
247.733	167.75
247.966	178.75
248.2	174.75
248.433	179.75
248.666	182.75
248.899	185.75
249.133	174.75
249.366	198.75
249.599	194.75
249.832	196.75
250.066	192.75
250.299	164.75
250.532	176.75
250.765	204.75
250.998	200.75
251.231	211.75
251.465	212.75
251.698	206.75
251.931	187.75
252.164	183.75
252.397	183.75
252.63	179.75
252.863	188.75
253.096	204.75
253.329	228.75
253.562	220.75
253.795	230.75
254.028	195.75
254.261	210.75
254.494	211.75
254.727	237.75
254.96	257.75
255.193	255.75
255.426	235.75
255.659	222.75
255.892	225.75
256.124	223.75
256.357	209.75
256.59	213.75
256.823	203.75
257.056	214.75
257.289	189.75
257.521	210.75
257.754	189.75
257.987	220.75
258.22	221.75
258.452	193.75
258.685	197.75
258.918	220.75
259.151	214.75
259.383	207.75
259.616	226.75
259.849	225.75
260.081	220.75
260.314	239.75
260.547	258.75
260.779	243.75
261.012	231.75
261.244	237.75
261.477	218.75
261.71	222.75
261.942	220.75
262.175	241.75
262.407	215.75
262.64	229.75
262.872	217.75
263.105	218.75
263.337	225.75
263.57	203.75
263.802	218.75
264.035	226.75
264.267	212.75
264.499	218.75
264.732	222.75
264.964	231.75
265.197	212.75
265.429	232.75
265.661	226.75
265.894	222.75
266.126	226.75
266.358	242.75
266.591	220.75
266.823	226.75
267.055	242.75
267.287	238.75
267.52	247.75
267.752	233.75
267.984	239.75
268.216	239.75
268.448	236.75
268.681	241.75
268.913	258.75
269.145	272.75
269.377	275.75
269.609	267.75
269.841	249.75
270.073	287.75
270.306	290.75
270.538	314.75
270.77	297.75
271.002	294.75
271.234	277.75
271.466	291.75
271.698	291.75
271.93	310.75
272.162	307.75
272.394	304.75
272.626	313.75
272.858	299.75
273.09	275.75
273.322	282.75
273.553	262.75
273.785	277.75
274.017	255.75
274.249	272.75
274.481	272.75
274.713	273.75
274.945	275.75
275.176	277.75
275.408	266.75
275.64	271.75
275.872	281.75
276.104	266.75
276.335	260.75
276.567	272.75
276.799	272.75
277.031	291.75
277.262	326.75
277.494	320.75
277.726	312.75
277.957	287.75
278.189	299.75
278.421	264.75
278.652	287.75
278.884	288.75
279.115	278.75
279.347	283.75
279.579	288.75
279.81	288.75
280.042	273.75
280.273	272.75
280.505	279.75
280.736	284.75
280.968	281.75
281.199	271.75
281.431	292.75
281.662	301.75
281.894	292.75
282.125	291.75
282.356	336.75
282.588	320.75
282.819	314.75
283.051	292.75
283.282	304.75
283.513	290.75
283.745	306.75
283.976	292.75
284.207	306.75
284.439	321.75
284.67	291.75
284.901	298.75
285.132	288.75
285.364	292.75
285.595	308.75
285.826	287.75
286.057	303.75
286.288	292.75
286.52	281.75
286.751	310.75
286.982	302.75
287.213	316.75
287.444	310.75
287.675	311.75
287.906	306.75
288.138	326.75
288.369	337.75
288.6	323.75
288.831	323.75
289.062	342.75
289.293	323.75
289.524	322.75
289.755	315.75
289.986	303.75
290.217	316.75
290.448	310.75
290.679	320.75
290.91	324.75
291.141	310.75
291.371	335.75
291.602	316.75
291.833	295.75
292.064	328.75
292.295	318.75
292.526	314.75
292.757	304.75
292.987	310.75
293.218	312.75
293.449	328.75
293.68	330.75
293.91	316.75
294.141	315.75
294.372	334.75
294.603	312.75
294.833	316.75
295.064	312.75
295.295	327.75
295.525	307.75
295.756	313.75
295.987	320.75
296.217	349.75
296.448	345.75
296.679	346.75
296.909	321.75
297.14	308.75
297.37	324.75
297.601	321.75
297.831	298.75
298.062	332.75
298.292	332.75
298.523	356.75
298.753	331.75
298.984	353.75
299.214	345.75
299.445	353.75
299.675	332.75
299.905	335.75
300.136	337.75
300.366	349.75
300.597	336.75
300.827	358.75
301.057	343.75
301.288	368.75
301.518	352.75
301.748	359.75
301.979	350.75
302.209	352.75
302.439	351.75
302.669	363.75
302.9	365.75
303.13	339.75
303.36	366.75
303.59	346.75
303.82	371.75
304.051	355.75
304.281	368.75
304.511	363.75
304.741	353.75
304.971	352.75
305.201	375.75
305.431	355.75
305.661	363.75
305.891	360.75
306.121	371.75
306.352	354.75
306.582	368.75
306.812	340.75
307.042	351.75
307.272	359.75
307.502	380.75
307.731	364.75
307.961	370.75
308.191	361.75
308.421	352.75
308.651	341.75
308.881	343.75
309.111	366.75
309.341	362.75
309.571	368.75
309.8	379.75
310.03	384.75
310.26	385.75
310.49	388.75
310.72	398.75
310.949	393.75
311.179	426.75
311.409	398.75
311.639	395.75
311.868	416.75
312.098	403.75
312.328	394.75
312.557	405.75
312.787	422.75
313.017	412.75
313.246	428.75
313.476	399.75
313.706	397.75
313.935	383.75
314.165	390.75
314.394	427.75
314.624	414.75
314.853	420.75
315.083	409.75
315.312	393.75
315.542	394.75
315.771	402.75
316.001	383.75
316.23	410.75
316.46	363.75
316.689	391.75
316.919	410.75
317.148	419.75
317.377	400.75
317.607	425.75
317.836	423.75
318.065	405.75
318.295	394.75
318.524	371.75
318.753	384.75
318.983	428.75
319.212	418.75
319.441	406.75
319.67	402.75
319.9	409.75
320.129	413.75
320.358	405.75
320.587	413.75
320.816	404.75
321.046	421.75
321.275	449.75
321.504	416.75
321.733	407.75
321.962	422.75
322.191	412.75
322.42	454.75
322.649	444.75
322.878	459.75
323.108	449.75
323.337	484.75
323.566	498.75
323.795	492.75
324.024	535.75
324.253	640.75
324.482	840.75
324.71	1271.75
324.939	1751.75
325.168	1510.75
325.397	797.75
325.626	632.75
325.855	527.75
326.084	478.75
326.313	482.75
326.542	508.75
326.77	544.75
326.999	623.75
327.228	783.75
327.457	1126.75
327.686	1352.75
327.914	897.75
328.143	630.75
328.372	571.75
328.6	547.75
328.829	526.75
329.058	547.75
329.287	551.75
329.515	532.75
329.744	525.75
329.972	484.75
330.201	488.75
330.43	489.75
330.658	532.75
330.887	589.75
331.115	569.75
331.344	525.75
331.572	506.75
331.801	500.75
332.03	504.75
332.258	522.75
332.486	490.75
332.715	496.75
332.943	487.75
333.172	470.75
333.4	502.75
333.629	503.75
333.857	522.75
334.085	506.75
334.314	522.75
334.542	490.75
334.771	507.75
334.999	503.75
335.227	495.75
335.455	497.75
335.684	467.75
335.912	503.75
336.14	466.75
336.369	499.75
336.597	483.75
336.825	489.75
337.053	491.75
337.281	485.75
337.51	475.75
337.738	474.75
337.966	468.75
338.194	462.75
338.422	458.75
338.65	448.75
338.878	455.75
339.106	448.75
339.334	458.75
339.562	464.75
339.79	450.75
340.018	451.75
340.246	463.75
340.474	448.75
340.702	447.75
340.93	452.75
341.158	445.75
341.386	458.75
341.614	444.75
341.842	435.75
342.07	438.75
342.298	444.75
342.526	430.75
342.754	431.75
342.981	450.75
343.209	452.75
343.437	462.75
343.665	464.75
343.893	478.75
344.12	499.75
344.348	490.75
344.576	491.75
344.804	472.75
345.031	462.75
345.259	480.75
345.487	459.75
345.714	457.75
345.942	457.75
346.17	446.75
346.397	421.75
346.625	426.75
346.853	427.75
347.08	436.75
347.308	434.75
347.535	422.75
347.763	449.75
347.99	433.75
348.218	442.75
348.445	442.75
348.673	465.75
348.9	421.75
349.128	428.75
349.355	426.75
349.583	420.75
349.81	389.75
350.037	424.75
350.265	431.75
350.492	431.75
350.72	421.75
350.947	437.75
351.174	431.75
351.402	445.75
351.629	423.75
351.856	450.75
352.083	427.75
352.311	431.75
352.538	438.75
352.765	429.75
352.992	416.75
353.22	435.75
353.447	419.75
353.674	411.75
353.901	407.75
354.128	398.75
354.355	394.75
354.583	412.75
354.81	400.75
355.037	405.75
355.264	400.75
355.491	422.75
355.718	429.75
355.945	413.75
356.172	389.75
356.399	397.75
356.626	405.75
356.853	428.75
357.08	404.75
357.307	405.75
357.534	394.75
357.761	407.75
357.988	383.75
358.215	414.75
358.441	426.75
358.668	410.75
358.895	394.75
359.122	410.75
359.349	399.75
359.576	426.75
359.802	435.75
360.029	458.75
360.256	479.75
360.483	463.75
360.709	439.75
360.936	421.75
361.163	414.75
361.39	413.75
361.616	428.75
361.843	426.75
362.07	418.75
362.296	457.75
362.523	434.75
362.749	443.75
362.976	422.75
363.203	413.75
363.429	418.75
363.656	438.75
363.882	414.75
364.109	401.75
364.335	429.75
364.562	418.75
364.788	410.75
365.015	403.75
365.241	407.75
365.468	399.75
365.694	413.75
365.92	429.75
366.147	413.75
366.373	426.75
366.599	405.75
366.826	412.75
367.052	398.75
367.278	394.75
367.505	412.75
367.731	411.75
367.957	434.75
368.184	421.75
368.41	425.75
368.636	411.75
368.862	439.75
369.089	420.75
369.315	408.75
369.541	400.75
369.767	408.75
369.993	405.75
370.219	419.75
370.445	398.75
370.672	416.75
370.898	411.75
371.124	414.75
371.35	427.75
371.576	396.75
371.802	420.75
372.028	418.75
372.254	415.75
372.48	412.75
372.706	413.75
372.932	415.75
373.158	424.75
373.384	413.75
373.61	409.75
373.835	427.75
374.061	425.75
374.287	419.75
374.513	415.75
374.739	421.75
374.965	420.75
375.191	426.75
375.416	436.75
375.642	443.75
375.868	432.75
376.094	434.75
376.319	415.75
376.545	412.75
376.771	421.75
376.997	395.75
377.222	408.75
377.448	416.75
377.674	416.75
377.899	416.75
378.125	404.75
378.35	425.75
378.576	413.75
378.802	408.75
379.027	410.75
379.253	421.75
379.478	423.75
379.704	399.75
379.929	401.75
380.155	420.75
380.38	412.75
380.606	415.75
380.831	386.75
381.057	416.75
381.282	426.75
381.507	428.75
381.733	431.75
381.958	418.75
382.184	412.75
382.409	414.75
382.634	404.75
382.86	440.75
383.085	422.75
383.31	442.75
383.535	431.75
383.761	428.75
383.986	430.75
384.211	441.75
384.436	434.75
384.662	454.75
384.887	444.75
385.112	465.75
385.337	475.75
385.562	462.75
385.787	454.75
386.013	459.75
386.238	467.75
386.463	471.75
386.688	481.75
386.913	452.75
387.138	465.75
387.363	456.75
387.588	460.75
387.813	481.75
388.038	456.75
388.263	452.75
388.488	459.75
388.713	454.75
388.938	448.75
389.163	468.75
389.387	456.75
389.612	455.75
389.837	457.75
390.062	454.75
390.287	453.75
390.512	436.75
390.736	451.75
390.961	451.75
391.186	450.75
391.411	451.75
391.636	464.75
391.86	493.75
392.085	466.75
392.31	479.75
392.534	479.75
392.759	488.75
392.984	481.75
393.208	460.75
393.433	495.75
393.658	469.75
393.882	455.75
394.107	465.75
394.331	486.75
394.556	464.75
394.78	471.75
395.005	462.75
395.229	453.75
395.454	483.75
395.678	491.75
395.903	482.75
396.127	495.75
396.352	493.75
396.576	482.75
396.801	474.75
397.025	483.75
397.249	485.75
397.474	505.75
397.698	484.75
397.922	504.75
398.147	532.75
398.371	516.75
398.595	541.75
398.82	539.75
399.044	556.75
399.268	595.75
399.492	612.75
399.717	671.75
399.941	716.75
400.165	684.75
400.389	681.75
400.613	605.75
400.837	569.75
401.062	540.75
401.286	538.75
401.51	540.75
401.734	521.75
401.958	524.75
402.182	553.75
402.406	561.75
402.63	560.75
402.854	553.75
403.078	554.75
403.302	560.75
403.526	561.75
403.75	571.75
403.974	562.75
404.198	570.75
404.422	573.75
404.645	577.75
404.869	574.75
405.093	569.75
405.317	596.75
405.541	620.75
405.765	593.75
405.988	562.75
406.212	581.75
406.436	601.75
406.66	630.75
406.883	599.75
407.107	612.75
407.331	653.75
407.555	741.75
407.778	727.75
408.002	641.75
408.226	608.75
408.449	626.75
408.673	595.75
408.896	629.75
409.12	640.75
409.344	631.75
409.567	583.75
409.791	552.75
410.014	550.75
410.238	547.75
410.461	536.75
410.685	570.75
410.908	572.75
411.132	585.75
411.355	617.75
411.578	607.75
411.802	538.75
412.025	538.75
412.249	546.75
412.472	545.75
412.695	548.75
412.919	536.75
413.142	512.75
413.365	517.75
413.589	538.75
413.812	527.75
414.035	506.75
414.258	512.75
414.482	504.75
414.705	530.75
414.928	515.75
415.151	526.75
415.374	512.75
415.597	518.75
415.821	520.75
416.044	512.75
416.267	514.75
416.49	516.75
416.713	500.75
416.936	526.75
417.159	503.75
417.382	508.75
417.605	518.75
417.828	528.75
418.051	531.75
418.274	528.75
418.497	521.75
418.72	531.75
418.943	506.75
419.166	540.75
419.389	560.75
419.611	547.75
419.834	536.75
420.057	536.75
420.28	534.75
420.503	526.75
420.726	516.75
420.948	520.75
421.171	572.75
421.394	593.75
421.617	542.75
421.839	534.75
422.062	514.75
422.285	547.75
422.507	606.75
422.73	659.75
422.953	662.75
423.175	557.75
423.398	553.75
423.621	568.75
423.843	583.75
424.066	568.75
424.288	595.75
424.511	583.75
424.733	611.75
424.956	704.75
425.178	658.75
425.401	645.75
425.623	672.75
425.846	590.75
426.068	547.75
426.291	526.75
426.513	540.75
426.735	547.75
426.958	564.75
427.18	666.75
427.402	776.75
427.625	827.75
427.847	731.75
428.069	603.75
428.292	561.75
428.514	536.75
428.736	541.75
428.958	528.75
429.181	491.75
429.403	498.75
429.625	523.75
429.847	542.75
430.069	578.75
430.292	591.75
430.514	523.75
430.736	536.75
430.958	514.75
431.18	494.75
431.402	496.75
431.624	491.75
431.846	471.75
432.068	478.75
432.29	496.75
432.512	486.75
432.734	482.75
432.956	488.75
433.178	502.75
433.4	504.75
433.622	477.75
433.844	503.75
434.066	488.75
434.287	482.75
434.509	513.75
434.731	516.75
434.953	526.75
435.175	519.75
435.397	559.75
435.618	544.75
435.84	568.75
436.062	635.75
436.284	719.75
436.505	595.75
436.727	568.75
436.949	535.75
437.17	514.75
437.392	494.75
437.614	522.75
437.835	524.75
438.057	608.75
438.278	698.75
438.5	696.75
438.721	753.75
438.943	755.75
439.165	593.75
439.386	536.75
439.608	539.75
439.829	538.75
440.05	556.75
440.272	616.75
440.493	583.75
440.715	540.75
440.936	539.75
441.158	515.75
441.379	512.75
441.6	554.75
441.822	542.75
442.043	615.75
442.264	671.75
442.486	690.75
442.707	641.75
442.928	584.75
443.149	576.75
443.371	590.75
443.592	626.75
443.813	716.75
444.034	744.75
444.255	641.75
444.476	608.75
444.698	574.75
444.919	595.75
445.14	695.75
445.361	640.75
445.582	594.75
445.803	660.75
446.024	700.75
446.245	733.75
446.466	640.75
446.687	579.75
446.908	534.75
447.129	520.75
447.35	514.75
447.571	481.75
447.792	505.75
448.013	509.75
448.234	505.75
448.455	563.75
448.675	655.75
448.896	746.75
449.117	627.75
449.338	590.75
449.559	700.75
449.779	784.75
450	630.75
450.221	538.75
450.442	491.75
450.662	461.75
450.883	474.75
451.104	504.75
451.324	504.75
451.545	468.75
451.766	473.75
451.986	449.75
452.207	465.75
452.428	441.75
452.648	439.75
452.869	447.75
453.089	479.75
453.31	463.75
453.53	450.75
453.751	433.75
453.971	458.75
454.192	457.75
454.412	474.75
454.633	433.75
454.853	426.75
455.073	450.75
455.294	467.75
455.514	540.75
455.734	512.75
455.955	448.75
456.175	458.75
456.395	424.75
456.616	409.75
456.836	412.75
457.056	434.75
457.276	432.75
457.497	412.75
457.717	434.75
457.937	427.75
458.157	431.75
458.377	444.75
458.598	473.75
458.818	507.75
459.038	566.75
459.258	591.75
459.478	507.75
459.698	506.75
459.918	499.75
460.138	507.75
460.358	534.75
460.578	530.75
460.798	545.75
461.018	545.75
461.238	523.75
461.458	516.75
461.678	529.75
461.898	505.75
462.118	528.75
462.338	549.75
462.558	548.75
462.777	570.75
462.997	571.75
463.217	597.75
463.437	600.75
463.657	594.75
463.876	551.75
464.096	585.75
464.316	579.75
464.536	573.75
464.755	561.75
464.975	547.75
465.195	586.75
465.414	591.75
465.634	553.75
465.854	516.75
466.073	522.75
466.293	510.75
466.512	476.75
466.732	451.75
466.951	470.75
467.171	475.75
467.391	479.75
467.61	489.75
467.829	506.75
468.049	488.75
468.268	474.75
468.488	465.75
468.707	477.75
468.927	474.75
469.146	459.75
469.365	460.75
469.585	481.75
469.804	478.75
470.023	490.75
470.243	453.75
470.462	477.75
470.681	480.75
470.901	494.75
471.12	448.75
471.339	463.75
471.558	480.75
471.777	489.75
471.997	467.75
472.216	463.75
472.435	461.75
472.654	446.75
472.873	442.75
473.092	440.75
473.311	480.75
473.53	477.75
473.749	464.75
473.968	497.75
474.187	606.75
474.406	619.75
474.625	520.75
474.844	481.75
475.063	463.75
475.282	465.75
475.501	483.75
475.72	493.75
475.939	483.75
476.158	466.75
476.377	479.75
476.596	486.75
476.814	482.75
477.033	504.75
477.252	498.75
477.471	488.75
477.69	520.75
477.908	516.75
478.127	528.75
478.346	528.75
478.564	541.75
478.783	557.75
479.002	545.75
479.22	554.75
479.439	538.75
479.658	544.75
479.876	578.75
480.095	586.75
480.313	610.75
480.532	594.75
480.751	583.75
480.969	576.75
481.188	590.75
481.406	575.75
481.624	567.75
481.843	555.75
482.061	557.75
482.28	544.75
482.498	532.75
482.717	506.75
482.935	539.75
483.153	539.75
483.372	536.75
483.59	542.75
483.808	535.75
484.027	547.75
484.245	534.75
484.463	538.75
484.681	560.75
484.9	547.75
485.118	536.75
485.336	551.75
485.554	564.75
485.772	560.75
485.99	557.75
486.209	552.75
486.427	587.75
486.645	566.75
486.863	590.75
487.081	593.75
487.299	607.75
487.517	558.75
487.735	574.75
487.953	564.75
488.171	565.75
488.389	580.75
488.607	564.75
488.825	579.75
489.043	545.75
489.261	568.75
489.479	570.75
489.696	579.75
489.914	590.75
490.132	587.75
490.35	612.75
490.568	604.75
490.786	607.75
491.003	611.75
491.221	638.75
491.439	652.75
491.657	630.75
491.874	652.75
492.092	644.75
492.31	655.75
492.527	649.75
492.745	643.75
492.963	637.75
493.18	642.75
493.398	670.75
493.615	686.75
493.833	672.75
494.05	674.75
494.268	672.75
494.485	668.75
494.703	664.75
494.92	695.75
495.138	673.75
495.355	675.75
495.573	681.75
495.79	674.75
496.008	681.75
496.225	655.75
496.442	689.75
496.66	680.75
496.877	686.75
497.094	673.75
497.312	707.75
497.529	696.75
497.746	738.75
497.963	733.75
498.181	793.75
498.398	778.75
498.615	786.75
498.832	831.75
499.049	846.75
499.267	866.75
499.484	931.75
499.701	966.75
499.918	1025.75
500.135	1077.75
500.352	1147.75
500.569	1154.75
500.786	1186.75
501.003	1131.75
501.22	1063.75
501.437	1029.75
501.654	993.75
501.871	946.75
