Data from 1985.PennyLincolnUp.Lamp.En5.5.200Scan.071819.P1_HRD10591_17-04-25-971.txt Node
Date: Thu Jul 18 17:04:25 EDT 2019
User: cochatt
Spectrometer: HR+D1059
Trigger mode: 1
Integration Time (sec): 1.000000E-1
Scans to average: 1
Electric dark correction enabled: true
Nonlinearity correction enabled: false
Boxcar width: 0
XAxis mode: Wavelengths
Number of Pixels in Spectrum: 2048
>>>>>Begin Spectral Data<<<<<
223.165	-24.88
223.4	-24.88
223.635	-24.88
223.869	-9.88
224.104	-9.88
224.338	-16.88
224.573	-9.88
224.808	-15.88
225.042	-7.88
225.277	-1.88
225.511	-9.88
225.746	5.12
225.98	12.12
226.215	10.12
226.449	14.12
226.683	24.12
226.918	27.12
227.152	14.12
227.387	27.12
227.621	39.12
227.856	51.12
228.09	42.12
228.324	36.12
228.559	50.12
228.793	69.12
229.027	84.12
229.262	101.12
229.496	104.12
229.73	136.12
229.964	142.12
230.199	130.12
230.433	106.12
230.667	116.12
230.901	108.12
231.136	106.12
231.37	122.12
231.604	121.12
231.838	105.12
232.072	100.12
232.306	118.12
232.541	102.12
232.775	124.12
233.009	118.12
233.243	112.12
233.477	122.12
233.711	112.12
233.945	113.12
234.179	114.12
234.413	116.12
234.647	121.12
234.881	117.12
235.115	118.12
235.349	116.12
235.583	122.12
235.817	121.12
236.051	117.12
236.285	121.12
236.519	125.12
236.753	137.12
236.987	138.12
237.221	157.12
237.455	202.12
237.689	164.12
237.922	134.12
238.156	138.12
238.39	115.12
238.624	116.12
238.858	127.12
239.091	121.12
239.325	131.12
239.559	116.12
239.793	121.12
240.027	124.12
240.26	125.12
240.494	149.12
240.728	154.12
240.961	126.12
241.195	147.12
241.429	139.12
241.662	133.12
241.896	126.12
242.13	125.12
242.363	140.12
242.597	127.12
242.83	137.12
243.064	146.12
243.298	133.12
243.531	141.12
243.765	131.12
243.998	125.12
244.232	158.12
244.465	128.12
244.699	140.12
244.932	142.12
245.166	150.12
245.399	149.12
245.633	147.12
245.866	158.12
246.099	173.12
246.333	160.12
246.566	144.12
246.8	149.12
247.033	160.12
247.266	164.12
247.5	148.12
247.733	180.12
247.966	155.12
248.2	165.12
248.433	163.12
248.666	171.12
248.899	194.12
249.133	178.12
249.366	200.12
249.599	191.12
249.832	184.12
250.066	165.12
250.299	189.12
250.532	206.12
250.765	209.12
250.998	209.12
251.231	209.12
251.465	215.12
251.698	201.12
251.931	204.12
252.164	192.12
252.397	219.12
252.63	190.12
252.863	194.12
253.096	216.12
253.329	215.12
253.562	224.12
253.795	197.12
254.028	202.12
254.261	204.12
254.494	211.12
254.727	246.12
254.96	271.12
255.193	232.12
255.426	230.12
255.659	244.12
255.892	253.12
256.124	253.12
256.357	266.12
256.59	258.12
256.823	245.12
257.056	224.12
257.289	221.12
257.521	217.12
257.754	227.12
257.987	213.12
258.22	224.12
258.452	214.12
258.685	213.12
258.918	208.12
259.151	200.12
259.383	225.12
259.616	240.12
259.849	225.12
260.081	226.12
260.314	264.12
260.547	256.12
260.779	257.12
261.012	235.12
261.244	240.12
261.477	241.12
261.71	223.12
261.942	224.12
262.175	236.12
262.407	234.12
262.64	210.12
262.872	221.12
263.105	225.12
263.337	232.12
263.57	208.12
263.802	220.12
264.035	215.12
264.267	221.12
264.499	221.12
264.732	220.12
264.964	230.12
265.197	237.12
265.429	210.12
265.661	185.12
265.894	242.12
266.126	220.12
266.358	228.12
266.591	222.12
266.823	233.12
267.055	236.12
267.287	242.12
267.52	242.12
267.752	244.12
267.984	234.12
268.216	240.12
268.448	261.12
268.681	241.12
268.913	261.12
269.145	266.12
269.377	287.12
269.609	275.12
269.841	279.12
270.073	278.12
270.306	292.12
270.538	296.12
270.77	298.12
271.002	298.12
271.234	284.12
271.466	307.12
271.698	323.12
271.93	314.12
272.162	300.12
272.394	306.12
272.626	308.12
272.858	293.12
273.09	279.12
273.322	280.12
273.553	282.12
273.785	277.12
274.017	276.12
274.249	279.12
274.481	279.12
274.713	269.12
274.945	272.12
275.176	279.12
275.408	274.12
275.64	290.12
275.872	289.12
276.104	268.12
276.335	281.12
276.567	294.12
276.799	304.12
277.031	314.12
277.262	314.12
277.494	320.12
277.726	316.12
277.957	297.12
278.189	305.12
278.421	280.12
278.652	281.12
278.884	283.12
279.115	294.12
279.347	293.12
279.579	288.12
279.81	282.12
280.042	289.12
280.273	294.12
280.505	296.12
280.736	291.12
280.968	291.12
281.199	295.12
281.431	295.12
281.662	274.12
281.894	280.12
282.125	283.12
282.356	294.12
282.588	321.12
282.819	318.12
283.051	300.12
283.282	317.12
283.513	295.12
283.745	289.12
283.976	301.12
284.207	326.12
284.439	336.12
284.67	301.12
284.901	287.12
285.132	297.12
285.364	320.12
285.595	308.12
285.826	313.12
286.057	306.12
286.288	297.12
286.52	306.12
286.751	308.12
286.982	314.12
287.213	292.12
287.444	322.12
287.675	292.12
287.906	313.12
288.138	317.12
288.369	329.12
288.6	323.12
288.831	350.12
289.062	339.12
289.293	316.12
289.524	331.12
289.755	315.12
289.986	320.12
290.217	304.12
290.448	329.12
290.679	333.12
290.91	330.12
291.141	296.12
291.371	310.12
291.602	327.12
291.833	334.12
292.064	326.12
292.295	329.12
292.526	318.12
292.757	307.12
292.987	322.12
293.218	323.12
293.449	321.12
293.68	318.12
293.91	327.12
294.141	338.12
294.372	324.12
294.603	306.12
294.833	334.12
295.064	325.12
295.295	336.12
295.525	324.12
295.756	335.12
295.987	329.12
296.217	347.12
296.448	350.12
296.679	337.12
296.909	324.12
297.14	323.12
297.37	335.12
297.601	333.12
297.831	326.12
298.062	337.12
298.292	327.12
298.523	329.12
298.753	349.12
298.984	322.12
299.214	333.12
299.445	337.12
299.675	346.12
299.905	362.12
300.136	332.12
300.366	338.12
300.597	345.12
300.827	345.12
301.057	363.12
301.288	372.12
301.518	368.12
301.748	360.12
301.979	343.12
302.209	381.12
302.439	372.12
302.669	371.12
302.9	380.12
303.13	381.12
303.36	356.12
303.59	370.12
303.82	357.12
304.051	376.12
304.281	372.12
304.511	369.12
304.741	353.12
304.971	357.12
305.201	364.12
305.431	370.12
305.661	372.12
305.891	378.12
306.121	373.12
306.352	363.12
306.582	372.12
306.812	363.12
307.042	365.12
307.272	381.12
307.502	376.12
307.731	384.12
307.961	398.12
308.191	368.12
308.421	376.12
308.651	389.12
308.881	393.12
309.111	375.12
309.341	381.12
309.571	371.12
309.8	385.12
310.03	403.12
310.26	395.12
310.49	396.12
310.72	397.12
310.949	404.12
311.179	434.12
311.409	397.12
311.639	417.12
311.868	412.12
312.098	405.12
312.328	412.12
312.557	428.12
312.787	433.12
313.017	426.12
313.246	409.12
313.476	408.12
313.706	405.12
313.935	418.12
314.165	412.12
314.394	428.12
314.624	432.12
314.853	438.12
315.083	412.12
315.312	418.12
315.542	427.12
315.771	400.12
316.001	417.12
316.23	406.12
316.46	400.12
316.689	426.12
316.919	419.12
317.148	442.12
317.377	424.12
317.607	424.12
317.836	424.12
318.065	405.12
318.295	384.12
318.524	426.12
318.753	432.12
318.983	402.12
319.212	428.12
319.441	403.12
319.67	439.12
319.9	427.12
320.129	416.12
320.358	427.12
320.587	424.12
320.816	434.12
321.046	418.12
321.275	442.12
321.504	432.12
321.733	424.12
321.962	450.12
322.191	429.12
322.42	480.12
322.649	466.12
322.878	471.12
323.108	482.12
323.337	496.12
323.566	490.12
323.795	536.12
324.024	597.12
324.253	686.12
324.482	966.12
324.71	1416.12
324.939	2012.12
325.168	1688.12
325.397	891.12
325.626	642.12
325.855	553.12
326.084	536.12
326.313	523.12
326.542	548.12
326.77	573.12
326.999	663.12
327.228	878.12
327.457	1274.12
327.686	1467.12
327.914	1034.12
328.143	734.12
328.372	668.12
328.6	605.12
328.829	578.12
329.058	592.12
329.287	591.12
329.515	581.12
329.744	563.12
329.972	556.12
330.201	608.12
330.43	646.12
330.658	672.12
330.887	641.12
331.115	632.12
331.344	542.12
331.572	532.12
331.801	537.12
332.03	534.12
332.258	504.12
332.486	525.12
332.715	527.12
332.943	525.12
333.172	535.12
333.4	532.12
333.629	546.12
333.857	564.12
334.085	578.12
334.314	617.12
334.542	663.12
334.771	685.12
334.999	602.12
335.227	561.12
335.455	515.12
335.684	549.12
335.912	527.12
336.14	488.12
336.369	497.12
336.597	532.12
336.825	507.12
337.053	525.12
337.281	497.12
337.51	477.12
337.738	488.12
337.966	498.12
338.194	460.12
338.422	473.12
338.65	480.12
338.878	473.12
339.106	468.12
339.334	486.12
339.562	456.12
339.79	466.12
340.018	448.12
340.246	484.12
340.474	475.12
340.702	459.12
340.93	470.12
341.158	461.12
341.386	466.12
341.614	470.12
341.842	474.12
342.07	448.12
342.298	458.12
342.526	469.12
342.754	442.12
342.981	468.12
343.209	465.12
343.437	476.12
343.665	466.12
343.893	489.12
344.12	495.12
344.348	500.12
344.576	491.12
344.804	475.12
345.031	482.12
345.259	480.12
345.487	464.12
345.714	476.12
345.942	477.12
346.17	463.12
346.397	457.12
346.625	438.12
346.853	447.12
347.08	436.12
347.308	443.12
347.535	463.12
347.763	466.12
347.99	451.12
348.218	474.12
348.445	440.12
348.673	471.12
348.9	436.12
349.128	402.12
349.355	424.12
349.583	429.12
349.81	443.12
350.037	419.12
350.265	442.12
350.492	448.12
350.72	434.12
350.947	424.12
351.174	451.12
351.402	436.12
351.629	435.12
351.856	465.12
352.083	457.12
352.311	460.12
352.538	468.12
352.765	443.12
352.992	442.12
353.22	431.12
353.447	449.12
353.674	425.12
353.901	436.12
354.128	412.12
354.355	420.12
354.583	414.12
354.81	430.12
355.037	420.12
355.264	433.12
355.491	432.12
355.718	415.12
355.945	417.12
356.172	434.12
356.399	414.12
356.626	413.12
356.853	404.12
357.08	412.12
357.307	416.12
357.534	414.12
357.761	436.12
357.988	430.12
358.215	428.12
358.441	421.12
358.668	428.12
358.895	405.12
359.122	429.12
359.349	441.12
359.576	461.12
359.802	468.12
360.029	477.12
360.256	466.12
360.483	478.12
360.709	435.12
360.936	462.12
361.163	437.12
361.39	464.12
361.616	438.12
361.843	442.12
362.07	438.12
362.296	437.12
362.523	440.12
362.749	440.12
362.976	444.12
363.203	458.12
363.429	421.12
363.656	434.12
363.882	422.12
364.109	426.12
364.335	412.12
364.562	404.12
364.788	427.12
365.015	432.12
365.241	403.12
365.468	420.12
365.694	447.12
365.92	440.12
366.147	433.12
366.373	448.12
366.599	412.12
366.826	412.12
367.052	420.12
367.278	401.12
367.505	427.12
367.731	439.12
367.957	424.12
368.184	408.12
368.41	434.12
368.636	447.12
368.862	434.12
369.089	431.12
369.315	410.12
369.541	426.12
369.767	416.12
369.993	415.12
370.219	414.12
370.445	437.12
370.672	407.12
370.898	428.12
371.124	418.12
371.35	415.12
371.576	426.12
371.802	429.12
372.028	437.12
372.254	425.12
372.48	445.12
372.706	444.12
372.932	443.12
373.158	422.12
373.384	402.12
373.61	420.12
373.835	424.12
374.061	447.12
374.287	440.12
374.513	411.12
374.739	436.12
374.965	456.12
375.191	440.12
375.416	427.12
375.642	430.12
375.868	420.12
376.094	436.12
376.319	423.12
376.545	430.12
376.771	411.12
376.997	406.12
377.222	422.12
377.448	416.12
377.674	421.12
377.899	409.12
378.125	435.12
378.35	419.12
378.576	424.12
378.802	404.12
379.027	412.12
379.253	417.12
379.478	423.12
379.704	410.12
379.929	404.12
380.155	412.12
380.38	403.12
380.606	432.12
380.831	427.12
381.057	435.12
381.282	409.12
381.507	427.12
381.733	444.12
381.958	408.12
382.184	409.12
382.409	422.12
382.634	428.12
382.86	441.12
383.085	451.12
383.31	459.12
383.535	443.12
383.761	417.12
383.986	425.12
384.211	433.12
384.436	436.12
384.662	462.12
384.887	443.12
385.112	467.12
385.337	461.12
385.562	460.12
385.787	459.12
386.013	482.12
386.238	472.12
386.463	451.12
386.688	473.12
386.913	456.12
387.138	443.12
387.363	472.12
387.588	472.12
387.813	469.12
388.038	475.12
388.263	461.12
388.488	458.12
388.713	446.12
388.938	480.12
389.163	449.12
389.387	455.12
389.612	476.12
389.837	472.12
390.062	449.12
390.287	445.12
390.512	463.12
390.736	442.12
390.961	466.12
391.186	471.12
391.411	447.12
391.636	473.12
391.86	486.12
392.085	493.12
392.31	508.12
392.534	470.12
392.759	476.12
392.984	481.12
393.208	470.12
393.433	476.12
393.658	488.12
393.882	467.12
394.107	474.12
394.331	452.12
394.556	485.12
394.78	490.12
395.005	480.12
395.229	470.12
395.454	491.12
395.678	493.12
395.903	494.12
396.127	502.12
396.352	524.12
396.576	480.12
396.801	500.12
397.025	473.12
397.249	474.12
397.474	507.12
397.698	512.12
397.922	516.12
398.147	538.12
398.371	530.12
398.595	516.12
398.82	556.12
399.044	579.12
399.268	590.12
399.492	659.12
399.717	684.12
399.941	706.12
400.165	699.12
400.389	682.12
400.613	600.12
400.837	578.12
401.062	549.12
401.286	549.12
401.51	559.12
401.734	536.12
401.958	536.12
402.182	537.12
402.406	561.12
402.63	563.12
402.854	573.12
403.078	574.12
403.302	573.12
403.526	599.12
403.75	570.12
403.974	600.12
404.198	580.12
404.422	576.12
404.645	569.12
404.869	614.12
405.093	610.12
405.317	639.12
405.541	707.12
405.765	648.12
405.988	605.12
406.212	611.12
406.436	620.12
406.66	633.12
406.883	616.12
407.107	637.12
407.331	666.12
407.555	759.12
407.778	722.12
408.002	680.12
408.226	644.12
408.449	622.12
408.673	619.12
408.896	652.12
409.12	663.12
409.344	615.12
409.567	587.12
409.791	586.12
410.014	576.12
410.238	548.12
410.461	581.12
410.685	578.12
410.908	581.12
411.132	621.12
411.355	638.12
411.578	628.12
411.802	587.12
412.025	562.12
412.249	584.12
412.472	596.12
412.695	632.12
412.919	660.12
413.142	589.12
413.365	553.12
413.589	561.12
413.812	546.12
414.035	533.12
414.258	524.12
414.482	523.12
414.705	539.12
414.928	534.12
415.151	527.12
415.374	517.12
415.597	521.12
415.821	526.12
416.044	516.12
416.267	504.12
416.49	536.12
416.713	504.12
416.936	512.12
417.159	518.12
417.382	530.12
417.605	526.12
417.828	550.12
418.051	541.12
418.274	532.12
418.497	521.12
418.72	522.12
418.943	533.12
419.166	558.12
419.389	577.12
419.611	570.12
419.834	548.12
420.057	553.12
420.28	588.12
420.503	575.12
420.726	537.12
420.948	560.12
421.171	587.12
421.394	629.12
421.617	566.12
421.839	525.12
422.062	567.12
422.285	538.12
422.507	617.12
422.73	693.12
422.953	642.12
423.175	599.12
423.398	563.12
423.621	580.12
423.843	591.12
424.066	576.12
424.288	589.12
424.511	605.12
424.733	671.12
424.956	707.12
425.178	680.12
425.401	675.12
425.623	673.12
425.846	608.12
426.068	560.12
426.291	577.12
426.513	564.12
426.735	591.12
426.958	618.12
427.18	681.12
427.402	817.12
427.625	879.12
427.847	774.12
428.069	712.12
428.292	616.12
428.514	550.12
428.736	522.12
428.958	526.12
429.181	527.12
429.403	510.12
429.625	522.12
429.847	548.12
430.069	601.12
430.292	599.12
430.514	532.12
430.736	514.12
430.958	505.12
431.18	501.12
431.402	472.12
431.624	482.12
431.846	491.12
432.068	481.12
432.29	484.12
432.512	510.12
432.734	518.12
432.956	515.12
433.178	509.12
433.4	516.12
433.622	501.12
433.844	480.12
434.066	510.12
434.287	506.12
434.509	521.12
434.731	551.12
434.953	561.12
435.175	553.12
435.397	543.12
435.618	553.12
435.84	603.12
436.062	668.12
436.284	740.12
436.505	615.12
436.727	561.12
436.949	536.12
437.17	516.12
437.392	508.12
437.614	530.12
437.835	564.12
438.057	637.12
438.278	741.12
438.5	725.12
438.721	806.12
438.943	755.12
439.165	605.12
439.386	583.12
439.608	554.12
439.829	582.12
440.05	586.12
440.272	641.12
440.493	568.12
440.715	560.12
440.936	552.12
441.158	526.12
441.379	513.12
441.6	565.12
441.822	589.12
442.043	592.12
442.264	690.12
442.486	706.12
442.707	619.12
442.928	572.12
443.149	580.12
443.371	601.12
443.592	646.12
443.813	720.12
444.034	775.12
444.255	633.12
444.476	583.12
444.698	604.12
444.919	612.12
445.14	704.12
445.361	649.12
445.582	608.12
445.803	650.12
446.024	738.12
446.245	718.12
446.466	682.12
446.687	594.12
446.908	544.12
447.129	514.12
447.35	499.12
447.571	501.12
447.792	502.12
448.013	500.12
448.234	517.12
448.455	576.12
448.675	688.12
448.896	742.12
449.117	652.12
449.338	610.12
449.559	717.12
449.779	818.12
450	642.12
450.221	546.12
450.442	515.12
450.662	526.12
450.883	519.12
451.104	514.12
451.324	496.12
451.545	481.12
451.766	457.12
451.986	468.12
452.207	478.12
452.428	466.12
452.648	462.12
452.869	474.12
453.089	456.12
453.31	464.12
453.53	491.12
453.751	470.12
453.971	440.12
454.192	483.12
454.412	493.12
454.633	472.12
454.853	443.12
455.073	461.12
455.294	497.12
455.514	541.12
455.734	523.12
455.955	445.12
456.175	458.12
456.395	436.12
456.616	431.12
456.836	446.12
457.056	443.12
457.276	427.12
457.497	432.12
457.717	453.12
457.937	442.12
458.157	453.12
458.377	441.12
458.598	468.12
458.818	523.12
459.038	604.12
459.258	606.12
459.478	525.12
459.698	514.12
459.918	512.12
460.138	497.12
460.358	526.12
460.578	541.12
460.798	534.12
461.018	557.12
461.238	549.12
461.458	541.12
461.678	520.12
461.898	539.12
462.118	526.12
462.338	542.12
462.558	554.12
462.777	553.12
462.997	571.12
463.217	602.12
463.437	613.12
463.657	603.12
463.876	578.12
464.096	580.12
464.316	572.12
464.536	590.12
464.755	578.12
464.975	563.12
465.195	602.12
465.414	638.12
465.634	601.12
465.854	539.12
466.073	513.12
466.293	500.12
466.512	483.12
466.732	498.12
466.951	481.12
467.171	472.12
467.391	480.12
467.61	464.12
467.829	478.12
468.049	481.12
468.268	488.12
468.488	476.12
468.707	483.12
468.927	459.12
469.146	463.12
469.365	464.12
469.585	454.12
469.804	491.12
470.023	493.12
470.243	481.12
470.462	493.12
470.681	512.12
470.901	526.12
471.12	497.12
471.339	468.12
471.558	490.12
471.777	490.12
471.997	480.12
472.216	500.12
472.435	559.12
472.654	538.12
472.873	505.12
473.092	491.12
473.311	494.12
473.53	491.12
473.749	481.12
473.968	541.12
474.187	602.12
474.406	633.12
474.625	527.12
474.844	477.12
475.063	497.12
475.282	491.12
475.501	478.12
475.72	478.12
475.939	476.12
476.158	499.12
476.377	512.12
476.596	499.12
476.814	490.12
477.033	516.12
477.252	524.12
477.471	540.12
477.69	515.12
477.908	514.12
478.127	540.12
478.346	530.12
478.564	565.12
478.783	540.12
479.002	580.12
479.22	586.12
479.439	578.12
479.658	609.12
479.876	607.12
480.095	620.12
480.313	634.12
480.532	624.12
480.751	597.12
480.969	618.12
481.188	690.12
481.406	774.12
481.624	664.12
481.843	615.12
482.061	607.12
482.28	577.12
482.498	572.12
482.717	554.12
482.935	564.12
483.153	572.12
483.372	573.12
483.59	566.12
483.808	570.12
484.027	568.12
484.245	560.12
484.463	561.12
484.681	573.12
484.9	573.12
485.118	578.12
485.336	591.12
485.554	579.12
485.772	597.12
485.99	597.12
486.209	570.12
486.427	571.12
486.645	602.12
486.863	604.12
487.081	617.12
487.299	618.12
487.517	638.12
487.735	630.12
487.953	593.12
488.171	606.12
488.389	578.12
488.607	596.12
488.825	622.12
489.043	581.12
489.261	589.12
489.479	617.12
489.696	607.12
489.914	627.12
490.132	633.12
490.35	656.12
490.568	612.12
490.786	635.12
491.003	651.12
491.221	680.12
491.439	706.12
491.657	690.12
491.874	706.12
492.092	703.12
492.31	696.12
492.527	698.12
492.745	712.12
492.963	707.12
493.18	710.12
493.398	727.12
493.615	745.12
493.833	722.12
494.05	707.12
494.268	703.12
494.485	698.12
494.703	729.12
494.92	693.12
495.138	693.12
495.355	714.12
495.573	723.12
495.79	719.12
496.008	717.12
496.225	714.12
496.442	721.12
496.66	726.12
496.877	727.12
497.094	718.12
497.312	737.12
497.529	747.12
497.746	759.12
497.963	768.12
498.181	793.12
498.398	817.12
498.615	826.12
498.832	852.12
499.049	872.12
499.267	897.12
499.484	940.12
499.701	978.12
499.918	1062.12
500.135	1128.12
500.352	1176.12
500.569	1206.12
500.786	1214.12
501.003	1197.12
501.22	1124.12
501.437	1059.12
501.654	1021.12
501.871	990.12
