Data from 1985.PennyLincolnUp.Lamp.En5.5.200Scan.071819.P1_HRD10591_17-03-05-971.txt Node
Date: Thu Jul 18 17:03:05 EDT 2019
User: cochatt
Spectrometer: HR+D1059
Trigger mode: 1
Integration Time (sec): 1.000000E-1
Scans to average: 1
Electric dark correction enabled: true
Nonlinearity correction enabled: false
Boxcar width: 0
XAxis mode: Wavelengths
Number of Pixels in Spectrum: 2048
>>>>>Begin Spectral Data<<<<<
223.165	-14.88
223.4	-14.88
223.635	-14.88
223.869	-26.88
224.104	-9.88
224.338	-11.88
224.573	-6.88
224.808	-14.88
225.042	-6.88
225.277	-20.88
225.511	5.12
225.746	13.12
225.98	4.12
226.215	21.12
226.449	3.12
226.683	20.12
226.918	19.12
227.152	27.12
227.387	30.12
227.621	36.12
227.856	54.12
228.09	40.12
228.324	58.12
228.559	65.12
228.793	70.12
229.027	89.12
229.262	112.12
229.496	112.12
229.73	117.12
229.964	136.12
230.199	109.12
230.433	113.12
230.667	127.12
230.901	114.12
231.136	106.12
231.37	110.12
231.604	105.12
231.838	104.12
232.072	109.12
232.306	112.12
232.541	100.12
232.775	91.12
233.009	98.12
233.243	132.12
233.477	114.12
233.711	126.12
233.945	105.12
234.179	109.12
234.413	102.12
234.647	121.12
234.881	116.12
235.115	119.12
235.349	126.12
235.583	125.12
235.817	118.12
236.051	114.12
236.285	109.12
236.519	112.12
236.753	130.12
236.987	140.12
237.221	172.12
237.455	215.12
237.689	176.12
237.922	142.12
238.156	125.12
238.39	123.12
238.624	118.12
238.858	140.12
239.091	138.12
239.325	140.12
239.559	121.12
239.793	120.12
240.027	141.12
240.26	148.12
240.494	160.12
240.728	156.12
240.961	164.12
241.195	138.12
241.429	136.12
241.662	137.12
241.896	141.12
242.13	132.12
242.363	135.12
242.597	148.12
242.83	133.12
243.064	130.12
243.298	146.12
243.531	131.12
243.765	132.12
243.998	124.12
244.232	157.12
244.465	146.12
244.699	141.12
244.932	149.12
245.166	150.12
245.399	142.12
245.633	158.12
245.866	139.12
246.099	142.12
246.333	147.12
246.566	144.12
246.8	146.12
247.033	155.12
247.266	153.12
247.5	165.12
247.733	159.12
247.966	187.12
248.2	178.12
248.433	171.12
248.666	182.12
248.899	180.12
249.133	200.12
249.366	197.12
249.599	195.12
249.832	172.12
250.066	188.12
250.299	192.12
250.532	178.12
250.765	205.12
250.998	229.12
251.231	225.12
251.465	214.12
251.698	209.12
251.931	196.12
252.164	194.12
252.397	195.12
252.63	201.12
252.863	198.12
253.096	217.12
253.329	229.12
253.562	212.12
253.795	216.12
254.028	230.12
254.261	220.12
254.494	224.12
254.727	239.12
254.96	266.12
255.193	262.12
255.426	240.12
255.659	229.12
255.892	234.12
256.124	214.12
256.357	242.12
256.59	216.12
256.823	222.12
257.056	198.12
257.289	204.12
257.521	213.12
257.754	204.12
257.987	211.12
258.22	197.12
258.452	206.12
258.685	208.12
258.918	213.12
259.151	206.12
259.383	231.12
259.616	219.12
259.849	254.12
260.081	243.12
260.314	260.12
260.547	257.12
260.779	267.12
261.012	236.12
261.244	223.12
261.477	227.12
261.71	213.12
261.942	235.12
262.175	242.12
262.407	227.12
262.64	230.12
262.872	233.12
263.105	218.12
263.337	214.12
263.57	206.12
263.802	187.12
264.035	217.12
264.267	226.12
264.499	220.12
264.732	237.12
264.964	215.12
265.197	218.12
265.429	228.12
265.661	243.12
265.894	224.12
266.126	214.12
266.358	225.12
266.591	222.12
266.823	245.12
267.055	242.12
267.287	241.12
267.52	225.12
267.752	241.12
267.984	235.12
268.216	230.12
268.448	256.12
268.681	262.12
268.913	247.12
269.145	293.12
269.377	291.12
269.609	274.12
269.841	302.12
270.073	284.12
270.306	294.12
270.538	312.12
270.77	332.12
271.002	309.12
271.234	301.12
271.466	322.12
271.698	329.12
271.93	337.12
272.162	332.12
272.394	329.12
272.626	309.12
272.858	304.12
273.09	294.12
273.322	270.12
273.553	286.12
273.785	279.12
274.017	277.12
274.249	279.12
274.481	282.12
274.713	281.12
274.945	283.12
275.176	261.12
275.408	267.12
275.64	282.12
275.872	282.12
276.104	293.12
276.335	296.12
276.567	300.12
276.799	298.12
277.031	326.12
277.262	328.12
277.494	330.12
277.726	321.12
277.957	311.12
278.189	304.12
278.421	288.12
278.652	288.12
278.884	286.12
279.115	291.12
279.347	286.12
279.579	282.12
279.81	275.12
280.042	286.12
280.273	292.12
280.505	289.12
280.736	296.12
280.968	293.12
281.199	274.12
281.431	285.12
281.662	304.12
281.894	288.12
282.125	312.12
282.356	328.12
282.588	331.12
282.819	312.12
283.051	310.12
283.282	287.12
283.513	301.12
283.745	317.12
283.976	309.12
284.207	309.12
284.439	331.12
284.67	342.12
284.901	324.12
285.132	325.12
285.364	294.12
285.595	299.12
285.826	310.12
286.057	310.12
286.288	308.12
286.52	313.12
286.751	306.12
286.982	298.12
287.213	314.12
287.444	325.12
287.675	321.12
287.906	332.12
288.138	321.12
288.369	318.12
288.6	325.12
288.831	337.12
289.062	314.12
289.293	321.12
289.524	324.12
289.755	315.12
289.986	344.12
290.217	319.12
290.448	324.12
290.679	314.12
290.91	328.12
291.141	309.12
291.371	321.12
291.602	336.12
291.833	330.12
292.064	330.12
292.295	337.12
292.526	315.12
292.757	336.12
292.987	339.12
293.218	327.12
293.449	340.12
293.68	325.12
293.91	325.12
294.141	318.12
294.372	329.12
294.603	324.12
294.833	318.12
295.064	337.12
295.295	332.12
295.525	333.12
295.756	342.12
295.987	340.12
296.217	349.12
296.448	359.12
296.679	370.12
296.909	338.12
297.14	333.12
297.37	352.12
297.601	332.12
297.831	326.12
298.062	346.12
298.292	367.12
298.523	350.12
298.753	338.12
298.984	344.12
299.214	356.12
299.445	337.12
299.675	328.12
299.905	344.12
300.136	369.12
300.366	356.12
300.597	348.12
300.827	382.12
301.057	363.12
301.288	374.12
301.518	365.12
301.748	350.12
301.979	366.12
302.209	375.12
302.439	376.12
302.669	387.12
302.9	379.12
303.13	357.12
303.36	376.12
303.59	378.12
303.82	384.12
304.051	386.12
304.281	372.12
304.511	364.12
304.741	365.12
304.971	371.12
305.201	356.12
305.431	362.12
305.661	368.12
305.891	362.12
306.121	360.12
306.352	384.12
306.582	362.12
306.812	364.12
307.042	354.12
307.272	363.12
307.502	380.12
307.731	388.12
307.961	370.12
308.191	382.12
308.421	382.12
308.651	352.12
308.881	362.12
309.111	394.12
309.341	372.12
309.571	379.12
309.8	413.12
310.03	410.12
310.26	405.12
310.49	384.12
310.72	389.12
310.949	418.12
311.179	444.12
311.409	402.12
311.639	418.12
311.868	433.12
312.098	406.12
312.328	431.12
312.557	427.12
312.787	456.12
313.017	475.12
313.246	428.12
313.476	395.12
313.706	414.12
313.935	416.12
314.165	439.12
314.394	445.12
314.624	450.12
314.853	445.12
315.083	412.12
315.312	429.12
315.542	421.12
315.771	424.12
316.001	418.12
316.23	412.12
316.46	426.12
316.689	418.12
316.919	417.12
317.148	437.12
317.377	424.12
317.607	421.12
317.836	432.12
318.065	422.12
318.295	421.12
318.524	416.12
318.753	410.12
318.983	436.12
319.212	411.12
319.441	430.12
319.67	427.12
319.9	420.12
320.129	419.12
320.358	427.12
320.587	421.12
320.816	428.12
321.046	436.12
321.275	445.12
321.504	451.12
321.733	460.12
321.962	435.12
322.191	447.12
322.42	486.12
322.649	489.12
322.878	493.12
323.108	490.12
323.337	504.12
323.566	523.12
323.795	544.12
324.024	581.12
324.253	716.12
324.482	982.12
324.71	1495.12
324.939	2065.12
325.168	1762.12
325.397	906.12
325.626	660.12
325.855	570.12
326.084	534.12
326.313	522.12
326.542	528.12
326.77	566.12
326.999	675.12
327.228	899.12
327.457	1292.12
327.686	1565.12
327.914	1042.12
328.143	720.12
328.372	639.12
328.6	597.12
328.829	566.12
329.058	605.12
329.287	622.12
329.515	572.12
329.744	529.12
329.972	548.12
330.201	551.12
330.43	571.12
330.658	613.12
330.887	640.12
331.115	644.12
331.344	553.12
331.572	522.12
331.801	539.12
332.03	543.12
332.258	512.12
332.486	504.12
332.715	503.12
332.943	531.12
333.172	534.12
333.4	515.12
333.629	541.12
333.857	558.12
334.085	534.12
334.314	557.12
334.542	570.12
334.771	550.12
334.999	562.12
335.227	525.12
335.455	534.12
335.684	501.12
335.912	536.12
336.14	504.12
336.369	489.12
336.597	535.12
336.825	526.12
337.053	508.12
337.281	482.12
337.51	487.12
337.738	481.12
337.966	490.12
338.194	502.12
338.422	501.12
338.65	494.12
338.878	490.12
339.106	461.12
339.334	481.12
339.562	462.12
339.79	465.12
340.018	487.12
340.246	475.12
340.474	454.12
340.702	483.12
340.93	465.12
341.158	458.12
341.386	465.12
341.614	485.12
341.842	475.12
342.07	483.12
342.298	465.12
342.526	455.12
342.754	486.12
342.981	450.12
343.209	453.12
343.437	476.12
343.665	477.12
343.893	493.12
344.12	490.12
344.348	489.12
344.576	517.12
344.804	486.12
345.031	486.12
345.259	480.12
345.487	477.12
345.714	468.12
345.942	453.12
346.17	461.12
346.397	432.12
346.625	464.12
346.853	466.12
347.08	459.12
347.308	438.12
347.535	460.12
347.763	481.12
347.99	474.12
348.218	475.12
348.445	467.12
348.673	482.12
348.9	459.12
349.128	430.12
349.355	428.12
349.583	457.12
349.81	424.12
350.037	435.12
350.265	450.12
350.492	457.12
350.72	452.12
350.947	434.12
351.174	452.12
351.402	476.12
351.629	458.12
351.856	457.12
352.083	446.12
352.311	446.12
352.538	485.12
352.765	466.12
352.992	445.12
353.22	448.12
353.447	461.12
353.674	444.12
353.901	438.12
354.128	428.12
354.355	412.12
354.583	417.12
354.81	424.12
355.037	429.12
355.264	422.12
355.491	430.12
355.718	419.12
355.945	414.12
356.172	394.12
356.399	426.12
356.626	413.12
356.853	423.12
357.08	429.12
357.307	428.12
357.534	412.12
357.761	403.12
357.988	423.12
358.215	433.12
358.441	439.12
358.668	424.12
358.895	451.12
359.122	444.12
359.349	440.12
359.576	435.12
359.802	439.12
360.029	485.12
360.256	496.12
360.483	493.12
360.709	476.12
360.936	468.12
361.163	428.12
361.39	449.12
361.616	455.12
361.843	458.12
362.07	438.12
362.296	448.12
362.523	446.12
362.749	427.12
362.976	447.12
363.203	440.12
363.429	429.12
363.656	438.12
363.882	438.12
364.109	423.12
364.335	428.12
364.562	419.12
364.788	421.12
365.015	441.12
365.241	427.12
365.468	442.12
365.694	443.12
365.92	435.12
366.147	417.12
366.373	421.12
366.599	418.12
366.826	412.12
367.052	434.12
367.278	409.12
367.505	425.12
367.731	424.12
367.957	397.12
368.184	411.12
368.41	411.12
368.636	437.12
368.862	448.12
369.089	448.12
369.315	430.12
369.541	447.12
369.767	434.12
369.993	430.12
370.219	446.12
370.445	434.12
370.672	435.12
370.898	407.12
371.124	420.12
371.35	435.12
371.576	432.12
371.802	438.12
372.028	438.12
372.254	423.12
372.48	438.12
372.706	445.12
372.932	450.12
373.158	459.12
373.384	449.12
373.61	446.12
373.835	448.12
374.061	429.12
374.287	440.12
374.513	416.12
374.739	427.12
374.965	444.12
375.191	452.12
375.416	419.12
375.642	459.12
375.868	434.12
376.094	438.12
376.319	445.12
376.545	430.12
376.771	410.12
376.997	416.12
377.222	439.12
377.448	418.12
377.674	442.12
377.899	430.12
378.125	405.12
378.35	385.12
378.576	402.12
378.802	426.12
379.027	412.12
379.253	418.12
379.478	420.12
379.704	421.12
379.929	427.12
380.155	411.12
380.38	426.12
380.606	433.12
380.831	420.12
381.057	432.12
381.282	440.12
381.507	436.12
381.733	448.12
381.958	456.12
382.184	443.12
382.409	433.12
382.634	432.12
382.86	424.12
383.085	424.12
383.31	430.12
383.535	443.12
383.761	432.12
383.986	446.12
384.211	469.12
384.436	459.12
384.662	482.12
384.887	456.12
385.112	452.12
385.337	486.12
385.562	465.12
385.787	467.12
386.013	470.12
386.238	474.12
386.463	471.12
386.688	492.12
386.913	454.12
387.138	474.12
387.363	470.12
387.588	458.12
387.813	466.12
388.038	467.12
388.263	455.12
388.488	478.12
388.713	465.12
388.938	465.12
389.163	475.12
389.387	468.12
389.612	454.12
389.837	458.12
390.062	446.12
390.287	465.12
390.512	457.12
390.736	464.12
390.961	482.12
391.186	471.12
391.411	455.12
391.636	472.12
391.86	492.12
392.085	508.12
392.31	488.12
392.534	487.12
392.759	482.12
392.984	491.12
393.208	460.12
393.433	473.12
393.658	471.12
393.882	496.12
394.107	493.12
394.331	496.12
394.556	456.12
394.78	497.12
395.005	498.12
395.229	480.12
395.454	496.12
395.678	496.12
395.903	496.12
396.127	540.12
396.352	516.12
396.576	493.12
396.801	482.12
397.025	490.12
397.249	501.12
397.474	487.12
397.698	486.12
397.922	508.12
398.147	541.12
398.371	547.12
398.595	536.12
398.82	553.12
399.044	584.12
399.268	608.12
399.492	634.12
399.717	705.12
399.941	723.12
400.165	722.12
400.389	688.12
400.613	621.12
400.837	574.12
401.062	554.12
401.286	572.12
401.51	573.12
401.734	549.12
401.958	542.12
402.182	559.12
402.406	579.12
402.63	575.12
402.854	581.12
403.078	581.12
403.302	575.12
403.526	582.12
403.75	594.12
403.974	585.12
404.198	585.12
404.422	597.12
404.645	594.12
404.869	599.12
405.093	617.12
405.317	635.12
405.541	681.12
405.765	640.12
405.988	595.12
406.212	626.12
406.436	628.12
406.66	628.12
406.883	614.12
407.107	626.12
407.331	698.12
407.555	773.12
407.778	748.12
408.002	685.12
408.226	627.12
408.449	617.12
408.673	642.12
408.896	632.12
409.12	662.12
409.344	662.12
409.567	591.12
409.791	582.12
410.014	567.12
410.238	573.12
410.461	548.12
410.685	566.12
410.908	568.12
411.132	624.12
411.355	626.12
411.578	611.12
411.802	572.12
412.025	541.12
412.249	551.12
412.472	597.12
412.695	586.12
412.919	577.12
413.142	553.12
413.365	563.12
413.589	562.12
413.812	560.12
414.035	523.12
414.258	533.12
414.482	538.12
414.705	536.12
414.928	538.12
415.151	536.12
415.374	541.12
415.597	552.12
415.821	533.12
416.044	540.12
416.267	520.12
416.49	537.12
416.713	530.12
416.936	522.12
417.159	534.12
417.382	534.12
417.605	535.12
417.828	546.12
418.051	558.12
418.274	522.12
418.497	543.12
418.72	548.12
418.943	511.12
419.166	558.12
419.389	588.12
419.611	577.12
419.834	576.12
420.057	564.12
420.28	568.12
420.503	547.12
420.726	540.12
420.948	575.12
421.171	594.12
421.394	621.12
421.617	585.12
421.839	550.12
422.062	552.12
422.285	544.12
422.507	621.12
422.73	666.12
422.953	659.12
423.175	601.12
423.398	569.12
423.621	585.12
423.843	601.12
424.066	598.12
424.288	580.12
424.511	608.12
424.733	648.12
424.956	733.12
425.178	710.12
425.401	699.12
425.623	698.12
425.846	611.12
426.068	562.12
426.291	580.12
426.513	579.12
426.735	581.12
426.958	615.12
427.18	693.12
427.402	816.12
427.625	884.12
427.847	769.12
428.069	676.12
428.292	623.12
428.514	548.12
428.736	540.12
428.958	553.12
429.181	515.12
429.403	552.12
429.625	557.12
429.847	576.12
430.069	640.12
430.292	614.12
430.514	550.12
430.736	505.12
430.958	518.12
431.18	524.12
431.402	499.12
431.624	500.12
431.846	518.12
432.068	492.12
432.29	516.12
432.512	490.12
432.734	520.12
432.956	534.12
433.178	539.12
433.4	514.12
433.622	491.12
433.844	502.12
434.066	485.12
434.287	495.12
434.509	524.12
434.731	524.12
434.953	535.12
435.175	557.12
435.397	557.12
435.618	570.12
435.84	636.12
436.062	688.12
436.284	748.12
436.505	630.12
436.727	561.12
436.949	518.12
437.17	545.12
437.392	522.12
437.614	534.12
437.835	587.12
438.057	648.12
438.278	740.12
438.5	758.12
438.721	802.12
438.943	759.12
439.165	603.12
439.386	571.12
439.608	574.12
439.829	577.12
440.05	604.12
440.272	639.12
440.493	608.12
440.715	569.12
440.936	532.12
441.158	528.12
441.379	545.12
441.6	534.12
441.822	585.12
442.043	602.12
442.264	693.12
442.486	727.12
442.707	638.12
442.928	572.12
443.149	573.12
443.371	613.12
443.592	653.12
443.813	752.12
444.034	818.12
444.255	659.12
444.476	624.12
444.698	608.12
444.919	604.12
445.14	739.12
445.361	673.12
445.582	630.12
445.803	659.12
446.024	758.12
446.245	770.12
446.466	693.12
446.687	602.12
446.908	566.12
447.129	538.12
447.35	550.12
447.571	520.12
447.792	525.12
448.013	506.12
448.234	541.12
448.455	579.12
448.675	694.12
448.896	826.12
449.117	662.12
449.338	652.12
449.559	733.12
449.779	835.12
450	631.12
450.221	545.12
450.442	540.12
450.662	500.12
450.883	503.12
451.104	537.12
451.324	507.12
451.545	485.12
451.766	498.12
451.986	462.12
452.207	480.12
452.428	482.12
452.648	467.12
452.869	458.12
453.089	467.12
453.31	491.12
453.53	474.12
453.751	473.12
453.971	461.12
454.192	472.12
454.412	481.12
454.633	475.12
454.853	452.12
455.073	447.12
455.294	491.12
455.514	563.12
455.734	528.12
455.955	453.12
456.175	458.12
456.395	434.12
456.616	452.12
456.836	437.12
457.056	440.12
457.276	442.12
457.497	445.12
457.717	432.12
457.937	449.12
458.157	476.12
458.377	438.12
458.598	477.12
458.818	551.12
459.038	606.12
459.258	618.12
459.478	555.12
459.698	513.12
459.918	518.12
460.138	524.12
460.358	532.12
460.578	544.12
460.798	550.12
461.018	540.12
461.238	520.12
461.458	538.12
461.678	521.12
461.898	541.12
462.118	557.12
462.338	567.12
462.558	570.12
462.777	565.12
462.997	612.12
463.217	636.12
463.437	616.12
463.657	604.12
463.876	592.12
464.096	592.12
464.316	570.12
464.536	576.12
464.755	564.12
464.975	565.12
465.195	615.12
465.414	662.12
465.634	575.12
465.854	549.12
466.073	519.12
466.293	529.12
466.512	492.12
466.732	488.12
466.951	491.12
467.171	492.12
467.391	486.12
467.61	473.12
467.829	499.12
468.049	516.12
468.268	486.12
468.488	486.12
468.707	467.12
468.927	458.12
469.146	476.12
469.365	469.12
469.585	473.12
469.804	492.12
470.023	502.12
470.243	488.12
470.462	512.12
470.681	522.12
470.901	516.12
471.12	507.12
471.339	505.12
471.558	476.12
471.777	484.12
471.997	484.12
472.216	509.12
472.435	516.12
472.654	485.12
472.873	473.12
473.092	495.12
473.311	464.12
473.53	468.12
473.749	488.12
473.968	532.12
474.187	609.12
474.406	646.12
474.625	542.12
474.844	492.12
475.063	502.12
475.282	498.12
475.501	477.12
475.72	482.12
475.939	497.12
476.158	497.12
476.377	501.12
476.596	501.12
476.814	520.12
477.033	499.12
477.252	500.12
477.471	517.12
477.69	540.12
477.908	531.12
478.127	514.12
478.346	554.12
478.564	569.12
478.783	570.12
479.002	567.12
479.22	562.12
479.439	586.12
479.658	601.12
479.876	620.12
480.095	629.12
480.313	618.12
480.532	628.12
480.751	606.12
480.969	607.12
481.188	626.12
481.406	638.12
481.624	605.12
481.843	587.12
482.061	594.12
482.28	570.12
482.498	562.12
482.717	571.12
482.935	565.12
483.153	567.12
483.372	564.12
483.59	558.12
483.808	566.12
484.027	586.12
484.245	573.12
484.463	580.12
484.681	571.12
484.9	582.12
485.118	600.12
485.336	591.12
485.554	595.12
485.772	599.12
485.99	589.12
486.209	616.12
486.427	581.12
486.645	583.12
486.863	614.12
487.081	596.12
487.299	584.12
487.517	596.12
487.735	589.12
487.953	596.12
488.171	603.12
488.389	603.12
488.607	604.12
488.825	612.12
489.043	593.12
489.261	624.12
489.479	593.12
489.696	588.12
489.914	613.12
490.132	598.12
490.35	626.12
490.568	640.12
490.786	642.12
491.003	661.12
491.221	677.12
491.439	694.12
491.657	701.12
491.874	673.12
492.092	696.12
492.31	713.12
492.527	692.12
492.745	685.12
492.963	688.12
493.18	707.12
493.398	659.12
493.615	730.12
493.833	698.12
494.05	729.12
494.268	697.12
494.485	709.12
494.703	698.12
494.92	714.12
495.138	727.12
495.355	727.12
495.573	717.12
495.79	728.12
496.008	714.12
496.225	725.12
496.442	731.12
496.66	708.12
496.877	692.12
497.094	715.12
497.312	734.12
497.529	750.12
497.746	747.12
497.963	800.12
498.181	822.12
498.398	793.12
498.615	838.12
498.832	846.12
499.049	864.12
499.267	937.12
499.484	941.12
499.701	988.12
499.918	1046.12
500.135	1100.12
500.352	1193.12
500.569	1221.12
500.786	1217.12
501.003	1197.12
501.22	1128.12
501.437	1079.12
501.654	1028.12
501.871	960.12
