Data from 1985.PennyLincolnUp.Lamp.En5.5.200Scan.071819.P1_HRD10591_17-03-43-972.txt Node
Date: Thu Jul 18 17:03:43 EDT 2019
User: cochatt
Spectrometer: HR+D1059
Trigger mode: 1
Integration Time (sec): 1.000000E-1
Scans to average: 1
Electric dark correction enabled: true
Nonlinearity correction enabled: false
Boxcar width: 0
XAxis mode: Wavelengths
Number of Pixels in Spectrum: 2048
>>>>>Begin Spectral Data<<<<<
223.165	4.81
223.4	4.81
223.635	4.81
223.869	-17.19
224.104	-25.19
224.338	-5.19
224.573	-26.19
224.808	-19.19
225.042	-11.19
225.277	-11.19
225.511	5.81
225.746	3.81
225.98	8.81
226.215	-9.19
226.449	12.81
226.683	23.81
226.918	27.81
227.152	36.81
227.387	41.81
227.621	41.81
227.856	30.81
228.09	35.81
228.324	42.81
228.559	54.81
228.793	74.81
229.027	97.81
229.262	98.81
229.496	125.81
229.73	110.81
229.964	155.81
230.199	129.81
230.433	118.81
230.667	108.81
230.901	113.81
231.136	103.81
231.37	102.81
231.604	112.81
231.838	113.81
232.072	99.81
232.306	108.81
232.541	113.81
232.775	133.81
233.009	129.81
233.243	115.81
233.477	119.81
233.711	116.81
233.945	122.81
234.179	118.81
234.413	121.81
234.647	114.81
234.881	128.81
235.115	123.81
235.349	123.81
235.583	123.81
235.817	122.81
236.051	110.81
236.285	135.81
236.519	126.81
236.753	130.81
236.987	134.81
237.221	179.81
237.455	221.81
237.689	153.81
237.922	129.81
238.156	131.81
238.39	116.81
238.624	138.81
238.858	147.81
239.091	131.81
239.325	133.81
239.559	142.81
239.793	123.81
240.027	128.81
240.26	143.81
240.494	154.81
240.728	136.81
240.961	141.81
241.195	127.81
241.429	145.81
241.662	132.81
241.896	137.81
242.13	130.81
242.363	136.81
242.597	140.81
242.83	148.81
243.064	124.81
243.298	150.81
243.531	137.81
243.765	140.81
243.998	142.81
244.232	161.81
244.465	122.81
244.699	137.81
244.932	157.81
245.166	150.81
245.399	147.81
245.633	159.81
245.866	148.81
246.099	155.81
246.333	159.81
246.566	151.81
246.8	177.81
247.033	142.81
247.266	178.81
247.5	156.81
247.733	167.81
247.966	165.81
248.2	163.81
248.433	167.81
248.666	183.81
248.899	198.81
249.133	198.81
249.366	198.81
249.599	192.81
249.832	165.81
250.066	186.81
250.299	177.81
250.532	212.81
250.765	207.81
250.998	219.81
251.231	224.81
251.465	206.81
251.698	195.81
251.931	192.81
252.164	203.81
252.397	193.81
252.63	192.81
252.863	211.81
253.096	219.81
253.329	220.81
253.562	217.81
253.795	213.81
254.028	215.81
254.261	215.81
254.494	225.81
254.727	238.81
254.96	281.81
255.193	275.81
255.426	237.81
255.659	234.81
255.892	239.81
256.124	243.81
256.357	249.81
256.59	236.81
256.823	238.81
257.056	204.81
257.289	219.81
257.521	205.81
257.754	215.81
257.987	217.81
258.22	204.81
258.452	206.81
258.685	215.81
258.918	203.81
259.151	207.81
259.383	232.81
259.616	229.81
259.849	212.81
260.081	250.81
260.314	245.81
260.547	266.81
260.779	257.81
261.012	211.81
261.244	218.81
261.477	227.81
261.71	241.81
261.942	225.81
262.175	234.81
262.407	238.81
262.64	229.81
262.872	235.81
263.105	236.81
263.337	221.81
263.57	235.81
263.802	225.81
264.035	209.81
264.267	221.81
264.499	210.81
264.732	227.81
264.964	214.81
265.197	234.81
265.429	232.81
265.661	211.81
265.894	228.81
266.126	236.81
266.358	226.81
266.591	227.81
266.823	246.81
267.055	241.81
267.287	257.81
267.52	231.81
267.752	238.81
267.984	247.81
268.216	245.81
268.448	252.81
268.681	256.81
268.913	265.81
269.145	260.81
269.377	283.81
269.609	286.81
269.841	285.81
270.073	271.81
270.306	300.81
270.538	329.81
270.77	314.81
271.002	290.81
271.234	302.81
271.466	312.81
271.698	315.81
271.93	313.81
272.162	329.81
272.394	317.81
272.626	309.81
272.858	301.81
273.09	274.81
273.322	289.81
273.553	282.81
273.785	269.81
274.017	271.81
274.249	293.81
274.481	273.81
274.713	274.81
274.945	299.81
275.176	279.81
275.408	288.81
275.64	264.81
275.872	293.81
276.104	286.81
276.335	290.81
276.567	295.81
276.799	301.81
277.031	334.81
277.262	327.81
277.494	331.81
277.726	326.81
277.957	293.81
278.189	301.81
278.421	293.81
278.652	292.81
278.884	297.81
279.115	293.81
279.347	286.81
279.579	288.81
279.81	299.81
280.042	284.81
280.273	285.81
280.505	294.81
280.736	300.81
280.968	296.81
281.199	275.81
281.431	278.81
281.662	303.81
281.894	276.81
282.125	291.81
282.356	316.81
282.588	329.81
282.819	310.81
283.051	317.81
283.282	291.81
283.513	316.81
283.745	292.81
283.976	313.81
284.207	315.81
284.439	318.81
284.67	312.81
284.901	316.81
285.132	298.81
285.364	315.81
285.595	313.81
285.826	291.81
286.057	316.81
286.288	334.81
286.52	309.81
286.751	310.81
286.982	312.81
287.213	330.81
287.444	330.81
287.675	324.81
287.906	323.81
288.138	356.81
288.369	332.81
288.6	325.81
288.831	339.81
289.062	325.81
289.293	344.81
289.524	329.81
289.755	336.81
289.986	340.81
290.217	314.81
290.448	323.81
290.679	345.81
290.91	329.81
291.141	312.81
291.371	333.81
291.602	318.81
291.833	334.81
292.064	330.81
292.295	325.81
292.526	297.81
292.757	313.81
292.987	319.81
293.218	326.81
293.449	341.81
293.68	348.81
293.91	333.81
294.141	325.81
294.372	322.81
294.603	327.81
294.833	341.81
295.064	335.81
295.295	329.81
295.525	321.81
295.756	319.81
295.987	341.81
296.217	364.81
296.448	360.81
296.679	371.81
296.909	353.81
297.14	314.81
297.37	355.81
297.601	352.81
297.831	323.81
298.062	348.81
298.292	345.81
298.523	358.81
298.753	361.81
298.984	359.81
299.214	348.81
299.445	361.81
299.675	350.81
299.905	365.81
300.136	351.81
300.366	354.81
300.597	362.81
300.827	346.81
301.057	352.81
301.288	382.81
301.518	366.81
301.748	381.81
301.979	377.81
302.209	381.81
302.439	376.81
302.669	382.81
302.9	371.81
303.13	354.81
303.36	382.81
303.59	383.81
303.82	402.81
304.051	386.81
304.281	378.81
304.511	370.81
304.741	370.81
304.971	369.81
305.201	394.81
305.431	367.81
305.661	363.81
305.891	361.81
306.121	359.81
306.352	367.81
306.582	381.81
306.812	377.81
307.042	359.81
307.272	368.81
307.502	359.81
307.731	397.81
307.961	353.81
308.191	362.81
308.421	385.81
308.651	371.81
308.881	382.81
309.111	391.81
309.341	388.81
309.571	389.81
309.8	384.81
310.03	411.81
310.26	409.81
310.49	398.81
310.72	418.81
310.949	424.81
311.179	435.81
311.409	430.81
311.639	425.81
311.868	400.81
312.098	420.81
312.328	422.81
312.557	430.81
312.787	454.81
313.017	449.81
313.246	453.81
313.476	411.81
313.706	405.81
313.935	421.81
314.165	429.81
314.394	434.81
314.624	435.81
314.853	443.81
315.083	440.81
315.312	455.81
315.542	418.81
315.771	428.81
316.001	404.81
316.23	427.81
316.46	426.81
316.689	420.81
316.919	443.81
317.148	435.81
317.377	408.81
317.607	433.81
317.836	454.81
318.065	429.81
318.295	405.81
318.524	410.81
318.753	419.81
318.983	449.81
319.212	416.81
319.441	417.81
319.67	435.81
319.9	425.81
320.129	409.81
320.358	410.81
320.587	440.81
320.816	418.81
321.046	470.81
321.275	443.81
321.504	437.81
321.733	427.81
321.962	472.81
322.191	457.81
322.42	458.81
322.649	499.81
322.878	484.81
323.108	513.81
323.337	519.81
323.566	548.81
323.795	556.81
324.024	594.81
324.253	725.81
324.482	960.81
324.71	1470.81
324.939	2071.81
325.168	1748.81
325.397	929.81
325.626	677.81
325.855	566.81
326.084	563.81
326.313	539.81
326.542	550.81
326.77	552.81
326.999	651.81
327.228	891.81
327.457	1320.81
327.686	1556.81
327.914	1033.81
328.143	725.81
328.372	665.81
328.6	637.81
328.829	596.81
329.058	598.81
329.287	601.81
329.515	590.81
329.744	561.81
329.972	569.81
330.201	573.81
330.43	623.81
330.658	596.81
330.887	656.81
331.115	608.81
331.344	556.81
331.572	533.81
331.801	533.81
332.03	563.81
332.258	542.81
332.486	516.81
332.715	517.81
332.943	531.81
333.172	541.81
333.4	547.81
333.629	564.81
333.857	554.81
334.085	586.81
334.314	582.81
334.542	602.81
334.771	617.81
334.999	596.81
335.227	561.81
335.455	531.81
335.684	522.81
335.912	526.81
336.14	505.81
336.369	505.81
336.597	517.81
336.825	527.81
337.053	506.81
337.281	498.81
337.51	510.81
337.738	520.81
337.966	497.81
338.194	476.81
338.422	501.81
338.65	482.81
338.878	476.81
339.106	504.81
339.334	494.81
339.562	489.81
339.79	483.81
340.018	470.81
340.246	481.81
340.474	494.81
340.702	467.81
340.93	489.81
341.158	466.81
341.386	473.81
341.614	484.81
341.842	457.81
342.07	463.81
342.298	450.81
342.526	476.81
342.754	466.81
342.981	450.81
343.209	463.81
343.437	459.81
343.665	477.81
343.893	469.81
344.12	499.81
344.348	478.81
344.576	496.81
344.804	501.81
345.031	492.81
345.259	481.81
345.487	484.81
345.714	459.81
345.942	451.81
346.17	473.81
346.397	447.81
346.625	456.81
346.853	441.81
347.08	454.81
347.308	442.81
347.535	460.81
347.763	445.81
347.99	454.81
348.218	460.81
348.445	477.81
348.673	463.81
348.9	469.81
349.128	451.81
349.355	438.81
349.583	421.81
349.81	455.81
350.037	436.81
350.265	443.81
350.492	425.81
350.72	433.81
350.947	441.81
351.174	439.81
351.402	456.81
351.629	437.81
351.856	460.81
352.083	455.81
352.311	459.81
352.538	464.81
352.765	464.81
352.992	454.81
353.22	454.81
353.447	454.81
353.674	443.81
353.901	437.81
354.128	440.81
354.355	424.81
354.583	420.81
354.81	433.81
355.037	422.81
355.264	410.81
355.491	435.81
355.718	412.81
355.945	405.81
356.172	408.81
356.399	432.81
356.626	409.81
356.853	423.81
357.08	414.81
357.307	421.81
357.534	409.81
357.761	404.81
357.988	447.81
358.215	424.81
358.441	406.81
358.668	428.81
358.895	415.81
359.122	433.81
359.349	437.81
359.576	422.81
359.802	479.81
360.029	475.81
360.256	499.81
360.483	460.81
360.709	454.81
360.936	439.81
361.163	451.81
361.39	457.81
361.616	446.81
361.843	459.81
362.07	454.81
362.296	446.81
362.523	436.81
362.749	433.81
362.976	436.81
363.203	442.81
363.429	438.81
363.656	418.81
363.882	438.81
364.109	410.81
364.335	437.81
364.562	430.81
364.788	425.81
365.015	397.81
365.241	438.81
365.468	429.81
365.694	433.81
365.92	421.81
366.147	423.81
366.373	419.81
366.599	422.81
366.826	421.81
367.052	431.81
367.278	438.81
367.505	429.81
367.731	432.81
367.957	406.81
368.184	422.81
368.41	446.81
368.636	445.81
368.862	445.81
369.089	450.81
369.315	445.81
369.541	437.81
369.767	439.81
369.993	426.81
370.219	437.81
370.445	435.81
370.672	431.81
370.898	413.81
371.124	438.81
371.35	438.81
371.576	421.81
371.802	442.81
372.028	443.81
372.254	444.81
372.48	445.81
372.706	455.81
372.932	440.81
373.158	429.81
373.384	450.81
373.61	420.81
373.835	426.81
374.061	423.81
374.287	443.81
374.513	441.81
374.739	435.81
374.965	445.81
375.191	466.81
375.416	464.81
375.642	453.81
375.868	449.81
376.094	433.81
376.319	451.81
376.545	446.81
376.771	437.81
376.997	420.81
377.222	436.81
377.448	431.81
377.674	427.81
377.899	412.81
378.125	430.81
378.35	426.81
378.576	410.81
378.802	400.81
379.027	408.81
379.253	436.81
379.478	436.81
379.704	415.81
379.929	427.81
380.155	410.81
380.38	414.81
380.606	431.81
380.831	410.81
381.057	440.81
381.282	409.81
381.507	421.81
381.733	425.81
381.958	428.81
382.184	435.81
382.409	454.81
382.634	436.81
382.86	433.81
383.085	446.81
383.31	428.81
383.535	448.81
383.761	437.81
383.986	436.81
384.211	453.81
384.436	461.81
384.662	469.81
384.887	457.81
385.112	463.81
385.337	465.81
385.562	455.81
385.787	451.81
386.013	475.81
386.238	481.81
386.463	477.81
386.688	470.81
386.913	476.81
387.138	469.81
387.363	470.81
387.588	472.81
387.813	465.81
388.038	462.81
388.263	464.81
388.488	450.81
388.713	444.81
388.938	478.81
389.163	486.81
389.387	473.81
389.612	457.81
389.837	471.81
390.062	463.81
390.287	485.81
390.512	449.81
390.736	454.81
390.961	475.81
391.186	460.81
391.411	475.81
391.636	475.81
391.86	500.81
392.085	511.81
392.31	507.81
392.534	485.81
392.759	513.81
392.984	481.81
393.208	485.81
393.433	470.81
393.658	478.81
393.882	486.81
394.107	503.81
394.331	471.81
394.556	459.81
394.78	485.81
395.005	487.81
395.229	486.81
395.454	507.81
395.678	486.81
395.903	515.81
396.127	527.81
396.352	515.81
396.576	516.81
396.801	486.81
397.025	490.81
397.249	502.81
397.474	504.81
397.698	490.81
397.922	540.81
398.147	529.81
398.371	523.81
398.595	532.81
398.82	569.81
399.044	561.81
399.268	573.81
399.492	638.81
399.717	669.81
399.941	713.81
400.165	681.81
400.389	684.81
400.613	638.81
400.837	566.81
401.062	564.81
401.286	569.81
401.51	556.81
401.734	567.81
401.958	569.81
402.182	548.81
402.406	573.81
402.63	558.81
402.854	577.81
403.078	562.81
403.302	575.81
403.526	568.81
403.75	589.81
403.974	587.81
404.198	595.81
404.422	591.81
404.645	581.81
404.869	610.81
405.093	620.81
405.317	678.81
405.541	680.81
405.765	617.81
405.988	615.81
406.212	618.81
406.436	620.81
406.66	641.81
406.883	629.81
407.107	672.81
407.331	698.81
407.555	749.81
407.778	748.81
408.002	707.81
408.226	644.81
408.449	621.81
408.673	620.81
408.896	650.81
409.12	688.81
409.344	637.81
409.567	581.81
409.791	587.81
410.014	588.81
410.238	574.81
410.461	565.81
410.685	575.81
410.908	593.81
411.132	602.81
411.355	650.81
411.578	621.81
411.802	579.81
412.025	568.81
412.249	583.81
412.472	595.81
412.695	643.81
412.919	627.81
413.142	593.81
413.365	553.81
413.589	567.81
413.812	535.81
414.035	545.81
414.258	537.81
414.482	534.81
414.705	568.81
414.928	549.81
415.151	531.81
415.374	558.81
415.597	550.81
415.821	526.81
416.044	533.81
416.267	525.81
416.49	519.81
416.713	530.81
416.936	546.81
417.159	515.81
417.382	507.81
417.605	548.81
417.828	538.81
418.051	564.81
418.274	548.81
418.497	524.81
418.72	532.81
418.943	539.81
419.166	550.81
419.389	598.81
419.611	576.81
419.834	569.81
420.057	578.81
420.28	573.81
420.503	559.81
420.726	550.81
420.948	583.81
421.171	605.81
421.394	617.81
421.617	567.81
421.839	532.81
422.062	552.81
422.285	570.81
422.507	602.81
422.73	661.81
422.953	650.81
423.175	583.81
423.398	567.81
423.621	577.81
423.843	601.81
424.066	609.81
424.288	594.81
424.511	605.81
424.733	639.81
424.956	700.81
425.178	695.81
425.401	677.81
425.623	717.81
425.846	627.81
426.068	590.81
426.291	584.81
426.513	567.81
426.735	579.81
426.958	626.81
427.18	669.81
427.402	811.81
427.625	876.81
427.847	764.81
428.069	697.81
428.292	612.81
428.514	565.81
428.736	530.81
428.958	536.81
429.181	518.81
429.403	523.81
429.625	534.81
429.847	554.81
430.069	635.81
430.292	601.81
430.514	529.81
430.736	521.81
430.958	515.81
431.18	499.81
431.402	539.81
431.624	493.81
431.846	501.81
432.068	487.81
432.29	511.81
432.512	489.81
432.734	532.81
432.956	534.81
433.178	503.81
433.4	532.81
433.622	526.81
433.844	510.81
434.066	505.81
434.287	476.81
434.509	515.81
434.731	517.81
434.953	534.81
435.175	555.81
435.397	556.81
435.618	563.81
435.84	596.81
436.062	684.81
436.284	756.81
436.505	647.81
436.727	584.81
436.949	544.81
437.17	543.81
437.392	528.81
437.614	548.81
437.835	567.81
438.057	649.81
438.278	764.81
438.5	749.81
438.721	796.81
438.943	754.81
439.165	615.81
439.386	581.81
439.608	573.81
439.829	584.81
440.05	590.81
440.272	643.81
440.493	585.81
440.715	558.81
440.936	546.81
441.158	547.81
441.379	541.81
441.6	553.81
441.822	562.81
442.043	615.81
442.264	689.81
442.486	725.81
442.707	639.81
442.928	583.81
443.149	579.81
443.371	607.81
443.592	638.81
443.813	750.81
444.034	811.81
444.255	655.81
444.476	604.81
444.698	591.81
444.919	606.81
445.14	743.81
445.361	666.81
445.582	656.81
445.803	689.81
446.024	778.81
446.245	782.81
446.466	694.81
446.687	619.81
446.908	563.81
447.129	539.81
447.35	523.81
447.571	521.81
447.792	494.81
448.013	524.81
448.234	536.81
448.455	574.81
448.675	691.81
448.896	805.81
449.117	679.81
449.338	635.81
449.559	716.81
449.779	829.81
450	651.81
450.221	549.81
450.442	545.81
450.662	501.81
450.883	534.81
451.104	534.81
451.324	507.81
451.545	495.81
451.766	490.81
451.986	462.81
452.207	475.81
452.428	459.81
452.648	459.81
452.869	468.81
453.089	479.81
453.31	491.81
453.53	487.81
453.751	468.81
453.971	465.81
454.192	530.81
454.412	473.81
454.633	482.81
454.853	463.81
455.073	465.81
455.294	485.81
455.514	559.81
455.734	527.81
455.955	471.81
456.175	465.81
456.395	462.81
456.616	443.81
456.836	468.81
457.056	435.81
457.276	422.81
457.497	459.81
457.717	447.81
457.937	431.81
458.157	463.81
458.377	455.81
458.598	490.81
458.818	559.81
459.038	614.81
459.258	659.81
459.478	554.81
459.698	531.81
459.918	518.81
460.138	525.81
460.358	531.81
460.578	557.81
460.798	545.81
461.018	556.81
461.238	527.81
461.458	528.81
461.678	524.81
461.898	562.81
462.118	514.81
462.338	573.81
462.558	574.81
462.777	558.81
462.997	606.81
463.217	607.81
463.437	633.81
463.657	611.81
463.876	573.81
464.096	585.81
464.316	579.81
464.536	598.81
464.755	577.81
464.975	587.81
465.195	614.81
465.414	646.81
465.634	569.81
465.854	536.81
466.073	534.81
466.293	521.81
466.512	486.81
466.732	510.81
466.951	492.81
467.171	473.81
467.391	495.81
467.61	497.81
467.829	507.81
468.049	486.81
468.268	493.81
468.488	481.81
468.707	471.81
468.927	455.81
469.146	475.81
469.365	462.81
469.585	477.81
469.804	491.81
470.023	492.81
470.243	501.81
470.462	501.81
470.681	530.81
470.901	518.81
471.12	491.81
471.339	515.81
471.558	477.81
471.777	483.81
471.997	473.81
472.216	486.81
472.435	503.81
472.654	504.81
472.873	519.81
473.092	501.81
473.311	478.81
473.53	472.81
473.749	506.81
473.968	547.81
474.187	638.81
474.406	621.81
474.625	520.81
474.844	517.81
475.063	483.81
475.282	478.81
475.501	483.81
475.72	491.81
475.939	481.81
476.158	474.81
476.377	480.81
476.596	505.81
476.814	517.81
477.033	518.81
477.252	531.81
477.471	535.81
477.69	530.81
477.908	537.81
478.127	535.81
478.346	577.81
478.564	556.81
478.783	563.81
479.002	574.81
479.22	580.81
479.439	579.81
479.658	608.81
479.876	602.81
480.095	622.81
480.313	645.81
480.532	641.81
480.751	613.81
480.969	639.81
481.188	682.81
481.406	705.81
481.624	609.81
481.843	581.81
482.061	587.81
482.28	583.81
482.498	570.81
482.717	584.81
482.935	577.81
483.153	569.81
483.372	561.81
483.59	562.81
483.808	538.81
484.027	578.81
484.245	581.81
484.463	601.81
484.681	582.81
484.9	573.81
485.118	582.81
485.336	588.81
485.554	581.81
485.772	599.81
485.99	580.81
486.209	597.81
486.427	606.81
486.645	592.81
486.863	625.81
487.081	602.81
487.299	586.81
487.517	602.81
487.735	587.81
487.953	614.81
488.171	617.81
488.389	602.81
488.607	607.81
488.825	622.81
489.043	612.81
489.261	614.81
489.479	643.81
489.696	630.81
489.914	615.81
490.132	636.81
490.35	649.81
490.568	634.81
490.786	638.81
491.003	676.81
491.221	681.81
491.439	678.81
491.657	687.81
491.874	706.81
492.092	699.81
492.31	717.81
492.527	726.81
492.745	698.81
492.963	714.81
493.18	715.81
493.398	719.81
493.615	743.81
493.833	727.81
494.05	764.81
494.268	709.81
494.485	715.81
494.703	693.81
494.92	723.81
495.138	732.81
495.355	704.81
495.573	731.81
495.79	709.81
496.008	714.81
496.225	734.81
496.442	732.81
496.66	729.81
496.877	734.81
497.094	735.81
497.312	726.81
497.529	743.81
497.746	774.81
497.963	787.81
498.181	788.81
498.398	823.81
498.615	860.81
498.832	861.81
499.049	895.81
499.267	923.81
499.484	942.81
499.701	1007.81
499.918	1091.81
500.135	1119.81
500.352	1197.81
500.569	1225.81
500.786	1219.81
501.003	1215.81
501.22	1124.81
501.437	1097.81
501.654	1026.81
501.871	1011.81
