Data from 1985.PennyLincolnUp.Lamp.En5.5.200Scan.071819.P1_HRD10591_17-03-06-970.txt Node
Date: Thu Jul 18 17:03:06 EDT 2019
User: cochatt
Spectrometer: HR+D1059
Trigger mode: 1
Integration Time (sec): 1.000000E-1
Scans to average: 1
Electric dark correction enabled: true
Nonlinearity correction enabled: false
Boxcar width: 0
XAxis mode: Wavelengths
Number of Pixels in Spectrum: 2048
>>>>>Begin Spectral Data<<<<<
223.165	-24.38
223.4	-24.38
223.635	-24.38
223.869	-16.38
224.104	-21.38
224.338	-16.38
224.573	-11.38
224.808	-5.38
225.042	-9.38
225.277	-18.38
225.511	-5.38
225.746	13.62
225.98	13.62
226.215	16.62
226.449	16.62
226.683	23.62
226.918	17.62
227.152	26.62
227.387	36.62
227.621	34.62
227.856	38.62
228.09	43.62
228.324	41.62
228.559	47.62
228.793	64.62
229.027	100.62
229.262	100.62
229.496	113.62
229.73	132.62
229.964	143.62
230.199	125.62
230.433	119.62
230.667	115.62
230.901	124.62
231.136	123.62
231.37	119.62
231.604	103.62
231.838	115.62
232.072	88.62
232.306	112.62
232.541	106.62
232.775	98.62
233.009	109.62
233.243	111.62
233.477	109.62
233.711	110.62
233.945	132.62
234.179	110.62
234.413	119.62
234.647	126.62
234.881	115.62
235.115	134.62
235.349	124.62
235.583	131.62
235.817	122.62
236.051	107.62
236.285	122.62
236.519	128.62
236.753	120.62
236.987	161.62
237.221	165.62
237.455	215.62
237.689	188.62
237.922	146.62
238.156	138.62
238.39	135.62
238.624	124.62
238.858	134.62
239.091	135.62
239.325	138.62
239.559	128.62
239.793	122.62
240.027	136.62
240.26	150.62
240.494	150.62
240.728	150.62
240.961	147.62
241.195	124.62
241.429	146.62
241.662	132.62
241.896	139.62
242.13	141.62
242.363	129.62
242.597	130.62
242.83	138.62
243.064	136.62
243.298	153.62
243.531	132.62
243.765	143.62
243.998	146.62
244.232	143.62
244.465	130.62
244.699	123.62
244.932	154.62
245.166	154.62
245.399	151.62
245.633	159.62
245.866	149.62
246.099	155.62
246.333	148.62
246.566	146.62
246.8	144.62
247.033	155.62
247.266	164.62
247.5	150.62
247.733	170.62
247.966	170.62
248.2	168.62
248.433	176.62
248.666	172.62
248.899	171.62
249.133	208.62
249.366	190.62
249.599	198.62
249.832	202.62
250.066	191.62
250.299	181.62
250.532	200.62
250.765	213.62
250.998	222.62
251.231	223.62
251.465	202.62
251.698	202.62
251.931	204.62
252.164	190.62
252.397	212.62
252.63	212.62
252.863	208.62
253.096	227.62
253.329	222.62
253.562	214.62
253.795	230.62
254.028	219.62
254.261	212.62
254.494	241.62
254.727	268.62
254.96	274.62
255.193	246.62
255.426	238.62
255.659	242.62
255.892	235.62
256.124	214.62
256.357	232.62
256.59	238.62
256.823	218.62
257.056	203.62
257.289	204.62
257.521	214.62
257.754	234.62
257.987	212.62
258.22	215.62
258.452	216.62
258.685	216.62
258.918	221.62
259.151	215.62
259.383	216.62
259.616	215.62
259.849	234.62
260.081	237.62
260.314	259.62
260.547	258.62
260.779	249.62
261.012	246.62
261.244	223.62
261.477	232.62
261.71	229.62
261.942	236.62
262.175	231.62
262.407	226.62
262.64	229.62
262.872	223.62
263.105	234.62
263.337	230.62
263.57	222.62
263.802	230.62
264.035	231.62
264.267	227.62
264.499	233.62
264.732	234.62
264.964	238.62
265.197	238.62
265.429	228.62
265.661	224.62
265.894	208.62
266.126	238.62
266.358	236.62
266.591	227.62
266.823	237.62
267.055	243.62
267.287	262.62
267.52	244.62
267.752	224.62
267.984	248.62
268.216	245.62
268.448	225.62
268.681	248.62
268.913	258.62
269.145	272.62
269.377	281.62
269.609	290.62
269.841	271.62
270.073	285.62
270.306	303.62
270.538	314.62
270.77	326.62
271.002	328.62
271.234	303.62
271.466	299.62
271.698	310.62
271.93	323.62
272.162	318.62
272.394	340.62
272.626	302.62
272.858	297.62
273.09	296.62
273.322	306.62
273.553	275.62
273.785	308.62
274.017	291.62
274.249	286.62
274.481	284.62
274.713	266.62
274.945	280.62
275.176	258.62
275.408	279.62
275.64	285.62
275.872	292.62
276.104	291.62
276.335	275.62
276.567	296.62
276.799	285.62
277.031	313.62
277.262	346.62
277.494	322.62
277.726	330.62
277.957	322.62
278.189	310.62
278.421	301.62
278.652	291.62
278.884	292.62
279.115	286.62
279.347	300.62
279.579	295.62
279.81	306.62
280.042	310.62
280.273	296.62
280.505	297.62
280.736	296.62
280.968	277.62
281.199	307.62
281.431	313.62
281.662	292.62
281.894	291.62
282.125	310.62
282.356	322.62
282.588	326.62
282.819	321.62
283.051	309.62
283.282	298.62
283.513	310.62
283.745	310.62
283.976	309.62
284.207	293.62
284.439	318.62
284.67	340.62
284.901	310.62
285.132	307.62
285.364	303.62
285.595	308.62
285.826	298.62
286.057	325.62
286.288	314.62
286.52	328.62
286.751	308.62
286.982	313.62
287.213	324.62
287.444	334.62
287.675	337.62
287.906	326.62
288.138	322.62
288.369	316.62
288.6	351.62
288.831	334.62
289.062	341.62
289.293	320.62
289.524	299.62
289.755	323.62
289.986	319.62
290.217	328.62
290.448	306.62
290.679	319.62
290.91	327.62
291.141	312.62
291.371	315.62
291.602	314.62
291.833	302.62
292.064	327.62
292.295	334.62
292.526	323.62
292.757	331.62
292.987	338.62
293.218	331.62
293.449	322.62
293.68	325.62
293.91	330.62
294.141	328.62
294.372	333.62
294.603	346.62
294.833	325.62
295.064	318.62
295.295	340.62
295.525	312.62
295.756	323.62
295.987	356.62
296.217	350.62
296.448	374.62
296.679	361.62
296.909	353.62
297.14	327.62
297.37	331.62
297.601	334.62
297.831	334.62
298.062	328.62
298.292	354.62
298.523	326.62
298.753	339.62
298.984	357.62
299.214	355.62
299.445	346.62
299.675	346.62
299.905	333.62
300.136	352.62
300.366	344.62
300.597	368.62
300.827	357.62
301.057	376.62
301.288	382.62
301.518	366.62
301.748	382.62
301.979	384.62
302.209	383.62
302.439	380.62
302.669	387.62
302.9	377.62
303.13	372.62
303.36	385.62
303.59	383.62
303.82	378.62
304.051	375.62
304.281	386.62
304.511	375.62
304.741	360.62
304.971	375.62
305.201	367.62
305.431	372.62
305.661	379.62
305.891	366.62
306.121	377.62
306.352	380.62
306.582	387.62
306.812	366.62
307.042	378.62
307.272	374.62
307.502	374.62
307.731	367.62
307.961	384.62
308.191	382.62
308.421	372.62
308.651	363.62
308.881	392.62
309.111	376.62
309.341	378.62
309.571	388.62
309.8	416.62
310.03	420.62
310.26	442.62
310.49	418.62
310.72	402.62
310.949	429.62
311.179	425.62
311.409	426.62
311.639	410.62
311.868	411.62
312.098	413.62
312.328	409.62
312.557	421.62
312.787	455.62
313.017	440.62
313.246	441.62
313.476	414.62
313.706	432.62
313.935	441.62
314.165	428.62
314.394	420.62
314.624	438.62
314.853	439.62
315.083	426.62
315.312	436.62
315.542	413.62
315.771	426.62
316.001	402.62
316.23	409.62
316.46	414.62
316.689	449.62
316.919	398.62
317.148	438.62
317.377	448.62
317.607	434.62
317.836	432.62
318.065	430.62
318.295	435.62
318.524	440.62
318.753	443.62
318.983	419.62
319.212	419.62
319.441	434.62
319.67	423.62
319.9	418.62
320.129	415.62
320.358	426.62
320.587	432.62
320.816	432.62
321.046	431.62
321.275	454.62
321.504	470.62
321.733	454.62
321.962	420.62
322.191	474.62
322.42	447.62
322.649	479.62
322.878	484.62
323.108	502.62
323.337	523.62
323.566	531.62
323.795	566.62
324.024	586.62
324.253	696.62
324.482	954.62
324.71	1477.62
324.939	2024.62
325.168	1764.62
325.397	957.62
325.626	664.62
325.855	601.62
326.084	560.62
326.313	542.62
326.542	532.62
326.77	581.62
326.999	656.62
327.228	889.62
327.457	1299.62
327.686	1580.62
327.914	1050.62
328.143	706.62
328.372	630.62
328.6	622.62
328.829	586.62
329.058	620.62
329.287	595.62
329.515	570.62
329.744	549.62
329.972	527.62
330.201	544.62
330.43	579.62
330.658	598.62
330.887	627.62
331.115	639.62
331.344	555.62
331.572	535.62
331.801	546.62
332.03	544.62
332.258	526.62
332.486	522.62
332.715	503.62
332.943	529.62
333.172	518.62
333.4	522.62
333.629	533.62
333.857	548.62
334.085	554.62
334.314	567.62
334.542	571.62
334.771	584.62
334.999	561.62
335.227	550.62
335.455	534.62
335.684	502.62
335.912	505.62
336.14	515.62
336.369	533.62
336.597	511.62
336.825	507.62
337.053	493.62
337.281	487.62
337.51	490.62
337.738	457.62
337.966	480.62
338.194	485.62
338.422	489.62
338.65	478.62
338.878	491.62
339.106	495.62
339.334	470.62
339.562	476.62
339.79	472.62
340.018	492.62
340.246	489.62
340.474	470.62
340.702	462.62
340.93	461.62
341.158	476.62
341.386	470.62
341.614	498.62
341.842	496.62
342.07	495.62
342.298	456.62
342.526	469.62
342.754	448.62
342.981	468.62
343.209	453.62
343.437	472.62
343.665	484.62
343.893	494.62
344.12	502.62
344.348	508.62
344.576	483.62
344.804	486.62
345.031	504.62
345.259	503.62
345.487	459.62
345.714	453.62
345.942	458.62
346.17	464.62
346.397	444.62
346.625	451.62
346.853	442.62
347.08	469.62
347.308	471.62
347.535	462.62
347.763	468.62
347.99	446.62
348.218	466.62
348.445	482.62
348.673	459.62
348.9	435.62
349.128	445.62
349.355	443.62
349.583	437.62
349.81	444.62
350.037	449.62
350.265	444.62
350.492	423.62
350.72	430.62
350.947	447.62
351.174	436.62
351.402	467.62
351.629	441.62
351.856	452.62
352.083	446.62
352.311	468.62
352.538	461.62
352.765	456.62
352.992	448.62
353.22	438.62
353.447	453.62
353.674	422.62
353.901	415.62
354.128	429.62
354.355	422.62
354.583	421.62
354.81	448.62
355.037	436.62
355.264	416.62
355.491	426.62
355.718	411.62
355.945	427.62
356.172	419.62
356.399	415.62
356.626	399.62
356.853	419.62
357.08	416.62
357.307	422.62
357.534	416.62
357.761	404.62
357.988	427.62
358.215	425.62
358.441	423.62
358.668	426.62
358.895	414.62
359.122	437.62
359.349	448.62
359.576	458.62
359.802	477.62
360.029	478.62
360.256	503.62
360.483	487.62
360.709	447.62
360.936	459.62
361.163	462.62
361.39	442.62
361.616	449.62
361.843	443.62
362.07	458.62
362.296	444.62
362.523	443.62
362.749	437.62
362.976	436.62
363.203	434.62
363.429	427.62
363.656	431.62
363.882	443.62
364.109	425.62
364.335	406.62
364.562	434.62
364.788	424.62
365.015	428.62
365.241	425.62
365.468	458.62
365.694	432.62
365.92	438.62
366.147	426.62
366.373	432.62
366.599	442.62
366.826	417.62
367.052	424.62
367.278	404.62
367.505	431.62
367.731	429.62
367.957	411.62
368.184	416.62
368.41	426.62
368.636	422.62
368.862	440.62
369.089	444.62
369.315	424.62
369.541	407.62
369.767	412.62
369.993	436.62
370.219	438.62
370.445	429.62
370.672	429.62
370.898	426.62
371.124	419.62
371.35	419.62
371.576	423.62
371.802	413.62
372.028	427.62
372.254	425.62
372.48	419.62
372.706	444.62
372.932	447.62
373.158	446.62
373.384	441.62
373.61	446.62
373.835	424.62
374.061	428.62
374.287	432.62
374.513	429.62
374.739	425.62
374.965	426.62
375.191	463.62
375.416	456.62
375.642	427.62
375.868	420.62
376.094	424.62
376.319	424.62
376.545	410.62
376.771	416.62
376.997	442.62
377.222	412.62
377.448	422.62
377.674	420.62
377.899	423.62
378.125	404.62
378.35	417.62
378.576	406.62
378.802	431.62
379.027	407.62
379.253	415.62
379.478	429.62
379.704	428.62
379.929	416.62
380.155	443.62
380.38	421.62
380.606	429.62
380.831	416.62
381.057	435.62
381.282	426.62
381.507	426.62
381.733	427.62
381.958	423.62
382.184	434.62
382.409	417.62
382.634	454.62
382.86	424.62
383.085	438.62
383.31	428.62
383.535	442.62
383.761	441.62
383.986	479.62
384.211	467.62
384.436	478.62
384.662	460.62
384.887	476.62
385.112	462.62
385.337	459.62
385.562	469.62
385.787	478.62
386.013	513.62
386.238	464.62
386.463	471.62
386.688	511.62
386.913	459.62
387.138	456.62
387.363	453.62
387.588	447.62
387.813	461.62
388.038	474.62
388.263	456.62
388.488	485.62
388.713	469.62
388.938	463.62
389.163	491.62
389.387	478.62
389.612	478.62
389.837	480.62
390.062	476.62
390.287	460.62
390.512	472.62
390.736	468.62
390.961	463.62
391.186	479.62
391.411	463.62
391.636	514.62
391.86	484.62
392.085	489.62
392.31	487.62
392.534	500.62
392.759	500.62
392.984	509.62
393.208	480.62
393.433	484.62
393.658	470.62
393.882	465.62
394.107	471.62
394.331	470.62
394.556	461.62
394.78	502.62
395.005	483.62
395.229	485.62
395.454	499.62
395.678	519.62
395.903	520.62
396.127	522.62
396.352	522.62
396.576	495.62
396.801	514.62
397.025	507.62
397.249	494.62
397.474	499.62
397.698	508.62
397.922	543.62
398.147	534.62
398.371	572.62
398.595	543.62
398.82	544.62
399.044	565.62
399.268	602.62
399.492	642.62
399.717	705.62
399.941	723.62
400.165	692.62
400.389	672.62
400.613	631.62
400.837	588.62
401.062	570.62
401.286	555.62
401.51	564.62
401.734	545.62
401.958	554.62
402.182	595.62
402.406	567.62
402.63	555.62
402.854	543.62
403.078	560.62
403.302	588.62
403.526	605.62
403.75	592.62
403.974	605.62
404.198	582.62
404.422	590.62
404.645	591.62
404.869	565.62
405.093	621.62
405.317	637.62
405.541	671.62
405.765	616.62
405.988	602.62
406.212	611.62
406.436	634.62
406.66	638.62
406.883	626.62
407.107	658.62
407.331	707.62
407.555	764.62
407.778	740.62
408.002	705.62
408.226	635.62
408.449	610.62
408.673	597.62
408.896	674.62
409.12	666.62
409.344	631.62
409.567	579.62
409.791	603.62
410.014	575.62
410.238	573.62
410.461	579.62
410.685	598.62
410.908	583.62
411.132	591.62
411.355	618.62
411.578	604.62
411.802	586.62
412.025	574.62
412.249	566.62
412.472	595.62
412.695	610.62
412.919	583.62
413.142	557.62
413.365	540.62
413.589	551.62
413.812	550.62
414.035	532.62
414.258	520.62
414.482	535.62
414.705	521.62
414.928	529.62
415.151	531.62
415.374	543.62
415.597	526.62
415.821	505.62
416.044	543.62
416.267	536.62
416.49	520.62
416.713	528.62
416.936	521.62
417.159	530.62
417.382	536.62
417.605	515.62
417.828	554.62
418.051	571.62
418.274	532.62
418.497	533.62
418.72	525.62
418.943	516.62
419.166	548.62
419.389	562.62
419.611	570.62
419.834	575.62
420.057	575.62
420.28	529.62
420.503	555.62
420.726	547.62
420.948	582.62
421.171	591.62
421.394	619.62
421.617	575.62
421.839	565.62
422.062	572.62
422.285	557.62
422.507	597.62
422.73	672.62
422.953	649.62
423.175	582.62
423.398	572.62
423.621	562.62
423.843	605.62
424.066	600.62
424.288	582.62
424.511	600.62
424.733	655.62
424.956	716.62
425.178	690.62
425.401	679.62
425.623	710.62
425.846	622.62
426.068	578.62
426.291	582.62
426.513	568.62
426.735	564.62
426.958	612.62
427.18	682.62
427.402	818.62
427.625	876.62
427.847	795.62
428.069	662.62
428.292	590.62
428.514	563.62
428.736	522.62
428.958	544.62
429.181	538.62
429.403	517.62
429.625	538.62
429.847	572.62
430.069	615.62
430.292	616.62
430.514	542.62
430.736	519.62
430.958	522.62
431.18	503.62
431.402	499.62
431.624	492.62
431.846	521.62
432.068	486.62
432.29	489.62
432.512	508.62
432.734	509.62
432.956	515.62
433.178	527.62
433.4	513.62
433.622	500.62
433.844	494.62
434.066	504.62
434.287	512.62
434.509	541.62
434.731	538.62
434.953	552.62
435.175	556.62
435.397	580.62
435.618	557.62
435.84	614.62
436.062	670.62
436.284	725.62
436.505	643.62
436.727	577.62
436.949	534.62
437.17	537.62
437.392	511.62
437.614	526.62
437.835	566.62
438.057	653.62
438.278	738.62
438.5	741.62
438.721	803.62
438.943	760.62
439.165	620.62
439.386	566.62
439.608	580.62
439.829	568.62
440.05	580.62
440.272	631.62
440.493	580.62
440.715	567.62
440.936	534.62
441.158	544.62
441.379	543.62
441.6	552.62
441.822	587.62
442.043	601.62
442.264	690.62
442.486	712.62
442.707	605.62
442.928	608.62
443.149	600.62
443.371	628.62
443.592	660.62
443.813	757.62
444.034	806.62
444.255	659.62
444.476	607.62
444.698	599.62
444.919	604.62
445.14	719.62
445.361	678.62
445.582	656.62
445.803	713.62
446.024	734.62
446.245	762.62
446.466	696.62
446.687	614.62
446.908	564.62
447.129	539.62
447.35	530.62
447.571	501.62
447.792	534.62
448.013	507.62
448.234	554.62
448.455	590.62
448.675	709.62
448.896	788.62
449.117	666.62
449.338	627.62
449.559	726.62
449.779	820.62
450	648.62
450.221	531.62
450.442	524.62
450.662	490.62
450.883	531.62
451.104	535.62
451.324	516.62
451.545	500.62
451.766	502.62
451.986	472.62
452.207	485.62
452.428	475.62
452.648	450.62
452.869	455.62
453.089	472.62
453.31	501.62
453.53	464.62
453.751	474.62
453.971	472.62
454.192	493.62
454.412	487.62
454.633	474.62
454.853	462.62
455.073	440.62
455.294	487.62
455.514	527.62
455.734	528.62
455.955	463.62
456.175	459.62
456.395	423.62
456.616	452.62
456.836	437.62
457.056	434.62
457.276	441.62
457.497	464.62
457.717	446.62
457.937	453.62
458.157	458.62
458.377	474.62
458.598	498.62
458.818	539.62
459.038	593.62
459.258	629.62
459.478	550.62
459.698	514.62
459.918	519.62
460.138	541.62
460.358	560.62
460.578	558.62
460.798	544.62
461.018	533.62
461.238	518.62
461.458	540.62
461.678	535.62
461.898	538.62
462.118	564.62
462.338	548.62
462.558	554.62
462.777	563.62
462.997	590.62
463.217	633.62
463.437	626.62
463.657	600.62
463.876	574.62
464.096	569.62
464.316	554.62
464.536	593.62
464.755	595.62
464.975	583.62
465.195	621.62
465.414	676.62
465.634	589.62
465.854	538.62
466.073	529.62
466.293	506.62
466.512	472.62
466.732	477.62
466.951	509.62
467.171	494.62
467.391	487.62
467.61	507.62
467.829	524.62
468.049	492.62
468.268	486.62
468.488	481.62
468.707	473.62
468.927	486.62
469.146	462.62
469.365	481.62
469.585	489.62
469.804	485.62
470.023	485.62
470.243	504.62
470.462	506.62
470.681	522.62
470.901	519.62
471.12	504.62
471.339	485.62
471.558	489.62
471.777	476.62
471.997	479.62
472.216	483.62
472.435	487.62
472.654	479.62
472.873	475.62
473.092	486.62
473.311	482.62
473.53	485.62
473.749	482.62
473.968	532.62
474.187	600.62
474.406	636.62
474.625	535.62
474.844	502.62
475.063	510.62
475.282	486.62
475.501	488.62
475.72	507.62
475.939	493.62
476.158	497.62
476.377	489.62
476.596	485.62
476.814	500.62
477.033	504.62
477.252	516.62
477.471	528.62
477.69	518.62
477.908	551.62
478.127	543.62
478.346	543.62
478.564	540.62
478.783	566.62
479.002	552.62
479.22	574.62
479.439	563.62
479.658	587.62
479.876	587.62
480.095	606.62
480.313	634.62
480.532	622.62
480.751	624.62
480.969	605.62
481.188	606.62
481.406	632.62
481.624	596.62
481.843	599.62
482.061	569.62
482.28	565.62
482.498	562.62
482.717	562.62
482.935	569.62
483.153	582.62
483.372	567.62
483.59	539.62
483.808	550.62
484.027	576.62
484.245	553.62
484.463	552.62
484.681	566.62
484.9	570.62
485.118	578.62
485.336	567.62
485.554	577.62
485.772	568.62
485.99	584.62
486.209	595.62
486.427	576.62
486.645	587.62
486.863	610.62
487.081	616.62
487.299	619.62
487.517	607.62
487.735	613.62
487.953	612.62
488.171	596.62
488.389	604.62
488.607	593.62
488.825	626.62
489.043	590.62
489.261	612.62
489.479	610.62
489.696	603.62
489.914	620.62
490.132	633.62
490.35	638.62
490.568	647.62
490.786	656.62
491.003	642.62
491.221	659.62
491.439	675.62
491.657	681.62
491.874	685.62
492.092	662.62
492.31	677.62
492.527	692.62
492.745	684.62
492.963	682.62
493.18	710.62
493.398	686.62
493.615	688.62
493.833	710.62
494.05	727.62
494.268	694.62
494.485	683.62
494.703	692.62
494.92	682.62
495.138	692.62
495.355	719.62
495.573	717.62
495.79	716.62
496.008	710.62
496.225	706.62
496.442	701.62
496.66	707.62
496.877	718.62
497.094	702.62
497.312	740.62
497.529	742.62
497.746	744.62
497.963	767.62
498.181	800.62
498.398	828.62
498.615	818.62
498.832	862.62
499.049	871.62
499.267	923.62
499.484	959.62
499.701	1034.62
499.918	1042.62
500.135	1145.62
500.352	1168.62
500.569	1228.62
500.786	1220.62
501.003	1184.62
501.22	1132.62
501.437	1039.62
501.654	1022.62
501.871	980.62
