Data from 1985.PennyLincolnUp.Lamp.En5.5.200Scan.071819.P1_HRD10591_17-01-56-970.txt Node
Date: Thu Jul 18 17:01:56 EDT 2019
User: cochatt
Spectrometer: HR+D1059
Trigger mode: 1
Integration Time (sec): 1.000000E-1
Scans to average: 1
Electric dark correction enabled: true
Nonlinearity correction enabled: false
Boxcar width: 0
XAxis mode: Wavelengths
Number of Pixels in Spectrum: 2048
>>>>>Begin Spectral Data<<<<<
223.165	-21.81
223.4	-21.81
223.635	-21.81
223.869	1.19
224.104	-14.81
224.338	-5.81
224.573	-8.81
224.808	-4.81
225.042	-20.81
225.277	-16.81
225.511	-7.81
225.746	8.19
225.98	10.19
226.215	11.19
226.449	18.19
226.683	8.19
226.918	19.19
227.152	25.19
227.387	35.19
227.621	37.19
227.856	43.19
228.09	38.19
228.324	56.19
228.559	57.19
228.793	77.19
229.027	88.19
229.262	99.19
229.496	115.19
229.73	117.19
229.964	137.19
230.199	130.19
230.433	119.19
230.667	105.19
230.901	117.19
231.136	94.19
231.37	104.19
231.604	80.19
231.838	108.19
232.072	110.19
232.306	92.19
232.541	123.19
232.775	118.19
233.009	110.19
233.243	103.19
233.477	122.19
233.711	104.19
233.945	107.19
234.179	106.19
234.413	140.19
234.647	124.19
234.881	116.19
235.115	123.19
235.349	127.19
235.583	116.19
235.817	118.19
236.051	127.19
236.285	131.19
236.519	128.19
236.753	125.19
236.987	133.19
237.221	154.19
237.455	207.19
237.689	170.19
237.922	140.19
238.156	115.19
238.39	107.19
238.624	127.19
238.858	111.19
239.091	122.19
239.325	130.19
239.559	125.19
239.793	136.19
240.027	130.19
240.26	130.19
240.494	155.19
240.728	150.19
240.961	150.19
241.195	138.19
241.429	130.19
241.662	128.19
241.896	139.19
242.13	123.19
242.363	144.19
242.597	143.19
242.83	140.19
243.064	149.19
243.298	138.19
243.531	124.19
243.765	139.19
243.998	162.19
244.232	150.19
244.465	136.19
244.699	135.19
244.932	140.19
245.166	140.19
245.399	143.19
245.633	161.19
245.866	144.19
246.099	151.19
246.333	150.19
246.566	149.19
246.8	142.19
247.033	151.19
247.266	144.19
247.5	166.19
247.733	162.19
247.966	149.19
248.2	167.19
248.433	173.19
248.666	172.19
248.899	175.19
249.133	183.19
249.366	187.19
249.599	198.19
249.832	189.19
250.066	175.19
250.299	178.19
250.532	158.19
250.765	196.19
250.998	215.19
251.231	213.19
251.465	209.19
251.698	164.19
251.931	193.19
252.164	184.19
252.397	190.19
252.63	185.19
252.863	215.19
253.096	226.19
253.329	210.19
253.562	223.19
253.795	204.19
254.028	199.19
254.261	200.19
254.494	200.19
254.727	241.19
254.96	263.19
255.193	254.19
255.426	226.19
255.659	218.19
255.892	202.19
256.124	191.19
256.357	205.19
256.59	197.19
256.823	202.19
257.056	196.19
257.289	207.19
257.521	196.19
257.754	192.19
257.987	211.19
258.22	198.19
258.452	201.19
258.685	206.19
258.918	205.19
259.151	209.19
259.383	207.19
259.616	222.19
259.849	228.19
260.081	216.19
260.314	240.19
260.547	246.19
260.779	227.19
261.012	223.19
261.244	211.19
261.477	223.19
261.71	211.19
261.942	221.19
262.175	229.19
262.407	231.19
262.64	192.19
262.872	207.19
263.105	214.19
263.337	216.19
263.57	193.19
263.802	195.19
264.035	211.19
264.267	216.19
264.499	210.19
264.732	231.19
264.964	214.19
265.197	209.19
265.429	221.19
265.661	199.19
265.894	216.19
266.126	229.19
266.358	220.19
266.591	219.19
266.823	242.19
267.055	231.19
267.287	227.19
267.52	224.19
267.752	211.19
267.984	249.19
268.216	234.19
268.448	247.19
268.681	244.19
268.913	237.19
269.145	266.19
269.377	282.19
269.609	263.19
269.841	235.19
270.073	256.19
270.306	268.19
270.538	274.19
270.77	307.19
271.002	287.19
271.234	306.19
271.466	284.19
271.698	302.19
271.93	308.19
272.162	306.19
272.394	298.19
272.626	284.19
272.858	280.19
273.09	276.19
273.322	286.19
273.553	273.19
273.785	278.19
274.017	283.19
274.249	278.19
274.481	262.19
274.713	267.19
274.945	284.19
275.176	270.19
275.408	277.19
275.64	279.19
275.872	244.19
276.104	279.19
276.335	286.19
276.567	279.19
276.799	290.19
277.031	314.19
277.262	294.19
277.494	309.19
277.726	307.19
277.957	309.19
278.189	279.19
278.421	288.19
278.652	280.19
278.884	269.19
279.115	286.19
279.347	265.19
279.579	266.19
279.81	287.19
280.042	286.19
280.273	278.19
280.505	281.19
280.736	277.19
280.968	272.19
281.199	284.19
281.431	287.19
281.662	287.19
281.894	269.19
282.125	284.19
282.356	293.19
282.588	304.19
282.819	303.19
283.051	301.19
283.282	297.19
283.513	290.19
283.745	279.19
283.976	279.19
284.207	292.19
284.439	295.19
284.67	308.19
284.901	301.19
285.132	315.19
285.364	298.19
285.595	293.19
285.826	296.19
286.057	311.19
286.288	294.19
286.52	294.19
286.751	298.19
286.982	302.19
287.213	313.19
287.444	294.19
287.675	307.19
287.906	316.19
288.138	303.19
288.369	327.19
288.6	325.19
288.831	316.19
289.062	316.19
289.293	302.19
289.524	306.19
289.755	290.19
289.986	301.19
290.217	316.19
290.448	303.19
290.679	310.19
290.91	298.19
291.141	303.19
291.371	296.19
291.602	318.19
291.833	315.19
292.064	306.19
292.295	312.19
292.526	312.19
292.757	322.19
292.987	303.19
293.218	308.19
293.449	307.19
293.68	299.19
293.91	312.19
294.141	312.19
294.372	310.19
294.603	323.19
294.833	317.19
295.064	317.19
295.295	311.19
295.525	317.19
295.756	320.19
295.987	333.19
296.217	353.19
296.448	336.19
296.679	339.19
296.909	317.19
297.14	317.19
297.37	315.19
297.601	325.19
297.831	326.19
298.062	319.19
298.292	329.19
298.523	342.19
298.753	341.19
298.984	341.19
299.214	346.19
299.445	324.19
299.675	349.19
299.905	355.19
300.136	328.19
300.366	340.19
300.597	352.19
300.827	343.19
301.057	372.19
301.288	349.19
301.518	364.19
301.748	379.19
301.979	368.19
302.209	330.19
302.439	354.19
302.669	348.19
302.9	350.19
303.13	351.19
303.36	352.19
303.59	350.19
303.82	360.19
304.051	361.19
304.281	357.19
304.511	350.19
304.741	349.19
304.971	344.19
305.201	356.19
305.431	336.19
305.661	357.19
305.891	367.19
306.121	347.19
306.352	363.19
306.582	363.19
306.812	336.19
307.042	359.19
307.272	349.19
307.502	349.19
307.731	362.19
307.961	372.19
308.191	375.19
308.421	347.19
308.651	356.19
308.881	361.19
309.111	372.19
309.341	374.19
309.571	365.19
309.8	362.19
310.03	379.19
310.26	384.19
310.49	372.19
310.72	399.19
310.949	408.19
311.179	398.19
311.409	381.19
311.639	384.19
311.868	387.19
312.098	377.19
312.328	383.19
312.557	421.19
312.787	422.19
313.017	398.19
313.246	425.19
313.476	392.19
313.706	422.19
313.935	399.19
314.165	411.19
314.394	409.19
314.624	432.19
314.853	411.19
315.083	431.19
315.312	415.19
315.542	407.19
315.771	385.19
316.001	409.19
316.23	395.19
316.46	383.19
316.689	387.19
316.919	411.19
317.148	429.19
317.377	423.19
317.607	410.19
317.836	396.19
318.065	394.19
318.295	411.19
318.524	398.19
318.753	396.19
318.983	418.19
319.212	409.19
319.441	394.19
319.67	403.19
319.9	408.19
320.129	403.19
320.358	402.19
320.587	408.19
320.816	398.19
321.046	428.19
321.275	415.19
321.504	424.19
321.733	413.19
321.962	421.19
322.191	420.19
322.42	427.19
322.649	455.19
322.878	460.19
323.108	471.19
323.337	457.19
323.566	474.19
323.795	507.19
324.024	526.19
324.253	627.19
324.482	833.19
324.71	1198.19
324.939	1706.19
325.168	1458.19
325.397	793.19
325.626	583.19
325.855	510.19
326.084	472.19
326.313	483.19
326.542	499.19
326.77	536.19
326.999	600.19
327.228	774.19
327.457	1102.19
327.686	1288.19
327.914	880.19
328.143	615.19
328.372	559.19
328.6	541.19
328.829	510.19
329.058	536.19
329.287	557.19
329.515	499.19
329.744	511.19
329.972	483.19
330.201	471.19
330.43	505.19
330.658	522.19
330.887	562.19
331.115	554.19
331.344	504.19
331.572	504.19
331.801	482.19
332.03	467.19
332.258	498.19
332.486	468.19
332.715	473.19
332.943	486.19
333.172	483.19
333.4	498.19
333.629	483.19
333.857	528.19
334.085	500.19
334.314	524.19
334.542	504.19
334.771	504.19
334.999	487.19
335.227	470.19
335.455	466.19
335.684	485.19
335.912	483.19
336.14	477.19
336.369	489.19
336.597	472.19
336.825	479.19
337.053	469.19
337.281	479.19
337.51	464.19
337.738	456.19
337.966	470.19
338.194	473.19
338.422	478.19
338.65	446.19
338.878	469.19
339.106	446.19
339.334	444.19
339.562	455.19
339.79	443.19
340.018	436.19
340.246	436.19
340.474	455.19
340.702	442.19
340.93	440.19
341.158	443.19
341.386	451.19
341.614	449.19
341.842	435.19
342.07	430.19
342.298	456.19
342.526	440.19
342.754	444.19
342.981	427.19
343.209	427.19
343.437	463.19
343.665	449.19
343.893	449.19
344.12	488.19
344.348	482.19
344.576	481.19
344.804	457.19
345.031	462.19
345.259	453.19
345.487	450.19
345.714	448.19
345.942	428.19
346.17	444.19
346.397	436.19
346.625	430.19
346.853	429.19
347.08	427.19
347.308	423.19
347.535	426.19
347.763	430.19
347.99	424.19
348.218	420.19
348.445	450.19
348.673	448.19
348.9	436.19
349.128	411.19
349.355	422.19
349.583	426.19
349.81	422.19
350.037	409.19
350.265	407.19
350.492	420.19
350.72	404.19
350.947	425.19
351.174	419.19
351.402	443.19
351.629	421.19
351.856	414.19
352.083	440.19
352.311	421.19
352.538	422.19
352.765	452.19
352.992	425.19
353.22	415.19
353.447	432.19
353.674	435.19
353.901	403.19
354.128	396.19
354.355	395.19
354.583	420.19
354.81	412.19
355.037	410.19
355.264	399.19
355.491	388.19
355.718	400.19
355.945	389.19
356.172	420.19
356.399	391.19
356.626	394.19
356.853	386.19
357.08	414.19
357.307	419.19
357.534	397.19
357.761	407.19
357.988	420.19
358.215	407.19
358.441	407.19
358.668	430.19
358.895	417.19
359.122	382.19
359.349	421.19
359.576	416.19
359.802	448.19
360.029	446.19
360.256	456.19
360.483	459.19
360.709	426.19
360.936	430.19
361.163	415.19
361.39	420.19
361.616	432.19
361.843	409.19
362.07	422.19
362.296	408.19
362.523	405.19
362.749	410.19
362.976	415.19
363.203	396.19
363.429	380.19
363.656	405.19
363.882	406.19
364.109	394.19
364.335	400.19
364.562	416.19
364.788	405.19
365.015	411.19
365.241	410.19
365.468	408.19
365.694	396.19
365.92	408.19
366.147	421.19
366.373	400.19
366.599	422.19
366.826	404.19
367.052	411.19
367.278	406.19
367.505	401.19
367.731	393.19
367.957	393.19
368.184	396.19
368.41	412.19
368.636	404.19
368.862	406.19
369.089	420.19
369.315	426.19
369.541	438.19
369.767	414.19
369.993	394.19
370.219	404.19
370.445	399.19
370.672	399.19
370.898	420.19
371.124	395.19
371.35	410.19
371.576	399.19
371.802	418.19
372.028	420.19
372.254	416.19
372.48	414.19
372.706	403.19
372.932	407.19
373.158	411.19
373.384	429.19
373.61	421.19
373.835	404.19
374.061	393.19
374.287	418.19
374.513	411.19
374.739	436.19
374.965	428.19
375.191	417.19
375.416	423.19
375.642	418.19
375.868	403.19
376.094	416.19
376.319	408.19
376.545	393.19
376.771	406.19
376.997	412.19
377.222	411.19
377.448	432.19
377.674	397.19
377.899	403.19
378.125	390.19
378.35	425.19
378.576	401.19
378.802	394.19
379.027	420.19
379.253	416.19
379.478	414.19
379.704	401.19
379.929	400.19
380.155	419.19
380.38	404.19
380.606	401.19
380.831	416.19
381.057	381.19
381.282	396.19
381.507	423.19
381.733	411.19
381.958	398.19
382.184	411.19
382.409	430.19
382.634	416.19
382.86	415.19
383.085	399.19
383.31	443.19
383.535	429.19
383.761	402.19
383.986	420.19
384.211	418.19
384.436	423.19
384.662	434.19
384.887	432.19
385.112	452.19
385.337	447.19
385.562	428.19
385.787	444.19
386.013	453.19
386.238	467.19
386.463	460.19
386.688	470.19
386.913	460.19
387.138	452.19
387.363	445.19
387.588	436.19
387.813	450.19
388.038	463.19
388.263	443.19
388.488	457.19
388.713	470.19
388.938	454.19
389.163	475.19
389.387	466.19
389.612	451.19
389.837	448.19
390.062	455.19
390.287	434.19
390.512	463.19
390.736	438.19
390.961	454.19
391.186	452.19
391.411	460.19
391.636	464.19
391.86	470.19
392.085	489.19
392.31	494.19
392.534	456.19
392.759	483.19
392.984	476.19
393.208	448.19
393.433	464.19
393.658	451.19
393.882	459.19
394.107	466.19
394.331	461.19
394.556	464.19
394.78	477.19
395.005	454.19
395.229	468.19
395.454	491.19
395.678	490.19
395.903	469.19
396.127	490.19
396.352	505.19
396.576	499.19
396.801	469.19
397.025	473.19
397.249	482.19
397.474	486.19
397.698	476.19
397.922	499.19
398.147	515.19
398.371	528.19
398.595	511.19
398.82	528.19
399.044	562.19
399.268	592.19
399.492	628.19
399.717	655.19
399.941	675.19
400.165	674.19
400.389	656.19
400.613	589.19
400.837	580.19
401.062	553.19
401.286	552.19
401.51	502.19
401.734	514.19
401.958	520.19
402.182	526.19
402.406	551.19
402.63	554.19
402.854	546.19
403.078	535.19
403.302	545.19
403.526	557.19
403.75	572.19
403.974	558.19
404.198	554.19
404.422	574.19
404.645	541.19
404.869	563.19
405.093	581.19
405.317	590.19
405.541	620.19
405.765	574.19
405.988	579.19
406.212	578.19
406.436	575.19
406.66	591.19
406.883	594.19
407.107	626.19
407.331	654.19
407.555	712.19
407.778	693.19
408.002	636.19
408.226	614.19
408.449	607.19
408.673	595.19
408.896	616.19
409.12	635.19
409.344	618.19
409.567	562.19
409.791	533.19
410.014	529.19
410.238	538.19
410.461	552.19
410.685	549.19
410.908	554.19
411.132	589.19
411.355	616.19
411.578	602.19
411.802	554.19
412.025	520.19
412.249	523.19
412.472	532.19
412.695	540.19
412.919	533.19
413.142	546.19
413.365	510.19
413.589	509.19
413.812	517.19
414.035	522.19
414.258	514.19
414.482	510.19
414.705	498.19
414.928	515.19
415.151	493.19
415.374	515.19
415.597	499.19
415.821	508.19
416.044	505.19
416.267	502.19
416.49	520.19
416.713	496.19
416.936	490.19
417.159	537.19
417.382	512.19
417.605	476.19
417.828	491.19
418.051	513.19
418.274	530.19
418.497	511.19
418.72	519.19
418.943	514.19
419.166	553.19
419.389	570.19
419.611	538.19
419.834	544.19
420.057	541.19
420.28	532.19
420.503	526.19
420.726	512.19
420.948	520.19
421.171	563.19
421.394	586.19
421.617	523.19
421.839	523.19
422.062	519.19
422.285	558.19
422.507	595.19
422.73	637.19
422.953	622.19
423.175	564.19
423.398	541.19
423.621	578.19
423.843	565.19
424.066	549.19
424.288	555.19
424.511	557.19
424.733	600.19
424.956	676.19
425.178	650.19
425.401	635.19
425.623	664.19
425.846	590.19
426.068	538.19
426.291	548.19
426.513	518.19
426.735	556.19
426.958	604.19
427.18	640.19
427.402	749.19
427.625	828.19
427.847	680.19
428.069	635.19
428.292	554.19
428.514	521.19
428.736	525.19
428.958	506.19
429.181	492.19
429.403	490.19
429.625	501.19
429.847	506.19
430.069	582.19
430.292	583.19
430.514	504.19
430.736	508.19
430.958	485.19
431.18	486.19
431.402	483.19
431.624	474.19
431.846	471.19
432.068	488.19
432.29	496.19
432.512	472.19
432.734	511.19
432.956	480.19
433.178	482.19
433.4	498.19
433.622	462.19
433.844	471.19
434.066	470.19
434.287	487.19
434.509	490.19
434.731	512.19
434.953	518.19
435.175	532.19
435.397	546.19
435.618	527.19
435.84	546.19
436.062	673.19
436.284	699.19
436.505	581.19
436.727	534.19
436.949	498.19
437.17	514.19
437.392	471.19
437.614	483.19
437.835	527.19
438.057	606.19
438.278	668.19
438.5	690.19
438.721	755.19
438.943	730.19
439.165	580.19
439.386	539.19
439.608	560.19
439.829	512.19
440.05	556.19
440.272	596.19
440.493	560.19
440.715	522.19
440.936	499.19
441.158	524.19
441.379	520.19
441.6	548.19
441.822	541.19
442.043	580.19
442.264	664.19
442.486	655.19
442.707	591.19
442.928	567.19
443.149	571.19
443.371	567.19
443.592	632.19
443.813	710.19
444.034	745.19
444.255	606.19
444.476	597.19
444.698	588.19
444.919	555.19
445.14	685.19
445.361	638.19
445.582	591.19
445.803	622.19
446.024	692.19
446.245	708.19
446.466	654.19
446.687	574.19
446.908	527.19
447.129	526.19
447.35	479.19
447.571	483.19
447.792	485.19
448.013	512.19
448.234	514.19
448.455	553.19
448.675	643.19
448.896	726.19
449.117	612.19
449.338	583.19
449.559	679.19
449.779	811.19
450	628.19
450.221	531.19
450.442	513.19
450.662	478.19
450.883	464.19
451.104	483.19
451.324	492.19
451.545	462.19
451.766	453.19
451.986	456.19
452.207	459.19
452.428	424.19
452.648	440.19
452.869	444.19
453.089	452.19
453.31	459.19
453.53	437.19
453.751	448.19
453.971	443.19
454.192	452.19
454.412	461.19
454.633	450.19
454.853	455.19
455.073	420.19
455.294	458.19
455.514	532.19
455.734	518.19
455.955	469.19
456.175	437.19
456.395	391.19
456.616	419.19
456.836	420.19
457.056	442.19
457.276	421.19
457.497	423.19
457.717	435.19
457.937	436.19
458.157	442.19
458.377	431.19
458.598	472.19
458.818	503.19
459.038	552.19
459.258	590.19
459.478	505.19
459.698	496.19
459.918	474.19
460.138	520.19
460.358	504.19
460.578	506.19
460.798	517.19
461.018	532.19
461.238	515.19
461.458	490.19
461.678	512.19
461.898	515.19
462.118	516.19
462.338	559.19
462.558	550.19
462.777	550.19
462.997	592.19
463.217	589.19
463.437	618.19
463.657	578.19
463.876	578.19
464.096	557.19
464.316	550.19
464.536	557.19
464.755	575.19
464.975	553.19
465.195	583.19
465.414	591.19
465.634	536.19
465.854	512.19
466.073	481.19
466.293	484.19
466.512	472.19
466.732	462.19
466.951	450.19
467.171	460.19
467.391	471.19
467.61	468.19
467.829	471.19
468.049	493.19
468.268	452.19
468.488	420.19
468.707	463.19
468.927	446.19
469.146	443.19
469.365	458.19
469.585	451.19
469.804	472.19
470.023	467.19
470.243	455.19
470.462	461.19
470.681	479.19
470.901	484.19
471.12	473.19
471.339	458.19
471.558	475.19
471.777	483.19
471.997	454.19
472.216	448.19
472.435	448.19
472.654	467.19
472.873	452.19
473.092	443.19
473.311	456.19
473.53	457.19
473.749	469.19
473.968	505.19
474.187	578.19
474.406	590.19
474.625	525.19
474.844	487.19
475.063	479.19
475.282	455.19
475.501	458.19
475.72	471.19
475.939	462.19
476.158	461.19
476.377	494.19
476.596	463.19
476.814	499.19
477.033	510.19
477.252	499.19
477.471	499.19
477.69	489.19
477.908	503.19
478.127	510.19
478.346	534.19
478.564	530.19
478.783	532.19
479.002	528.19
479.22	549.19
479.439	540.19
479.658	575.19
479.876	586.19
480.095	573.19
480.313	592.19
480.532	593.19
480.751	570.19
480.969	597.19
481.188	582.19
481.406	571.19
481.624	576.19
481.843	532.19
482.061	549.19
482.28	534.19
482.498	532.19
482.717	505.19
482.935	543.19
483.153	511.19
483.372	528.19
483.59	525.19
483.808	549.19
484.027	536.19
484.245	518.19
484.463	526.19
484.681	542.19
484.9	558.19
485.118	566.19
485.336	551.19
485.554	557.19
485.772	563.19
485.99	562.19
486.209	565.19
486.427	532.19
486.645	551.19
486.863	572.19
487.081	578.19
487.299	551.19
487.517	567.19
487.735	584.19
487.953	571.19
488.171	592.19
488.389	551.19
488.607	580.19
488.825	596.19
489.043	599.19
489.261	572.19
489.479	580.19
489.696	585.19
489.914	590.19
490.132	592.19
490.35	603.19
490.568	577.19
490.786	590.19
491.003	615.19
491.221	626.19
491.439	612.19
491.657	628.19
491.874	645.19
492.092	638.19
492.31	647.19
492.527	622.19
492.745	646.19
492.963	628.19
493.18	652.19
493.398	651.19
493.615	663.19
493.833	634.19
494.05	666.19
494.268	679.19
494.485	648.19
494.703	653.19
494.92	676.19
495.138	664.19
495.355	670.19
495.573	665.19
495.79	683.19
496.008	670.19
496.225	695.19
496.442	696.19
496.66	671.19
496.877	683.19
497.094	697.19
497.312	688.19
497.529	700.19
497.746	710.19
497.963	734.19
498.181	754.19
498.398	782.19
498.615	770.19
498.832	806.19
499.049	836.19
499.267	874.19
499.484	934.19
499.701	934.19
499.918	1026.19
500.135	1114.19
500.352	1178.19
500.569	1163.19
500.786	1170.19
501.003	1121.19
501.22	1044.19
501.437	1021.19
501.654	960.19
501.871	908.19
