Data from 1985.PennyLincolnUp.Lamp.En5.5.200Scan.071819.P1_HRD10591_17-01-21-970.txt Node
Date: Thu Jul 18 17:01:21 EDT 2019
User: cochatt
Spectrometer: HR+D1059
Trigger mode: 1
Integration Time (sec): 1.000000E-1
Scans to average: 1
Electric dark correction enabled: true
Nonlinearity correction enabled: false
Boxcar width: 0
XAxis mode: Wavelengths
Number of Pixels in Spectrum: 2048
>>>>>Begin Spectral Data<<<<<
223.165	-12.38
223.4	-12.38
223.635	-12.38
223.869	-13.38
224.104	-18.38
224.338	-6.38
224.573	-8.38
224.808	-19.38
225.042	-23.38
225.277	6.62
225.511	-4.38
225.746	3.62
225.98	-3.38
226.215	9.62
226.449	24.62
226.683	19.62
226.918	28.62
227.152	16.62
227.387	29.62
227.621	38.62
227.856	38.62
228.09	49.62
228.324	46.62
228.559	59.62
228.793	73.62
229.027	88.62
229.262	96.62
229.496	102.62
229.73	109.62
229.964	131.62
230.199	102.62
230.433	107.62
230.667	109.62
230.901	118.62
231.136	113.62
231.37	103.62
231.604	121.62
231.838	104.62
232.072	108.62
232.306	96.62
232.541	108.62
232.775	104.62
233.009	98.62
233.243	116.62
233.477	102.62
233.711	122.62
233.945	106.62
234.179	116.62
234.413	113.62
234.647	110.62
234.881	93.62
235.115	111.62
235.349	106.62
235.583	101.62
235.817	119.62
236.051	117.62
236.285	106.62
236.519	107.62
236.753	91.62
236.987	117.62
237.221	160.62
237.455	164.62
237.689	165.62
237.922	133.62
238.156	103.62
238.39	125.62
238.624	117.62
238.858	116.62
239.091	120.62
239.325	108.62
239.559	108.62
239.793	116.62
240.027	139.62
240.26	145.62
240.494	142.62
240.728	120.62
240.961	127.62
241.195	129.62
241.429	131.62
241.662	123.62
241.896	141.62
242.13	125.62
242.363	129.62
242.597	129.62
242.83	150.62
243.064	129.62
243.298	117.62
243.531	141.62
243.765	140.62
243.998	120.62
244.232	131.62
244.465	126.62
244.699	121.62
244.932	137.62
245.166	136.62
245.399	141.62
245.633	131.62
245.866	138.62
246.099	132.62
246.333	131.62
246.566	146.62
246.8	148.62
247.033	147.62
247.266	152.62
247.5	155.62
247.733	156.62
247.966	154.62
248.2	164.62
248.433	170.62
248.666	158.62
248.899	159.62
249.133	183.62
249.366	192.62
249.599	182.62
249.832	170.62
250.066	161.62
250.299	153.62
250.532	178.62
250.765	177.62
250.998	200.62
251.231	198.62
251.465	185.62
251.698	177.62
251.931	167.62
252.164	166.62
252.397	182.62
252.63	170.62
252.863	164.62
253.096	195.62
253.329	197.62
253.562	206.62
253.795	196.62
254.028	186.62
254.261	190.62
254.494	198.62
254.727	232.62
254.96	245.62
255.193	235.62
255.426	206.62
255.659	193.62
255.892	203.62
256.124	190.62
256.357	197.62
256.59	175.62
256.823	184.62
257.056	189.62
257.289	181.62
257.521	205.62
257.754	192.62
257.987	190.62
258.22	192.62
258.452	187.62
258.685	179.62
258.918	188.62
259.151	191.62
259.383	216.62
259.616	187.62
259.849	208.62
260.081	208.62
260.314	225.62
260.547	221.62
260.779	218.62
261.012	206.62
261.244	200.62
261.477	218.62
261.71	213.62
261.942	215.62
262.175	213.62
262.407	204.62
262.64	205.62
262.872	206.62
263.105	204.62
263.337	208.62
263.57	197.62
263.802	199.62
264.035	195.62
264.267	190.62
264.499	200.62
264.732	225.62
264.964	187.62
265.197	200.62
265.429	191.62
265.661	218.62
265.894	211.62
266.126	205.62
266.358	213.62
266.591	214.62
266.823	223.62
267.055	221.62
267.287	219.62
267.52	212.62
267.752	211.62
267.984	226.62
268.216	222.62
268.448	232.62
268.681	218.62
268.913	234.62
269.145	231.62
269.377	239.62
269.609	237.62
269.841	245.62
270.073	251.62
270.306	258.62
270.538	289.62
270.77	294.62
271.002	263.62
271.234	276.62
271.466	259.62
271.698	277.62
271.93	271.62
272.162	264.62
272.394	273.62
272.626	274.62
272.858	244.62
273.09	275.62
273.322	247.62
273.553	242.62
273.785	246.62
274.017	261.62
274.249	243.62
274.481	259.62
274.713	247.62
274.945	251.62
275.176	257.62
275.408	244.62
275.64	249.62
275.872	258.62
276.104	270.62
276.335	251.62
276.567	279.62
276.799	259.62
277.031	266.62
277.262	307.62
277.494	285.62
277.726	273.62
277.957	276.62
278.189	268.62
278.421	275.62
278.652	264.62
278.884	252.62
279.115	250.62
279.347	265.62
279.579	270.62
279.81	270.62
280.042	248.62
280.273	266.62
280.505	271.62
280.736	265.62
280.968	256.62
281.199	265.62
281.431	259.62
281.662	268.62
281.894	265.62
282.125	267.62
282.356	284.62
282.588	298.62
282.819	275.62
283.051	260.62
283.282	278.62
283.513	282.62
283.745	280.62
283.976	282.62
284.207	282.62
284.439	279.62
284.67	267.62
284.901	280.62
285.132	289.62
285.364	271.62
285.595	282.62
285.826	290.62
286.057	275.62
286.288	295.62
286.52	282.62
286.751	278.62
286.982	280.62
287.213	277.62
287.444	267.62
287.675	278.62
287.906	290.62
288.138	315.62
288.369	309.62
288.6	297.62
288.831	297.62
289.062	309.62
289.293	297.62
289.524	296.62
289.755	290.62
289.986	293.62
290.217	297.62
290.448	297.62
290.679	302.62
290.91	294.62
291.141	305.62
291.371	315.62
291.602	286.62
291.833	307.62
292.064	291.62
292.295	293.62
292.526	306.62
292.757	293.62
292.987	295.62
293.218	301.62
293.449	293.62
293.68	312.62
293.91	293.62
294.141	305.62
294.372	302.62
294.603	315.62
294.833	298.62
295.064	312.62
295.295	324.62
295.525	303.62
295.756	312.62
295.987	305.62
296.217	322.62
296.448	311.62
296.679	294.62
296.909	291.62
297.14	330.62
297.37	306.62
297.601	295.62
297.831	319.62
298.062	305.62
298.292	329.62
298.523	324.62
298.753	301.62
298.984	312.62
299.214	323.62
299.445	316.62
299.675	333.62
299.905	349.62
300.136	327.62
300.366	327.62
300.597	320.62
300.827	330.62
301.057	332.62
301.288	321.62
301.518	334.62
301.748	328.62
301.979	334.62
302.209	344.62
302.439	328.62
302.669	322.62
302.9	330.62
303.13	344.62
303.36	330.62
303.59	333.62
303.82	327.62
304.051	336.62
304.281	326.62
304.511	331.62
304.741	339.62
304.971	332.62
305.201	335.62
305.431	325.62
305.661	359.62
305.891	336.62
306.121	341.62
306.352	348.62
306.582	340.62
306.812	335.62
307.042	357.62
307.272	324.62
307.502	333.62
307.731	331.62
307.961	316.62
308.191	345.62
308.421	336.62
308.651	359.62
308.881	323.62
309.111	348.62
309.341	362.62
309.571	362.62
309.8	349.62
310.03	360.62
310.26	375.62
310.49	365.62
310.72	373.62
310.949	385.62
311.179	382.62
311.409	358.62
311.639	357.62
311.868	354.62
312.098	374.62
312.328	369.62
312.557	368.62
312.787	380.62
313.017	371.62
313.246	400.62
313.476	381.62
313.706	379.62
313.935	359.62
314.165	364.62
314.394	383.62
314.624	379.62
314.853	392.62
315.083	392.62
315.312	383.62
315.542	399.62
315.771	366.62
316.001	371.62
316.23	381.62
316.46	356.62
316.689	385.62
316.919	374.62
317.148	391.62
317.377	392.62
317.607	372.62
317.836	369.62
318.065	377.62
318.295	377.62
318.524	389.62
318.753	380.62
318.983	373.62
319.212	363.62
319.441	370.62
319.67	385.62
319.9	382.62
320.129	364.62
320.358	380.62
320.587	388.62
320.816	393.62
321.046	376.62
321.275	398.62
321.504	388.62
321.733	389.62
321.962	392.62
322.191	421.62
322.42	400.62
322.649	425.62
322.878	425.62
323.108	419.62
323.337	417.62
323.566	425.62
323.795	446.62
324.024	477.62
324.253	521.62
324.482	695.62
324.71	999.62
324.939	1406.62
325.168	1213.62
325.397	693.62
325.626	527.62
325.855	468.62
326.084	442.62
326.313	452.62
326.542	453.62
326.77	456.62
326.999	533.62
327.228	637.62
327.457	916.62
327.686	1058.62
327.914	761.62
328.143	543.62
328.372	511.62
328.6	502.62
328.829	467.62
329.058	479.62
329.287	480.62
329.515	439.62
329.744	451.62
329.972	446.62
330.201	459.62
330.43	456.62
330.658	474.62
330.887	504.62
331.115	493.62
331.344	472.62
331.572	457.62
331.801	467.62
332.03	467.62
332.258	443.62
332.486	460.62
332.715	447.62
332.943	466.62
333.172	458.62
333.4	477.62
333.629	457.62
333.857	467.62
334.085	477.62
334.314	478.62
334.542	476.62
334.771	479.62
334.999	463.62
335.227	473.62
335.455	449.62
335.684	450.62
335.912	439.62
336.14	440.62
336.369	467.62
336.597	452.62
336.825	461.62
337.053	472.62
337.281	445.62
337.51	443.62
337.738	445.62
337.966	431.62
338.194	443.62
338.422	466.62
338.65	440.62
338.878	425.62
339.106	430.62
339.334	450.62
339.562	434.62
339.79	433.62
340.018	418.62
340.246	419.62
340.474	437.62
340.702	409.62
340.93	419.62
341.158	437.62
341.386	425.62
341.614	430.62
341.842	429.62
342.07	403.62
342.298	424.62
342.526	423.62
342.754	419.62
342.981	418.62
343.209	428.62
343.437	450.62
343.665	446.62
343.893	464.62
344.12	468.62
344.348	460.62
344.576	435.62
344.804	453.62
345.031	424.62
345.259	452.62
345.487	415.62
345.714	410.62
345.942	426.62
346.17	412.62
346.397	386.62
346.625	409.62
346.853	403.62
347.08	406.62
347.308	412.62
347.535	399.62
347.763	406.62
347.99	419.62
348.218	417.62
348.445	402.62
348.673	413.62
348.9	407.62
349.128	401.62
349.355	398.62
349.583	425.62
349.81	393.62
350.037	400.62
350.265	402.62
350.492	383.62
350.72	379.62
350.947	389.62
351.174	407.62
351.402	400.62
351.629	391.62
351.856	399.62
352.083	400.62
352.311	396.62
352.538	420.62
352.765	403.62
352.992	403.62
353.22	395.62
353.447	395.62
353.674	383.62
353.901	380.62
354.128	409.62
354.355	367.62
354.583	383.62
354.81	392.62
355.037	387.62
355.264	392.62
355.491	398.62
355.718	383.62
355.945	399.62
356.172	371.62
356.399	401.62
356.626	405.62
356.853	384.62
357.08	377.62
357.307	382.62
357.534	390.62
357.761	383.62
357.988	382.62
358.215	397.62
358.441	390.62
358.668	385.62
358.895	389.62
359.122	387.62
359.349	388.62
359.576	397.62
359.802	395.62
360.029	415.62
360.256	425.62
360.483	405.62
360.709	395.62
360.936	411.62
361.163	387.62
361.39	411.62
361.616	407.62
361.843	394.62
362.07	405.62
362.296	419.62
362.523	404.62
362.749	412.62
362.976	390.62
363.203	406.62
363.429	374.62
363.656	393.62
363.882	403.62
364.109	385.62
364.335	400.62
364.562	391.62
364.788	380.62
365.015	388.62
365.241	391.62
365.468	391.62
365.694	370.62
365.92	386.62
366.147	374.62
366.373	405.62
366.599	385.62
366.826	381.62
367.052	377.62
367.278	389.62
367.505	380.62
367.731	406.62
367.957	371.62
368.184	381.62
368.41	388.62
368.636	381.62
368.862	377.62
369.089	406.62
369.315	385.62
369.541	383.62
369.767	398.62
369.993	398.62
370.219	380.62
370.445	390.62
370.672	391.62
370.898	365.62
371.124	391.62
371.35	391.62
371.576	400.62
371.802	403.62
372.028	404.62
372.254	399.62
372.48	394.62
372.706	389.62
372.932	406.62
373.158	391.62
373.384	391.62
373.61	403.62
373.835	400.62
374.061	412.62
374.287	385.62
374.513	386.62
374.739	396.62
374.965	410.62
375.191	413.62
375.416	391.62
375.642	399.62
375.868	387.62
376.094	407.62
376.319	381.62
376.545	416.62
376.771	393.62
376.997	381.62
377.222	389.62
377.448	388.62
377.674	399.62
377.899	379.62
378.125	386.62
378.35	389.62
378.576	388.62
378.802	381.62
379.027	393.62
379.253	389.62
379.478	383.62
379.704	375.62
379.929	394.62
380.155	380.62
380.38	385.62
380.606	416.62
380.831	393.62
381.057	399.62
381.282	382.62
381.507	396.62
381.733	413.62
381.958	396.62
382.184	402.62
382.409	399.62
382.634	396.62
382.86	400.62
383.085	410.62
383.31	424.62
383.535	444.62
383.761	413.62
383.986	417.62
384.211	424.62
384.436	439.62
384.662	413.62
384.887	433.62
385.112	438.62
385.337	428.62
385.562	434.62
385.787	449.62
386.013	442.62
386.238	467.62
386.463	448.62
386.688	445.62
386.913	430.62
387.138	428.62
387.363	456.62
387.588	443.62
387.813	443.62
388.038	434.62
388.263	433.62
388.488	419.62
388.713	436.62
388.938	443.62
389.163	437.62
389.387	452.62
389.612	437.62
389.837	419.62
390.062	418.62
390.287	439.62
390.512	429.62
390.736	424.62
390.961	421.62
391.186	447.62
391.411	471.62
391.636	463.62
391.86	443.62
392.085	483.62
392.31	486.62
392.534	462.62
392.759	466.62
392.984	452.62
393.208	438.62
393.433	455.62
393.658	444.62
393.882	441.62
394.107	448.62
394.331	439.62
394.556	429.62
394.78	455.62
395.005	452.62
395.229	462.62
395.454	473.62
395.678	451.62
395.903	473.62
396.127	470.62
396.352	473.62
396.576	482.62
396.801	456.62
397.025	446.62
397.249	469.62
397.474	480.62
397.698	474.62
397.922	463.62
398.147	511.62
398.371	478.62
398.595	515.62
398.82	515.62
399.044	528.62
399.268	559.62
399.492	606.62
399.717	652.62
399.941	650.62
400.165	635.62
400.389	643.62
400.613	551.62
400.837	521.62
401.062	562.62
401.286	512.62
401.51	505.62
401.734	509.62
401.958	505.62
402.182	519.62
402.406	532.62
402.63	518.62
402.854	527.62
403.078	529.62
403.302	534.62
403.526	552.62
403.75	534.62
403.974	533.62
404.198	529.62
404.422	552.62
404.645	554.62
404.869	537.62
405.093	541.62
405.317	559.62
405.541	572.62
405.765	531.62
405.988	543.62
406.212	541.62
406.436	540.62
406.66	562.62
406.883	556.62
407.107	592.62
407.331	637.62
407.555	655.62
407.778	663.62
408.002	619.62
408.226	597.62
408.449	568.62
408.673	568.62
408.896	586.62
409.12	611.62
409.344	595.62
409.567	558.62
409.791	543.62
410.014	545.62
410.238	527.62
410.461	529.62
410.685	537.62
410.908	509.62
411.132	550.62
411.355	565.62
411.578	567.62
411.802	536.62
412.025	509.62
412.249	523.62
412.472	535.62
412.695	551.62
412.919	515.62
413.142	486.62
413.365	490.62
413.589	498.62
413.812	495.62
414.035	488.62
414.258	476.62
414.482	489.62
414.705	479.62
414.928	505.62
415.151	489.62
415.374	484.62
415.597	502.62
415.821	475.62
416.044	509.62
416.267	490.62
416.49	512.62
416.713	477.62
416.936	497.62
417.159	503.62
417.382	509.62
417.605	491.62
417.828	471.62
418.051	510.62
418.274	521.62
418.497	495.62
418.72	498.62
418.943	469.62
419.166	519.62
419.389	526.62
419.611	556.62
419.834	522.62
420.057	527.62
420.28	486.62
420.503	486.62
420.726	506.62
420.948	510.62
421.171	542.62
421.394	553.62
421.617	517.62
421.839	486.62
422.062	510.62
422.285	520.62
422.507	546.62
422.73	617.62
422.953	588.62
423.175	530.62
423.398	524.62
423.621	528.62
423.843	521.62
424.066	524.62
424.288	541.62
424.511	547.62
424.733	570.62
424.956	647.62
425.178	618.62
425.401	616.62
425.623	611.62
425.846	519.62
426.068	529.62
426.291	509.62
426.513	510.62
426.735	527.62
426.958	553.62
427.18	593.62
427.402	684.62
427.625	762.62
427.847	639.62
428.069	554.62
428.292	526.62
428.514	519.62
428.736	484.62
428.958	493.62
429.181	466.62
429.403	463.62
429.625	466.62
429.847	502.62
430.069	513.62
430.292	542.62
430.514	477.62
430.736	466.62
430.958	447.62
431.18	449.62
431.402	445.62
431.624	458.62
431.846	446.62
432.068	453.62
432.29	469.62
432.512	480.62
432.734	472.62
432.956	470.62
433.178	479.62
433.4	471.62
433.622	459.62
433.844	486.62
434.066	460.62
434.287	454.62
434.509	473.62
434.731	462.62
434.953	491.62
435.175	507.62
435.397	521.62
435.618	527.62
435.84	547.62
436.062	586.62
436.284	651.62
436.505	567.62
436.727	513.62
436.949	492.62
437.17	469.62
437.392	457.62
437.614	475.62
437.835	505.62
438.057	589.62
438.278	635.62
438.5	632.62
438.721	702.62
438.943	689.62
439.165	539.62
439.386	502.62
439.608	507.62
439.829	507.62
440.05	501.62
440.272	563.62
440.493	524.62
440.715	495.62
440.936	487.62
441.158	463.62
441.379	479.62
441.6	503.62
441.822	545.62
442.043	561.62
442.264	606.62
442.486	632.62
442.707	553.62
442.928	537.62
443.149	520.62
443.371	552.62
443.592	579.62
443.813	655.62
444.034	711.62
444.255	601.62
444.476	557.62
444.698	540.62
444.919	573.62
445.14	681.62
445.361	595.62
445.582	579.62
445.803	582.62
446.024	646.62
446.245	636.62
446.466	568.62
446.687	538.62
446.908	486.62
447.129	482.62
447.35	456.62
447.571	477.62
447.792	455.62
448.013	475.62
448.234	489.62
448.455	497.62
448.675	577.62
448.896	674.62
449.117	568.62
449.338	549.62
449.559	625.62
449.779	730.62
450	566.62
450.221	501.62
450.442	448.62
450.662	453.62
450.883	421.62
451.104	461.62
451.324	474.62
451.545	451.62
451.766	440.62
451.986	425.62
452.207	408.62
452.428	413.62
452.648	430.62
452.869	430.62
453.089	426.62
453.31	430.62
453.53	417.62
453.751	421.62
453.971	420.62
454.192	430.62
454.412	428.62
454.633	407.62
454.853	414.62
455.073	429.62
455.294	414.62
455.514	466.62
455.734	457.62
455.955	424.62
456.175	389.62
456.395	407.62
456.616	397.62
456.836	388.62
457.056	410.62
457.276	403.62
457.497	409.62
457.717	404.62
457.937	411.62
458.157	410.62
458.377	440.62
458.598	426.62
458.818	474.62
459.038	511.62
459.258	555.62
459.478	490.62
459.698	457.62
459.918	458.62
460.138	468.62
460.358	489.62
460.578	483.62
460.798	503.62
461.018	493.62
461.238	500.62
461.458	490.62
461.678	482.62
461.898	499.62
462.118	517.62
462.338	505.62
462.558	511.62
462.777	530.62
462.997	540.62
463.217	586.62
463.437	602.62
463.657	561.62
463.876	535.62
464.096	571.62
464.316	552.62
464.536	536.62
464.755	535.62
464.975	550.62
465.195	545.62
465.414	581.62
465.634	495.62
465.854	482.62
466.073	473.62
466.293	443.62
466.512	446.62
466.732	458.62
466.951	459.62
467.171	471.62
467.391	453.62
467.61	439.62
467.829	454.62
468.049	431.62
468.268	436.62
468.488	428.62
468.707	436.62
468.927	440.62
469.146	424.62
469.365	431.62
469.585	428.62
469.804	439.62
470.023	461.62
470.243	449.62
470.462	447.62
470.681	451.62
470.901	459.62
471.12	454.62
471.339	466.62
471.558	439.62
471.777	437.62
471.997	436.62
472.216	432.62
472.435	440.62
472.654	421.62
472.873	439.62
473.092	437.62
473.311	441.62
473.53	428.62
473.749	435.62
473.968	471.62
474.187	532.62
474.406	547.62
474.625	461.62
474.844	443.62
475.063	429.62
475.282	433.62
475.501	409.62
475.72	480.62
475.939	465.62
476.158	444.62
476.377	484.62
476.596	466.62
476.814	473.62
477.033	465.62
477.252	489.62
477.471	473.62
477.69	481.62
477.908	481.62
478.127	493.62
478.346	503.62
478.564	515.62
478.783	510.62
479.002	524.62
479.22	517.62
479.439	510.62
479.658	552.62
479.876	541.62
480.095	535.62
480.313	585.62
480.532	568.62
480.751	581.62
480.969	546.62
481.188	554.62
481.406	543.62
481.624	548.62
481.843	508.62
482.061	500.62
482.28	523.62
482.498	513.62
482.717	484.62
482.935	523.62
483.153	532.62
483.372	503.62
483.59	524.62
483.808	510.62
484.027	525.62
484.245	537.62
484.463	516.62
484.681	536.62
484.9	536.62
485.118	526.62
485.336	534.62
485.554	531.62
485.772	533.62
485.99	527.62
486.209	549.62
486.427	549.62
486.645	546.62
486.863	539.62
487.081	562.62
487.299	547.62
487.517	531.62
487.735	561.62
487.953	567.62
488.171	559.62
488.389	537.62
488.607	562.62
488.825	546.62
489.043	553.62
489.261	557.62
489.479	552.62
489.696	573.62
489.914	552.62
490.132	563.62
490.35	565.62
490.568	553.62
490.786	586.62
491.003	571.62
491.221	589.62
491.439	566.62
491.657	587.62
491.874	608.62
492.092	605.62
492.31	599.62
492.527	583.62
492.745	578.62
492.963	607.62
493.18	609.62
493.398	590.62
493.615	603.62
493.833	603.62
494.05	629.62
494.268	625.62
494.485	626.62
494.703	647.62
494.92	615.62
495.138	614.62
495.355	643.62
495.573	615.62
495.79	641.62
496.008	635.62
496.225	613.62
496.442	631.62
496.66	631.62
496.877	632.62
497.094	651.62
497.312	660.62
497.529	671.62
497.746	680.62
497.963	675.62
498.181	699.62
498.398	714.62
498.615	757.62
498.832	774.62
499.049	825.62
499.267	851.62
499.484	867.62
499.701	939.62
499.918	983.62
500.135	1014.62
500.352	1102.62
500.569	1124.62
500.786	1131.62
501.003	1102.62
501.22	1039.62
501.437	977.62
501.654	949.62
501.871	878.62
502.088	831.62
