Data from 1985.PennyLincolnUp.Lamp.En5.5.200Scan.071819.P1_HRD10591_17-01-49-970.txt Node
Date: Thu Jul 18 17:01:49 EDT 2019
User: cochatt
Spectrometer: HR+D1059
Trigger mode: 1
Integration Time (sec): 1.000000E-1
Scans to average: 1
Electric dark correction enabled: true
Nonlinearity correction enabled: false
Boxcar width: 0
XAxis mode: Wavelengths
Number of Pixels in Spectrum: 2048
>>>>>Begin Spectral Data<<<<<
223.165	-14.62
223.4	-14.62
223.635	-14.62
223.869	-4.62
224.104	-7.62
224.338	-7.62
224.573	-12.62
224.808	-10.62
225.042	-7.62
225.277	-8.62
225.511	-13.62
225.746	-1.62
225.98	26.38
226.215	-9.62
226.449	1.38
226.683	18.38
226.918	20.38
227.152	32.38
227.387	21.38
227.621	28.38
227.856	39.38
228.09	43.38
228.324	49.38
228.559	54.38
228.793	54.38
229.027	78.38
229.262	98.38
229.496	112.38
229.73	119.38
229.964	132.38
230.199	105.38
230.433	112.38
230.667	98.38
230.901	104.38
231.136	99.38
231.37	102.38
231.604	102.38
231.838	107.38
232.072	104.38
232.306	117.38
232.541	102.38
232.775	102.38
233.009	121.38
233.243	99.38
233.477	116.38
233.711	119.38
233.945	102.38
234.179	116.38
234.413	113.38
234.647	112.38
234.881	113.38
235.115	115.38
235.349	116.38
235.583	108.38
235.817	114.38
236.051	120.38
236.285	116.38
236.519	106.38
236.753	118.38
236.987	141.38
237.221	162.38
237.455	194.38
237.689	163.38
237.922	128.38
238.156	121.38
238.39	121.38
238.624	128.38
238.858	130.38
239.091	119.38
239.325	132.38
239.559	117.38
239.793	112.38
240.027	126.38
240.26	121.38
240.494	154.38
240.728	134.38
240.961	122.38
241.195	136.38
241.429	144.38
241.662	131.38
241.896	110.38
242.13	129.38
242.363	116.38
242.597	136.38
242.83	134.38
243.064	130.38
243.298	130.38
243.531	135.38
243.765	145.38
243.998	152.38
244.232	136.38
244.465	140.38
244.699	149.38
244.932	147.38
245.166	151.38
245.399	153.38
245.633	143.38
245.866	136.38
246.099	136.38
246.333	116.38
246.566	134.38
246.8	126.38
247.033	139.38
247.266	140.38
247.5	161.38
247.733	171.38
247.966	175.38
248.2	165.38
248.433	162.38
248.666	179.38
248.899	193.38
249.133	188.38
249.366	199.38
249.599	178.38
249.832	156.38
250.066	186.38
250.299	163.38
250.532	169.38
250.765	180.38
250.998	200.38
251.231	206.38
251.465	199.38
251.698	188.38
251.931	190.38
252.164	167.38
252.397	181.38
252.63	198.38
252.863	184.38
253.096	199.38
253.329	209.38
253.562	208.38
253.795	202.38
254.028	199.38
254.261	199.38
254.494	215.38
254.727	239.38
254.96	243.38
255.193	242.38
255.426	211.38
255.659	215.38
255.892	205.38
256.124	197.38
256.357	182.38
256.59	206.38
256.823	192.38
257.056	211.38
257.289	199.38
257.521	195.38
257.754	187.38
257.987	193.38
258.22	186.38
258.452	196.38
258.685	192.38
258.918	206.38
259.151	214.38
259.383	211.38
259.616	210.38
259.849	234.38
260.081	218.38
260.314	218.38
260.547	217.38
260.779	231.38
261.012	226.38
261.244	202.38
261.477	219.38
261.71	202.38
261.942	218.38
262.175	210.38
262.407	212.38
262.64	216.38
262.872	199.38
263.105	210.38
263.337	211.38
263.57	205.38
263.802	210.38
264.035	225.38
264.267	212.38
264.499	201.38
264.732	215.38
264.964	219.38
265.197	216.38
265.429	211.38
265.661	220.38
265.894	210.38
266.126	208.38
266.358	227.38
266.591	225.38
266.823	233.38
267.055	215.38
267.287	225.38
267.52	217.38
267.752	226.38
267.984	226.38
268.216	226.38
268.448	231.38
268.681	230.38
268.913	233.38
269.145	247.38
269.377	269.38
269.609	271.38
269.841	262.38
270.073	264.38
270.306	282.38
270.538	299.38
270.77	296.38
271.002	284.38
271.234	265.38
271.466	278.38
271.698	299.38
271.93	308.38
272.162	307.38
272.394	297.38
272.626	280.38
272.858	262.38
273.09	266.38
273.322	260.38
273.553	263.38
273.785	246.38
274.017	260.38
274.249	263.38
274.481	285.38
274.713	278.38
274.945	267.38
275.176	280.38
275.408	281.38
275.64	275.38
275.872	246.38
276.104	269.38
276.335	265.38
276.567	264.38
276.799	298.38
277.031	307.38
277.262	318.38
277.494	306.38
277.726	284.38
277.957	285.38
278.189	273.38
278.421	273.38
278.652	286.38
278.884	268.38
279.115	275.38
279.347	291.38
279.579	272.38
279.81	279.38
280.042	292.38
280.273	288.38
280.505	274.38
280.736	277.38
280.968	270.38
281.199	260.38
281.431	275.38
281.662	281.38
281.894	289.38
282.125	292.38
282.356	280.38
282.588	292.38
282.819	329.38
283.051	282.38
283.282	278.38
283.513	293.38
283.745	286.38
283.976	306.38
284.207	284.38
284.439	315.38
284.67	307.38
284.901	296.38
285.132	293.38
285.364	274.38
285.595	297.38
285.826	286.38
286.057	291.38
286.288	305.38
286.52	300.38
286.751	280.38
286.982	313.38
287.213	298.38
287.444	288.38
287.675	308.38
287.906	302.38
288.138	307.38
288.369	306.38
288.6	303.38
288.831	292.38
289.062	294.38
289.293	294.38
289.524	315.38
289.755	294.38
289.986	310.38
290.217	314.38
290.448	310.38
290.679	310.38
290.91	327.38
291.141	304.38
291.371	302.38
291.602	316.38
291.833	314.38
292.064	294.38
292.295	306.38
292.526	318.38
292.757	327.38
292.987	299.38
293.218	306.38
293.449	318.38
293.68	318.38
293.91	310.38
294.141	305.38
294.372	304.38
294.603	307.38
294.833	314.38
295.064	341.38
295.295	312.38
295.525	331.38
295.756	323.38
295.987	321.38
296.217	353.38
296.448	336.38
296.679	323.38
296.909	329.38
297.14	309.38
297.37	336.38
297.601	326.38
297.831	319.38
298.062	328.38
298.292	335.38
298.523	318.38
298.753	345.38
298.984	306.38
299.214	342.38
299.445	334.38
299.675	328.38
299.905	338.38
300.136	326.38
300.366	347.38
300.597	345.38
300.827	351.38
301.057	361.38
301.288	353.38
301.518	364.38
301.748	345.38
301.979	352.38
302.209	357.38
302.439	369.38
302.669	358.38
302.9	370.38
303.13	361.38
303.36	347.38
303.59	339.38
303.82	354.38
304.051	355.38
304.281	353.38
304.511	357.38
304.741	344.38
304.971	355.38
305.201	363.38
305.431	344.38
305.661	363.38
305.891	356.38
306.121	346.38
306.352	367.38
306.582	372.38
306.812	345.38
307.042	345.38
307.272	344.38
307.502	372.38
307.731	364.38
307.961	354.38
308.191	364.38
308.421	331.38
308.651	372.38
308.881	362.38
309.111	368.38
309.341	380.38
309.571	385.38
309.8	392.38
310.03	392.38
310.26	377.38
310.49	392.38
310.72	386.38
310.949	389.38
311.179	425.38
311.409	377.38
311.639	365.38
311.868	397.38
312.098	408.38
312.328	387.38
312.557	390.38
312.787	430.38
313.017	426.38
313.246	388.38
313.476	375.38
313.706	393.38
313.935	402.38
314.165	416.38
314.394	410.38
314.624	420.38
314.853	385.38
315.083	404.38
315.312	397.38
315.542	409.38
315.771	394.38
316.001	379.38
316.23	376.38
316.46	373.38
316.689	403.38
316.919	391.38
317.148	397.38
317.377	414.38
317.607	384.38
317.836	394.38
318.065	373.38
318.295	383.38
318.524	381.38
318.753	395.38
318.983	383.38
319.212	384.38
319.441	400.38
319.67	414.38
319.9	400.38
320.129	382.38
320.358	398.38
320.587	418.38
320.816	427.38
321.046	407.38
321.275	405.38
321.504	394.38
321.733	404.38
321.962	435.38
322.191	454.38
322.42	432.38
322.649	449.38
322.878	453.38
323.108	446.38
323.337	472.38
323.566	465.38
323.795	516.38
324.024	533.38
324.253	632.38
324.482	857.38
324.71	1256.38
324.939	1804.38
325.168	1497.38
325.397	820.38
325.626	599.38
325.855	526.38
326.084	530.38
326.313	506.38
326.542	500.38
326.77	538.38
326.999	604.38
327.228	778.38
327.457	1120.38
327.686	1350.38
327.914	903.38
328.143	638.38
328.372	574.38
328.6	562.38
328.829	520.38
329.058	552.38
329.287	552.38
329.515	522.38
329.744	478.38
329.972	510.38
330.201	491.38
330.43	486.38
330.658	518.38
330.887	544.38
331.115	544.38
331.344	513.38
331.572	506.38
331.801	511.38
332.03	474.38
332.258	475.38
332.486	481.38
332.715	488.38
332.943	489.38
333.172	500.38
333.4	496.38
333.629	500.38
333.857	512.38
334.085	508.38
334.314	482.38
334.542	501.38
334.771	491.38
334.999	492.38
335.227	497.38
335.455	504.38
335.684	481.38
335.912	483.38
336.14	480.38
336.369	457.38
336.597	488.38
336.825	479.38
337.053	466.38
337.281	470.38
337.51	475.38
337.738	464.38
337.966	465.38
338.194	483.38
338.422	447.38
338.65	464.38
338.878	461.38
339.106	440.38
339.334	472.38
339.562	447.38
339.79	458.38
340.018	466.38
340.246	459.38
340.474	458.38
340.702	458.38
340.93	453.38
341.158	442.38
341.386	452.38
341.614	442.38
341.842	452.38
342.07	451.38
342.298	449.38
342.526	435.38
342.754	405.38
342.981	450.38
343.209	424.38
343.437	466.38
343.665	451.38
343.893	478.38
344.12	475.38
344.348	475.38
344.576	459.38
344.804	456.38
345.031	434.38
345.259	470.38
345.487	470.38
345.714	439.38
345.942	412.38
346.17	429.38
346.397	434.38
346.625	441.38
346.853	425.38
347.08	404.38
347.308	426.38
347.535	430.38
347.763	442.38
347.99	410.38
348.218	436.38
348.445	437.38
348.673	437.38
348.9	433.38
349.128	421.38
349.355	424.38
349.583	412.38
349.81	424.38
350.037	425.38
350.265	408.38
350.492	423.38
350.72	412.38
350.947	417.38
351.174	414.38
351.402	414.38
351.629	435.38
351.856	435.38
352.083	437.38
352.311	433.38
352.538	423.38
352.765	421.38
352.992	434.38
353.22	435.38
353.447	414.38
353.674	435.38
353.901	420.38
354.128	400.38
354.355	396.38
354.583	407.38
354.81	396.38
355.037	392.38
355.264	398.38
355.491	404.38
355.718	401.38
355.945	409.38
356.172	398.38
356.399	391.38
356.626	406.38
356.853	407.38
357.08	395.38
357.307	399.38
357.534	408.38
357.761	414.38
357.988	386.38
358.215	390.38
358.441	405.38
358.668	407.38
358.895	420.38
359.122	423.38
359.349	408.38
359.576	418.38
359.802	450.38
360.029	447.38
360.256	466.38
360.483	451.38
360.709	422.38
360.936	421.38
361.163	431.38
361.39	435.38
361.616	433.38
361.843	416.38
362.07	394.38
362.296	430.38
362.523	433.38
362.749	401.38
362.976	401.38
363.203	412.38
363.429	400.38
363.656	410.38
363.882	392.38
364.109	414.38
364.335	416.38
364.562	394.38
364.788	403.38
365.015	424.38
365.241	411.38
365.468	405.38
365.694	410.38
365.92	406.38
366.147	409.38
366.373	414.38
366.599	402.38
366.826	412.38
367.052	393.38
367.278	391.38
367.505	391.38
367.731	400.38
367.957	439.38
368.184	406.38
368.41	399.38
368.636	419.38
368.862	423.38
369.089	406.38
369.315	426.38
369.541	410.38
369.767	408.38
369.993	417.38
370.219	427.38
370.445	424.38
370.672	418.38
370.898	410.38
371.124	393.38
371.35	395.38
371.576	415.38
371.802	407.38
372.028	407.38
372.254	411.38
372.48	410.38
372.706	425.38
372.932	415.38
373.158	424.38
373.384	403.38
373.61	400.38
373.835	415.38
374.061	427.38
374.287	415.38
374.513	426.38
374.739	413.38
374.965	426.38
375.191	423.38
375.416	419.38
375.642	404.38
375.868	395.38
376.094	406.38
376.319	424.38
376.545	402.38
376.771	399.38
376.997	417.38
377.222	398.38
377.448	398.38
377.674	412.38
377.899	396.38
378.125	386.38
378.35	416.38
378.576	415.38
378.802	409.38
379.027	414.38
379.253	415.38
379.478	408.38
379.704	403.38
379.929	404.38
380.155	401.38
380.38	432.38
380.606	433.38
380.831	413.38
381.057	414.38
381.282	402.38
381.507	411.38
381.733	412.38
381.958	414.38
382.184	436.38
382.409	408.38
382.634	402.38
382.86	410.38
383.085	400.38
383.31	414.38
383.535	417.38
383.761	427.38
383.986	438.38
384.211	434.38
384.436	437.38
384.662	433.38
384.887	439.38
385.112	450.38
385.337	472.38
385.562	450.38
385.787	432.38
386.013	457.38
386.238	456.38
386.463	456.38
386.688	457.38
386.913	452.38
387.138	441.38
387.363	452.38
387.588	439.38
387.813	438.38
388.038	444.38
388.263	441.38
388.488	456.38
388.713	447.38
388.938	450.38
389.163	452.38
389.387	468.38
389.612	443.38
389.837	455.38
390.062	447.38
390.287	445.38
390.512	441.38
390.736	438.38
390.961	450.38
391.186	455.38
391.411	459.38
391.636	466.38
391.86	498.38
392.085	484.38
392.31	467.38
392.534	510.38
392.759	464.38
392.984	472.38
393.208	450.38
393.433	479.38
393.658	452.38
393.882	456.38
394.107	460.38
394.331	459.38
394.556	473.38
394.78	439.38
395.005	450.38
395.229	468.38
395.454	487.38
395.678	445.38
395.903	487.38
396.127	491.38
396.352	490.38
396.576	479.38
396.801	486.38
397.025	466.38
397.249	481.38
397.474	504.38
397.698	488.38
397.922	502.38
398.147	515.38
398.371	518.38
398.595	534.38
398.82	514.38
399.044	540.38
399.268	553.38
399.492	612.38
399.717	648.38
399.941	692.38
400.165	685.38
400.389	671.38
400.613	598.38
400.837	542.38
401.062	582.38
401.286	511.38
401.51	516.38
401.734	535.38
401.958	518.38
402.182	538.38
402.406	543.38
402.63	553.38
402.854	548.38
403.078	543.38
403.302	537.38
403.526	558.38
403.75	554.38
403.974	563.38
404.198	546.38
404.422	564.38
404.645	564.38
404.869	562.38
405.093	576.38
405.317	585.38
405.541	609.38
405.765	566.38
405.988	558.38
406.212	582.38
406.436	600.38
406.66	603.38
406.883	594.38
407.107	611.38
407.331	650.38
407.555	716.38
407.778	688.38
408.002	642.38
408.226	620.38
408.449	600.38
408.673	591.38
408.896	612.38
409.12	632.38
409.344	608.38
409.567	566.38
409.791	567.38
410.014	542.38
410.238	528.38
410.461	541.38
410.685	560.38
410.908	554.38
411.132	574.38
411.355	614.38
411.578	576.38
411.802	536.38
412.025	523.38
412.249	511.38
412.472	524.38
412.695	536.38
412.919	515.38
413.142	518.38
413.365	510.38
413.589	530.38
413.812	516.38
414.035	506.38
414.258	527.38
414.482	523.38
414.705	506.38
414.928	498.38
415.151	499.38
415.374	509.38
415.597	502.38
415.821	501.38
416.044	496.38
416.267	497.38
416.49	498.38
416.713	480.38
416.936	494.38
417.159	509.38
417.382	515.38
417.605	520.38
417.828	532.38
418.051	542.38
418.274	528.38
418.497	515.38
418.72	516.38
418.943	508.38
419.166	516.38
419.389	557.38
419.611	569.38
419.834	561.38
420.057	522.38
420.28	522.38
420.503	514.38
420.726	525.38
420.948	530.38
421.171	569.38
421.394	594.38
421.617	552.38
421.839	525.38
422.062	520.38
422.285	537.38
422.507	585.38
422.73	634.38
422.953	623.38
423.175	571.38
423.398	552.38
423.621	551.38
423.843	562.38
424.066	568.38
424.288	533.38
424.511	591.38
424.733	615.38
424.956	663.38
425.178	647.38
425.401	662.38
425.623	664.38
425.846	596.38
426.068	564.38
426.291	548.38
426.513	556.38
426.735	549.38
426.958	596.38
427.18	652.38
427.402	750.38
427.625	850.38
427.847	687.38
428.069	620.38
428.292	544.38
428.514	526.38
428.736	523.38
428.958	532.38
429.181	503.38
429.403	495.38
429.625	493.38
429.847	524.38
430.069	599.38
430.292	578.38
430.514	530.38
430.736	500.38
430.958	511.38
431.18	511.38
431.402	473.38
431.624	473.38
431.846	474.38
432.068	482.38
432.29	484.38
432.512	492.38
432.734	490.38
432.956	471.38
433.178	498.38
433.4	507.38
433.622	488.38
433.844	470.38
434.066	483.38
434.287	491.38
434.509	494.38
434.731	508.38
434.953	530.38
435.175	539.38
435.397	549.38
435.618	552.38
435.84	561.38
436.062	646.38
436.284	698.38
436.505	613.38
436.727	555.38
436.949	515.38
437.17	489.38
437.392	486.38
437.614	495.38
437.835	551.38
438.057	619.38
438.278	683.38
438.5	696.38
438.721	762.38
438.943	740.38
439.165	566.38
439.386	522.38
439.608	520.38
439.829	556.38
440.05	544.38
440.272	601.38
440.493	540.38
440.715	524.38
440.936	515.38
441.158	525.38
441.379	523.38
441.6	522.38
441.822	550.38
442.043	592.38
442.264	648.38
442.486	669.38
442.707	607.38
442.928	547.38
443.149	583.38
443.371	568.38
443.592	632.38
443.813	726.38
444.034	734.38
444.255	629.38
444.476	580.38
444.698	588.38
444.919	575.38
445.14	688.38
445.361	617.38
445.582	590.38
445.803	615.38
446.024	709.38
446.245	701.38
446.466	637.38
446.687	572.38
446.908	544.38
447.129	527.38
447.35	499.38
447.571	482.38
447.792	489.38
448.013	483.38
448.234	516.38
448.455	548.38
448.675	618.38
448.896	768.38
449.117	608.38
449.338	578.38
449.559	723.38
449.779	774.38
450	619.38
450.221	530.38
450.442	498.38
450.662	476.38
450.883	489.38
451.104	504.38
451.324	487.38
451.545	464.38
451.766	464.38
451.986	443.38
452.207	458.38
452.428	430.38
452.648	449.38
452.869	469.38
453.089	445.38
453.31	442.38
453.53	459.38
453.751	458.38
453.971	426.38
454.192	472.38
454.412	432.38
454.633	452.38
454.853	452.38
455.073	443.38
455.294	458.38
455.514	498.38
455.734	479.38
455.955	456.38
456.175	457.38
456.395	428.38
456.616	413.38
456.836	430.38
457.056	390.38
457.276	417.38
457.497	432.38
457.717	415.38
457.937	420.38
458.157	408.38
458.377	448.38
458.598	446.38
458.818	500.38
459.038	582.38
459.258	590.38
459.478	528.38
459.698	495.38
459.918	495.38
460.138	498.38
460.358	505.38
460.578	531.38
460.798	522.38
461.018	544.38
461.238	519.38
461.458	520.38
461.678	506.38
461.898	505.38
462.118	538.38
462.338	537.38
462.558	551.38
462.777	551.38
462.997	591.38
463.217	605.38
463.437	580.38
463.657	578.38
463.876	579.38
464.096	568.38
464.316	582.38
464.536	564.38
464.755	553.38
464.975	545.38
465.195	554.38
465.414	605.38
465.634	575.38
465.854	530.38
466.073	509.38
466.293	464.38
466.512	478.38
466.732	469.38
466.951	475.38
467.171	461.38
467.391	466.38
467.61	478.38
467.829	490.38
468.049	474.38
468.268	461.38
468.488	439.38
468.707	440.38
468.927	439.38
469.146	453.38
469.365	464.38
469.585	451.38
469.804	470.38
470.023	472.38
470.243	491.38
470.462	494.38
470.681	494.38
470.901	475.38
471.12	466.38
471.339	475.38
471.558	475.38
471.777	473.38
471.997	462.38
472.216	462.38
472.435	442.38
472.654	436.38
472.873	441.38
473.092	464.38
473.311	478.38
473.53	454.38
473.749	466.38
473.968	505.38
474.187	583.38
474.406	585.38
474.625	500.38
474.844	449.38
475.063	462.38
475.282	452.38
475.501	473.38
475.72	472.38
475.939	478.38
476.158	495.38
476.377	466.38
476.596	467.38
476.814	468.38
477.033	506.38
477.252	509.38
477.471	482.38
477.69	499.38
477.908	489.38
478.127	516.38
478.346	498.38
478.564	547.38
478.783	514.38
479.002	543.38
479.22	544.38
479.439	534.38
479.658	547.38
479.876	567.38
480.095	578.38
480.313	594.38
480.532	596.38
480.751	598.38
480.969	574.38
481.188	562.38
481.406	573.38
481.624	555.38
481.843	551.38
482.061	552.38
482.28	537.38
482.498	522.38
482.717	515.38
482.935	520.38
483.153	529.38
483.372	544.38
483.59	521.38
483.808	528.38
484.027	547.38
484.245	532.38
484.463	535.38
484.681	553.38
484.9	534.38
485.118	565.38
485.336	536.38
485.554	571.38
485.772	552.38
485.99	554.38
486.209	551.38
486.427	577.38
486.645	540.38
486.863	595.38
487.081	582.38
487.299	576.38
487.517	565.38
487.735	570.38
487.953	551.38
488.171	551.38
488.389	562.38
488.607	555.38
488.825	551.38
489.043	561.38
489.261	570.38
489.479	582.38
489.696	578.38
489.914	574.38
490.132	586.38
490.35	560.38
490.568	605.38
490.786	611.38
491.003	632.38
491.221	651.38
491.439	639.38
491.657	618.38
491.874	632.38
492.092	642.38
492.31	646.38
492.527	645.38
492.745	635.38
492.963	648.38
493.18	656.38
493.398	651.38
493.615	653.38
493.833	665.38
494.05	668.38
494.268	671.38
494.485	637.38
494.703	659.38
494.92	646.38
495.138	662.38
495.355	648.38
495.573	661.38
495.79	650.38
496.008	688.38
496.225	653.38
496.442	658.38
496.66	659.38
496.877	689.38
497.094	674.38
497.312	682.38
497.529	685.38
497.746	717.38
497.963	724.38
498.181	759.38
498.398	761.38
498.615	798.38
498.832	814.38
499.049	847.38
499.267	858.38
499.484	909.38
499.701	971.38
499.918	958.38
500.135	1078.38
500.352	1141.38
500.569	1147.38
500.786	1150.38
501.003	1129.38
501.22	1109.38
501.437	1014.38
501.654	966.38
501.871	939.38
