Data from 1985.PennyLincolnUp.Lamp.En5.5.200Scan.071819.P1_HRD10591_17-01-34-970.txt Node
Date: Thu Jul 18 17:01:34 EDT 2019
User: cochatt
Spectrometer: HR+D1059
Trigger mode: 1
Integration Time (sec): 1.000000E-1
Scans to average: 1
Electric dark correction enabled: true
Nonlinearity correction enabled: false
Boxcar width: 0
XAxis mode: Wavelengths
Number of Pixels in Spectrum: 2048
>>>>>Begin Spectral Data<<<<<
223.165	-19.38
223.4	-19.38
223.635	-19.38
223.869	-28.38
224.104	-18.38
224.338	-4.38
224.573	-7.38
224.808	-11.38
225.042	-4.38
225.277	-19.38
225.511	-9.38
225.746	-2.38
225.98	3.62
226.215	19.62
226.449	16.62
226.683	12.62
226.918	27.62
227.152	44.62
227.387	39.62
227.621	39.62
227.856	43.62
228.09	44.62
228.324	37.62
228.559	67.62
228.793	75.62
229.027	95.62
229.262	104.62
229.496	104.62
229.73	108.62
229.964	144.62
230.199	122.62
230.433	107.62
230.667	105.62
230.901	94.62
231.136	100.62
231.37	93.62
231.604	109.62
231.838	117.62
232.072	104.62
232.306	120.62
232.541	104.62
232.775	104.62
233.009	113.62
233.243	116.62
233.477	108.62
233.711	124.62
233.945	118.62
234.179	120.62
234.413	107.62
234.647	108.62
234.881	117.62
235.115	107.62
235.349	130.62
235.583	124.62
235.817	110.62
236.051	130.62
236.285	123.62
236.519	121.62
236.753	108.62
236.987	143.62
237.221	164.62
237.455	215.62
237.689	161.62
237.922	132.62
238.156	141.62
238.39	124.62
238.624	115.62
238.858	113.62
239.091	124.62
239.325	113.62
239.559	128.62
239.793	117.62
240.027	148.62
240.26	133.62
240.494	141.62
240.728	141.62
240.961	149.62
241.195	123.62
241.429	132.62
241.662	129.62
241.896	129.62
242.13	139.62
242.363	136.62
242.597	134.62
242.83	145.62
243.064	140.62
243.298	144.62
243.531	138.62
243.765	139.62
243.998	132.62
244.232	141.62
244.465	134.62
244.699	151.62
244.932	152.62
245.166	143.62
245.399	134.62
245.633	148.62
245.866	156.62
246.099	133.62
246.333	146.62
246.566	140.62
246.8	159.62
247.033	153.62
247.266	141.62
247.5	155.62
247.733	172.62
247.966	161.62
248.2	160.62
248.433	166.62
248.666	176.62
248.899	180.62
249.133	196.62
249.366	196.62
249.599	179.62
249.832	154.62
250.066	169.62
250.299	183.62
250.532	184.62
250.765	181.62
250.998	192.62
251.231	200.62
251.465	188.62
251.698	193.62
251.931	190.62
252.164	190.62
252.397	170.62
252.63	188.62
252.863	192.62
253.096	204.62
253.329	196.62
253.562	201.62
253.795	215.62
254.028	222.62
254.261	200.62
254.494	204.62
254.727	222.62
254.96	250.62
255.193	238.62
255.426	224.62
255.659	214.62
255.892	220.62
256.124	183.62
256.357	207.62
256.59	207.62
256.823	190.62
257.056	192.62
257.289	204.62
257.521	202.62
257.754	200.62
257.987	216.62
258.22	200.62
258.452	192.62
258.685	190.62
258.918	215.62
259.151	211.62
259.383	215.62
259.616	228.62
259.849	221.62
260.081	234.62
260.314	238.62
260.547	255.62
260.779	236.62
261.012	219.62
261.244	218.62
261.477	211.62
261.71	215.62
261.942	206.62
262.175	211.62
262.407	217.62
262.64	216.62
262.872	204.62
263.105	197.62
263.337	195.62
263.57	218.62
263.802	201.62
264.035	215.62
264.267	216.62
264.499	205.62
264.732	211.62
264.964	224.62
265.197	233.62
265.429	197.62
265.661	209.62
265.894	217.62
266.126	220.62
266.358	218.62
266.591	221.62
266.823	224.62
267.055	229.62
267.287	217.62
267.52	208.62
267.752	230.62
267.984	247.62
268.216	235.62
268.448	231.62
268.681	237.62
268.913	229.62
269.145	256.62
269.377	282.62
269.609	253.62
269.841	246.62
270.073	261.62
270.306	302.62
270.538	302.62
270.77	289.62
271.002	281.62
271.234	280.62
271.466	269.62
271.698	283.62
271.93	309.62
272.162	297.62
272.394	300.62
272.626	292.62
272.858	288.62
273.09	285.62
273.322	270.62
273.553	263.62
273.785	271.62
274.017	265.62
274.249	264.62
274.481	259.62
274.713	260.62
274.945	254.62
275.176	251.62
275.408	261.62
275.64	264.62
275.872	291.62
276.104	261.62
276.335	267.62
276.567	268.62
276.799	276.62
277.031	290.62
277.262	312.62
277.494	312.62
277.726	294.62
277.957	277.62
278.189	286.62
278.421	270.62
278.652	293.62
278.884	277.62
279.115	279.62
279.347	285.62
279.579	271.62
279.81	256.62
280.042	271.62
280.273	289.62
280.505	268.62
280.736	269.62
280.968	270.62
281.199	276.62
281.431	299.62
281.662	283.62
281.894	284.62
282.125	280.62
282.356	281.62
282.588	299.62
282.819	296.62
283.051	291.62
283.282	287.62
283.513	284.62
283.745	305.62
283.976	288.62
284.207	295.62
284.439	304.62
284.67	275.62
284.901	308.62
285.132	321.62
285.364	293.62
285.595	299.62
285.826	308.62
286.057	301.62
286.288	296.62
286.52	297.62
286.751	276.62
286.982	304.62
287.213	292.62
287.444	295.62
287.675	308.62
287.906	297.62
288.138	308.62
288.369	312.62
288.6	320.62
288.831	326.62
289.062	291.62
289.293	300.62
289.524	314.62
289.755	300.62
289.986	306.62
290.217	314.62
290.448	314.62
290.679	326.62
290.91	285.62
291.141	306.62
291.371	301.62
291.602	313.62
291.833	307.62
292.064	305.62
292.295	312.62
292.526	335.62
292.757	328.62
292.987	313.62
293.218	314.62
293.449	320.62
293.68	306.62
293.91	333.62
294.141	314.62
294.372	294.62
294.603	322.62
294.833	293.62
295.064	301.62
295.295	311.62
295.525	310.62
295.756	329.62
295.987	312.62
296.217	324.62
296.448	333.62
296.679	324.62
296.909	299.62
297.14	320.62
297.37	313.62
297.601	330.62
297.831	334.62
298.062	327.62
298.292	324.62
298.523	330.62
298.753	345.62
298.984	337.62
299.214	334.62
299.445	329.62
299.675	337.62
299.905	336.62
300.136	344.62
300.366	335.62
300.597	325.62
300.827	351.62
301.057	342.62
301.288	346.62
301.518	321.62
301.748	363.62
301.979	360.62
302.209	339.62
302.439	346.62
302.669	350.62
302.9	358.62
303.13	335.62
303.36	353.62
303.59	369.62
303.82	366.62
304.051	368.62
304.281	357.62
304.511	375.62
304.741	340.62
304.971	352.62
305.201	350.62
305.431	327.62
305.661	356.62
305.891	343.62
306.121	353.62
306.352	349.62
306.582	357.62
306.812	348.62
307.042	368.62
307.272	357.62
307.502	363.62
307.731	356.62
307.961	345.62
308.191	352.62
308.421	359.62
308.651	364.62
308.881	372.62
309.111	377.62
309.341	364.62
309.571	360.62
309.8	378.62
310.03	372.62
310.26	377.62
310.49	401.62
310.72	388.62
310.949	393.62
311.179	401.62
311.409	407.62
311.639	387.62
311.868	404.62
312.098	377.62
312.328	402.62
312.557	392.62
312.787	419.62
313.017	401.62
313.246	400.62
313.476	374.62
313.706	402.62
313.935	384.62
314.165	394.62
314.394	408.62
314.624	400.62
314.853	412.62
315.083	401.62
315.312	408.62
315.542	399.62
315.771	381.62
316.001	389.62
316.23	407.62
316.46	375.62
316.689	400.62
316.919	405.62
317.148	402.62
317.377	409.62
317.607	413.62
317.836	413.62
318.065	410.62
318.295	402.62
318.524	392.62
318.753	403.62
318.983	398.62
319.212	395.62
319.441	387.62
319.67	397.62
319.9	386.62
320.129	398.62
320.358	401.62
320.587	396.62
320.816	404.62
321.046	408.62
321.275	400.62
321.504	408.62
321.733	402.62
321.962	401.62
322.191	417.62
322.42	415.62
322.649	434.62
322.878	457.62
323.108	444.62
323.337	459.62
323.566	481.62
323.795	510.62
324.024	535.62
324.253	587.62
324.482	850.62
324.71	1178.62
324.939	1685.62
325.168	1420.62
325.397	778.62
325.626	584.62
325.855	519.62
326.084	487.62
326.313	463.62
326.542	484.62
326.77	510.62
326.999	571.62
327.228	737.62
327.457	1064.62
327.686	1257.62
327.914	864.62
328.143	616.62
328.372	551.62
328.6	525.62
328.829	523.62
329.058	530.62
329.287	530.62
329.515	508.62
329.744	485.62
329.972	484.62
330.201	484.62
330.43	483.62
330.658	513.62
330.887	528.62
331.115	549.62
331.344	514.62
331.572	478.62
331.801	499.62
332.03	486.62
332.258	472.62
332.486	473.62
332.715	480.62
332.943	472.62
333.172	471.62
333.4	504.62
333.629	523.62
333.857	507.62
334.085	483.62
334.314	484.62
334.542	486.62
334.771	498.62
334.999	506.62
335.227	506.62
335.455	496.62
335.684	474.62
335.912	484.62
336.14	463.62
336.369	485.62
336.597	475.62
336.825	479.62
337.053	456.62
337.281	468.62
337.51	475.62
337.738	459.62
337.966	468.62
338.194	466.62
338.422	458.62
338.65	450.62
338.878	461.62
339.106	458.62
339.334	437.62
339.562	448.62
339.79	452.62
340.018	458.62
340.246	413.62
340.474	449.62
340.702	456.62
340.93	457.62
341.158	446.62
341.386	435.62
341.614	452.62
341.842	455.62
342.07	435.62
342.298	456.62
342.526	448.62
342.754	436.62
342.981	434.62
343.209	432.62
343.437	451.62
343.665	458.62
343.893	477.62
344.12	476.62
344.348	464.62
344.576	486.62
344.804	451.62
345.031	454.62
345.259	463.62
345.487	433.62
345.714	443.62
345.942	455.62
346.17	432.62
346.397	424.62
346.625	424.62
346.853	436.62
347.08	438.62
347.308	435.62
347.535	437.62
347.763	435.62
347.99	434.62
348.218	416.62
348.445	422.62
348.673	454.62
348.9	429.62
349.128	431.62
349.355	434.62
349.583	438.62
349.81	405.62
350.037	416.62
350.265	386.62
350.492	412.62
350.72	424.62
350.947	405.62
351.174	432.62
351.402	418.62
351.629	429.62
351.856	424.62
352.083	439.62
352.311	413.62
352.538	431.62
352.765	436.62
352.992	424.62
353.22	412.62
353.447	428.62
353.674	425.62
353.901	401.62
354.128	406.62
354.355	377.62
354.583	424.62
354.81	418.62
355.037	430.62
355.264	389.62
355.491	390.62
355.718	394.62
355.945	417.62
356.172	409.62
356.399	404.62
356.626	393.62
356.853	396.62
357.08	411.62
357.307	402.62
357.534	397.62
357.761	403.62
357.988	413.62
358.215	418.62
358.441	391.62
358.668	418.62
358.895	425.62
359.122	402.62
359.349	423.62
359.576	434.62
359.802	427.62
360.029	442.62
360.256	458.62
360.483	470.62
360.709	438.62
360.936	420.62
361.163	419.62
361.39	415.62
361.616	418.62
361.843	398.62
362.07	409.62
362.296	426.62
362.523	410.62
362.749	415.62
362.976	401.62
363.203	397.62
363.429	397.62
363.656	398.62
363.882	416.62
364.109	392.62
364.335	388.62
364.562	400.62
364.788	396.62
365.015	407.62
365.241	419.62
365.468	420.62
365.694	419.62
365.92	400.62
366.147	404.62
366.373	395.62
366.599	400.62
366.826	396.62
367.052	399.62
367.278	404.62
367.505	404.62
367.731	407.62
367.957	401.62
368.184	414.62
368.41	404.62
368.636	430.62
368.862	416.62
369.089	402.62
369.315	401.62
369.541	417.62
369.767	385.62
369.993	426.62
370.219	397.62
370.445	375.62
370.672	422.62
370.898	417.62
371.124	403.62
371.35	417.62
371.576	390.62
371.802	413.62
372.028	394.62
372.254	406.62
372.48	413.62
372.706	397.62
372.932	409.62
373.158	400.62
373.384	394.62
373.61	392.62
373.835	395.62
374.061	403.62
374.287	412.62
374.513	414.62
374.739	408.62
374.965	414.62
375.191	414.62
375.416	437.62
375.642	416.62
375.868	420.62
376.094	408.62
376.319	410.62
376.545	406.62
376.771	417.62
376.997	398.62
377.222	388.62
377.448	397.62
377.674	416.62
377.899	397.62
378.125	392.62
378.35	400.62
378.576	392.62
378.802	405.62
379.027	405.62
379.253	391.62
379.478	396.62
379.704	415.62
379.929	413.62
380.155	406.62
380.38	392.62
380.606	398.62
380.831	407.62
381.057	411.62
381.282	416.62
381.507	416.62
381.733	408.62
381.958	397.62
382.184	414.62
382.409	429.62
382.634	416.62
382.86	424.62
383.085	429.62
383.31	421.62
383.535	437.62
383.761	427.62
383.986	434.62
384.211	436.62
384.436	455.62
384.662	434.62
384.887	458.62
385.112	445.62
385.337	470.62
385.562	473.62
385.787	460.62
386.013	461.62
386.238	486.62
386.463	456.62
386.688	469.62
386.913	448.62
387.138	457.62
387.363	461.62
387.588	457.62
387.813	448.62
388.038	461.62
388.263	424.62
388.488	448.62
388.713	442.62
388.938	460.62
389.163	442.62
389.387	463.62
389.612	443.62
389.837	462.62
390.062	453.62
390.287	440.62
390.512	435.62
390.736	459.62
390.961	457.62
391.186	454.62
391.411	481.62
391.636	469.62
391.86	476.62
392.085	471.62
392.31	492.62
392.534	466.62
392.759	472.62
392.984	445.62
393.208	456.62
393.433	445.62
393.658	462.62
393.882	468.62
394.107	460.62
394.331	463.62
394.556	480.62
394.78	466.62
395.005	443.62
395.229	481.62
395.454	493.62
395.678	511.62
395.903	492.62
396.127	509.62
396.352	513.62
396.576	488.62
396.801	473.62
397.025	490.62
397.249	466.62
397.474	477.62
397.698	486.62
397.922	512.62
398.147	502.62
398.371	512.62
398.595	529.62
398.82	546.62
399.044	547.62
399.268	561.62
399.492	633.62
399.717	656.62
399.941	671.62
400.165	680.62
400.389	669.62
400.613	615.62
400.837	574.62
401.062	535.62
401.286	560.62
401.51	542.62
401.734	535.62
401.958	550.62
402.182	538.62
402.406	548.62
402.63	562.62
402.854	540.62
403.078	555.62
403.302	549.62
403.526	563.62
403.75	564.62
403.974	558.62
404.198	566.62
404.422	547.62
404.645	544.62
404.869	572.62
405.093	579.62
405.317	612.62
405.541	618.62
405.765	562.62
405.988	567.62
406.212	581.62
406.436	590.62
406.66	590.62
406.883	581.62
407.107	630.62
407.331	654.62
407.555	715.62
407.778	688.62
408.002	662.62
408.226	643.62
408.449	604.62
408.673	604.62
408.896	600.62
409.12	648.62
409.344	626.62
409.567	545.62
409.791	556.62
410.014	543.62
410.238	530.62
410.461	545.62
410.685	538.62
410.908	558.62
411.132	580.62
411.355	580.62
411.578	588.62
411.802	550.62
412.025	547.62
412.249	539.62
412.472	534.62
412.695	554.62
412.919	527.62
413.142	527.62
413.365	530.62
413.589	512.62
413.812	515.62
414.035	514.62
414.258	490.62
414.482	524.62
414.705	518.62
414.928	486.62
415.151	515.62
415.374	516.62
415.597	500.62
415.821	490.62
416.044	498.62
416.267	485.62
416.49	501.62
416.713	496.62
416.936	505.62
417.159	484.62
417.382	524.62
417.605	473.62
417.828	535.62
418.051	515.62
418.274	504.62
418.497	524.62
418.72	492.62
418.943	518.62
419.166	527.62
419.389	563.62
419.611	542.62
419.834	530.62
420.057	527.62
420.28	522.62
420.503	498.62
420.726	530.62
420.948	547.62
421.171	558.62
421.394	575.62
421.617	537.62
421.839	534.62
422.062	550.62
422.285	536.62
422.507	601.62
422.73	658.62
422.953	627.62
423.175	564.62
423.398	588.62
423.621	544.62
423.843	556.62
424.066	558.62
424.288	557.62
424.511	574.62
424.733	609.62
424.956	680.62
425.178	676.62
425.401	660.62
425.623	666.62
425.846	570.62
426.068	537.62
426.291	548.62
426.513	538.62
426.735	534.62
426.958	575.62
427.18	660.62
427.402	743.62
427.625	812.62
427.847	705.62
428.069	594.62
428.292	534.62
428.514	516.62
428.736	507.62
428.958	520.62
429.181	501.62
429.403	472.62
429.625	510.62
429.847	518.62
430.069	587.62
430.292	573.62
430.514	506.62
430.736	515.62
430.958	499.62
431.18	481.62
431.402	468.62
431.624	471.62
431.846	490.62
432.068	479.62
432.29	507.62
432.512	480.62
432.734	488.62
432.956	479.62
433.178	485.62
433.4	501.62
433.622	490.62
433.844	509.62
434.066	493.62
434.287	484.62
434.509	484.62
434.731	496.62
434.953	524.62
435.175	532.62
435.397	529.62
435.618	522.62
435.84	574.62
436.062	657.62
436.284	710.62
436.505	575.62
436.727	532.62
436.949	491.62
437.17	484.62
437.392	481.62
437.614	501.62
437.835	525.62
438.057	598.62
438.278	696.62
438.5	684.62
438.721	748.62
438.943	719.62
439.165	594.62
439.386	529.62
439.608	531.62
439.829	557.62
440.05	558.62
440.272	577.62
440.493	558.62
440.715	524.62
440.936	519.62
441.158	508.62
441.379	532.62
441.6	519.62
441.822	549.62
442.043	579.62
442.264	653.62
442.486	692.62
442.707	583.62
442.928	545.62
443.149	576.62
443.371	583.62
443.592	607.62
443.813	724.62
444.034	743.62
444.255	638.62
444.476	598.62
444.698	587.62
444.919	591.62
445.14	668.62
445.361	594.62
445.582	586.62
445.803	641.62
446.024	700.62
446.245	708.62
446.466	681.62
446.687	550.62
446.908	522.62
447.129	520.62
447.35	502.62
447.571	459.62
447.792	491.62
448.013	490.62
448.234	494.62
448.455	527.62
448.675	629.62
448.896	726.62
449.117	624.62
449.338	579.62
449.559	721.62
449.779	774.62
450	588.62
450.221	483.62
450.442	486.62
450.662	491.62
450.883	468.62
451.104	490.62
451.324	481.62
451.545	452.62
451.766	459.62
451.986	459.62
452.207	436.62
452.428	446.62
452.648	442.62
452.869	441.62
453.089	446.62
453.31	467.62
453.53	462.62
453.751	444.62
453.971	441.62
454.192	462.62
454.412	460.62
454.633	445.62
454.853	444.62
455.073	444.62
455.294	473.62
455.514	482.62
455.734	500.62
455.955	444.62
456.175	414.62
456.395	418.62
456.616	412.62
456.836	413.62
457.056	429.62
457.276	423.62
457.497	418.62
457.717	440.62
457.937	433.62
458.157	422.62
458.377	440.62
458.598	448.62
458.818	493.62
459.038	583.62
459.258	597.62
459.478	509.62
459.698	492.62
459.918	519.62
460.138	470.62
460.358	514.62
460.578	498.62
460.798	521.62
461.018	519.62
461.238	507.62
461.458	523.62
461.678	498.62
461.898	500.62
462.118	504.62
462.338	524.62
462.558	530.62
462.777	550.62
462.997	577.62
463.217	617.62
463.437	612.62
463.657	584.62
463.876	577.62
464.096	567.62
464.316	558.62
464.536	553.62
464.755	564.62
464.975	552.62
465.195	568.62
465.414	616.62
465.634	561.62
465.854	513.62
466.073	502.62
466.293	476.62
466.512	469.62
466.732	455.62
466.951	444.62
467.171	453.62
467.391	493.62
467.61	470.62
467.829	465.62
468.049	466.62
468.268	461.62
468.488	462.62
468.707	452.62
468.927	458.62
469.146	448.62
469.365	455.62
469.585	434.62
469.804	455.62
470.023	466.62
470.243	483.62
470.462	472.62
470.681	494.62
470.901	506.62
471.12	489.62
471.339	469.62
471.558	481.62
471.777	494.62
471.997	467.62
472.216	458.62
472.435	456.62
472.654	454.62
472.873	438.62
473.092	437.62
473.311	450.62
473.53	454.62
473.749	470.62
473.968	489.62
474.187	591.62
474.406	588.62
474.625	512.62
474.844	466.62
475.063	490.62
475.282	473.62
475.501	457.62
475.72	475.62
475.939	497.62
476.158	491.62
476.377	478.62
476.596	468.62
476.814	488.62
477.033	502.62
477.252	460.62
477.471	473.62
477.69	509.62
477.908	506.62
478.127	537.62
478.346	521.62
478.564	516.62
478.783	516.62
479.002	531.62
479.22	531.62
479.439	547.62
479.658	576.62
479.876	587.62
480.095	552.62
480.313	598.62
480.532	589.62
480.751	582.62
480.969	582.62
481.188	590.62
481.406	557.62
481.624	582.62
481.843	547.62
482.061	527.62
482.28	548.62
482.498	535.62
482.717	526.62
482.935	550.62
483.153	524.62
483.372	515.62
483.59	534.62
483.808	541.62
484.027	531.62
484.245	505.62
484.463	525.62
484.681	525.62
484.9	515.62
485.118	531.62
485.336	555.62
485.554	552.62
485.772	564.62
485.99	562.62
486.209	557.62
486.427	575.62
486.645	562.62
486.863	570.62
487.081	563.62
487.299	577.62
487.517	572.62
487.735	574.62
487.953	565.62
488.171	557.62
488.389	563.62
488.607	582.62
488.825	589.62
489.043	605.62
489.261	569.62
489.479	599.62
489.696	581.62
489.914	590.62
490.132	602.62
490.35	600.62
490.568	594.62
490.786	621.62
491.003	623.62
491.221	621.62
491.439	621.62
491.657	620.62
491.874	634.62
492.092	642.62
492.31	621.62
492.527	636.62
492.745	659.62
492.963	644.62
493.18	639.62
493.398	649.62
493.615	652.62
493.833	686.62
494.05	639.62
494.268	657.62
494.485	643.62
494.703	660.62
494.92	672.62
495.138	644.62
495.355	674.62
495.573	671.62
495.79	653.62
496.008	668.62
496.225	650.62
496.442	654.62
496.66	678.62
496.877	661.62
497.094	668.62
497.312	692.62
497.529	709.62
497.746	695.62
497.963	728.62
498.181	742.62
498.398	766.62
498.615	796.62
498.832	822.62
499.049	840.62
499.267	888.62
499.484	884.62
499.701	942.62
499.918	1011.62
500.135	1078.62
500.352	1179.62
500.569	1204.62
500.786	1189.62
501.003	1155.62
501.22	1089.62
501.437	1049.62
501.654	947.62
501.871	936.62
