Data from 1985.PennyLincolnUp.Lamp.En5.5.200Scan.071819.P1_HRD10591_17-03-27-970.txt Node
Date: Thu Jul 18 17:03:27 EDT 2019
User: cochatt
Spectrometer: HR+D1059
Trigger mode: 1
Integration Time (sec): 1.000000E-1
Scans to average: 1
Electric dark correction enabled: true
Nonlinearity correction enabled: false
Boxcar width: 0
XAxis mode: Wavelengths
Number of Pixels in Spectrum: 2048
>>>>>Begin Spectral Data<<<<<
223.165	-7.56
223.4	-7.56
223.635	-7.56
223.869	-16.56
224.104	-7.56
224.338	-5.56
224.573	-25.56
224.808	-3.56
225.042	-9.56
225.277	-1.56
225.511	-10.56
225.746	-8.56
225.98	1.44
226.215	21.44
226.449	4.44
226.683	13.44
226.918	15.44
227.152	40.44
227.387	42.44
227.621	51.44
227.856	35.44
228.09	48.44
228.324	43.44
228.559	53.44
228.793	66.44
229.027	97.44
229.262	115.44
229.496	112.44
229.73	119.44
229.964	154.44
230.199	132.44
230.433	105.44
230.667	118.44
230.901	114.44
231.136	126.44
231.37	95.44
231.604	104.44
231.838	122.44
232.072	108.44
232.306	107.44
232.541	103.44
232.775	128.44
233.009	132.44
233.243	120.44
233.477	121.44
233.711	107.44
233.945	121.44
234.179	122.44
234.413	133.44
234.647	129.44
234.881	124.44
235.115	116.44
235.349	120.44
235.583	130.44
235.817	128.44
236.051	133.44
236.285	140.44
236.519	130.44
236.753	131.44
236.987	132.44
237.221	189.44
237.455	212.44
237.689	170.44
237.922	138.44
238.156	140.44
238.39	127.44
238.624	116.44
238.858	132.44
239.091	131.44
239.325	146.44
239.559	128.44
239.793	128.44
240.027	125.44
240.26	155.44
240.494	158.44
240.728	162.44
240.961	147.44
241.195	141.44
241.429	142.44
241.662	137.44
241.896	146.44
242.13	129.44
242.363	148.44
242.597	144.44
242.83	141.44
243.064	147.44
243.298	145.44
243.531	135.44
243.765	143.44
243.998	142.44
244.232	135.44
244.465	150.44
244.699	150.44
244.932	137.44
245.166	146.44
245.399	151.44
245.633	158.44
245.866	160.44
246.099	141.44
246.333	152.44
246.566	148.44
246.8	153.44
247.033	157.44
247.266	161.44
247.5	161.44
247.733	155.44
247.966	171.44
248.2	174.44
248.433	181.44
248.666	171.44
248.899	189.44
249.133	198.44
249.366	188.44
249.599	188.44
249.832	186.44
250.066	188.44
250.299	184.44
250.532	210.44
250.765	224.44
250.998	234.44
251.231	232.44
251.465	209.44
251.698	206.44
251.931	202.44
252.164	203.44
252.397	204.44
252.63	210.44
252.863	203.44
253.096	198.44
253.329	224.44
253.562	229.44
253.795	221.44
254.028	215.44
254.261	212.44
254.494	218.44
254.727	250.44
254.96	266.44
255.193	252.44
255.426	247.44
255.659	228.44
255.892	236.44
256.124	234.44
256.357	236.44
256.59	232.44
256.823	221.44
257.056	222.44
257.289	226.44
257.521	212.44
257.754	210.44
257.987	188.44
258.22	202.44
258.452	204.44
258.685	226.44
258.918	207.44
259.151	204.44
259.383	228.44
259.616	227.44
259.849	237.44
260.081	234.44
260.314	265.44
260.547	258.44
260.779	256.44
261.012	249.44
261.244	254.44
261.477	241.44
261.71	232.44
261.942	233.44
262.175	232.44
262.407	229.44
262.64	218.44
262.872	212.44
263.105	221.44
263.337	232.44
263.57	233.44
263.802	232.44
264.035	223.44
264.267	222.44
264.499	210.44
264.732	234.44
264.964	223.44
265.197	232.44
265.429	213.44
265.661	222.44
265.894	224.44
266.126	227.44
266.358	226.44
266.591	240.44
266.823	237.44
267.055	240.44
267.287	246.44
267.52	229.44
267.752	237.44
267.984	246.44
268.216	247.44
268.448	248.44
268.681	246.44
268.913	258.44
269.145	279.44
269.377	294.44
269.609	287.44
269.841	258.44
270.073	286.44
270.306	283.44
270.538	318.44
270.77	318.44
271.002	306.44
271.234	297.44
271.466	306.44
271.698	320.44
271.93	326.44
272.162	317.44
272.394	328.44
272.626	292.44
272.858	293.44
273.09	296.44
273.322	276.44
273.553	275.44
273.785	275.44
274.017	268.44
274.249	261.44
274.481	281.44
274.713	267.44
274.945	288.44
275.176	276.44
275.408	280.44
275.64	286.44
275.872	273.44
276.104	282.44
276.335	288.44
276.567	312.44
276.799	315.44
277.031	339.44
277.262	331.44
277.494	336.44
277.726	310.44
277.957	318.44
278.189	302.44
278.421	289.44
278.652	306.44
278.884	281.44
279.115	292.44
279.347	288.44
279.579	311.44
279.81	282.44
280.042	309.44
280.273	296.44
280.505	284.44
280.736	300.44
280.968	295.44
281.199	301.44
281.431	289.44
281.662	308.44
281.894	306.44
282.125	287.44
282.356	317.44
282.588	331.44
282.819	338.44
283.051	316.44
283.282	282.44
283.513	321.44
283.745	296.44
283.976	306.44
284.207	333.44
284.439	315.44
284.67	314.44
284.901	319.44
285.132	324.44
285.364	312.44
285.595	315.44
285.826	312.44
286.057	320.44
286.288	306.44
286.52	304.44
286.751	309.44
286.982	309.44
287.213	317.44
287.444	283.44
287.675	328.44
287.906	341.44
288.138	343.44
288.369	335.44
288.6	333.44
288.831	312.44
289.062	338.44
289.293	345.44
289.524	333.44
289.755	333.44
289.986	330.44
290.217	320.44
290.448	294.44
290.679	328.44
290.91	344.44
291.141	322.44
291.371	333.44
291.602	314.44
291.833	326.44
292.064	322.44
292.295	325.44
292.526	331.44
292.757	328.44
292.987	336.44
293.218	325.44
293.449	313.44
293.68	330.44
293.91	346.44
294.141	309.44
294.372	345.44
294.603	350.44
294.833	334.44
295.064	322.44
295.295	348.44
295.525	331.44
295.756	343.44
295.987	341.44
296.217	361.44
296.448	374.44
296.679	350.44
296.909	338.44
297.14	325.44
297.37	334.44
297.601	341.44
297.831	341.44
298.062	330.44
298.292	338.44
298.523	358.44
298.753	361.44
298.984	342.44
299.214	359.44
299.445	363.44
299.675	348.44
299.905	348.44
300.136	373.44
300.366	374.44
300.597	345.44
300.827	370.44
301.057	361.44
301.288	384.44
301.518	365.44
301.748	378.44
301.979	381.44
302.209	383.44
302.439	381.44
302.669	382.44
302.9	381.44
303.13	374.44
303.36	391.44
303.59	369.44
303.82	401.44
304.051	382.44
304.281	380.44
304.511	393.44
304.741	380.44
304.971	378.44
305.201	355.44
305.431	366.44
305.661	378.44
305.891	372.44
306.121	380.44
306.352	369.44
306.582	402.44
306.812	394.44
307.042	394.44
307.272	381.44
307.502	384.44
307.731	380.44
307.961	371.44
308.191	357.44
308.421	374.44
308.651	385.44
308.881	374.44
309.111	400.44
309.341	386.44
309.571	393.44
309.8	391.44
310.03	413.44
310.26	426.44
310.49	409.44
310.72	409.44
310.949	448.44
311.179	441.44
311.409	432.44
311.639	417.44
311.868	426.44
312.098	429.44
312.328	427.44
312.557	441.44
312.787	446.44
313.017	444.44
313.246	425.44
313.476	432.44
313.706	399.44
313.935	422.44
314.165	423.44
314.394	456.44
314.624	457.44
314.853	434.44
315.083	436.44
315.312	399.44
315.542	422.44
315.771	415.44
316.001	424.44
316.23	434.44
316.46	395.44
316.689	432.44
316.919	438.44
317.148	424.44
317.377	433.44
317.607	429.44
317.836	440.44
318.065	421.44
318.295	425.44
318.524	406.44
318.753	406.44
318.983	432.44
319.212	412.44
319.441	429.44
319.67	439.44
319.9	448.44
320.129	436.44
320.358	442.44
320.587	461.44
320.816	437.44
321.046	465.44
321.275	448.44
321.504	447.44
321.733	454.44
321.962	469.44
322.191	453.44
322.42	458.44
322.649	478.44
322.878	474.44
323.108	506.44
323.337	527.44
323.566	548.44
323.795	567.44
324.024	590.44
324.253	708.44
324.482	978.44
324.71	1469.44
324.939	2080.44
325.168	1781.44
325.397	952.44
325.626	660.44
325.855	596.44
326.084	556.44
326.313	533.44
326.542	546.44
326.77	586.44
326.999	657.44
327.228	870.44
327.457	1320.44
327.686	1617.44
327.914	1057.44
328.143	732.44
328.372	655.44
328.6	644.44
328.829	612.44
329.058	593.44
329.287	612.44
329.515	584.44
329.744	548.44
329.972	535.44
330.201	588.44
330.43	597.44
330.658	626.44
330.887	645.44
331.115	633.44
331.344	562.44
331.572	555.44
331.801	546.44
332.03	520.44
332.258	546.44
332.486	524.44
332.715	517.44
332.943	528.44
333.172	540.44
333.4	563.44
333.629	559.44
333.857	569.44
334.085	583.44
334.314	574.44
334.542	604.44
334.771	593.44
334.999	572.44
335.227	540.44
335.455	520.44
335.684	501.44
335.912	527.44
336.14	524.44
336.369	492.44
336.597	522.44
336.825	508.44
337.053	505.44
337.281	498.44
337.51	499.44
337.738	520.44
337.966	490.44
338.194	508.44
338.422	506.44
338.65	505.44
338.878	481.44
339.106	489.44
339.334	517.44
339.562	486.44
339.79	465.44
340.018	477.44
340.246	463.44
340.474	469.44
340.702	482.44
340.93	478.44
341.158	485.44
341.386	478.44
341.614	482.44
341.842	477.44
342.07	491.44
342.298	484.44
342.526	459.44
342.754	453.44
342.981	470.44
343.209	467.44
343.437	482.44
343.665	500.44
343.893	515.44
344.12	536.44
344.348	534.44
344.576	499.44
344.804	498.44
345.031	512.44
345.259	504.44
345.487	484.44
345.714	469.44
345.942	464.44
346.17	477.44
346.397	465.44
346.625	453.44
346.853	446.44
347.08	463.44
347.308	461.44
347.535	471.44
347.763	466.44
347.99	477.44
348.218	477.44
348.445	491.44
348.673	496.44
348.9	484.44
349.128	442.44
349.355	443.44
349.583	466.44
349.81	459.44
350.037	483.44
350.265	447.44
350.492	435.44
350.72	408.44
350.947	468.44
351.174	453.44
351.402	479.44
351.629	456.44
351.856	474.44
352.083	440.44
352.311	462.44
352.538	484.44
352.765	478.44
352.992	454.44
353.22	458.44
353.447	426.44
353.674	445.44
353.901	438.44
354.128	432.44
354.355	425.44
354.583	434.44
354.81	435.44
355.037	420.44
355.264	415.44
355.491	408.44
355.718	432.44
355.945	435.44
356.172	427.44
356.399	440.44
356.626	424.44
356.853	410.44
357.08	432.44
357.307	452.44
357.534	435.44
357.761	441.44
357.988	437.44
358.215	433.44
358.441	421.44
358.668	436.44
358.895	442.44
359.122	441.44
359.349	465.44
359.576	441.44
359.802	469.44
360.029	496.44
360.256	512.44
360.483	488.44
360.709	473.44
360.936	455.44
361.163	463.44
361.39	453.44
361.616	450.44
361.843	452.44
362.07	469.44
362.296	475.44
362.523	464.44
362.749	436.44
362.976	444.44
363.203	426.44
363.429	445.44
363.656	435.44
363.882	443.44
364.109	435.44
364.335	435.44
364.562	439.44
364.788	425.44
365.015	431.44
365.241	419.44
365.468	466.44
365.694	453.44
365.92	430.44
366.147	427.44
366.373	420.44
366.599	411.44
366.826	423.44
367.052	419.44
367.278	429.44
367.505	415.44
367.731	428.44
367.957	413.44
368.184	449.44
368.41	445.44
368.636	436.44
368.862	432.44
369.089	437.44
369.315	428.44
369.541	448.44
369.767	465.44
369.993	432.44
370.219	432.44
370.445	441.44
370.672	436.44
370.898	442.44
371.124	441.44
371.35	445.44
371.576	451.44
371.802	432.44
372.028	430.44
372.254	435.44
372.48	430.44
372.706	454.44
372.932	437.44
373.158	450.44
373.384	460.44
373.61	442.44
373.835	447.44
374.061	420.44
374.287	451.44
374.513	447.44
374.739	449.44
374.965	445.44
375.191	434.44
375.416	438.44
375.642	442.44
375.868	465.44
376.094	440.44
376.319	454.44
376.545	441.44
376.771	428.44
376.997	440.44
377.222	433.44
377.448	418.44
377.674	429.44
377.899	429.44
378.125	421.44
378.35	448.44
378.576	414.44
378.802	425.44
379.027	429.44
379.253	440.44
379.478	433.44
379.704	454.44
379.929	437.44
380.155	437.44
380.38	426.44
380.606	432.44
380.831	422.44
381.057	426.44
381.282	436.44
381.507	446.44
381.733	442.44
381.958	417.44
382.184	423.44
382.409	444.44
382.634	465.44
382.86	398.44
383.085	426.44
383.31	461.44
383.535	440.44
383.761	444.44
383.986	436.44
384.211	451.44
384.436	465.44
384.662	458.44
384.887	474.44
385.112	469.44
385.337	477.44
385.562	484.44
385.787	481.44
386.013	502.44
386.238	487.44
386.463	500.44
386.688	477.44
386.913	457.44
387.138	465.44
387.363	476.44
387.588	466.44
387.813	474.44
388.038	467.44
388.263	482.44
388.488	500.44
388.713	484.44
388.938	486.44
389.163	480.44
389.387	465.44
389.612	503.44
389.837	465.44
390.062	492.44
390.287	484.44
390.512	474.44
390.736	475.44
390.961	473.44
391.186	479.44
391.411	488.44
391.636	501.44
391.86	478.44
392.085	505.44
392.31	508.44
392.534	492.44
392.759	501.44
392.984	490.44
393.208	477.44
393.433	474.44
393.658	491.44
393.882	501.44
394.107	506.44
394.331	508.44
394.556	504.44
394.78	478.44
395.005	516.44
395.229	502.44
395.454	512.44
395.678	504.44
395.903	518.44
396.127	538.44
396.352	522.44
396.576	524.44
396.801	499.44
397.025	520.44
397.249	520.44
397.474	539.44
397.698	515.44
397.922	560.44
398.147	544.44
398.371	562.44
398.595	549.44
398.82	555.44
399.044	568.44
399.268	626.44
399.492	657.44
399.717	702.44
399.941	696.44
400.165	706.44
400.389	714.44
400.613	626.44
400.837	601.44
401.062	578.44
401.286	576.44
401.51	549.44
401.734	564.44
401.958	580.44
402.182	581.44
402.406	590.44
402.63	587.44
402.854	564.44
403.078	582.44
403.302	592.44
403.526	594.44
403.75	605.44
403.974	600.44
404.198	582.44
404.422	633.44
404.645	615.44
404.869	586.44
405.093	651.44
405.317	661.44
405.541	676.44
405.765	649.44
405.988	594.44
406.212	640.44
406.436	640.44
406.66	650.44
406.883	642.44
407.107	666.44
407.331	706.44
407.555	778.44
407.778	755.44
408.002	686.44
408.226	652.44
408.449	640.44
408.673	634.44
408.896	648.44
409.12	696.44
409.344	658.44
409.567	609.44
409.791	597.44
410.014	584.44
410.238	572.44
410.461	576.44
410.685	593.44
410.908	601.44
411.132	641.44
411.355	661.44
411.578	617.44
411.802	574.44
412.025	579.44
412.249	608.44
412.472	611.44
412.695	651.44
412.919	626.44
413.142	574.44
413.365	560.44
413.589	590.44
413.812	554.44
414.035	554.44
414.258	560.44
414.482	555.44
414.705	545.44
414.928	530.44
415.151	538.44
415.374	533.44
415.597	544.44
415.821	530.44
416.044	544.44
416.267	546.44
416.49	548.44
416.713	528.44
416.936	530.44
417.159	540.44
417.382	544.44
417.605	522.44
417.828	538.44
418.051	586.44
418.274	579.44
418.497	540.44
418.72	545.44
418.943	546.44
419.166	571.44
419.389	578.44
419.611	613.44
419.834	586.44
420.057	570.44
420.28	566.44
420.503	565.44
420.726	560.44
420.948	585.44
421.171	625.44
421.394	612.44
421.617	583.44
421.839	571.44
422.062	555.44
422.285	594.44
422.507	640.44
422.73	693.44
422.953	667.44
423.175	599.44
423.398	610.44
423.621	561.44
423.843	588.44
424.066	620.44
424.288	592.44
424.511	618.44
424.733	666.44
424.956	746.44
425.178	699.44
425.401	686.44
425.623	698.44
425.846	614.44
426.068	582.44
426.291	571.44
426.513	557.44
426.735	594.44
426.958	625.44
427.18	702.44
427.402	837.44
427.625	907.44
427.847	784.44
428.069	695.44
428.292	616.44
428.514	549.44
428.736	545.44
428.958	548.44
429.181	525.44
429.403	532.44
429.625	544.44
429.847	594.44
430.069	633.44
430.292	642.44
430.514	569.44
430.736	573.44
430.958	509.44
431.18	532.44
431.402	508.44
431.624	503.44
431.846	517.44
432.068	489.44
432.29	511.44
432.512	495.44
432.734	535.44
432.956	486.44
433.178	521.44
433.4	537.44
433.622	506.44
433.844	529.44
434.066	524.44
434.287	520.44
434.509	537.44
434.731	546.44
434.953	547.44
435.175	558.44
435.397	565.44
435.618	562.44
435.84	620.44
436.062	698.44
436.284	769.44
436.505	637.44
436.727	548.44
436.949	548.44
437.17	550.44
437.392	526.44
437.614	541.44
437.835	590.44
438.057	631.44
438.278	733.44
438.5	770.44
438.721	831.44
438.943	806.44
439.165	631.44
439.386	608.44
439.608	580.44
439.829	568.44
440.05	582.44
440.272	652.44
440.493	616.44
440.715	582.44
440.936	563.44
441.158	561.44
441.379	555.44
441.6	580.44
441.822	568.44
442.043	633.44
442.264	713.44
442.486	747.44
442.707	621.44
442.928	627.44
443.149	606.44
443.371	626.44
443.592	664.44
443.813	743.44
444.034	796.44
444.255	668.44
444.476	615.44
444.698	627.44
444.919	632.44
445.14	730.44
445.361	675.44
445.582	617.44
445.803	678.44
446.024	772.44
446.245	776.44
446.466	705.44
446.687	613.44
446.908	567.44
447.129	542.44
447.35	538.44
447.571	533.44
447.792	532.44
448.013	519.44
448.234	529.44
448.455	599.44
448.675	697.44
448.896	803.44
449.117	694.44
449.338	646.44
449.559	743.44
449.779	829.44
450	679.44
450.221	568.44
450.442	535.44
450.662	516.44
450.883	521.44
451.104	533.44
451.324	494.44
451.545	505.44
451.766	504.44
451.986	508.44
452.207	475.44
452.428	470.44
452.648	480.44
452.869	493.44
453.089	489.44
453.31	468.44
453.53	460.44
453.751	451.44
453.971	485.44
454.192	490.44
454.412	492.44
454.633	490.44
454.853	469.44
455.073	448.44
455.294	499.44
455.514	558.44
455.734	554.44
455.955	481.44
456.175	452.44
456.395	468.44
456.616	463.44
456.836	451.44
457.056	452.44
457.276	449.44
457.497	460.44
457.717	470.44
457.937	456.44
458.157	471.44
458.377	457.44
458.598	496.44
458.818	549.44
459.038	618.44
459.258	645.44
459.478	559.44
459.698	552.44
459.918	539.44
460.138	526.44
460.358	543.44
460.578	562.44
460.798	545.44
461.018	558.44
461.238	546.44
461.458	530.44
461.678	550.44
461.898	552.44
462.118	541.44
462.338	578.44
462.558	563.44
462.777	588.44
462.997	590.44
463.217	608.44
463.437	615.44
463.657	602.44
463.876	593.44
464.096	584.44
464.316	612.44
464.536	605.44
464.755	605.44
464.975	599.44
465.195	621.44
465.414	684.44
465.634	608.44
465.854	548.44
466.073	522.44
466.293	513.44
466.512	510.44
466.732	512.44
466.951	503.44
467.171	484.44
467.391	513.44
467.61	518.44
467.829	500.44
468.049	477.44
468.268	474.44
468.488	456.44
468.707	484.44
468.927	472.44
469.146	460.44
469.365	497.44
469.585	486.44
469.804	505.44
470.023	508.44
470.243	515.44
470.462	509.44
470.681	535.44
470.901	509.44
471.12	522.44
471.339	516.44
471.558	510.44
471.777	500.44
471.997	497.44
472.216	504.44
472.435	501.44
472.654	496.44
472.873	485.44
473.092	486.44
473.311	481.44
473.53	507.44
473.749	513.44
473.968	544.44
474.187	648.44
474.406	650.44
474.625	536.44
474.844	511.44
475.063	498.44
475.282	508.44
475.501	488.44
475.72	514.44
475.939	464.44
476.158	507.44
476.377	510.44
476.596	525.44
476.814	516.44
477.033	523.44
477.252	532.44
477.471	528.44
477.69	540.44
477.908	538.44
478.127	561.44
478.346	540.44
478.564	552.44
478.783	576.44
479.002	586.44
479.22	575.44
479.439	628.44
479.658	585.44
479.876	600.44
480.095	601.44
480.313	644.44
480.532	620.44
480.751	648.44
480.969	615.44
481.188	662.44
481.406	652.44
481.624	609.44
481.843	602.44
482.061	601.44
482.28	581.44
482.498	563.44
482.717	570.44
482.935	571.44
483.153	582.44
483.372	585.44
483.59	605.44
483.808	584.44
484.027	579.44
484.245	567.44
484.463	594.44
484.681	579.44
484.9	583.44
485.118	595.44
485.336	615.44
485.554	604.44
485.772	606.44
485.99	587.44
486.209	600.44
486.427	606.44
486.645	611.44
486.863	625.44
487.081	621.44
487.299	621.44
487.517	621.44
487.735	623.44
487.953	604.44
488.171	601.44
488.389	624.44
488.607	627.44
488.825	626.44
489.043	627.44
489.261	613.44
489.479	624.44
489.696	626.44
489.914	621.44
490.132	628.44
490.35	644.44
490.568	656.44
490.786	661.44
491.003	676.44
491.221	657.44
491.439	693.44
491.657	685.44
491.874	705.44
492.092	700.44
492.31	688.44
492.527	706.44
492.745	708.44
492.963	716.44
493.18	707.44
493.398	709.44
493.615	739.44
493.833	726.44
494.05	733.44
494.268	738.44
494.485	718.44
494.703	710.44
494.92	720.44
495.138	715.44
495.355	739.44
495.573	714.44
495.79	755.44
496.008	761.44
496.225	753.44
496.442	763.44
496.66	722.44
496.877	758.44
497.094	774.44
497.312	755.44
497.529	783.44
497.746	787.44
497.963	779.44
498.181	821.44
498.398	821.44
498.615	852.44
498.832	888.44
499.049	908.44
499.267	925.44
499.484	962.44
499.701	1039.44
499.918	1078.44
500.135	1171.44
500.352	1212.44
500.569	1257.44
500.786	1246.44
501.003	1213.44
501.22	1140.44
501.437	1098.44
501.654	1050.44
501.871	1037.44
