Data from 1985.PennyLincolnUp.Lamp.En5.5.200Scan.071819.P1_HRD10591_17-04-13-971.txt Node
Date: Thu Jul 18 17:04:13 EDT 2019
User: cochatt
Spectrometer: HR+D1059
Trigger mode: 1
Integration Time (sec): 1.000000E-1
Scans to average: 1
Electric dark correction enabled: true
Nonlinearity correction enabled: false
Boxcar width: 0
XAxis mode: Wavelengths
Number of Pixels in Spectrum: 2048
>>>>>Begin Spectral Data<<<<<
223.165	-6.5
223.4	-6.5
223.635	-6.5
223.869	-21.5
224.104	-9.5
224.338	-14.5
224.573	-9.5
224.808	-14.5
225.042	-0.5
225.277	-17.5
225.511	6.5
225.746	-3.5
225.98	-6.5
226.215	11.5
226.449	26.5
226.683	26.5
226.918	29.5
227.152	3.5
227.387	38.5
227.621	26.5
227.856	25.5
228.09	42.5
228.324	58.5
228.559	65.5
228.793	76.5
229.027	88.5
229.262	102.5
229.496	113.5
229.73	130.5
229.964	154.5
230.199	142.5
230.433	115.5
230.667	111.5
230.901	107.5
231.136	120.5
231.37	112.5
231.604	102.5
231.838	127.5
232.072	116.5
232.306	113.5
232.541	118.5
232.775	123.5
233.009	114.5
233.243	111.5
233.477	106.5
233.711	108.5
233.945	114.5
234.179	115.5
234.413	113.5
234.647	142.5
234.881	124.5
235.115	121.5
235.349	115.5
235.583	120.5
235.817	115.5
236.051	130.5
236.285	130.5
236.519	127.5
236.753	123.5
236.987	131.5
237.221	147.5
237.455	201.5
237.689	150.5
237.922	139.5
238.156	121.5
238.39	116.5
238.624	134.5
238.858	126.5
239.091	133.5
239.325	128.5
239.559	143.5
239.793	136.5
240.027	138.5
240.26	139.5
240.494	144.5
240.728	133.5
240.961	148.5
241.195	148.5
241.429	132.5
241.662	122.5
241.896	116.5
242.13	126.5
242.363	132.5
242.597	140.5
242.83	120.5
243.064	114.5
243.298	110.5
243.531	139.5
243.765	139.5
243.998	128.5
244.232	136.5
244.465	155.5
244.699	149.5
244.932	150.5
245.166	138.5
245.399	148.5
245.633	160.5
245.866	164.5
246.099	147.5
246.333	147.5
246.566	154.5
246.8	139.5
247.033	162.5
247.266	142.5
247.5	142.5
247.733	162.5
247.966	165.5
248.2	172.5
248.433	164.5
248.666	182.5
248.899	179.5
249.133	193.5
249.366	199.5
249.599	192.5
249.832	188.5
250.066	178.5
250.299	171.5
250.532	192.5
250.765	208.5
250.998	215.5
251.231	223.5
251.465	195.5
251.698	196.5
251.931	198.5
252.164	177.5
252.397	189.5
252.63	182.5
252.863	186.5
253.096	210.5
253.329	199.5
253.562	216.5
253.795	198.5
254.028	207.5
254.261	203.5
254.494	215.5
254.727	241.5
254.96	257.5
255.193	234.5
255.426	232.5
255.659	217.5
255.892	227.5
256.124	263.5
256.357	250.5
256.59	232.5
256.823	218.5
257.056	211.5
257.289	200.5
257.521	204.5
257.754	222.5
257.987	202.5
258.22	206.5
258.452	220.5
258.685	197.5
258.918	206.5
259.151	202.5
259.383	221.5
259.616	228.5
259.849	208.5
260.081	224.5
260.314	235.5
260.547	255.5
260.779	236.5
261.012	224.5
261.244	228.5
261.477	211.5
261.71	208.5
261.942	217.5
262.175	232.5
262.407	215.5
262.64	215.5
262.872	199.5
263.105	207.5
263.337	217.5
263.57	227.5
263.802	210.5
264.035	216.5
264.267	225.5
264.499	222.5
264.732	222.5
264.964	228.5
265.197	228.5
265.429	230.5
265.661	222.5
265.894	207.5
266.126	220.5
266.358	223.5
266.591	228.5
266.823	215.5
267.055	225.5
267.287	234.5
267.52	210.5
267.752	236.5
267.984	215.5
268.216	252.5
268.448	238.5
268.681	232.5
268.913	244.5
269.145	246.5
269.377	277.5
269.609	268.5
269.841	256.5
270.073	286.5
270.306	293.5
270.538	290.5
270.77	314.5
271.002	304.5
271.234	294.5
271.466	288.5
271.698	305.5
271.93	306.5
272.162	304.5
272.394	293.5
272.626	289.5
272.858	262.5
273.09	266.5
273.322	257.5
273.553	262.5
273.785	259.5
274.017	263.5
274.249	282.5
274.481	260.5
274.713	278.5
274.945	267.5
275.176	275.5
275.408	273.5
275.64	266.5
275.872	278.5
276.104	255.5
276.335	273.5
276.567	264.5
276.799	293.5
277.031	304.5
277.262	331.5
277.494	322.5
277.726	314.5
277.957	300.5
278.189	278.5
278.421	280.5
278.652	294.5
278.884	283.5
279.115	276.5
279.347	280.5
279.579	281.5
279.81	269.5
280.042	287.5
280.273	282.5
280.505	275.5
280.736	271.5
280.968	282.5
281.199	282.5
281.431	273.5
281.662	271.5
281.894	286.5
282.125	274.5
282.356	281.5
282.588	312.5
282.819	311.5
283.051	304.5
283.282	273.5
283.513	273.5
283.745	292.5
283.976	290.5
284.207	302.5
284.439	303.5
284.67	302.5
284.901	288.5
285.132	295.5
285.364	293.5
285.595	294.5
285.826	306.5
286.057	290.5
286.288	299.5
286.52	294.5
286.751	300.5
286.982	291.5
287.213	300.5
287.444	290.5
287.675	301.5
287.906	306.5
288.138	303.5
288.369	316.5
288.6	319.5
288.831	306.5
289.062	316.5
289.293	295.5
289.524	310.5
289.755	321.5
289.986	296.5
290.217	307.5
290.448	307.5
290.679	315.5
290.91	303.5
291.141	302.5
291.371	293.5
291.602	314.5
291.833	284.5
292.064	310.5
292.295	314.5
292.526	303.5
292.757	305.5
292.987	309.5
293.218	324.5
293.449	309.5
293.68	312.5
293.91	305.5
294.141	294.5
294.372	305.5
294.603	318.5
294.833	302.5
295.064	308.5
295.295	308.5
295.525	316.5
295.756	315.5
295.987	299.5
296.217	341.5
296.448	328.5
296.679	332.5
296.909	319.5
297.14	313.5
297.37	287.5
297.601	310.5
297.831	316.5
298.062	323.5
298.292	324.5
298.523	313.5
298.753	337.5
298.984	332.5
299.214	319.5
299.445	331.5
299.675	321.5
299.905	303.5
300.136	334.5
300.366	334.5
300.597	332.5
300.827	338.5
301.057	347.5
301.288	342.5
301.518	347.5
301.748	346.5
301.979	335.5
302.209	355.5
302.439	351.5
302.669	362.5
302.9	336.5
303.13	344.5
303.36	353.5
303.59	347.5
303.82	356.5
304.051	359.5
304.281	332.5
304.511	338.5
304.741	332.5
304.971	330.5
305.201	337.5
305.431	344.5
305.661	373.5
305.891	356.5
306.121	352.5
306.352	375.5
306.582	368.5
306.812	336.5
307.042	346.5
307.272	342.5
307.502	363.5
307.731	362.5
307.961	354.5
308.191	352.5
308.421	337.5
308.651	343.5
308.881	364.5
309.111	338.5
309.341	339.5
309.571	367.5
309.8	371.5
310.03	382.5
310.26	379.5
310.49	384.5
310.72	407.5
310.949	394.5
311.179	386.5
311.409	377.5
311.639	382.5
311.868	399.5
312.098	379.5
312.328	381.5
312.557	395.5
312.787	405.5
313.017	441.5
313.246	394.5
313.476	398.5
313.706	401.5
313.935	408.5
314.165	408.5
314.394	409.5
314.624	402.5
314.853	399.5
315.083	406.5
315.312	423.5
315.542	396.5
315.771	411.5
316.001	393.5
316.23	380.5
316.46	378.5
316.689	394.5
316.919	409.5
317.148	410.5
317.377	395.5
317.607	406.5
317.836	410.5
318.065	399.5
318.295	410.5
318.524	385.5
318.753	401.5
318.983	390.5
319.212	370.5
319.441	408.5
319.67	386.5
319.9	401.5
320.129	403.5
320.358	383.5
320.587	398.5
320.816	403.5
321.046	398.5
321.275	416.5
321.504	409.5
321.733	419.5
321.962	427.5
322.191	438.5
322.42	444.5
322.649	429.5
322.878	441.5
323.108	470.5
323.337	483.5
323.566	493.5
323.795	524.5
324.024	558.5
324.253	642.5
324.482	883.5
324.71	1344.5
324.939	1858.5
325.168	1606.5
325.397	862.5
325.626	649.5
325.855	526.5
326.084	501.5
326.313	477.5
326.542	516.5
326.77	551.5
326.999	616.5
327.228	819.5
327.457	1191.5
327.686	1393.5
327.914	975.5
328.143	676.5
328.372	610.5
328.6	577.5
328.829	559.5
329.058	574.5
329.287	579.5
329.515	544.5
329.744	530.5
329.972	524.5
330.201	544.5
330.43	594.5
330.658	620.5
330.887	614.5
331.115	601.5
331.344	536.5
331.572	506.5
331.801	526.5
332.03	484.5
332.258	494.5
332.486	462.5
332.715	482.5
332.943	494.5
333.172	489.5
333.4	486.5
333.629	505.5
333.857	529.5
334.085	552.5
334.314	574.5
334.542	592.5
334.771	632.5
334.999	542.5
335.227	529.5
335.455	492.5
335.684	492.5
335.912	462.5
336.14	485.5
336.369	470.5
336.597	460.5
336.825	480.5
337.053	468.5
337.281	448.5
337.51	452.5
337.738	472.5
337.966	470.5
338.194	466.5
338.422	490.5
338.65	448.5
338.878	446.5
339.106	443.5
339.334	430.5
339.562	450.5
339.79	450.5
340.018	445.5
340.246	453.5
340.474	465.5
340.702	451.5
340.93	433.5
341.158	433.5
341.386	432.5
341.614	429.5
341.842	431.5
342.07	459.5
342.298	418.5
342.526	432.5
342.754	414.5
342.981	418.5
343.209	441.5
343.437	444.5
343.665	446.5
343.893	450.5
344.12	444.5
344.348	473.5
344.576	473.5
344.804	461.5
345.031	458.5
345.259	487.5
345.487	466.5
345.714	455.5
345.942	408.5
346.17	448.5
346.397	419.5
346.625	402.5
346.853	426.5
347.08	418.5
347.308	426.5
347.535	425.5
347.763	438.5
347.99	429.5
348.218	444.5
348.445	426.5
348.673	434.5
348.9	419.5
349.128	432.5
349.355	398.5
349.583	389.5
349.81	405.5
350.037	398.5
350.265	423.5
350.492	422.5
350.72	410.5
350.947	426.5
351.174	413.5
351.402	426.5
351.629	427.5
351.856	411.5
352.083	421.5
352.311	422.5
352.538	446.5
352.765	434.5
352.992	403.5
353.22	424.5
353.447	437.5
353.674	400.5
353.901	396.5
354.128	401.5
354.355	398.5
354.583	398.5
354.81	426.5
355.037	409.5
355.264	397.5
355.491	395.5
355.718	398.5
355.945	394.5
356.172	396.5
356.399	393.5
356.626	402.5
356.853	413.5
357.08	412.5
357.307	395.5
357.534	390.5
357.761	392.5
357.988	404.5
358.215	391.5
358.441	405.5
358.668	399.5
358.895	423.5
359.122	394.5
359.349	409.5
359.576	427.5
359.802	441.5
360.029	455.5
360.256	463.5
360.483	448.5
360.709	431.5
360.936	399.5
361.163	433.5
361.39	402.5
361.616	434.5
361.843	431.5
362.07	412.5
362.296	418.5
362.523	438.5
362.749	426.5
362.976	390.5
363.203	399.5
363.429	386.5
363.656	410.5
363.882	410.5
364.109	416.5
364.335	401.5
364.562	412.5
364.788	394.5
365.015	398.5
365.241	412.5
365.468	403.5
365.694	410.5
365.92	404.5
366.147	394.5
366.373	403.5
366.599	387.5
366.826	403.5
367.052	388.5
367.278	409.5
367.505	407.5
367.731	392.5
367.957	408.5
368.184	388.5
368.41	400.5
368.636	410.5
368.862	424.5
369.089	380.5
369.315	418.5
369.541	421.5
369.767	410.5
369.993	391.5
370.219	403.5
370.445	389.5
370.672	399.5
370.898	404.5
371.124	410.5
371.35	416.5
371.576	429.5
371.802	390.5
372.028	390.5
372.254	401.5
372.48	433.5
372.706	394.5
372.932	392.5
373.158	386.5
373.384	388.5
373.61	411.5
373.835	413.5
374.061	385.5
374.287	416.5
374.513	436.5
374.739	411.5
374.965	410.5
375.191	414.5
375.416	436.5
375.642	403.5
375.868	419.5
376.094	403.5
376.319	400.5
376.545	417.5
376.771	414.5
376.997	406.5
377.222	388.5
377.448	404.5
377.674	398.5
377.899	387.5
378.125	394.5
378.35	397.5
378.576	380.5
378.802	399.5
379.027	387.5
379.253	400.5
379.478	407.5
379.704	397.5
379.929	397.5
380.155	399.5
380.38	397.5
380.606	422.5
380.831	406.5
381.057	398.5
381.282	412.5
381.507	397.5
381.733	415.5
381.958	404.5
382.184	426.5
382.409	394.5
382.634	392.5
382.86	398.5
383.085	396.5
383.31	414.5
383.535	414.5
383.761	413.5
383.986	425.5
384.211	394.5
384.436	405.5
384.662	436.5
384.887	443.5
385.112	444.5
385.337	433.5
385.562	444.5
385.787	464.5
386.013	444.5
386.238	458.5
386.463	449.5
386.688	445.5
386.913	460.5
387.138	438.5
387.363	434.5
387.588	444.5
387.813	430.5
388.038	416.5
388.263	452.5
388.488	420.5
388.713	454.5
388.938	442.5
389.163	461.5
389.387	442.5
389.612	449.5
389.837	446.5
390.062	427.5
390.287	438.5
390.512	429.5
390.736	422.5
390.961	430.5
391.186	452.5
391.411	444.5
391.636	463.5
391.86	478.5
392.085	452.5
392.31	462.5
392.534	460.5
392.759	458.5
392.984	471.5
393.208	467.5
393.433	431.5
393.658	452.5
393.882	440.5
394.107	434.5
394.331	448.5
394.556	440.5
394.78	450.5
395.005	458.5
395.229	462.5
395.454	448.5
395.678	474.5
395.903	486.5
396.127	478.5
396.352	492.5
396.576	468.5
396.801	474.5
397.025	454.5
397.249	465.5
397.474	456.5
397.698	487.5
397.922	496.5
398.147	499.5
398.371	486.5
398.595	514.5
398.82	508.5
399.044	513.5
399.268	563.5
399.492	588.5
399.717	623.5
399.941	636.5
400.165	662.5
400.389	647.5
400.613	604.5
400.837	540.5
401.062	515.5
401.286	532.5
401.51	516.5
401.734	523.5
401.958	531.5
402.182	516.5
402.406	544.5
402.63	556.5
402.854	536.5
403.078	533.5
403.302	543.5
403.526	537.5
403.75	539.5
403.974	546.5
404.198	545.5
404.422	561.5
404.645	552.5
404.869	558.5
405.093	588.5
405.317	626.5
405.541	660.5
405.765	592.5
405.988	554.5
406.212	546.5
406.436	574.5
406.66	582.5
406.883	572.5
407.107	613.5
407.331	656.5
407.555	683.5
407.778	661.5
408.002	634.5
408.226	602.5
408.449	594.5
408.673	578.5
408.896	576.5
409.12	609.5
409.344	598.5
409.567	552.5
409.791	554.5
410.014	516.5
410.238	528.5
410.461	542.5
410.685	528.5
410.908	540.5
411.132	563.5
411.355	606.5
411.578	577.5
411.802	529.5
412.025	550.5
412.249	548.5
412.472	563.5
412.695	585.5
412.919	579.5
413.142	538.5
413.365	502.5
413.589	532.5
413.812	511.5
414.035	512.5
414.258	494.5
414.482	494.5
414.705	488.5
414.928	487.5
415.151	517.5
415.374	501.5
415.597	487.5
415.821	515.5
416.044	472.5
416.267	528.5
416.49	508.5
416.713	493.5
416.936	495.5
417.159	472.5
417.382	509.5
417.605	506.5
417.828	508.5
418.051	550.5
418.274	534.5
418.497	499.5
418.72	487.5
418.943	486.5
419.166	506.5
419.389	540.5
419.611	532.5
419.834	537.5
420.057	536.5
420.28	525.5
420.503	531.5
420.726	534.5
420.948	526.5
421.171	563.5
421.394	574.5
421.617	522.5
421.839	528.5
422.062	525.5
422.285	550.5
422.507	561.5
422.73	628.5
422.953	607.5
423.175	551.5
423.398	503.5
423.621	526.5
423.843	560.5
424.066	578.5
424.288	566.5
424.511	546.5
424.733	585.5
424.956	676.5
425.178	636.5
425.401	625.5
425.623	648.5
425.846	588.5
426.068	531.5
426.291	558.5
426.513	532.5
426.735	542.5
426.958	572.5
427.18	633.5
427.402	766.5
427.625	836.5
427.847	711.5
428.069	627.5
428.292	566.5
428.514	523.5
428.736	510.5
428.958	494.5
429.181	493.5
429.403	503.5
429.625	491.5
429.847	532.5
430.069	568.5
430.292	563.5
430.514	506.5
430.736	482.5
430.958	477.5
431.18	463.5
431.402	459.5
431.624	438.5
431.846	468.5
432.068	457.5
432.29	484.5
432.512	435.5
432.734	472.5
432.956	487.5
433.178	487.5
433.4	485.5
433.622	470.5
433.844	475.5
434.066	465.5
434.287	474.5
434.509	474.5
434.731	478.5
434.953	503.5
435.175	512.5
435.397	537.5
435.618	539.5
435.84	559.5
436.062	640.5
436.284	709.5
436.505	580.5
436.727	528.5
436.949	511.5
437.17	495.5
437.392	484.5
437.614	512.5
437.835	498.5
438.057	596.5
438.278	671.5
438.5	678.5
438.721	745.5
438.943	712.5
439.165	580.5
439.386	520.5
439.608	522.5
439.829	542.5
440.05	542.5
440.272	574.5
440.493	542.5
440.715	526.5
440.936	526.5
441.158	495.5
441.379	502.5
441.6	534.5
441.822	539.5
442.043	560.5
442.264	628.5
442.486	648.5
442.707	570.5
442.928	558.5
443.149	533.5
443.371	566.5
443.592	617.5
443.813	676.5
444.034	729.5
444.255	613.5
444.476	581.5
444.698	554.5
444.919	554.5
445.14	666.5
445.361	619.5
445.582	596.5
445.803	624.5
446.024	700.5
446.245	698.5
446.466	637.5
446.687	570.5
446.908	540.5
447.129	489.5
447.35	482.5
447.571	470.5
447.792	473.5
448.013	486.5
448.234	496.5
448.455	563.5
448.675	640.5
448.896	710.5
449.117	614.5
449.338	570.5
449.559	680.5
449.779	734.5
450	613.5
450.221	536.5
450.442	492.5
450.662	473.5
450.883	443.5
451.104	470.5
451.324	481.5
451.545	456.5
451.766	467.5
451.986	433.5
452.207	415.5
452.428	440.5
452.648	431.5
452.869	465.5
453.089	452.5
453.31	450.5
453.53	444.5
453.751	459.5
453.971	424.5
454.192	455.5
454.412	450.5
454.633	427.5
454.853	423.5
455.073	443.5
455.294	464.5
455.514	507.5
455.734	515.5
455.955	420.5
456.175	415.5
456.395	406.5
456.616	418.5
456.836	399.5
457.056	414.5
457.276	390.5
457.497	427.5
457.717	419.5
457.937	423.5
458.157	418.5
458.377	427.5
458.598	434.5
458.818	504.5
459.038	558.5
459.258	576.5
459.478	522.5
459.698	489.5
459.918	460.5
460.138	479.5
460.358	485.5
460.578	477.5
460.798	502.5
461.018	498.5
461.238	531.5
461.458	493.5
461.678	499.5
461.898	490.5
462.118	499.5
462.338	522.5
462.558	540.5
462.777	538.5
462.997	545.5
463.217	568.5
463.437	556.5
463.657	544.5
463.876	545.5
464.096	541.5
464.316	538.5
464.536	557.5
464.755	530.5
464.975	525.5
465.195	567.5
465.414	600.5
465.634	556.5
465.854	526.5
466.073	503.5
466.293	450.5
466.512	467.5
466.732	455.5
466.951	478.5
467.171	446.5
467.391	472.5
467.61	461.5
467.829	456.5
468.049	468.5
468.268	455.5
468.488	446.5
468.707	447.5
468.927	446.5
469.146	454.5
469.365	435.5
469.585	452.5
469.804	475.5
470.023	458.5
470.243	478.5
470.462	458.5
470.681	481.5
470.901	493.5
471.12	458.5
471.339	471.5
471.558	464.5
471.777	478.5
471.997	446.5
472.216	455.5
472.435	510.5
472.654	495.5
472.873	481.5
473.092	459.5
473.311	468.5
473.53	488.5
473.749	491.5
473.968	504.5
474.187	576.5
474.406	583.5
474.625	502.5
474.844	492.5
475.063	470.5
475.282	431.5
475.501	464.5
475.72	451.5
475.939	461.5
476.158	459.5
476.377	471.5
476.596	463.5
476.814	486.5
477.033	482.5
477.252	484.5
477.471	493.5
477.69	502.5
477.908	492.5
478.127	507.5
478.346	508.5
478.564	505.5
478.783	502.5
479.002	518.5
479.22	528.5
479.439	558.5
479.658	564.5
479.876	544.5
480.095	572.5
480.313	587.5
480.532	582.5
480.751	589.5
480.969	591.5
481.188	628.5
481.406	693.5
481.624	603.5
481.843	557.5
482.061	552.5
482.28	550.5
482.498	548.5
482.717	537.5
482.935	541.5
483.153	524.5
483.372	509.5
483.59	502.5
483.808	529.5
484.027	527.5
484.245	533.5
484.463	530.5
484.681	526.5
484.9	552.5
485.118	525.5
485.336	548.5
485.554	533.5
485.772	529.5
485.99	542.5
486.209	546.5
486.427	546.5
486.645	568.5
486.863	574.5
487.081	595.5
487.299	587.5
487.517	563.5
487.735	551.5
487.953	567.5
488.171	559.5
488.389	546.5
488.607	560.5
488.825	556.5
489.043	565.5
489.261	575.5
489.479	585.5
489.696	591.5
489.914	614.5
490.132	589.5
490.35	602.5
490.568	597.5
490.786	626.5
491.003	610.5
491.221	591.5
491.439	638.5
491.657	627.5
491.874	630.5
492.092	648.5
492.31	642.5
492.527	664.5
492.745	665.5
492.963	661.5
493.18	654.5
493.398	670.5
493.615	691.5
493.833	685.5
494.05	677.5
494.268	674.5
494.485	662.5
494.703	671.5
494.92	674.5
495.138	683.5
495.355	670.5
495.573	662.5
495.79	665.5
496.008	662.5
496.225	660.5
496.442	650.5
496.66	679.5
496.877	647.5
497.094	672.5
497.312	675.5
497.529	682.5
497.746	690.5
497.963	726.5
498.181	729.5
498.398	740.5
498.615	767.5
498.832	770.5
499.049	781.5
499.267	834.5
499.484	852.5
499.701	912.5
499.918	950.5
500.135	1015.5
500.352	1108.5
500.569	1115.5
500.786	1104.5
501.003	1072.5
501.22	1034.5
501.437	974.5
501.654	950.5
501.871	906.5
502.088	859.5
502.305	846.5
502.522	792.5
502.739	764.5
502.956	738.5
503.172	733.5
503.389	715.5
503.606	708.5
503.823	690.5
504.04	678.5
504.256	706.5
504.473	677.5
504.69	688.5
504.907	703.5
505.123	683.5
505.34	654.5
505.557	659.5
505.773	628.5
505.99	626.5
506.207	633.5
506.423	636.5
506.64	621.5
506.856	628.5
507.073	600.5
507.289	614.5
507.506	632.5
507.722	620.5
507.939	626.5
508.155	620.5
508.372	595.5
508.588	590.5
508.805	581.5
509.021	591.5
509.238	579.5
509.454	611.5
509.67	605.5
509.887	587.5
510.103	568.5
510.319	576.5
510.536	661.5
510.752	1064.5
510.968	875.5
511.184	606.5
511.401	605.5
511.617	597.5
511.833	562.5
512.049	596.5
512.265	558.5
512.481	584.5
512.698	566.5
512.914	561.5
513.13	544.5
513.346	538.5
513.562	551.5
513.778	561.5
513.994	564.5
514.21	583.5
514.426	612.5
514.642	612.5
514.858	608.5
515.074	660.5
515.29	782.5
515.506	1156.5
515.721	978.5
515.937	664.5
516.153	636.5
516.369	607.5
516.585	576.5
516.801	589.5
517.016	594.5
517.232	583.5
517.448	619.5
517.664	610.5
517.879	623.5
518.095	618.5
518.311	602.5
518.527	613.5
518.742	576.5
518.958	586.5
519.173	584.5
519.389	571.5
519.605	567.5
519.82	583.5
