Data from 1985.PennyLincolnUp.Lamp.En5.5.200Scan.071819.P1_HRD10591_17-02-18-970.txt Node
Date: Thu Jul 18 17:02:18 EDT 2019
User: cochatt
Spectrometer: HR+D1059
Trigger mode: 1
Integration Time (sec): 1.000000E-1
Scans to average: 1
Electric dark correction enabled: true
Nonlinearity correction enabled: false
Boxcar width: 0
XAxis mode: Wavelengths
Number of Pixels in Spectrum: 2048
>>>>>Begin Spectral Data<<<<<
223.165	-14.12
223.4	-14.12
223.635	-14.12
223.869	-8.12
224.104	-19.12
224.338	-21.12
224.573	-17.12
224.808	-11.12
225.042	-1.12
225.277	1.88
225.511	1.88
225.746	1.88
225.98	0.88
226.215	2.88
226.449	14.88
226.683	23.88
226.918	11.88
227.152	31.88
227.387	41.88
227.621	46.88
227.856	39.88
228.09	45.88
228.324	57.88
228.559	69.88
228.793	65.88
229.027	87.88
229.262	95.88
229.496	109.88
229.73	134.88
229.964	155.88
230.199	124.88
230.433	106.88
230.667	117.88
230.901	113.88
231.136	109.88
231.37	97.88
231.604	120.88
231.838	101.88
232.072	121.88
232.306	120.88
232.541	121.88
232.775	100.88
233.009	118.88
233.243	120.88
233.477	99.88
233.711	126.88
233.945	126.88
234.179	124.88
234.413	131.88
234.647	114.88
234.881	113.88
235.115	119.88
235.349	130.88
235.583	122.88
235.817	128.88
236.051	120.88
236.285	133.88
236.519	120.88
236.753	130.88
236.987	146.88
237.221	168.88
237.455	223.88
237.689	172.88
237.922	140.88
238.156	137.88
238.39	126.88
238.624	121.88
238.858	121.88
239.091	126.88
239.325	123.88
239.559	130.88
239.793	139.88
240.027	148.88
240.26	147.88
240.494	150.88
240.728	146.88
240.961	162.88
241.195	144.88
241.429	146.88
241.662	135.88
241.896	147.88
242.13	137.88
242.363	143.88
242.597	137.88
242.83	140.88
243.064	140.88
243.298	144.88
243.531	133.88
243.765	143.88
243.998	141.88
244.232	139.88
244.465	161.88
244.699	143.88
244.932	150.88
245.166	140.88
245.399	146.88
245.633	163.88
245.866	135.88
246.099	133.88
246.333	151.88
246.566	166.88
246.8	153.88
247.033	165.88
247.266	166.88
247.5	162.88
247.733	170.88
247.966	173.88
248.2	164.88
248.433	180.88
248.666	168.88
248.899	196.88
249.133	203.88
249.366	197.88
249.599	183.88
249.832	167.88
250.066	181.88
250.299	181.88
250.532	178.88
250.765	185.88
250.998	210.88
251.231	219.88
251.465	208.88
251.698	200.88
251.931	197.88
252.164	189.88
252.397	197.88
252.63	200.88
252.863	218.88
253.096	211.88
253.329	213.88
253.562	219.88
253.795	201.88
254.028	196.88
254.261	209.88
254.494	228.88
254.727	259.88
254.96	280.88
255.193	257.88
255.426	241.88
255.659	214.88
255.892	217.88
256.124	195.88
256.357	213.88
256.59	212.88
256.823	205.88
257.056	211.88
257.289	199.88
257.521	214.88
257.754	207.88
257.987	206.88
258.22	214.88
258.452	207.88
258.685	206.88
258.918	225.88
259.151	217.88
259.383	225.88
259.616	219.88
259.849	228.88
260.081	231.88
260.314	242.88
260.547	261.88
260.779	257.88
261.012	215.88
261.244	228.88
261.477	226.88
261.71	213.88
261.942	230.88
262.175	233.88
262.407	234.88
262.64	210.88
262.872	225.88
263.105	219.88
263.337	222.88
263.57	207.88
263.802	213.88
264.035	224.88
264.267	222.88
264.499	225.88
264.732	223.88
264.964	227.88
265.197	214.88
265.429	222.88
265.661	225.88
265.894	221.88
266.126	241.88
266.358	243.88
266.591	237.88
266.823	232.88
267.055	223.88
267.287	226.88
267.52	224.88
267.752	244.88
267.984	230.88
268.216	250.88
268.448	245.88
268.681	258.88
268.913	275.88
269.145	281.88
269.377	277.88
269.609	298.88
269.841	275.88
270.073	278.88
270.306	294.88
270.538	318.88
270.77	316.88
271.002	327.88
271.234	306.88
271.466	293.88
271.698	318.88
271.93	338.88
272.162	331.88
272.394	334.88
272.626	311.88
272.858	301.88
273.09	291.88
273.322	285.88
273.553	291.88
273.785	261.88
274.017	266.88
274.249	271.88
274.481	266.88
274.713	280.88
274.945	298.88
275.176	259.88
275.408	277.88
275.64	263.88
275.872	269.88
276.104	258.88
276.335	269.88
276.567	277.88
276.799	321.88
277.031	325.88
277.262	342.88
277.494	321.88
277.726	331.88
277.957	306.88
278.189	299.88
278.421	282.88
278.652	275.88
278.884	292.88
279.115	294.88
279.347	277.88
279.579	296.88
279.81	283.88
280.042	287.88
280.273	280.88
280.505	282.88
280.736	296.88
280.968	269.88
281.199	287.88
281.431	274.88
281.662	286.88
281.894	294.88
282.125	290.88
282.356	321.88
282.588	334.88
282.819	324.88
283.051	303.88
283.282	291.88
283.513	299.88
283.745	295.88
283.976	304.88
284.207	311.88
284.439	312.88
284.67	321.88
284.901	320.88
285.132	297.88
285.364	302.88
285.595	310.88
285.826	312.88
286.057	313.88
286.288	299.88
286.52	306.88
286.751	310.88
286.982	302.88
287.213	300.88
287.444	309.88
287.675	317.88
287.906	332.88
288.138	336.88
288.369	327.88
288.6	335.88
288.831	330.88
289.062	310.88
289.293	326.88
289.524	323.88
289.755	321.88
289.986	314.88
290.217	319.88
290.448	326.88
290.679	293.88
290.91	333.88
291.141	310.88
291.371	314.88
291.602	317.88
291.833	315.88
292.064	326.88
292.295	309.88
292.526	327.88
292.757	315.88
292.987	317.88
293.218	302.88
293.449	309.88
293.68	328.88
293.91	315.88
294.141	308.88
294.372	319.88
294.603	334.88
294.833	327.88
295.064	340.88
295.295	347.88
295.525	329.88
295.756	324.88
295.987	317.88
296.217	349.88
296.448	359.88
296.679	336.88
296.909	336.88
297.14	334.88
297.37	342.88
297.601	359.88
297.831	346.88
298.062	339.88
298.292	339.88
298.523	350.88
298.753	349.88
298.984	359.88
299.214	350.88
299.445	333.88
299.675	349.88
299.905	365.88
300.136	353.88
300.366	358.88
300.597	347.88
300.827	365.88
301.057	360.88
301.288	369.88
301.518	351.88
301.748	377.88
301.979	375.88
302.209	372.88
302.439	369.88
302.669	363.88
302.9	358.88
303.13	363.88
303.36	351.88
303.59	362.88
303.82	358.88
304.051	384.88
304.281	379.88
304.511	378.88
304.741	353.88
304.971	355.88
305.201	365.88
305.431	379.88
305.661	379.88
305.891	357.88
306.121	365.88
306.352	381.88
306.582	382.88
306.812	384.88
307.042	375.88
307.272	373.88
307.502	379.88
307.731	361.88
307.961	379.88
308.191	356.88
308.421	364.88
308.651	370.88
308.881	395.88
309.111	382.88
309.341	394.88
309.571	385.88
309.8	391.88
310.03	396.88
310.26	409.88
310.49	414.88
310.72	400.88
310.949	419.88
311.179	439.88
311.409	413.88
311.639	416.88
311.868	413.88
312.098	399.88
312.328	400.88
312.557	439.88
312.787	443.88
313.017	440.88
313.246	426.88
313.476	411.88
313.706	413.88
313.935	425.88
314.165	437.88
314.394	442.88
314.624	439.88
314.853	446.88
315.083	421.88
315.312	424.88
315.542	414.88
315.771	411.88
316.001	408.88
316.23	397.88
316.46	411.88
316.689	419.88
316.919	416.88
317.148	404.88
317.377	418.88
317.607	424.88
317.836	420.88
318.065	417.88
318.295	415.88
318.524	396.88
318.753	405.88
318.983	423.88
319.212	405.88
319.441	401.88
319.67	405.88
319.9	413.88
320.129	383.88
320.358	405.88
320.587	421.88
320.816	423.88
321.046	419.88
321.275	422.88
321.504	436.88
321.733	439.88
321.962	461.88
322.191	452.88
322.42	435.88
322.649	468.88
322.878	474.88
323.108	479.88
323.337	514.88
323.566	515.88
323.795	526.88
324.024	581.88
324.253	692.88
324.482	959.88
324.71	1404.88
324.939	2022.88
325.168	1661.88
325.397	906.88
325.626	638.88
325.855	579.88
326.084	528.88
326.313	511.88
326.542	506.88
326.77	579.88
326.999	651.88
327.228	859.88
327.457	1260.88
327.686	1441.88
327.914	999.88
328.143	691.88
328.372	630.88
328.6	597.88
328.829	556.88
329.058	571.88
329.287	608.88
329.515	585.88
329.744	524.88
329.972	513.88
330.201	520.88
330.43	562.88
330.658	567.88
330.887	623.88
331.115	607.88
331.344	534.88
331.572	536.88
331.801	528.88
332.03	538.88
332.258	504.88
332.486	503.88
332.715	517.88
332.943	503.88
333.172	503.88
333.4	523.88
333.629	533.88
333.857	525.88
334.085	527.88
334.314	519.88
334.542	548.88
334.771	521.88
334.999	543.88
335.227	521.88
335.455	502.88
335.684	484.88
335.912	493.88
336.14	504.88
336.369	499.88
336.597	510.88
336.825	493.88
337.053	507.88
337.281	489.88
337.51	475.88
337.738	497.88
337.966	491.88
338.194	495.88
338.422	490.88
338.65	473.88
338.878	469.88
339.106	473.88
339.334	457.88
339.562	477.88
339.79	483.88
340.018	471.88
340.246	461.88
340.474	474.88
340.702	485.88
340.93	464.88
341.158	486.88
341.386	463.88
341.614	478.88
341.842	468.88
342.07	472.88
342.298	467.88
342.526	464.88
342.754	471.88
342.981	444.88
343.209	440.88
343.437	471.88
343.665	478.88
343.893	477.88
344.12	487.88
344.348	513.88
344.576	518.88
344.804	501.88
345.031	491.88
345.259	483.88
345.487	478.88
345.714	471.88
345.942	453.88
346.17	440.88
346.397	453.88
346.625	445.88
346.853	450.88
347.08	441.88
347.308	449.88
347.535	458.88
347.763	464.88
347.99	462.88
348.218	447.88
348.445	426.88
348.673	447.88
348.9	446.88
349.128	426.88
349.355	433.88
349.583	445.88
349.81	438.88
350.037	442.88
350.265	431.88
350.492	430.88
350.72	428.88
350.947	434.88
351.174	453.88
351.402	454.88
351.629	454.88
351.856	471.88
352.083	455.88
352.311	442.88
352.538	448.88
352.765	456.88
352.992	453.88
353.22	435.88
353.447	426.88
353.674	434.88
353.901	433.88
354.128	410.88
354.355	409.88
354.583	417.88
354.81	428.88
355.037	435.88
355.264	413.88
355.491	428.88
355.718	424.88
355.945	407.88
356.172	399.88
356.399	425.88
356.626	407.88
356.853	396.88
357.08	417.88
357.307	419.88
357.534	433.88
357.761	424.88
357.988	414.88
358.215	412.88
358.441	433.88
358.668	411.88
358.895	439.88
359.122	422.88
359.349	449.88
359.576	451.88
359.802	446.88
360.029	461.88
360.256	481.88
360.483	458.88
360.709	437.88
360.936	438.88
361.163	436.88
361.39	446.88
361.616	434.88
361.843	450.88
362.07	438.88
362.296	446.88
362.523	419.88
362.749	444.88
362.976	423.88
363.203	424.88
363.429	435.88
363.656	432.88
363.882	430.88
364.109	423.88
364.335	411.88
364.562	421.88
364.788	414.88
365.015	400.88
365.241	418.88
365.468	429.88
365.694	412.88
365.92	427.88
366.147	419.88
366.373	424.88
366.599	405.88
366.826	386.88
367.052	409.88
367.278	397.88
367.505	413.88
367.731	426.88
367.957	430.88
368.184	436.88
368.41	425.88
368.636	439.88
368.862	429.88
369.089	421.88
369.315	439.88
369.541	420.88
369.767	446.88
369.993	420.88
370.219	406.88
370.445	436.88
370.672	418.88
370.898	419.88
371.124	435.88
371.35	435.88
371.576	456.88
371.802	441.88
372.028	428.88
372.254	412.88
372.48	419.88
372.706	421.88
372.932	451.88
373.158	453.88
373.384	423.88
373.61	427.88
373.835	423.88
374.061	443.88
374.287	444.88
374.513	427.88
374.739	439.88
374.965	435.88
375.191	428.88
375.416	435.88
375.642	426.88
375.868	451.88
376.094	441.88
376.319	411.88
376.545	408.88
376.771	414.88
376.997	408.88
377.222	425.88
377.448	433.88
377.674	410.88
377.899	412.88
378.125	424.88
378.35	420.88
378.576	407.88
378.802	413.88
379.027	413.88
379.253	411.88
379.478	423.88
379.704	413.88
379.929	408.88
380.155	403.88
380.38	422.88
380.606	411.88
380.831	429.88
381.057	428.88
381.282	413.88
381.507	412.88
381.733	425.88
381.958	444.88
382.184	430.88
382.409	439.88
382.634	427.88
382.86	429.88
383.085	430.88
383.31	447.88
383.535	442.88
383.761	439.88
383.986	463.88
384.211	446.88
384.436	454.88
384.662	460.88
384.887	468.88
385.112	451.88
385.337	456.88
385.562	471.88
385.787	455.88
386.013	460.88
386.238	467.88
386.463	492.88
386.688	475.88
386.913	491.88
387.138	470.88
387.363	469.88
387.588	467.88
387.813	452.88
388.038	475.88
388.263	476.88
388.488	473.88
388.713	466.88
388.938	430.88
389.163	484.88
389.387	465.88
389.612	480.88
389.837	474.88
390.062	463.88
390.287	465.88
390.512	478.88
390.736	477.88
390.961	475.88
391.186	468.88
391.411	468.88
391.636	477.88
391.86	500.88
392.085	482.88
392.31	513.88
392.534	511.88
392.759	495.88
392.984	475.88
393.208	479.88
393.433	494.88
393.658	471.88
393.882	482.88
394.107	451.88
394.331	467.88
394.556	481.88
394.78	486.88
395.005	465.88
395.229	470.88
395.454	490.88
395.678	491.88
395.903	502.88
396.127	524.88
396.352	524.88
396.576	483.88
396.801	511.88
397.025	497.88
397.249	517.88
397.474	499.88
397.698	499.88
397.922	515.88
398.147	548.88
398.371	546.88
398.595	528.88
398.82	539.88
399.044	579.88
399.268	580.88
399.492	665.88
399.717	675.88
399.941	699.88
400.165	705.88
400.389	697.88
400.613	610.88
400.837	593.88
401.062	573.88
401.286	559.88
401.51	560.88
401.734	528.88
401.958	578.88
402.182	566.88
402.406	575.88
402.63	609.88
402.854	568.88
403.078	579.88
403.302	595.88
403.526	587.88
403.75	592.88
403.974	595.88
404.198	583.88
404.422	574.88
404.645	571.88
404.869	583.88
405.093	573.88
405.317	625.88
405.541	631.88
405.765	607.88
405.988	591.88
406.212	590.88
406.436	620.88
406.66	633.88
406.883	627.88
407.107	663.88
407.331	687.88
407.555	749.88
407.778	781.88
408.002	676.88
408.226	637.88
408.449	624.88
408.673	631.88
408.896	629.88
409.12	666.88
409.344	644.88
409.567	591.88
409.791	578.88
410.014	590.88
410.238	560.88
410.461	569.88
410.685	587.88
410.908	587.88
411.132	621.88
411.355	645.88
411.578	610.88
411.802	581.88
412.025	571.88
412.249	565.88
412.472	566.88
412.695	583.88
412.919	578.88
413.142	543.88
413.365	549.88
413.589	542.88
413.812	526.88
414.035	535.88
414.258	526.88
414.482	538.88
414.705	535.88
414.928	540.88
415.151	531.88
415.374	535.88
415.597	520.88
415.821	508.88
416.044	526.88
416.267	538.88
416.49	529.88
416.713	533.88
416.936	531.88
417.159	513.88
417.382	534.88
417.605	533.88
417.828	537.88
418.051	535.88
418.274	550.88
418.497	527.88
418.72	537.88
418.943	538.88
419.166	522.88
419.389	581.88
419.611	557.88
419.834	540.88
420.057	561.88
420.28	537.88
420.503	525.88
420.726	534.88
420.948	563.88
421.171	586.88
421.394	613.88
421.617	546.88
421.839	527.88
422.062	555.88
422.285	547.88
422.507	586.88
422.73	693.88
422.953	650.88
423.175	574.88
423.398	565.88
423.621	566.88
423.843	582.88
424.066	584.88
424.288	567.88
424.511	594.88
424.733	662.88
424.956	728.88
425.178	685.88
425.401	689.88
425.623	700.88
425.846	607.88
426.068	586.88
426.291	565.88
426.513	561.88
426.735	561.88
426.958	589.88
427.18	691.88
427.402	803.88
427.625	870.88
427.847	755.88
428.069	629.88
428.292	610.88
428.514	542.88
428.736	522.88
428.958	524.88
429.181	518.88
429.403	529.88
429.625	542.88
429.847	555.88
430.069	598.88
430.292	611.88
430.514	536.88
430.736	517.88
430.958	488.88
431.18	492.88
431.402	523.88
431.624	511.88
431.846	510.88
432.068	481.88
432.29	503.88
432.512	500.88
432.734	530.88
432.956	506.88
433.178	520.88
433.4	518.88
433.622	502.88
433.844	511.88
434.066	516.88
434.287	502.88
434.509	533.88
434.731	551.88
434.953	546.88
435.175	569.88
435.397	585.88
435.618	570.88
435.84	613.88
436.062	692.88
436.284	719.88
436.505	601.88
436.727	595.88
436.949	578.88
437.17	514.88
437.392	511.88
437.614	536.88
437.835	563.88
438.057	638.88
438.278	733.88
438.5	760.88
438.721	835.88
438.943	755.88
439.165	602.88
439.386	565.88
439.608	539.88
439.829	579.88
440.05	591.88
440.272	618.88
440.493	609.88
440.715	568.88
440.936	535.88
441.158	525.88
441.379	538.88
441.6	562.88
441.822	594.88
442.043	626.88
442.264	715.88
442.486	703.88
442.707	602.88
442.928	605.88
443.149	626.88
443.371	610.88
443.592	641.88
443.813	730.88
444.034	793.88
444.255	658.88
444.476	614.88
444.698	597.88
444.919	609.88
445.14	726.88
445.361	659.88
445.582	610.88
445.803	684.88
446.024	752.88
446.245	749.88
446.466	693.88
446.687	613.88
446.908	577.88
447.129	546.88
447.35	517.88
447.571	521.88
447.792	512.88
448.013	524.88
448.234	535.88
448.455	559.88
448.675	692.88
448.896	780.88
449.117	669.88
449.338	626.88
449.559	719.88
449.779	827.88
450	663.88
450.221	550.88
450.442	533.88
450.662	509.88
450.883	505.88
451.104	505.88
451.324	510.88
451.545	506.88
451.766	487.88
451.986	441.88
452.207	462.88
452.428	476.88
452.648	477.88
452.869	465.88
453.089	478.88
453.31	479.88
453.53	475.88
453.751	471.88
453.971	454.88
454.192	465.88
454.412	480.88
454.633	492.88
454.853	474.88
455.073	461.88
455.294	470.88
455.514	545.88
455.734	539.88
455.955	455.88
456.175	452.88
456.395	426.88
456.616	439.88
456.836	457.88
457.056	453.88
457.276	435.88
457.497	445.88
457.717	448.88
457.937	451.88
458.157	451.88
458.377	462.88
458.598	475.88
458.818	536.88
459.038	627.88
459.258	615.88
459.478	545.88
459.698	541.88
459.918	532.88
460.138	526.88
460.358	522.88
460.578	535.88
460.798	539.88
461.018	542.88
461.238	551.88
461.458	532.88
461.678	519.88
461.898	547.88
462.118	531.88
462.338	572.88
462.558	587.88
462.777	563.88
462.997	606.88
463.217	610.88
463.437	622.88
463.657	590.88
463.876	581.88
464.096	559.88
464.316	595.88
464.536	603.88
464.755	601.88
464.975	586.88
465.195	609.88
465.414	642.88
465.634	581.88
465.854	543.88
466.073	538.88
466.293	507.88
466.512	485.88
466.732	515.88
466.951	499.88
467.171	486.88
467.391	519.88
467.61	503.88
467.829	531.88
468.049	489.88
468.268	463.88
468.488	448.88
468.707	467.88
468.927	457.88
469.146	467.88
469.365	471.88
469.585	470.88
469.804	479.88
470.023	502.88
470.243	507.88
470.462	500.88
470.681	509.88
470.901	509.88
471.12	499.88
471.339	517.88
471.558	497.88
471.777	473.88
471.997	479.88
472.216	457.88
472.435	481.88
472.654	482.88
472.873	489.88
473.092	470.88
473.311	486.88
473.53	495.88
473.749	486.88
473.968	541.88
474.187	609.88
474.406	623.88
474.625	542.88
474.844	492.88
475.063	492.88
475.282	501.88
475.501	486.88
475.72	483.88
475.939	500.88
476.158	501.88
476.377	479.88
476.596	480.88
476.814	515.88
477.033	519.88
477.252	519.88
477.471	522.88
477.69	527.88
477.908	546.88
478.127	538.88
478.346	537.88
478.564	530.88
478.783	554.88
479.002	546.88
479.22	545.88
479.439	578.88
479.658	585.88
479.876	590.88
480.095	578.88
480.313	629.88
480.532	609.88
480.751	599.88
480.969	583.88
481.188	597.88
481.406	625.88
481.624	584.88
481.843	584.88
482.061	545.88
482.28	545.88
482.498	556.88
482.717	578.88
482.935	555.88
483.153	544.88
483.372	534.88
483.59	532.88
483.808	539.88
484.027	545.88
484.245	550.88
484.463	566.88
484.681	558.88
484.9	584.88
485.118	571.88
485.336	565.88
485.554	579.88
485.772	565.88
485.99	560.88
486.209	589.88
486.427	589.88
486.645	575.88
486.863	610.88
487.081	628.88
487.299	602.88
487.517	604.88
487.735	598.88
487.953	596.88
488.171	615.88
488.389	575.88
488.607	600.88
488.825	597.88
489.043	599.88
489.261	612.88
489.479	598.88
489.696	592.88
489.914	621.88
490.132	613.88
490.35	608.88
490.568	626.88
490.786	633.88
491.003	647.88
491.221	636.88
491.439	668.88
491.657	659.88
491.874	669.88
492.092	660.88
492.31	681.88
492.527	689.88
492.745	660.88
492.963	676.88
493.18	679.88
493.398	686.88
493.615	707.88
493.833	701.88
494.05	697.88
494.268	675.88
494.485	689.88
494.703	701.88
494.92	703.88
495.138	685.88
495.355	699.88
495.573	716.88
495.79	717.88
496.008	714.88
496.225	709.88
496.442	695.88
496.66	717.88
496.877	706.88
497.094	733.88
497.312	726.88
497.529	749.88
497.746	750.88
497.963	762.88
498.181	804.88
498.398	777.88
498.615	818.88
498.832	862.88
499.049	888.88
499.267	924.88
499.484	954.88
499.701	994.88
499.918	1046.88
500.135	1125.88
500.352	1183.88
500.569	1218.88
500.786	1225.88
501.003	1170.88
501.22	1100.88
501.437	1045.88
501.654	972.88
501.871	986.88
