Data from 1985.PennyLincolnUp.Lamp.En5.5.200Scan.071819.P1_HRD10591_17-01-33-970.txt Node
Date: Thu Jul 18 17:01:33 EDT 2019
User: cochatt
Spectrometer: HR+D1059
Trigger mode: 1
Integration Time (sec): 1.000000E-1
Scans to average: 1
Electric dark correction enabled: true
Nonlinearity correction enabled: false
Boxcar width: 0
XAxis mode: Wavelengths
Number of Pixels in Spectrum: 2048
>>>>>Begin Spectral Data<<<<<
223.165	-1.38
223.4	-1.38
223.635	-1.38
223.869	-24.38
224.104	-20.38
224.338	-15.38
224.573	-21.38
224.808	-4.38
225.042	-4.38
225.277	-3.38
225.511	-6.38
225.746	-1.38
225.98	12.62
226.215	12.62
226.449	22.62
226.683	8.62
226.918	22.62
227.152	23.62
227.387	17.62
227.621	31.62
227.856	37.62
228.09	52.62
228.324	47.62
228.559	54.62
228.793	57.62
229.027	87.62
229.262	85.62
229.496	99.62
229.73	111.62
229.964	130.62
230.199	112.62
230.433	116.62
230.667	93.62
230.901	87.62
231.136	125.62
231.37	105.62
231.604	105.62
231.838	116.62
232.072	119.62
232.306	95.62
232.541	109.62
232.775	112.62
233.009	112.62
233.243	97.62
233.477	110.62
233.711	112.62
233.945	99.62
234.179	130.62
234.413	118.62
234.647	107.62
234.881	110.62
235.115	109.62
235.349	119.62
235.583	122.62
235.817	116.62
236.051	128.62
236.285	111.62
236.519	117.62
236.753	118.62
236.987	125.62
237.221	160.62
237.455	199.62
237.689	155.62
237.922	147.62
238.156	140.62
238.39	114.62
238.624	121.62
238.858	124.62
239.091	116.62
239.325	118.62
239.559	116.62
239.793	128.62
240.027	131.62
240.26	131.62
240.494	139.62
240.728	144.62
240.961	135.62
241.195	127.62
241.429	111.62
241.662	114.62
241.896	149.62
242.13	140.62
242.363	125.62
242.597	133.62
242.83	152.62
243.064	134.62
243.298	134.62
243.531	133.62
243.765	135.62
243.998	132.62
244.232	135.62
244.465	125.62
244.699	139.62
244.932	140.62
245.166	149.62
245.399	142.62
245.633	129.62
245.866	144.62
246.099	138.62
246.333	148.62
246.566	146.62
246.8	143.62
247.033	158.62
247.266	155.62
247.5	146.62
247.733	153.62
247.966	164.62
248.2	157.62
248.433	157.62
248.666	158.62
248.899	158.62
249.133	185.62
249.366	186.62
249.599	170.62
249.832	145.62
250.066	170.62
250.299	167.62
250.532	164.62
250.765	189.62
250.998	210.62
251.231	197.62
251.465	180.62
251.698	179.62
251.931	187.62
252.164	185.62
252.397	173.62
252.63	187.62
252.863	178.62
253.096	192.62
253.329	202.62
253.562	197.62
253.795	204.62
254.028	205.62
254.261	202.62
254.494	207.62
254.727	219.62
254.96	231.62
255.193	245.62
255.426	213.62
255.659	213.62
255.892	201.62
256.124	214.62
256.357	189.62
256.59	200.62
256.823	196.62
257.056	185.62
257.289	190.62
257.521	188.62
257.754	191.62
257.987	208.62
258.22	190.62
258.452	194.62
258.685	203.62
258.918	188.62
259.151	200.62
259.383	196.62
259.616	209.62
259.849	202.62
260.081	237.62
260.314	230.62
260.547	243.62
260.779	224.62
261.012	223.62
261.244	223.62
261.477	242.62
261.71	189.62
261.942	207.62
262.175	219.62
262.407	218.62
262.64	217.62
262.872	203.62
263.105	206.62
263.337	218.62
263.57	203.62
263.802	208.62
264.035	204.62
264.267	214.62
264.499	216.62
264.732	196.62
264.964	210.62
265.197	218.62
265.429	214.62
265.661	222.62
265.894	213.62
266.126	206.62
266.358	213.62
266.591	226.62
266.823	219.62
267.055	203.62
267.287	224.62
267.52	222.62
267.752	235.62
267.984	234.62
268.216	227.62
268.448	218.62
268.681	237.62
268.913	252.62
269.145	247.62
269.377	257.62
269.609	271.62
269.841	249.62
270.073	277.62
270.306	270.62
270.538	290.62
270.77	309.62
271.002	287.62
271.234	280.62
271.466	280.62
271.698	286.62
271.93	312.62
272.162	317.62
272.394	293.62
272.626	295.62
272.858	279.62
273.09	262.62
273.322	280.62
273.553	271.62
273.785	263.62
274.017	257.62
274.249	268.62
274.481	273.62
274.713	252.62
274.945	258.62
275.176	260.62
275.408	273.62
275.64	257.62
275.872	267.62
276.104	254.62
276.335	262.62
276.567	253.62
276.799	281.62
277.031	298.62
277.262	294.62
277.494	286.62
277.726	310.62
277.957	287.62
278.189	287.62
278.421	265.62
278.652	281.62
278.884	279.62
279.115	276.62
279.347	265.62
279.579	269.62
279.81	281.62
280.042	273.62
280.273	272.62
280.505	270.62
280.736	278.62
280.968	260.62
281.199	287.62
281.431	273.62
281.662	276.62
281.894	280.62
282.125	299.62
282.356	304.62
282.588	315.62
282.819	321.62
283.051	288.62
283.282	273.62
283.513	277.62
283.745	289.62
283.976	292.62
284.207	297.62
284.439	277.62
284.67	290.62
284.901	292.62
285.132	296.62
285.364	309.62
285.595	290.62
285.826	285.62
286.057	303.62
286.288	286.62
286.52	286.62
286.751	295.62
286.982	299.62
287.213	307.62
287.444	290.62
287.675	289.62
287.906	311.62
288.138	326.62
288.369	319.62
288.6	319.62
288.831	324.62
289.062	296.62
289.293	314.62
289.524	314.62
289.755	303.62
289.986	296.62
290.217	301.62
290.448	296.62
290.679	310.62
290.91	290.62
291.141	294.62
291.371	306.62
291.602	303.62
291.833	329.62
292.064	296.62
292.295	304.62
292.526	311.62
292.757	307.62
292.987	307.62
293.218	319.62
293.449	312.62
293.68	313.62
293.91	306.62
294.141	325.62
294.372	319.62
294.603	327.62
294.833	327.62
295.064	325.62
295.295	317.62
295.525	306.62
295.756	315.62
295.987	313.62
296.217	336.62
296.448	324.62
296.679	310.62
296.909	323.62
297.14	310.62
297.37	311.62
297.601	325.62
297.831	335.62
298.062	330.62
298.292	311.62
298.523	339.62
298.753	322.62
298.984	327.62
299.214	322.62
299.445	309.62
299.675	339.62
299.905	336.62
300.136	321.62
300.366	330.62
300.597	333.62
300.827	343.62
301.057	351.62
301.288	331.62
301.518	347.62
301.748	357.62
301.979	354.62
302.209	354.62
302.439	378.62
302.669	345.62
302.9	326.62
303.13	370.62
303.36	373.62
303.59	340.62
303.82	348.62
304.051	359.62
304.281	358.62
304.511	341.62
304.741	352.62
304.971	347.62
305.201	343.62
305.431	357.62
305.661	360.62
305.891	339.62
306.121	360.62
306.352	353.62
306.582	365.62
306.812	359.62
307.042	340.62
307.272	351.62
307.502	363.62
307.731	345.62
307.961	353.62
308.191	341.62
308.421	368.62
308.651	354.62
308.881	358.62
309.111	364.62
309.341	353.62
309.571	355.62
309.8	369.62
310.03	368.62
310.26	386.62
310.49	396.62
310.72	392.62
310.949	390.62
311.179	405.62
311.409	381.62
311.639	393.62
311.868	386.62
312.098	393.62
312.328	381.62
312.557	404.62
312.787	383.62
313.017	412.62
313.246	401.62
313.476	377.62
313.706	394.62
313.935	380.62
314.165	383.62
314.394	390.62
314.624	410.62
314.853	385.62
315.083	392.62
315.312	382.62
315.542	374.62
315.771	403.62
316.001	401.62
316.23	393.62
316.46	399.62
316.689	388.62
316.919	387.62
317.148	415.62
317.377	399.62
317.607	385.62
317.836	395.62
318.065	386.62
318.295	399.62
318.524	383.62
318.753	376.62
318.983	386.62
319.212	401.62
319.441	389.62
319.67	395.62
319.9	396.62
320.129	400.62
320.358	382.62
320.587	415.62
320.816	410.62
321.046	398.62
321.275	422.62
321.504	402.62
321.733	414.62
321.962	407.62
322.191	414.62
322.42	427.62
322.649	415.62
322.878	461.62
323.108	452.62
323.337	456.62
323.566	474.62
323.795	494.62
324.024	527.62
324.253	588.62
324.482	781.62
324.71	1154.62
324.939	1577.62
325.168	1354.62
325.397	751.62
325.626	568.62
325.855	495.62
326.084	485.62
326.313	482.62
326.542	506.62
326.77	540.62
326.999	577.62
327.228	722.62
327.457	1029.62
327.686	1201.62
327.914	822.62
328.143	587.62
328.372	551.62
328.6	516.62
328.829	533.62
329.058	521.62
329.287	547.62
329.515	500.62
329.744	477.62
329.972	453.62
330.201	495.62
330.43	494.62
330.658	502.62
330.887	541.62
331.115	539.62
331.344	494.62
331.572	482.62
331.801	486.62
332.03	474.62
332.258	498.62
332.486	474.62
332.715	472.62
332.943	465.62
333.172	493.62
333.4	486.62
333.629	521.62
333.857	495.62
334.085	487.62
334.314	489.62
334.542	475.62
334.771	521.62
334.999	481.62
335.227	489.62
335.455	479.62
335.684	475.62
335.912	477.62
336.14	469.62
336.369	455.62
336.597	464.62
336.825	466.62
337.053	469.62
337.281	459.62
337.51	467.62
337.738	447.62
337.966	483.62
338.194	479.62
338.422	458.62
338.65	435.62
338.878	451.62
339.106	456.62
339.334	460.62
339.562	457.62
339.79	459.62
340.018	447.62
340.246	463.62
340.474	438.62
340.702	464.62
340.93	433.62
341.158	443.62
341.386	435.62
341.614	438.62
341.842	433.62
342.07	460.62
342.298	447.62
342.526	449.62
342.754	444.62
342.981	454.62
343.209	450.62
343.437	437.62
343.665	437.62
343.893	462.62
344.12	481.62
344.348	484.62
344.576	467.62
344.804	468.62
345.031	448.62
345.259	462.62
345.487	445.62
345.714	446.62
345.942	434.62
346.17	430.62
346.397	415.62
346.625	421.62
346.853	410.62
347.08	426.62
347.308	433.62
347.535	407.62
347.763	439.62
347.99	422.62
348.218	437.62
348.445	416.62
348.673	429.62
348.9	425.62
349.128	434.62
349.355	418.62
349.583	407.62
349.81	434.62
350.037	406.62
350.265	399.62
350.492	414.62
350.72	423.62
350.947	414.62
351.174	418.62
351.402	426.62
351.629	424.62
351.856	423.62
352.083	429.62
352.311	411.62
352.538	430.62
352.765	433.62
352.992	417.62
353.22	403.62
353.447	413.62
353.674	414.62
353.901	404.62
354.128	396.62
354.355	421.62
354.583	403.62
354.81	403.62
355.037	402.62
355.264	413.62
355.491	381.62
355.718	411.62
355.945	405.62
356.172	406.62
356.399	412.62
356.626	414.62
356.853	402.62
357.08	386.62
357.307	409.62
357.534	387.62
357.761	407.62
357.988	413.62
358.215	409.62
358.441	396.62
358.668	416.62
358.895	407.62
359.122	399.62
359.349	396.62
359.576	416.62
359.802	450.62
360.029	431.62
360.256	473.62
360.483	448.62
360.709	421.62
360.936	424.62
361.163	403.62
361.39	409.62
361.616	433.62
361.843	409.62
362.07	409.62
362.296	419.62
362.523	413.62
362.749	410.62
362.976	415.62
363.203	387.62
363.429	406.62
363.656	401.62
363.882	405.62
364.109	402.62
364.335	402.62
364.562	407.62
364.788	411.62
365.015	418.62
365.241	400.62
365.468	408.62
365.694	414.62
365.92	423.62
366.147	403.62
366.373	403.62
366.599	387.62
366.826	421.62
367.052	413.62
367.278	408.62
367.505	421.62
367.731	405.62
367.957	399.62
368.184	393.62
368.41	413.62
368.636	418.62
368.862	412.62
369.089	422.62
369.315	409.62
369.541	416.62
369.767	401.62
369.993	394.62
370.219	397.62
370.445	425.62
370.672	409.62
370.898	418.62
371.124	423.62
371.35	409.62
371.576	409.62
371.802	424.62
372.028	398.62
372.254	385.62
372.48	402.62
372.706	426.62
372.932	424.62
373.158	419.62
373.384	427.62
373.61	422.62
373.835	415.62
374.061	420.62
374.287	416.62
374.513	436.62
374.739	421.62
374.965	424.62
375.191	409.62
375.416	422.62
375.642	408.62
375.868	421.62
376.094	409.62
376.319	406.62
376.545	427.62
376.771	414.62
376.997	415.62
377.222	417.62
377.448	390.62
377.674	389.62
377.899	401.62
378.125	427.62
378.35	405.62
378.576	409.62
378.802	390.62
379.027	409.62
379.253	389.62
379.478	394.62
379.704	407.62
379.929	399.62
380.155	429.62
380.38	415.62
380.606	401.62
380.831	409.62
381.057	408.62
381.282	416.62
381.507	426.62
381.733	431.62
381.958	412.62
382.184	420.62
382.409	423.62
382.634	411.62
382.86	409.62
383.085	441.62
383.31	407.62
383.535	417.62
383.761	413.62
383.986	424.62
384.211	458.62
384.436	437.62
384.662	457.62
384.887	443.62
385.112	447.62
385.337	454.62
385.562	457.62
385.787	469.62
386.013	466.62
386.238	468.62
386.463	455.62
386.688	460.62
386.913	486.62
387.138	456.62
387.363	450.62
387.588	454.62
387.813	468.62
388.038	456.62
388.263	465.62
388.488	462.62
388.713	452.62
388.938	458.62
389.163	461.62
389.387	462.62
389.612	454.62
389.837	474.62
390.062	459.62
390.287	466.62
390.512	464.62
390.736	463.62
390.961	450.62
391.186	459.62
391.411	450.62
391.636	478.62
391.86	465.62
392.085	467.62
392.31	497.62
392.534	464.62
392.759	457.62
392.984	466.62
393.208	465.62
393.433	451.62
393.658	467.62
393.882	450.62
394.107	469.62
394.331	445.62
394.556	475.62
394.78	466.62
395.005	466.62
395.229	479.62
395.454	484.62
395.678	488.62
395.903	491.62
396.127	498.62
396.352	504.62
396.576	482.62
396.801	477.62
397.025	485.62
397.249	477.62
397.474	506.62
397.698	495.62
397.922	512.62
398.147	499.62
398.371	534.62
398.595	501.62
398.82	529.62
399.044	561.62
399.268	582.62
399.492	607.62
399.717	635.62
399.941	688.62
400.165	680.62
400.389	685.62
400.613	607.62
400.837	562.62
401.062	574.62
401.286	562.62
401.51	533.62
401.734	528.62
401.958	569.62
402.182	541.62
402.406	533.62
402.63	566.62
402.854	551.62
403.078	544.62
403.302	561.62
403.526	565.62
403.75	558.62
403.974	554.62
404.198	558.62
404.422	567.62
404.645	574.62
404.869	581.62
405.093	577.62
405.317	586.62
405.541	587.62
405.765	595.62
405.988	569.62
406.212	579.62
406.436	585.62
406.66	595.62
406.883	614.62
407.107	614.62
407.331	635.62
407.555	722.62
407.778	724.62
408.002	658.62
408.226	603.62
408.449	627.62
408.673	600.62
408.896	614.62
409.12	654.62
409.344	632.62
409.567	578.62
409.791	572.62
410.014	565.62
410.238	563.62
410.461	573.62
410.685	560.62
410.908	549.62
411.132	610.62
411.355	602.62
411.578	593.62
411.802	566.62
412.025	540.62
412.249	527.62
412.472	523.62
412.695	527.62
412.919	532.62
413.142	520.62
413.365	540.62
413.589	523.62
413.812	514.62
414.035	534.62
414.258	539.62
414.482	509.62
414.705	511.62
414.928	510.62
415.151	506.62
415.374	508.62
415.597	515.62
415.821	496.62
416.044	513.62
416.267	520.62
416.49	508.62
416.713	475.62
416.936	500.62
417.159	493.62
417.382	517.62
417.605	509.62
417.828	497.62
418.051	530.62
418.274	540.62
418.497	521.62
418.72	533.62
418.943	497.62
419.166	546.62
419.389	540.62
419.611	545.62
419.834	560.62
420.057	548.62
420.28	542.62
420.503	511.62
420.726	527.62
420.948	562.62
421.171	562.62
421.394	569.62
421.617	528.62
421.839	505.62
422.062	533.62
422.285	538.62
422.507	569.62
422.73	631.62
422.953	601.62
423.175	559.62
423.398	537.62
423.621	533.62
423.843	563.62
424.066	575.62
424.288	577.62
424.511	594.62
424.733	615.62
424.956	673.62
425.178	629.62
425.401	639.62
425.623	667.62
425.846	585.62
426.068	559.62
426.291	551.62
426.513	550.62
426.735	560.62
426.958	581.62
427.18	661.62
427.402	760.62
427.625	821.62
427.847	682.62
428.069	588.62
428.292	559.62
428.514	550.62
428.736	518.62
428.958	527.62
429.181	505.62
429.403	509.62
429.625	493.62
429.847	520.62
430.069	598.62
430.292	591.62
430.514	498.62
430.736	513.62
430.958	485.62
431.18	461.62
431.402	465.62
431.624	471.62
431.846	503.62
432.068	474.62
432.29	509.62
432.512	477.62
432.734	486.62
432.956	495.62
433.178	480.62
433.4	494.62
433.622	496.62
433.844	505.62
434.066	478.62
434.287	497.62
434.509	527.62
434.731	495.62
434.953	515.62
435.175	518.62
435.397	544.62
435.618	552.62
435.84	581.62
436.062	622.62
436.284	698.62
436.505	589.62
436.727	544.62
436.949	528.62
437.17	521.62
437.392	508.62
437.614	483.62
437.835	523.62
438.057	608.62
438.278	675.62
438.5	675.62
438.721	773.62
438.943	733.62
439.165	571.62
439.386	533.62
439.608	523.62
439.829	499.62
440.05	547.62
440.272	568.62
440.493	527.62
440.715	516.62
440.936	503.62
441.158	500.62
441.379	495.62
441.6	524.62
441.822	562.62
442.043	575.62
442.264	626.62
442.486	679.62
442.707	581.62
442.928	578.62
443.149	566.62
443.371	574.62
443.592	620.62
443.813	701.62
444.034	730.62
444.255	645.62
444.476	587.62
444.698	580.62
444.919	564.62
445.14	695.62
445.361	618.62
445.582	565.62
445.803	630.62
446.024	705.62
446.245	707.62
446.466	621.62
446.687	580.62
446.908	544.62
447.129	498.62
447.35	488.62
447.571	502.62
447.792	496.62
448.013	507.62
448.234	503.62
448.455	542.62
448.675	644.62
448.896	721.62
449.117	624.62
449.338	625.62
449.559	689.62
449.779	730.62
450	617.62
450.221	513.62
450.442	495.62
450.662	483.62
450.883	469.62
451.104	488.62
451.324	483.62
451.545	463.62
451.766	450.62
451.986	441.62
452.207	443.62
452.428	430.62
452.648	442.62
452.869	435.62
453.089	462.62
453.31	465.62
453.53	430.62
453.751	458.62
453.971	462.62
454.192	459.62
454.412	461.62
454.633	421.62
454.853	440.62
455.073	448.62
455.294	467.62
455.514	520.62
455.734	497.62
455.955	444.62
456.175	411.62
456.395	411.62
456.616	414.62
456.836	453.62
457.056	432.62
457.276	426.62
457.497	430.62
457.717	451.62
457.937	445.62
458.157	424.62
458.377	445.62
458.598	445.62
458.818	507.62
459.038	575.62
459.258	563.62
459.478	521.62
459.698	515.62
459.918	487.62
460.138	505.62
460.358	511.62
460.578	514.62
460.798	533.62
461.018	518.62
461.238	519.62
461.458	530.62
461.678	521.62
461.898	520.62
462.118	497.62
462.338	527.62
462.558	535.62
462.777	569.62
462.997	590.62
463.217	616.62
463.437	627.62
463.657	576.62
463.876	581.62
464.096	580.62
464.316	540.62
464.536	576.62
464.755	567.62
464.975	543.62
465.195	578.62
465.414	617.62
465.634	542.62
465.854	521.62
466.073	517.62
466.293	472.62
466.512	477.62
466.732	472.62
466.951	477.62
467.171	467.62
467.391	471.62
467.61	476.62
467.829	475.62
468.049	482.62
468.268	487.62
468.488	472.62
468.707	469.62
468.927	447.62
469.146	454.62
469.365	454.62
469.585	448.62
469.804	464.62
470.023	475.62
470.243	471.62
470.462	493.62
470.681	499.62
470.901	482.62
471.12	472.62
471.339	478.62
471.558	467.62
471.777	481.62
471.997	456.62
472.216	440.62
472.435	454.62
472.654	456.62
472.873	457.62
473.092	465.62
473.311	472.62
473.53	460.62
473.749	470.62
473.968	495.62
474.187	581.62
474.406	571.62
474.625	509.62
474.844	495.62
475.063	465.62
475.282	451.62
475.501	474.62
475.72	463.62
475.939	459.62
476.158	475.62
476.377	494.62
476.596	491.62
476.814	501.62
477.033	496.62
477.252	496.62
477.471	505.62
477.69	498.62
477.908	506.62
478.127	530.62
478.346	524.62
478.564	525.62
478.783	520.62
479.002	541.62
479.22	553.62
479.439	550.62
479.658	566.62
479.876	576.62
480.095	583.62
480.313	577.62
480.532	605.62
480.751	583.62
480.969	575.62
481.188	610.62
481.406	559.62
481.624	553.62
481.843	546.62
482.061	557.62
482.28	542.62
482.498	559.62
482.717	542.62
482.935	517.62
483.153	519.62
483.372	551.62
483.59	534.62
483.808	544.62
484.027	553.62
484.245	561.62
484.463	551.62
484.681	550.62
484.9	551.62
485.118	570.62
485.336	575.62
485.554	551.62
485.772	565.62
485.99	569.62
486.209	573.62
486.427	573.62
486.645	584.62
486.863	575.62
487.081	582.62
487.299	578.62
487.517	586.62
487.735	560.62
487.953	559.62
488.171	583.62
488.389	573.62
488.607	568.62
488.825	571.62
489.043	568.62
489.261	586.62
489.479	560.62
489.696	591.62
489.914	586.62
490.132	588.62
490.35	601.62
490.568	595.62
490.786	605.62
491.003	608.62
491.221	606.62
491.439	630.62
491.657	632.62
491.874	635.62
492.092	616.62
492.31	632.62
492.527	627.62
492.745	636.62
492.963	664.62
493.18	671.62
493.398	643.62
493.615	646.62
493.833	681.62
494.05	647.62
494.268	670.62
494.485	671.62
494.703	639.62
494.92	651.62
495.138	671.62
495.355	694.62
495.573	675.62
495.79	657.62
496.008	667.62
496.225	671.62
496.442	685.62
496.66	678.62
496.877	693.62
497.094	697.62
497.312	702.62
497.529	735.62
497.746	726.62
497.963	744.62
498.181	771.62
498.398	756.62
498.615	793.62
498.832	848.62
499.049	849.62
499.267	884.62
499.484	925.62
499.701	933.62
499.918	1017.62
500.135	1110.62
500.352	1153.62
500.569	1193.62
500.786	1208.62
501.003	1149.62
501.22	1100.62
501.437	1009.62
501.654	989.62
501.871	943.62
