Data from 1985.PennyLincolnUp.Lamp.En5.5.200Scan.071819.P1_HRD10591_17-02-30-970.txt Node
Date: Thu Jul 18 17:02:30 EDT 2019
User: cochatt
Spectrometer: HR+D1059
Trigger mode: 1
Integration Time (sec): 1.000000E-1
Scans to average: 1
Electric dark correction enabled: true
Nonlinearity correction enabled: false
Boxcar width: 0
XAxis mode: Wavelengths
Number of Pixels in Spectrum: 2048
>>>>>Begin Spectral Data<<<<<
223.165	1.19
223.4	1.19
223.635	1.19
223.869	-3.81
224.104	-25.81
224.338	-12.81
224.573	-16.81
224.808	-11.81
225.042	-3.81
225.277	-2.81
225.511	-11.81
225.746	-11.81
225.98	21.19
226.215	16.19
226.449	12.19
226.683	15.19
226.918	11.19
227.152	24.19
227.387	35.19
227.621	20.19
227.856	53.19
228.09	47.19
228.324	35.19
228.559	57.19
228.793	44.19
229.027	93.19
229.262	101.19
229.496	106.19
229.73	123.19
229.964	131.19
230.199	123.19
230.433	117.19
230.667	100.19
230.901	115.19
231.136	107.19
231.37	108.19
231.604	120.19
231.838	105.19
232.072	108.19
232.306	92.19
232.541	123.19
232.775	96.19
233.009	105.19
233.243	114.19
233.477	110.19
233.711	113.19
233.945	118.19
234.179	123.19
234.413	112.19
234.647	119.19
234.881	118.19
235.115	122.19
235.349	122.19
235.583	114.19
235.817	119.19
236.051	123.19
236.285	123.19
236.519	114.19
236.753	132.19
236.987	126.19
237.221	159.19
237.455	221.19
237.689	190.19
237.922	141.19
238.156	135.19
238.39	133.19
238.624	127.19
238.858	129.19
239.091	123.19
239.325	133.19
239.559	132.19
239.793	137.19
240.027	143.19
240.26	151.19
240.494	151.19
240.728	157.19
240.961	148.19
241.195	150.19
241.429	138.19
241.662	114.19
241.896	133.19
242.13	135.19
242.363	142.19
242.597	117.19
242.83	122.19
243.064	124.19
243.298	135.19
243.531	131.19
243.765	137.19
243.998	142.19
244.232	145.19
244.465	135.19
244.699	146.19
244.932	139.19
245.166	148.19
245.399	157.19
245.633	151.19
245.866	125.19
246.099	131.19
246.333	149.19
246.566	146.19
246.8	159.19
247.033	166.19
247.266	159.19
247.5	161.19
247.733	173.19
247.966	169.19
248.2	147.19
248.433	164.19
248.666	180.19
248.899	186.19
249.133	213.19
249.366	217.19
249.599	198.19
249.832	163.19
250.066	170.19
250.299	178.19
250.532	186.19
250.765	194.19
250.998	203.19
251.231	221.19
251.465	199.19
251.698	204.19
251.931	195.19
252.164	168.19
252.397	175.19
252.63	184.19
252.863	210.19
253.096	203.19
253.329	192.19
253.562	230.19
253.795	201.19
254.028	193.19
254.261	209.19
254.494	208.19
254.727	234.19
254.96	274.19
255.193	269.19
255.426	232.19
255.659	234.19
255.892	228.19
256.124	225.19
256.357	220.19
256.59	206.19
256.823	189.19
257.056	209.19
257.289	228.19
257.521	216.19
257.754	203.19
257.987	212.19
258.22	216.19
258.452	216.19
258.685	213.19
258.918	200.19
259.151	205.19
259.383	219.19
259.616	226.19
259.849	232.19
260.081	236.19
260.314	243.19
260.547	249.19
260.779	227.19
261.012	235.19
261.244	220.19
261.477	227.19
261.71	218.19
261.942	228.19
262.175	251.19
262.407	209.19
262.64	225.19
262.872	213.19
263.105	220.19
263.337	229.19
263.57	205.19
263.802	206.19
264.035	224.19
264.267	204.19
264.499	230.19
264.732	219.19
264.964	203.19
265.197	217.19
265.429	226.19
265.661	213.19
265.894	220.19
266.126	210.19
266.358	231.19
266.591	218.19
266.823	237.19
267.055	212.19
267.287	227.19
267.52	236.19
267.752	244.19
267.984	241.19
268.216	243.19
268.448	246.19
268.681	241.19
268.913	245.19
269.145	263.19
269.377	292.19
269.609	269.19
269.841	256.19
270.073	295.19
270.306	283.19
270.538	330.19
270.77	319.19
271.002	293.19
271.234	292.19
271.466	307.19
271.698	327.19
271.93	303.19
272.162	312.19
272.394	306.19
272.626	292.19
272.858	286.19
273.09	286.19
273.322	278.19
273.553	278.19
273.785	267.19
274.017	264.19
274.249	278.19
274.481	259.19
274.713	268.19
274.945	275.19
275.176	277.19
275.408	275.19
275.64	292.19
275.872	271.19
276.104	292.19
276.335	263.19
276.567	255.19
276.799	307.19
277.031	309.19
277.262	331.19
277.494	332.19
277.726	330.19
277.957	292.19
278.189	295.19
278.421	277.19
278.652	271.19
278.884	288.19
279.115	267.19
279.347	279.19
279.579	289.19
279.81	292.19
280.042	281.19
280.273	298.19
280.505	300.19
280.736	287.19
280.968	273.19
281.199	275.19
281.431	285.19
281.662	307.19
281.894	288.19
282.125	297.19
282.356	312.19
282.588	305.19
282.819	326.19
283.051	311.19
283.282	291.19
283.513	304.19
283.745	319.19
283.976	292.19
284.207	312.19
284.439	289.19
284.67	288.19
284.901	303.19
285.132	293.19
285.364	300.19
285.595	294.19
285.826	289.19
286.057	306.19
286.288	305.19
286.52	296.19
286.751	303.19
286.982	321.19
287.213	305.19
287.444	297.19
287.675	297.19
287.906	303.19
288.138	330.19
288.369	321.19
288.6	317.19
288.831	316.19
289.062	339.19
289.293	323.19
289.524	317.19
289.755	330.19
289.986	302.19
290.217	310.19
290.448	314.19
290.679	321.19
290.91	327.19
291.141	314.19
291.371	316.19
291.602	331.19
291.833	309.19
292.064	293.19
292.295	310.19
292.526	313.19
292.757	308.19
292.987	293.19
293.218	339.19
293.449	341.19
293.68	318.19
293.91	326.19
294.141	299.19
294.372	329.19
294.603	317.19
294.833	336.19
295.064	303.19
295.295	316.19
295.525	309.19
295.756	321.19
295.987	329.19
296.217	364.19
296.448	355.19
296.679	335.19
296.909	330.19
297.14	347.19
297.37	342.19
297.601	334.19
297.831	338.19
298.062	327.19
298.292	337.19
298.523	321.19
298.753	331.19
298.984	331.19
299.214	338.19
299.445	342.19
299.675	352.19
299.905	340.19
300.136	324.19
300.366	339.19
300.597	340.19
300.827	351.19
301.057	373.19
301.288	361.19
301.518	364.19
301.748	353.19
301.979	343.19
302.209	361.19
302.439	356.19
302.669	372.19
302.9	347.19
303.13	358.19
303.36	367.19
303.59	379.19
303.82	386.19
304.051	384.19
304.281	358.19
304.511	364.19
304.741	363.19
304.971	374.19
305.201	361.19
305.431	356.19
305.661	358.19
305.891	350.19
306.121	359.19
306.352	371.19
306.582	385.19
306.812	354.19
307.042	369.19
307.272	359.19
307.502	348.19
307.731	379.19
307.961	356.19
308.191	377.19
308.421	367.19
308.651	359.19
308.881	379.19
309.111	391.19
309.341	374.19
309.571	391.19
309.8	383.19
310.03	399.19
310.26	394.19
310.49	391.19
310.72	418.19
310.949	425.19
311.179	431.19
311.409	411.19
311.639	394.19
311.868	416.19
312.098	407.19
312.328	412.19
312.557	419.19
312.787	433.19
313.017	439.19
313.246	413.19
313.476	406.19
313.706	435.19
313.935	444.19
314.165	438.19
314.394	427.19
314.624	433.19
314.853	414.19
315.083	409.19
315.312	401.19
315.542	410.19
315.771	417.19
316.001	412.19
316.23	435.19
316.46	415.19
316.689	416.19
316.919	398.19
317.148	443.19
317.377	403.19
317.607	410.19
317.836	410.19
318.065	407.19
318.295	400.19
318.524	420.19
318.753	404.19
318.983	411.19
319.212	394.19
319.441	417.19
319.67	426.19
319.9	423.19
320.129	404.19
320.358	405.19
320.587	454.19
320.816	442.19
321.046	425.19
321.275	425.19
321.504	420.19
321.733	447.19
321.962	426.19
322.191	445.19
322.42	453.19
322.649	474.19
322.878	479.19
323.108	484.19
323.337	499.19
323.566	520.19
323.795	535.19
324.024	571.19
324.253	703.19
324.482	943.19
324.71	1466.19
324.939	2010.19
325.168	1741.19
325.397	928.19
325.626	615.19
325.855	565.19
326.084	559.19
326.313	530.19
326.542	520.19
326.77	537.19
326.999	668.19
327.228	883.19
327.457	1261.19
327.686	1537.19
327.914	1014.19
328.143	708.19
328.372	600.19
328.6	584.19
328.829	563.19
329.058	563.19
329.287	572.19
329.515	575.19
329.744	519.19
329.972	506.19
330.201	511.19
330.43	527.19
330.658	566.19
330.887	605.19
331.115	582.19
331.344	539.19
331.572	537.19
331.801	541.19
332.03	504.19
332.258	501.19
332.486	490.19
332.715	503.19
332.943	500.19
333.172	500.19
333.4	516.19
333.629	519.19
333.857	529.19
334.085	516.19
334.314	549.19
334.542	542.19
334.771	555.19
334.999	513.19
335.227	502.19
335.455	521.19
335.684	487.19
335.912	470.19
336.14	507.19
336.369	484.19
336.597	487.19
336.825	502.19
337.053	479.19
337.281	489.19
337.51	482.19
337.738	488.19
337.966	490.19
338.194	484.19
338.422	481.19
338.65	475.19
338.878	472.19
339.106	468.19
339.334	465.19
339.562	454.19
339.79	461.19
340.018	465.19
340.246	459.19
340.474	473.19
340.702	479.19
340.93	468.19
341.158	473.19
341.386	464.19
341.614	468.19
341.842	458.19
342.07	451.19
342.298	447.19
342.526	441.19
342.754	431.19
342.981	440.19
343.209	450.19
343.437	475.19
343.665	477.19
343.893	487.19
344.12	493.19
344.348	487.19
344.576	489.19
344.804	459.19
345.031	469.19
345.259	473.19
345.487	479.19
345.714	450.19
345.942	445.19
346.17	450.19
346.397	434.19
346.625	457.19
346.853	455.19
347.08	452.19
347.308	450.19
347.535	458.19
347.763	456.19
347.99	454.19
348.218	460.19
348.445	448.19
348.673	475.19
348.9	439.19
349.128	434.19
349.355	442.19
349.583	421.19
349.81	439.19
350.037	423.19
350.265	413.19
350.492	424.19
350.72	429.19
350.947	425.19
351.174	443.19
351.402	460.19
351.629	450.19
351.856	457.19
352.083	447.19
352.311	454.19
352.538	457.19
352.765	438.19
352.992	445.19
353.22	446.19
353.447	436.19
353.674	444.19
353.901	433.19
354.128	419.19
354.355	409.19
354.583	410.19
354.81	431.19
355.037	401.19
355.264	426.19
355.491	413.19
355.718	407.19
355.945	407.19
356.172	417.19
356.399	395.19
356.626	424.19
356.853	425.19
357.08	394.19
357.307	431.19
357.534	418.19
357.761	391.19
357.988	403.19
358.215	435.19
358.441	409.19
358.668	403.19
358.895	413.19
359.122	410.19
359.349	440.19
359.576	437.19
359.802	458.19
360.029	479.19
360.256	498.19
360.483	464.19
360.709	440.19
360.936	437.19
361.163	437.19
361.39	440.19
361.616	441.19
361.843	423.19
362.07	449.19
362.296	436.19
362.523	445.19
362.749	453.19
362.976	411.19
363.203	421.19
363.429	420.19
363.656	435.19
363.882	430.19
364.109	413.19
364.335	417.19
364.562	434.19
364.788	412.19
365.015	435.19
365.241	417.19
365.468	425.19
365.694	416.19
365.92	433.19
366.147	428.19
366.373	422.19
366.599	411.19
366.826	423.19
367.052	413.19
367.278	416.19
367.505	417.19
367.731	415.19
367.957	433.19
368.184	417.19
368.41	413.19
368.636	429.19
368.862	440.19
369.089	436.19
369.315	397.19
369.541	439.19
369.767	408.19
369.993	415.19
370.219	416.19
370.445	435.19
370.672	411.19
370.898	424.19
371.124	418.19
371.35	426.19
371.576	412.19
371.802	414.19
372.028	409.19
372.254	420.19
372.48	418.19
372.706	435.19
372.932	419.19
373.158	422.19
373.384	426.19
373.61	433.19
373.835	411.19
374.061	415.19
374.287	435.19
374.513	435.19
374.739	432.19
374.965	441.19
375.191	451.19
375.416	433.19
375.642	424.19
375.868	441.19
376.094	441.19
376.319	412.19
376.545	418.19
376.771	422.19
376.997	395.19
377.222	417.19
377.448	413.19
377.674	423.19
377.899	404.19
378.125	419.19
378.35	405.19
378.576	422.19
378.802	403.19
379.027	413.19
379.253	408.19
379.478	420.19
379.704	416.19
379.929	409.19
380.155	412.19
380.38	408.19
380.606	409.19
380.831	405.19
381.057	438.19
381.282	427.19
381.507	436.19
381.733	437.19
381.958	427.19
382.184	418.19
382.409	402.19
382.634	419.19
382.86	429.19
383.085	448.19
383.31	430.19
383.535	435.19
383.761	431.19
383.986	432.19
384.211	439.19
384.436	455.19
384.662	472.19
384.887	476.19
385.112	460.19
385.337	479.19
385.562	459.19
385.787	466.19
386.013	477.19
386.238	470.19
386.463	488.19
386.688	482.19
386.913	467.19
387.138	458.19
387.363	465.19
387.588	454.19
387.813	447.19
388.038	460.19
388.263	447.19
388.488	455.19
388.713	463.19
388.938	455.19
389.163	458.19
389.387	467.19
389.612	449.19
389.837	446.19
390.062	454.19
390.287	477.19
390.512	463.19
390.736	458.19
390.961	458.19
391.186	454.19
391.411	470.19
391.636	451.19
391.86	476.19
392.085	498.19
392.31	499.19
392.534	495.19
392.759	485.19
392.984	493.19
393.208	467.19
393.433	464.19
393.658	473.19
393.882	456.19
394.107	485.19
394.331	460.19
394.556	476.19
394.78	472.19
395.005	472.19
395.229	504.19
395.454	486.19
395.678	492.19
395.903	481.19
396.127	503.19
396.352	495.19
396.576	503.19
396.801	464.19
397.025	486.19
397.249	482.19
397.474	505.19
397.698	503.19
397.922	537.19
398.147	541.19
398.371	535.19
398.595	537.19
398.82	540.19
399.044	562.19
399.268	595.19
399.492	627.19
399.717	673.19
399.941	711.19
400.165	703.19
400.389	680.19
400.613	618.19
400.837	591.19
401.062	569.19
401.286	545.19
401.51	552.19
401.734	537.19
401.958	569.19
402.182	559.19
402.406	554.19
402.63	547.19
402.854	557.19
403.078	560.19
403.302	583.19
403.526	585.19
403.75	579.19
403.974	565.19
404.198	575.19
404.422	599.19
404.645	597.19
404.869	569.19
405.093	626.19
405.317	594.19
405.541	639.19
405.765	601.19
405.988	604.19
406.212	610.19
406.436	620.19
406.66	643.19
406.883	647.19
407.107	653.19
407.331	688.19
407.555	734.19
407.778	728.19
408.002	690.19
408.226	654.19
408.449	615.19
408.673	609.19
408.896	641.19
409.12	640.19
409.344	636.19
409.567	592.19
409.791	571.19
410.014	573.19
410.238	548.19
410.461	572.19
410.685	581.19
410.908	583.19
411.132	601.19
411.355	638.19
411.578	609.19
411.802	552.19
412.025	566.19
412.249	561.19
412.472	559.19
412.695	581.19
412.919	580.19
413.142	562.19
413.365	562.19
413.589	544.19
413.812	537.19
414.035	523.19
414.258	513.19
414.482	557.19
414.705	533.19
414.928	524.19
415.151	530.19
415.374	514.19
415.597	513.19
415.821	499.19
416.044	544.19
416.267	513.19
416.49	540.19
416.713	525.19
416.936	535.19
417.159	533.19
417.382	505.19
417.605	537.19
417.828	548.19
418.051	549.19
418.274	552.19
418.497	528.19
418.72	525.19
418.943	511.19
419.166	546.19
419.389	563.19
419.611	540.19
419.834	564.19
420.057	581.19
420.28	545.19
420.503	537.19
420.726	551.19
420.948	527.19
421.171	604.19
421.394	626.19
421.617	547.19
421.839	531.19
422.062	567.19
422.285	563.19
422.507	616.19
422.73	671.19
422.953	658.19
423.175	586.19
423.398	567.19
423.621	597.19
423.843	582.19
424.066	595.19
424.288	565.19
424.511	625.19
424.733	657.19
424.956	716.19
425.178	683.19
425.401	687.19
425.623	705.19
425.846	609.19
426.068	572.19
426.291	563.19
426.513	564.19
426.735	569.19
426.958	611.19
427.18	677.19
427.402	821.19
427.625	881.19
427.847	745.19
428.069	629.19
428.292	595.19
428.514	550.19
428.736	544.19
428.958	560.19
429.181	507.19
429.403	523.19
429.625	516.19
429.847	559.19
430.069	592.19
430.292	607.19
430.514	547.19
430.736	540.19
430.958	523.19
431.18	493.19
431.402	511.19
431.624	468.19
431.846	501.19
432.068	507.19
432.29	487.19
432.512	503.19
432.734	516.19
432.956	492.19
433.178	499.19
433.4	499.19
433.622	498.19
433.844	503.19
434.066	512.19
434.287	505.19
434.509	480.19
434.731	502.19
434.953	529.19
435.175	542.19
435.397	581.19
435.618	548.19
435.84	590.19
436.062	691.19
436.284	765.19
436.505	636.19
436.727	559.19
436.949	520.19
437.17	510.19
437.392	516.19
437.614	541.19
437.835	555.19
438.057	623.19
438.278	719.19
438.5	735.19
438.721	788.19
438.943	743.19
439.165	600.19
439.386	575.19
439.608	579.19
439.829	568.19
440.05	579.19
440.272	602.19
440.493	588.19
440.715	562.19
440.936	545.19
441.158	533.19
441.379	545.19
441.6	551.19
441.822	565.19
442.043	623.19
442.264	699.19
442.486	713.19
442.707	596.19
442.928	555.19
443.149	588.19
443.371	619.19
443.592	649.19
443.813	735.19
444.034	793.19
444.255	645.19
444.476	625.19
444.698	619.19
444.919	598.19
445.14	721.19
445.361	653.19
445.582	598.19
445.803	663.19
446.024	779.19
446.245	759.19
446.466	663.19
446.687	579.19
446.908	552.19
447.129	523.19
447.35	509.19
447.571	529.19
447.792	517.19
448.013	527.19
448.234	538.19
448.455	568.19
448.675	673.19
448.896	793.19
449.117	645.19
449.338	626.19
449.559	726.19
449.779	807.19
450	652.19
450.221	543.19
450.442	511.19
450.662	488.19
450.883	484.19
451.104	512.19
451.324	511.19
451.545	496.19
451.766	484.19
451.986	469.19
452.207	460.19
452.428	460.19
452.648	470.19
452.869	479.19
453.089	462.19
453.31	491.19
453.53	450.19
453.751	453.19
453.971	458.19
454.192	486.19
454.412	435.19
454.633	441.19
454.853	455.19
455.073	477.19
455.294	473.19
455.514	530.19
455.734	503.19
455.955	467.19
456.175	460.19
456.395	432.19
456.616	428.19
456.836	432.19
457.056	437.19
457.276	439.19
457.497	447.19
457.717	419.19
457.937	447.19
458.157	464.19
458.377	466.19
458.598	475.19
458.818	515.19
459.038	593.19
459.258	611.19
459.478	534.19
459.698	509.19
459.918	506.19
460.138	503.19
460.358	525.19
460.578	512.19
460.798	531.19
461.018	541.19
461.238	530.19
461.458	500.19
461.678	523.19
461.898	536.19
462.118	525.19
462.338	554.19
462.558	559.19
462.777	573.19
462.997	618.19
463.217	625.19
463.437	611.19
463.657	587.19
463.876	591.19
464.096	604.19
464.316	599.19
464.536	587.19
464.755	610.19
464.975	565.19
465.195	618.19
465.414	653.19
465.634	594.19
465.854	547.19
466.073	527.19
466.293	515.19
466.512	498.19
466.732	499.19
466.951	470.19
467.171	483.19
467.391	480.19
467.61	491.19
467.829	499.19
468.049	473.19
468.268	470.19
468.488	467.19
468.707	451.19
468.927	444.19
469.146	477.19
469.365	457.19
469.585	456.19
469.804	469.19
470.023	492.19
470.243	496.19
470.462	499.19
470.681	491.19
470.901	503.19
471.12	501.19
471.339	483.19
471.558	494.19
471.777	481.19
471.997	503.19
472.216	472.19
472.435	499.19
472.654	478.19
472.873	460.19
473.092	471.19
473.311	456.19
473.53	495.19
473.749	486.19
473.968	522.19
474.187	605.19
474.406	657.19
474.625	529.19
474.844	501.19
475.063	486.19
475.282	489.19
475.501	490.19
475.72	493.19
475.939	490.19
476.158	488.19
476.377	483.19
476.596	481.19
476.814	490.19
477.033	496.19
477.252	519.19
477.471	527.19
477.69	525.19
477.908	536.19
478.127	537.19
478.346	543.19
478.564	557.19
478.783	557.19
479.002	556.19
479.22	563.19
479.439	561.19
479.658	607.19
479.876	603.19
480.095	601.19
480.313	627.19
480.532	622.19
480.751	596.19
480.969	553.19
481.188	592.19
481.406	612.19
481.624	577.19
481.843	586.19
482.061	544.19
482.28	547.19
482.498	565.19
482.717	545.19
482.935	548.19
483.153	545.19
483.372	552.19
483.59	540.19
483.808	524.19
484.027	546.19
484.245	565.19
484.463	551.19
484.681	563.19
484.9	566.19
485.118	566.19
485.336	582.19
485.554	587.19
485.772	559.19
485.99	571.19
486.209	579.19
486.427	575.19
486.645	582.19
486.863	625.19
487.081	602.19
487.299	590.19
487.517	592.19
487.735	584.19
487.953	588.19
488.171	597.19
488.389	587.19
488.607	605.19
488.825	594.19
489.043	624.19
489.261	611.19
489.479	620.19
489.696	604.19
489.914	604.19
490.132	588.19
490.35	613.19
490.568	623.19
490.786	624.19
491.003	643.19
491.221	637.19
491.439	681.19
491.657	667.19
491.874	659.19
492.092	659.19
492.31	687.19
492.527	651.19
492.745	679.19
492.963	652.19
493.18	691.19
493.398	675.19
493.615	679.19
493.833	698.19
494.05	705.19
494.268	704.19
494.485	675.19
494.703	683.19
494.92	688.19
495.138	711.19
495.355	693.19
495.573	689.19
495.79	704.19
496.008	712.19
496.225	700.19
496.442	708.19
496.66	693.19
496.877	692.19
497.094	697.19
497.312	721.19
497.529	748.19
497.746	740.19
497.963	782.19
498.181	770.19
498.398	804.19
498.615	839.19
498.832	815.19
499.049	842.19
499.267	882.19
499.484	944.19
499.701	991.19
499.918	1036.19
500.135	1149.19
500.352	1178.19
500.569	1203.19
500.786	1218.19
501.003	1156.19
501.22	1122.19
501.437	1058.19
501.654	1015.19
501.871	968.19
