Data from 1985.PennyLincolnUp.Lamp.En5.5.200Scan.071819.P1_HRD10591_17-02-28-970.txt Node
Date: Thu Jul 18 17:02:28 EDT 2019
User: cochatt
Spectrometer: HR+D1059
Trigger mode: 1
Integration Time (sec): 1.000000E-1
Scans to average: 1
Electric dark correction enabled: true
Nonlinearity correction enabled: false
Boxcar width: 0
XAxis mode: Wavelengths
Number of Pixels in Spectrum: 2048
>>>>>Begin Spectral Data<<<<<
223.165	-15.38
223.4	-15.38
223.635	-15.38
223.869	-25.38
224.104	-14.38
224.338	-4.38
224.573	-10.38
224.808	2.62
225.042	-2.38
225.277	0.62
225.511	-14.38
225.746	-11.38
225.98	-2.38
226.215	4.62
226.449	18.62
226.683	18.62
226.918	20.62
227.152	34.62
227.387	38.62
227.621	47.62
227.856	54.62
228.09	45.62
228.324	43.62
228.559	50.62
228.793	57.62
229.027	85.62
229.262	107.62
229.496	117.62
229.73	127.62
229.964	138.62
230.199	123.62
230.433	117.62
230.667	124.62
230.901	98.62
231.136	107.62
231.37	94.62
231.604	109.62
231.838	113.62
232.072	113.62
232.306	107.62
232.541	109.62
232.775	113.62
233.009	99.62
233.243	110.62
233.477	121.62
233.711	132.62
233.945	117.62
234.179	115.62
234.413	124.62
234.647	117.62
234.881	115.62
235.115	105.62
235.349	106.62
235.583	104.62
235.817	106.62
236.051	118.62
236.285	119.62
236.519	110.62
236.753	125.62
236.987	135.62
237.221	182.62
237.455	233.62
237.689	173.62
237.922	144.62
238.156	144.62
238.39	127.62
238.624	128.62
238.858	113.62
239.091	109.62
239.325	102.62
239.559	119.62
239.793	130.62
240.027	134.62
240.26	138.62
240.494	163.62
240.728	155.62
240.961	141.62
241.195	153.62
241.429	141.62
241.662	133.62
241.896	116.62
242.13	124.62
242.363	137.62
242.597	144.62
242.83	145.62
243.064	150.62
243.298	136.62
243.531	135.62
243.765	145.62
243.998	151.62
244.232	138.62
244.465	139.62
244.699	155.62
244.932	154.62
245.166	140.62
245.399	141.62
245.633	140.62
245.866	157.62
246.099	145.62
246.333	141.62
246.566	154.62
246.8	144.62
247.033	148.62
247.266	163.62
247.5	158.62
247.733	162.62
247.966	152.62
248.2	157.62
248.433	170.62
248.666	158.62
248.899	170.62
249.133	177.62
249.366	191.62
249.599	186.62
249.832	189.62
250.066	188.62
250.299	159.62
250.532	199.62
250.765	185.62
250.998	209.62
251.231	216.62
251.465	208.62
251.698	206.62
251.931	188.62
252.164	189.62
252.397	193.62
252.63	189.62
252.863	197.62
253.096	206.62
253.329	218.62
253.562	211.62
253.795	194.62
254.028	210.62
254.261	196.62
254.494	209.62
254.727	233.62
254.96	265.62
255.193	251.62
255.426	245.62
255.659	217.62
255.892	190.62
256.124	213.62
256.357	207.62
256.59	210.62
256.823	195.62
257.056	192.62
257.289	218.62
257.521	207.62
257.754	215.62
257.987	203.62
258.22	203.62
258.452	203.62
258.685	210.62
258.918	203.62
259.151	213.62
259.383	215.62
259.616	221.62
259.849	217.62
260.081	223.62
260.314	257.62
260.547	247.62
260.779	269.62
261.012	242.62
261.244	213.62
261.477	230.62
261.71	215.62
261.942	210.62
262.175	216.62
262.407	237.62
262.64	219.62
262.872	224.62
263.105	206.62
263.337	218.62
263.57	217.62
263.802	212.62
264.035	207.62
264.267	236.62
264.499	219.62
264.732	226.62
264.964	214.62
265.197	221.62
265.429	221.62
265.661	202.62
265.894	230.62
266.126	233.62
266.358	215.62
266.591	221.62
266.823	222.62
267.055	237.62
267.287	246.62
267.52	238.62
267.752	227.62
267.984	245.62
268.216	234.62
268.448	252.62
268.681	237.62
268.913	249.62
269.145	273.62
269.377	287.62
269.609	275.62
269.841	263.62
270.073	287.62
270.306	302.62
270.538	309.62
270.77	310.62
271.002	301.62
271.234	291.62
271.466	302.62
271.698	311.62
271.93	293.62
272.162	300.62
272.394	308.62
272.626	300.62
272.858	271.62
273.09	286.62
273.322	260.62
273.553	268.62
273.785	270.62
274.017	267.62
274.249	261.62
274.481	263.62
274.713	285.62
274.945	274.62
275.176	282.62
275.408	282.62
275.64	282.62
275.872	271.62
276.104	281.62
276.335	266.62
276.567	259.62
276.799	297.62
277.031	315.62
277.262	318.62
277.494	336.62
277.726	308.62
277.957	295.62
278.189	278.62
278.421	291.62
278.652	287.62
278.884	279.62
279.115	273.62
279.347	284.62
279.579	279.62
279.81	290.62
280.042	280.62
280.273	289.62
280.505	278.62
280.736	289.62
280.968	288.62
281.199	294.62
281.431	267.62
281.662	281.62
281.894	299.62
282.125	292.62
282.356	319.62
282.588	331.62
282.819	333.62
283.051	308.62
283.282	292.62
283.513	285.62
283.745	300.62
283.976	306.62
284.207	297.62
284.439	294.62
284.67	294.62
284.901	301.62
285.132	293.62
285.364	308.62
285.595	310.62
285.826	326.62
286.057	300.62
286.288	305.62
286.52	291.62
286.751	298.62
286.982	313.62
287.213	308.62
287.444	298.62
287.675	323.62
287.906	321.62
288.138	309.62
288.369	307.62
288.6	312.62
288.831	314.62
289.062	327.62
289.293	323.62
289.524	322.62
289.755	322.62
289.986	293.62
290.217	302.62
290.448	312.62
290.679	309.62
290.91	326.62
291.141	326.62
291.371	344.62
291.602	321.62
291.833	316.62
292.064	333.62
292.295	329.62
292.526	302.62
292.757	315.62
292.987	301.62
293.218	305.62
293.449	314.62
293.68	329.62
293.91	318.62
294.141	326.62
294.372	340.62
294.603	318.62
294.833	306.62
295.064	318.62
295.295	316.62
295.525	293.62
295.756	323.62
295.987	345.62
296.217	363.62
296.448	335.62
296.679	350.62
296.909	328.62
297.14	333.62
297.37	328.62
297.601	331.62
297.831	324.62
298.062	332.62
298.292	330.62
298.523	345.62
298.753	336.62
298.984	339.62
299.214	342.62
299.445	328.62
299.675	327.62
299.905	331.62
300.136	356.62
300.366	325.62
300.597	344.62
300.827	354.62
301.057	360.62
301.288	358.62
301.518	344.62
301.748	370.62
301.979	361.62
302.209	358.62
302.439	353.62
302.669	354.62
302.9	351.62
303.13	363.62
303.36	364.62
303.59	364.62
303.82	351.62
304.051	379.62
304.281	354.62
304.511	356.62
304.741	360.62
304.971	357.62
305.201	359.62
305.431	369.62
305.661	350.62
305.891	345.62
306.121	356.62
306.352	366.62
306.582	358.62
306.812	365.62
307.042	374.62
307.272	361.62
307.502	353.62
307.731	356.62
307.961	361.62
308.191	369.62
308.421	365.62
308.651	364.62
308.881	357.62
309.111	374.62
309.341	357.62
309.571	385.62
309.8	371.62
310.03	405.62
310.26	397.62
310.49	407.62
310.72	387.62
310.949	413.62
311.179	411.62
311.409	400.62
311.639	400.62
311.868	386.62
312.098	409.62
312.328	413.62
312.557	437.62
312.787	435.62
313.017	419.62
313.246	421.62
313.476	390.62
313.706	421.62
313.935	421.62
314.165	430.62
314.394	422.62
314.624	413.62
314.853	415.62
315.083	406.62
315.312	394.62
315.542	411.62
315.771	418.62
316.001	392.62
316.23	393.62
316.46	413.62
316.689	424.62
316.919	415.62
317.148	423.62
317.377	423.62
317.607	410.62
317.836	401.62
318.065	385.62
318.295	409.62
318.524	390.62
318.753	414.62
318.983	406.62
319.212	407.62
319.441	426.62
319.67	418.62
319.9	406.62
320.129	396.62
320.358	390.62
320.587	414.62
320.816	410.62
321.046	411.62
321.275	435.62
321.504	423.62
321.733	413.62
321.962	426.62
322.191	450.62
322.42	436.62
322.649	458.62
322.878	454.62
323.108	503.62
323.337	484.62
323.566	509.62
323.795	519.62
324.024	582.62
324.253	656.62
324.482	917.62
324.71	1375.62
324.939	1979.62
325.168	1661.62
325.397	881.62
325.626	627.62
325.855	561.62
326.084	517.62
326.313	504.62
326.542	493.62
326.77	545.62
326.999	651.62
327.228	833.62
327.457	1216.62
327.686	1465.62
327.914	972.62
328.143	679.62
328.372	596.62
328.6	582.62
328.829	557.62
329.058	564.62
329.287	574.62
329.515	565.62
329.744	490.62
329.972	535.62
330.201	513.62
330.43	543.62
330.658	559.62
330.887	595.62
331.115	609.62
331.344	527.62
331.572	510.62
331.801	507.62
332.03	505.62
332.258	492.62
332.486	499.62
332.715	501.62
332.943	497.62
333.172	473.62
333.4	517.62
333.629	518.62
333.857	520.62
334.085	516.62
334.314	520.62
334.542	537.62
334.771	534.62
334.999	512.62
335.227	513.62
335.455	512.62
335.684	489.62
335.912	479.62
336.14	483.62
336.369	489.62
336.597	478.62
336.825	500.62
337.053	493.62
337.281	483.62
337.51	464.62
337.738	494.62
337.966	462.62
338.194	489.62
338.422	490.62
338.65	481.62
338.878	486.62
339.106	476.62
339.334	458.62
339.562	461.62
339.79	453.62
340.018	449.62
340.246	470.62
340.474	461.62
340.702	444.62
340.93	452.62
341.158	454.62
341.386	475.62
341.614	439.62
341.842	458.62
342.07	462.62
342.298	458.62
342.526	435.62
342.754	445.62
342.981	453.62
343.209	459.62
343.437	477.62
343.665	471.62
343.893	491.62
344.12	487.62
344.348	462.62
344.576	484.62
344.804	476.62
345.031	468.62
345.259	500.62
345.487	473.62
345.714	463.62
345.942	442.62
346.17	441.62
346.397	441.62
346.625	425.62
346.853	413.62
347.08	402.62
347.308	424.62
347.535	434.62
347.763	443.62
347.99	436.62
348.218	453.62
348.445	422.62
348.673	445.62
348.9	430.62
349.128	410.62
349.355	410.62
349.583	434.62
349.81	438.62
350.037	448.62
350.265	403.62
350.492	413.62
350.72	425.62
350.947	433.62
351.174	450.62
351.402	451.62
351.629	442.62
351.856	419.62
352.083	444.62
352.311	452.62
352.538	459.62
352.765	462.62
352.992	439.62
353.22	411.62
353.447	430.62
353.674	435.62
353.901	410.62
354.128	385.62
354.355	414.62
354.583	410.62
354.81	417.62
355.037	427.62
355.264	404.62
355.491	399.62
355.718	407.62
355.945	387.62
356.172	408.62
356.399	415.62
356.626	433.62
356.853	421.62
357.08	399.62
357.307	418.62
357.534	407.62
357.761	418.62
357.988	425.62
358.215	406.62
358.441	411.62
358.668	401.62
358.895	417.62
359.122	409.62
359.349	428.62
359.576	433.62
359.802	446.62
360.029	473.62
360.256	461.62
360.483	463.62
360.709	432.62
360.936	450.62
361.163	423.62
361.39	440.62
361.616	413.62
361.843	401.62
362.07	433.62
362.296	435.62
362.523	427.62
362.749	427.62
362.976	427.62
363.203	416.62
363.429	407.62
363.656	411.62
363.882	434.62
364.109	403.62
364.335	397.62
364.562	417.62
364.788	409.62
365.015	404.62
365.241	404.62
365.468	434.62
365.694	405.62
365.92	427.62
366.147	401.62
366.373	384.62
366.599	423.62
366.826	409.62
367.052	409.62
367.278	424.62
367.505	434.62
367.731	405.62
367.957	408.62
368.184	414.62
368.41	412.62
368.636	429.62
368.862	434.62
369.089	429.62
369.315	414.62
369.541	405.62
369.767	416.62
369.993	407.62
370.219	439.62
370.445	415.62
370.672	406.62
370.898	418.62
371.124	415.62
371.35	403.62
371.576	417.62
371.802	408.62
372.028	427.62
372.254	425.62
372.48	415.62
372.706	420.62
372.932	429.62
373.158	428.62
373.384	424.62
373.61	423.62
373.835	405.62
374.061	435.62
374.287	429.62
374.513	433.62
374.739	449.62
374.965	395.62
375.191	439.62
375.416	420.62
375.642	442.62
375.868	425.62
376.094	428.62
376.319	394.62
376.545	407.62
376.771	430.62
376.997	430.62
377.222	417.62
377.448	405.62
377.674	412.62
377.899	411.62
378.125	414.62
378.35	400.62
378.576	404.62
378.802	405.62
379.027	405.62
379.253	406.62
379.478	411.62
379.704	423.62
379.929	419.62
380.155	413.62
380.38	393.62
380.606	412.62
380.831	430.62
381.057	430.62
381.282	417.62
381.507	403.62
381.733	428.62
381.958	419.62
382.184	426.62
382.409	420.62
382.634	411.62
382.86	407.62
383.085	433.62
383.31	423.62
383.535	441.62
383.761	443.62
383.986	430.62
384.211	445.62
384.436	448.62
384.662	448.62
384.887	442.62
385.112	457.62
385.337	450.62
385.562	457.62
385.787	453.62
386.013	472.62
386.238	469.62
386.463	472.62
386.688	461.62
386.913	449.62
387.138	467.62
387.363	473.62
387.588	462.62
387.813	462.62
388.038	466.62
388.263	470.62
388.488	482.62
388.713	457.62
388.938	454.62
389.163	447.62
389.387	465.62
389.612	469.62
389.837	459.62
390.062	450.62
390.287	425.62
390.512	443.62
390.736	446.62
390.961	456.62
391.186	462.62
391.411	485.62
391.636	475.62
391.86	477.62
392.085	471.62
392.31	478.62
392.534	455.62
392.759	460.62
392.984	456.62
393.208	452.62
393.433	458.62
393.658	439.62
393.882	480.62
394.107	465.62
394.331	452.62
394.556	451.62
394.78	456.62
395.005	451.62
395.229	464.62
395.454	469.62
395.678	469.62
395.903	505.62
396.127	491.62
396.352	495.62
396.576	478.62
396.801	485.62
397.025	480.62
397.249	468.62
397.474	485.62
397.698	510.62
397.922	512.62
398.147	526.62
398.371	529.62
398.595	553.62
398.82	531.62
399.044	573.62
399.268	587.62
399.492	628.62
399.717	645.62
399.941	685.62
400.165	679.62
400.389	673.62
400.613	621.62
400.837	597.62
401.062	543.62
401.286	527.62
401.51	533.62
401.734	519.62
401.958	536.62
402.182	531.62
402.406	556.62
402.63	550.62
402.854	541.62
403.078	569.62
403.302	578.62
403.526	570.62
403.75	573.62
403.974	552.62
404.198	572.62
404.422	588.62
404.645	563.62
404.869	568.62
405.093	606.62
405.317	595.62
405.541	630.62
405.765	590.62
405.988	591.62
406.212	600.62
406.436	636.62
406.66	629.62
406.883	592.62
407.107	637.62
407.331	651.62
407.555	741.62
407.778	717.62
408.002	667.62
408.226	630.62
408.449	611.62
408.673	609.62
408.896	627.62
409.12	664.62
409.344	622.62
409.567	564.62
409.791	555.62
410.014	541.62
410.238	547.62
410.461	543.62
410.685	558.62
410.908	563.62
411.132	602.62
411.355	622.62
411.578	589.62
411.802	551.62
412.025	549.62
412.249	542.62
412.472	553.62
412.695	563.62
412.919	560.62
413.142	553.62
413.365	540.62
413.589	540.62
413.812	517.62
414.035	522.62
414.258	498.62
414.482	510.62
414.705	507.62
414.928	541.62
415.151	529.62
415.374	501.62
415.597	498.62
415.821	517.62
416.044	526.62
416.267	500.62
416.49	512.62
416.713	486.62
416.936	514.62
417.159	516.62
417.382	518.62
417.605	502.62
417.828	521.62
418.051	531.62
418.274	506.62
418.497	539.62
418.72	533.62
418.943	513.62
419.166	536.62
419.389	556.62
419.611	544.62
419.834	551.62
420.057	549.62
420.28	514.62
420.503	518.62
420.726	545.62
420.948	560.62
421.171	579.62
421.394	596.62
421.617	545.62
421.839	533.62
422.062	539.62
422.285	558.62
422.507	577.62
422.73	630.62
422.953	627.62
423.175	580.62
423.398	556.62
423.621	565.62
423.843	601.62
424.066	589.62
424.288	562.62
424.511	582.62
424.733	629.62
424.956	703.62
425.178	683.62
425.401	655.62
425.623	695.62
425.846	601.62
426.068	572.62
426.291	547.62
426.513	569.62
426.735	550.62
426.958	595.62
427.18	659.62
427.402	788.62
427.625	867.62
427.847	744.62
428.069	652.62
428.292	566.62
428.514	555.62
428.736	526.62
428.958	527.62
429.181	494.62
429.403	520.62
429.625	522.62
429.847	522.62
430.069	612.62
430.292	590.62
430.514	526.62
430.736	515.62
430.958	497.62
431.18	479.62
431.402	474.62
431.624	487.62
431.846	483.62
432.068	487.62
432.29	502.62
432.512	498.62
432.734	490.62
432.956	473.62
433.178	530.62
433.4	518.62
433.622	509.62
433.844	483.62
434.066	505.62
434.287	515.62
434.509	496.62
434.731	519.62
434.953	530.62
435.175	525.62
435.397	551.62
435.618	557.62
435.84	600.62
436.062	663.62
436.284	730.62
436.505	616.62
436.727	535.62
436.949	524.62
437.17	545.62
437.392	520.62
437.614	514.62
437.835	535.62
438.057	629.62
438.278	694.62
438.5	713.62
438.721	785.62
438.943	754.62
439.165	619.62
439.386	552.62
439.608	537.62
439.829	529.62
440.05	565.62
440.272	633.62
440.493	581.62
440.715	558.62
440.936	531.62
441.158	519.62
441.379	524.62
441.6	524.62
441.822	545.62
442.043	596.62
442.264	661.62
442.486	691.62
442.707	600.62
442.928	560.62
443.149	573.62
443.371	597.62
443.592	620.62
443.813	720.62
444.034	774.62
444.255	654.62
444.476	588.62
444.698	583.62
444.919	590.62
445.14	700.62
445.361	651.62
445.582	611.62
445.803	662.62
446.024	739.62
446.245	748.62
446.466	691.62
446.687	586.62
446.908	551.62
447.129	529.62
447.35	525.62
447.571	514.62
447.792	486.62
448.013	500.62
448.234	501.62
448.455	568.62
448.675	667.62
448.896	774.62
449.117	655.62
449.338	622.62
449.559	724.62
449.779	801.62
450	646.62
450.221	563.62
450.442	509.62
450.662	493.62
450.883	492.62
451.104	505.62
451.324	477.62
451.545	480.62
451.766	475.62
451.986	452.62
452.207	449.62
452.428	472.62
452.648	456.62
452.869	453.62
453.089	458.62
453.31	467.62
453.53	463.62
453.751	444.62
453.971	453.62
454.192	485.62
454.412	454.62
454.633	437.62
454.853	446.62
455.073	442.62
455.294	475.62
455.514	537.62
455.734	501.62
455.955	460.62
456.175	427.62
456.395	426.62
456.616	436.62
456.836	421.62
457.056	424.62
457.276	430.62
457.497	443.62
457.717	441.62
457.937	437.62
458.157	424.62
458.377	452.62
458.598	464.62
458.818	521.62
459.038	585.62
459.258	595.62
459.478	525.62
459.698	492.62
459.918	503.62
460.138	513.62
460.358	524.62
460.578	529.62
460.798	515.62
461.018	531.62
461.238	513.62
461.458	517.62
461.678	538.62
461.898	517.62
462.118	524.62
462.338	542.62
462.558	561.62
462.777	571.62
462.997	579.62
463.217	585.62
463.437	602.62
463.657	599.62
463.876	558.62
464.096	567.62
464.316	571.62
464.536	598.62
464.755	556.62
464.975	555.62
465.195	602.62
465.414	641.62
465.634	577.62
465.854	515.62
466.073	512.62
466.293	493.62
466.512	477.62
466.732	466.62
466.951	468.62
467.171	451.62
467.391	474.62
467.61	486.62
467.829	504.62
468.049	509.62
468.268	460.62
468.488	474.62
468.707	468.62
468.927	449.62
469.146	463.62
469.365	461.62
469.585	451.62
469.804	474.62
470.023	490.62
470.243	488.62
470.462	482.62
470.681	514.62
470.901	471.62
471.12	448.62
471.339	471.62
471.558	470.62
471.777	475.62
471.997	464.62
472.216	469.62
472.435	487.62
472.654	475.62
472.873	452.62
473.092	445.62
473.311	468.62
473.53	455.62
473.749	476.62
473.968	499.62
474.187	617.62
474.406	633.62
474.625	505.62
474.844	486.62
475.063	479.62
475.282	456.62
475.501	474.62
475.72	489.62
475.939	476.62
476.158	503.62
476.377	491.62
476.596	488.62
476.814	510.62
477.033	485.62
477.252	526.62
477.471	519.62
477.69	524.62
477.908	512.62
478.127	555.62
478.346	543.62
478.564	541.62
478.783	531.62
479.002	529.62
479.22	551.62
479.439	546.62
479.658	566.62
479.876	586.62
480.095	584.62
480.313	617.62
480.532	599.62
480.751	601.62
480.969	565.62
481.188	615.62
481.406	594.62
481.624	582.62
481.843	548.62
482.061	539.62
482.28	551.62
482.498	551.62
482.717	552.62
482.935	533.62
483.153	539.62
483.372	554.62
483.59	557.62
483.808	538.62
484.027	567.62
484.245	542.62
484.463	565.62
484.681	547.62
484.9	549.62
485.118	552.62
485.336	533.62
485.554	558.62
485.772	588.62
485.99	574.62
486.209	569.62
486.427	592.62
486.645	578.62
486.863	614.62
487.081	597.62
487.299	591.62
487.517	555.62
487.735	572.62
487.953	578.62
488.171	583.62
488.389	580.62
488.607	566.62
488.825	610.62
489.043	595.62
489.261	570.62
489.479	589.62
489.696	603.62
489.914	599.62
490.132	610.62
490.35	605.62
490.568	616.62
490.786	630.62
491.003	608.62
491.221	639.62
491.439	647.62
491.657	655.62
491.874	652.62
492.092	635.62
492.31	651.62
492.527	631.62
492.745	646.62
492.963	660.62
493.18	658.62
493.398	672.62
493.615	645.62
493.833	679.62
494.05	675.62
494.268	669.62
494.485	671.62
494.703	644.62
494.92	693.62
495.138	674.62
495.355	674.62
495.573	665.62
495.79	686.62
496.008	683.62
496.225	687.62
496.442	681.62
496.66	708.62
496.877	666.62
497.094	699.62
497.312	723.62
497.529	692.62
497.746	727.62
497.963	750.62
498.181	773.62
498.398	797.62
498.615	823.62
498.832	825.62
499.049	842.62
499.267	875.62
499.484	929.62
499.701	957.62
499.918	1000.62
500.135	1093.62
500.352	1182.62
500.569	1173.62
500.786	1179.62
501.003	1187.62
501.22	1094.62
501.437	1065.62
501.654	984.62
501.871	974.62
