Data from 1985.PennyLincolnUp.Lamp.En5.5.200Scan.071819.P1_HRD10591_17-03-03-970.txt Node
Date: Thu Jul 18 17:03:03 EDT 2019
User: cochatt
Spectrometer: HR+D1059
Trigger mode: 1
Integration Time (sec): 1.000000E-1
Scans to average: 1
Electric dark correction enabled: true
Nonlinearity correction enabled: false
Boxcar width: 0
XAxis mode: Wavelengths
Number of Pixels in Spectrum: 2048
>>>>>Begin Spectral Data<<<<<
223.165	-7.31
223.4	-7.31
223.635	-7.31
223.869	-23.31
224.104	-17.31
224.338	-18.31
224.573	-2.31
224.808	-14.31
225.042	-11.31
225.277	-13.31
225.511	-10.31
225.746	12.69
225.98	8.69
226.215	14.69
226.449	23.69
226.683	22.69
226.918	14.69
227.152	20.69
227.387	24.69
227.621	40.69
227.856	48.69
228.09	41.69
228.324	55.69
228.559	62.69
228.793	58.69
229.027	98.69
229.262	84.69
229.496	110.69
229.73	124.69
229.964	155.69
230.199	117.69
230.433	121.69
230.667	108.69
230.901	106.69
231.136	90.69
231.37	117.69
231.604	135.69
231.838	110.69
232.072	109.69
232.306	116.69
232.541	115.69
232.775	101.69
233.009	116.69
233.243	108.69
233.477	110.69
233.711	101.69
233.945	112.69
234.179	106.69
234.413	120.69
234.647	97.69
234.881	130.69
235.115	116.69
235.349	124.69
235.583	121.69
235.817	108.69
236.051	110.69
236.285	125.69
236.519	124.69
236.753	135.69
236.987	146.69
237.221	156.69
237.455	208.69
237.689	173.69
237.922	128.69
238.156	130.69
238.39	133.69
238.624	115.69
238.858	129.69
239.091	113.69
239.325	126.69
239.559	118.69
239.793	133.69
240.027	133.69
240.26	132.69
240.494	146.69
240.728	146.69
240.961	139.69
241.195	157.69
241.429	129.69
241.662	126.69
241.896	129.69
242.13	130.69
242.363	138.69
242.597	139.69
242.83	132.69
243.064	129.69
243.298	139.69
243.531	141.69
243.765	157.69
243.998	132.69
244.232	136.69
244.465	139.69
244.699	141.69
244.932	133.69
245.166	156.69
245.399	154.69
245.633	134.69
245.866	152.69
246.099	152.69
246.333	155.69
246.566	140.69
246.8	154.69
247.033	176.69
247.266	157.69
247.5	167.69
247.733	164.69
247.966	179.69
248.2	176.69
248.433	177.69
248.666	170.69
248.899	186.69
249.133	193.69
249.366	196.69
249.599	180.69
249.832	166.69
250.066	186.69
250.299	169.69
250.532	201.69
250.765	182.69
250.998	210.69
251.231	236.69
251.465	209.69
251.698	214.69
251.931	192.69
252.164	185.69
252.397	176.69
252.63	197.69
252.863	202.69
253.096	205.69
253.329	234.69
253.562	205.69
253.795	207.69
254.028	222.69
254.261	213.69
254.494	219.69
254.727	248.69
254.96	265.69
255.193	258.69
255.426	234.69
255.659	225.69
255.892	222.69
256.124	225.69
256.357	214.69
256.59	229.69
256.823	204.69
257.056	212.69
257.289	196.69
257.521	210.69
257.754	218.69
257.987	199.69
258.22	197.69
258.452	196.69
258.685	219.69
258.918	208.69
259.151	202.69
259.383	204.69
259.616	202.69
259.849	244.69
260.081	237.69
260.314	238.69
260.547	240.69
260.779	225.69
261.012	245.69
261.244	240.69
261.477	243.69
261.71	186.69
261.942	221.69
262.175	220.69
262.407	236.69
262.64	236.69
262.872	213.69
263.105	209.69
263.337	205.69
263.57	195.69
263.802	219.69
264.035	222.69
264.267	236.69
264.499	225.69
264.732	216.69
264.964	218.69
265.197	228.69
265.429	223.69
265.661	211.69
265.894	204.69
266.126	221.69
266.358	234.69
266.591	244.69
266.823	233.69
267.055	221.69
267.287	235.69
267.52	229.69
267.752	227.69
267.984	236.69
268.216	222.69
268.448	236.69
268.681	244.69
268.913	242.69
269.145	271.69
269.377	283.69
269.609	286.69
269.841	281.69
270.073	293.69
270.306	302.69
270.538	327.69
270.77	314.69
271.002	301.69
271.234	311.69
271.466	311.69
271.698	304.69
271.93	308.69
272.162	336.69
272.394	304.69
272.626	291.69
272.858	280.69
273.09	270.69
273.322	290.69
273.553	294.69
273.785	276.69
274.017	281.69
274.249	276.69
274.481	286.69
274.713	288.69
274.945	280.69
275.176	289.69
275.408	274.69
275.64	274.69
275.872	279.69
276.104	286.69
276.335	278.69
276.567	270.69
276.799	295.69
277.031	323.69
277.262	318.69
277.494	326.69
277.726	330.69
277.957	314.69
278.189	284.69
278.421	292.69
278.652	313.69
278.884	306.69
279.115	274.69
279.347	287.69
279.579	285.69
279.81	291.69
280.042	272.69
280.273	288.69
280.505	285.69
280.736	273.69
280.968	286.69
281.199	285.69
281.431	274.69
281.662	290.69
281.894	292.69
282.125	298.69
282.356	300.69
282.588	328.69
282.819	316.69
283.051	291.69
283.282	288.69
283.513	307.69
283.745	300.69
283.976	318.69
284.207	298.69
284.439	296.69
284.67	285.69
284.901	299.69
285.132	295.69
285.364	308.69
285.595	298.69
285.826	304.69
286.057	300.69
286.288	297.69
286.52	310.69
286.751	333.69
286.982	313.69
287.213	320.69
287.444	307.69
287.675	314.69
287.906	323.69
288.138	316.69
288.369	344.69
288.6	328.69
288.831	337.69
289.062	319.69
289.293	320.69
289.524	320.69
289.755	326.69
289.986	337.69
290.217	319.69
290.448	322.69
290.679	305.69
290.91	313.69
291.141	310.69
291.371	287.69
291.602	327.69
291.833	326.69
292.064	312.69
292.295	317.69
292.526	323.69
292.757	327.69
292.987	324.69
293.218	313.69
293.449	336.69
293.68	336.69
293.91	314.69
294.141	328.69
294.372	314.69
294.603	316.69
294.833	321.69
295.064	322.69
295.295	315.69
295.525	312.69
295.756	340.69
295.987	341.69
296.217	348.69
296.448	384.69
296.679	344.69
296.909	328.69
297.14	319.69
297.37	329.69
297.601	326.69
297.831	317.69
298.062	346.69
298.292	355.69
298.523	316.69
298.753	327.69
298.984	334.69
299.214	342.69
299.445	352.69
299.675	334.69
299.905	348.69
300.136	353.69
300.366	357.69
300.597	359.69
300.827	356.69
301.057	350.69
301.288	378.69
301.518	354.69
301.748	368.69
301.979	355.69
302.209	377.69
302.439	378.69
302.669	361.69
302.9	343.69
303.13	365.69
303.36	382.69
303.59	361.69
303.82	374.69
304.051	369.69
304.281	356.69
304.511	368.69
304.741	362.69
304.971	350.69
305.201	365.69
305.431	376.69
305.661	361.69
305.891	347.69
306.121	360.69
306.352	381.69
306.582	386.69
306.812	383.69
307.042	373.69
307.272	352.69
307.502	348.69
307.731	383.69
307.961	363.69
308.191	355.69
308.421	401.69
308.651	389.69
308.881	397.69
309.111	366.69
309.341	372.69
309.571	390.69
309.8	384.69
310.03	402.69
310.26	420.69
310.49	402.69
310.72	424.69
310.949	414.69
311.179	427.69
311.409	423.69
311.639	421.69
311.868	399.69
312.098	402.69
312.328	424.69
312.557	422.69
312.787	453.69
313.017	469.69
313.246	436.69
313.476	405.69
313.706	416.69
313.935	416.69
314.165	416.69
314.394	432.69
314.624	434.69
314.853	432.69
315.083	423.69
315.312	397.69
315.542	407.69
315.771	420.69
316.001	402.69
316.23	404.69
316.46	409.69
316.689	414.69
316.919	432.69
317.148	418.69
317.377	426.69
317.607	438.69
317.836	449.69
318.065	420.69
318.295	415.69
318.524	398.69
318.753	412.69
318.983	416.69
319.212	406.69
319.441	426.69
319.67	419.69
319.9	407.69
320.129	436.69
320.358	410.69
320.587	435.69
320.816	433.69
321.046	437.69
321.275	458.69
321.504	448.69
321.733	443.69
321.962	433.69
322.191	459.69
322.42	452.69
322.649	497.69
322.878	452.69
323.108	484.69
323.337	531.69
323.566	537.69
323.795	536.69
324.024	587.69
324.253	696.69
324.482	986.69
324.71	1484.69
324.939	2068.69
325.168	1800.69
325.397	924.69
325.626	646.69
325.855	564.69
326.084	556.69
326.313	523.69
326.542	536.69
326.77	551.69
326.999	680.69
327.228	886.69
327.457	1312.69
327.686	1533.69
327.914	1048.69
328.143	715.69
328.372	624.69
328.6	596.69
328.829	590.69
329.058	585.69
329.287	594.69
329.515	566.69
329.744	533.69
329.972	537.69
330.201	525.69
330.43	575.69
330.658	621.69
330.887	630.69
331.115	614.69
331.344	565.69
331.572	523.69
331.801	512.69
332.03	524.69
332.258	513.69
332.486	508.69
332.715	496.69
332.943	526.69
333.172	486.69
333.4	526.69
333.629	535.69
333.857	544.69
334.085	548.69
334.314	522.69
334.542	564.69
334.771	565.69
334.999	545.69
335.227	527.69
335.455	524.69
335.684	533.69
335.912	517.69
336.14	510.69
336.369	494.69
336.597	516.69
336.825	500.69
337.053	510.69
337.281	513.69
337.51	486.69
337.738	498.69
337.966	496.69
338.194	478.69
338.422	487.69
338.65	482.69
338.878	441.69
339.106	478.69
339.334	480.69
339.562	474.69
339.79	451.69
340.018	459.69
340.246	491.69
340.474	493.69
340.702	482.69
340.93	473.69
341.158	459.69
341.386	438.69
341.614	465.69
341.842	468.69
342.07	476.69
342.298	457.69
342.526	464.69
342.754	447.69
342.981	459.69
343.209	452.69
343.437	467.69
343.665	480.69
343.893	492.69
344.12	481.69
344.348	504.69
344.576	476.69
344.804	473.69
345.031	497.69
345.259	507.69
345.487	485.69
345.714	482.69
345.942	445.69
346.17	467.69
346.397	446.69
346.625	464.69
346.853	433.69
347.08	452.69
347.308	448.69
347.535	470.69
347.763	459.69
347.99	452.69
348.218	442.69
348.445	456.69
348.673	459.69
348.9	458.69
349.128	444.69
349.355	426.69
349.583	436.69
349.81	426.69
350.037	438.69
350.265	438.69
350.492	420.69
350.72	457.69
350.947	446.69
351.174	451.69
351.402	463.69
351.629	455.69
351.856	470.69
352.083	444.69
352.311	474.69
352.538	470.69
352.765	480.69
352.992	456.69
353.22	433.69
353.447	436.69
353.674	442.69
353.901	427.69
354.128	423.69
354.355	443.69
354.583	418.69
354.81	407.69
355.037	440.69
355.264	402.69
355.491	424.69
355.718	412.69
355.945	424.69
356.172	410.69
356.399	410.69
356.626	422.69
356.853	426.69
357.08	437.69
357.307	400.69
357.534	429.69
357.761	438.69
357.988	418.69
358.215	430.69
358.441	433.69
358.668	425.69
358.895	407.69
359.122	411.69
359.349	435.69
359.576	453.69
359.802	465.69
360.029	478.69
360.256	508.69
360.483	471.69
360.709	462.69
360.936	466.69
361.163	438.69
361.39	453.69
361.616	452.69
361.843	443.69
362.07	435.69
362.296	451.69
362.523	449.69
362.749	447.69
362.976	427.69
363.203	413.69
363.429	419.69
363.656	420.69
363.882	417.69
364.109	440.69
364.335	404.69
364.562	410.69
364.788	420.69
365.015	419.69
365.241	419.69
365.468	426.69
365.694	428.69
365.92	416.69
366.147	422.69
366.373	437.69
366.599	427.69
366.826	420.69
367.052	423.69
367.278	411.69
367.505	416.69
367.731	415.69
367.957	413.69
368.184	413.69
368.41	428.69
368.636	445.69
368.862	436.69
369.089	426.69
369.315	427.69
369.541	410.69
369.767	404.69
369.993	425.69
370.219	426.69
370.445	427.69
370.672	435.69
370.898	405.69
371.124	412.69
371.35	418.69
371.576	426.69
371.802	431.69
372.028	413.69
372.254	414.69
372.48	410.69
372.706	404.69
372.932	405.69
373.158	421.69
373.384	449.69
373.61	417.69
373.835	419.69
374.061	415.69
374.287	438.69
374.513	446.69
374.739	420.69
374.965	420.69
375.191	440.69
375.416	458.69
375.642	425.69
375.868	419.69
376.094	434.69
376.319	426.69
376.545	409.69
376.771	424.69
376.997	422.69
377.222	425.69
377.448	411.69
377.674	403.69
377.899	439.69
378.125	440.69
378.35	424.69
378.576	411.69
378.802	440.69
379.027	412.69
379.253	394.69
379.478	406.69
379.704	407.69
379.929	419.69
380.155	439.69
380.38	414.69
380.606	436.69
380.831	424.69
381.057	438.69
381.282	410.69
381.507	412.69
381.733	416.69
381.958	421.69
382.184	433.69
382.409	421.69
382.634	422.69
382.86	433.69
383.085	421.69
383.31	433.69
383.535	450.69
383.761	447.69
383.986	442.69
384.211	452.69
384.436	450.69
384.662	483.69
384.887	458.69
385.112	454.69
385.337	467.69
385.562	466.69
385.787	462.69
386.013	450.69
386.238	490.69
386.463	480.69
386.688	474.69
386.913	450.69
387.138	450.69
387.363	471.69
387.588	475.69
387.813	455.69
388.038	445.69
388.263	502.69
388.488	481.69
388.713	486.69
388.938	452.69
389.163	448.69
389.387	472.69
389.612	472.69
389.837	459.69
390.062	434.69
390.287	445.69
390.512	465.69
390.736	464.69
390.961	457.69
391.186	474.69
391.411	490.69
391.636	500.69
391.86	498.69
392.085	520.69
392.31	488.69
392.534	478.69
392.759	489.69
392.984	472.69
393.208	471.69
393.433	486.69
393.658	486.69
393.882	474.69
394.107	451.69
394.331	486.69
394.556	472.69
394.78	481.69
395.005	479.69
395.229	471.69
395.454	490.69
395.678	512.69
395.903	500.69
396.127	502.69
396.352	506.69
396.576	494.69
396.801	487.69
397.025	484.69
397.249	487.69
397.474	504.69
397.698	491.69
397.922	522.69
398.147	524.69
398.371	532.69
398.595	545.69
398.82	556.69
399.044	566.69
399.268	580.69
399.492	635.69
399.717	688.69
399.941	694.69
400.165	690.69
400.389	686.69
400.613	628.69
400.837	577.69
401.062	565.69
401.286	528.69
401.51	574.69
401.734	529.69
401.958	550.69
402.182	527.69
402.406	550.69
402.63	542.69
402.854	579.69
403.078	572.69
403.302	579.69
403.526	574.69
403.75	572.69
403.974	607.69
404.198	573.69
404.422	598.69
404.645	587.69
404.869	578.69
405.093	613.69
405.317	638.69
405.541	660.69
405.765	602.69
405.988	608.69
406.212	608.69
406.436	636.69
406.66	638.69
406.883	640.69
407.107	631.69
407.331	702.69
407.555	768.69
407.778	714.69
408.002	694.69
408.226	641.69
408.449	647.69
408.673	619.69
408.896	669.69
409.12	669.69
409.344	639.69
409.567	590.69
409.791	585.69
410.014	560.69
410.238	562.69
410.461	548.69
410.685	561.69
410.908	592.69
411.132	600.69
411.355	629.69
411.578	627.69
411.802	577.69
412.025	545.69
412.249	557.69
412.472	566.69
412.695	593.69
412.919	608.69
413.142	572.69
413.365	530.69
413.589	538.69
413.812	515.69
414.035	546.69
414.258	540.69
414.482	537.69
414.705	526.69
414.928	528.69
415.151	516.69
415.374	520.69
415.597	516.69
415.821	516.69
416.044	539.69
416.267	536.69
416.49	532.69
416.713	520.69
416.936	532.69
417.159	520.69
417.382	508.69
417.605	516.69
417.828	548.69
418.051	528.69
418.274	517.69
418.497	533.69
418.72	533.69
418.943	530.69
419.166	556.69
419.389	558.69
419.611	571.69
419.834	548.69
420.057	564.69
420.28	547.69
420.503	553.69
420.726	532.69
420.948	550.69
421.171	579.69
421.394	626.69
421.617	548.69
421.839	537.69
422.062	538.69
422.285	541.69
422.507	608.69
422.73	692.69
422.953	646.69
423.175	577.69
423.398	567.69
423.621	543.69
423.843	600.69
424.066	584.69
424.288	585.69
424.511	610.69
424.733	634.69
424.956	704.69
425.178	683.69
425.401	704.69
425.623	721.69
425.846	618.69
426.068	578.69
426.291	562.69
426.513	572.69
426.735	566.69
426.958	602.69
427.18	678.69
427.402	814.69
427.625	848.69
427.847	790.69
428.069	650.69
428.292	628.69
428.514	560.69
428.736	520.69
428.958	510.69
429.181	528.69
429.403	514.69
429.625	536.69
429.847	578.69
430.069	572.69
430.292	597.69
430.514	536.69
430.736	522.69
430.958	507.69
431.18	516.69
431.402	497.69
431.624	478.69
431.846	513.69
432.068	500.69
432.29	507.69
432.512	498.69
432.734	524.69
432.956	487.69
433.178	490.69
433.4	512.69
433.622	502.69
433.844	503.69
434.066	510.69
434.287	497.69
434.509	524.69
434.731	508.69
434.953	519.69
435.175	552.69
435.397	572.69
435.618	568.69
435.84	594.69
436.062	679.69
436.284	758.69
436.505	624.69
436.727	558.69
436.949	544.69
437.17	521.69
437.392	506.69
437.614	542.69
437.835	567.69
438.057	666.69
438.278	734.69
438.5	758.69
438.721	781.69
438.943	766.69
439.165	632.69
439.386	568.69
439.608	582.69
439.829	564.69
440.05	580.69
440.272	640.69
440.493	621.69
440.715	550.69
440.936	540.69
441.158	534.69
441.379	535.69
441.6	581.69
441.822	568.69
442.043	601.69
442.264	694.69
442.486	713.69
442.707	611.69
442.928	569.69
443.149	597.69
443.371	609.69
443.592	644.69
443.813	726.69
444.034	798.69
444.255	655.69
444.476	596.69
444.698	591.69
444.919	593.69
445.14	732.69
445.361	654.69
445.582	626.69
445.803	651.69
446.024	752.69
446.245	745.69
446.466	693.69
446.687	596.69
446.908	580.69
447.129	535.69
447.35	514.69
447.571	516.69
447.792	515.69
448.013	509.69
448.234	525.69
448.455	572.69
448.675	694.69
448.896	796.69
449.117	661.69
449.338	618.69
449.559	730.69
449.779	826.69
450	653.69
450.221	578.69
450.442	509.69
450.662	504.69
450.883	504.69
451.104	510.69
451.324	530.69
451.545	488.69
451.766	466.69
451.986	484.69
452.207	469.69
452.428	456.69
452.648	458.69
452.869	459.69
453.089	466.69
453.31	483.69
453.53	490.69
453.751	460.69
453.971	440.69
454.192	480.69
454.412	446.69
454.633	450.69
454.853	463.69
455.073	448.69
455.294	491.69
455.514	528.69
455.734	541.69
455.955	460.69
456.175	440.69
456.395	454.69
456.616	428.69
456.836	432.69
457.056	459.69
457.276	425.69
457.497	408.69
457.717	460.69
457.937	435.69
458.157	448.69
458.377	462.69
458.598	494.69
458.818	550.69
459.038	614.69
459.258	624.69
459.478	549.69
459.698	520.69
459.918	509.69
460.138	514.69
460.358	526.69
460.578	500.69
460.798	542.69
461.018	545.69
461.238	545.69
461.458	537.69
461.678	506.69
461.898	542.69
462.118	534.69
462.338	554.69
462.558	557.69
462.777	575.69
462.997	600.69
463.217	592.69
463.437	604.69
463.657	572.69
463.876	581.69
464.096	571.69
464.316	566.69
464.536	593.69
464.755	572.69
464.975	566.69
465.195	624.69
465.414	666.69
465.634	586.69
465.854	536.69
466.073	507.69
466.293	504.69
466.512	472.69
466.732	486.69
466.951	498.69
467.171	477.69
467.391	481.69
467.61	497.69
467.829	490.69
468.049	481.69
468.268	469.69
468.488	477.69
468.707	455.69
468.927	467.69
469.146	444.69
469.365	468.69
469.585	487.69
469.804	480.69
470.023	478.69
470.243	486.69
470.462	494.69
470.681	531.69
470.901	516.69
471.12	497.69
471.339	497.69
471.558	485.69
471.777	498.69
471.997	474.69
472.216	477.69
472.435	486.69
472.654	489.69
472.873	488.69
473.092	474.69
473.311	454.69
473.53	457.69
473.749	478.69
473.968	532.69
474.187	630.69
474.406	619.69
474.625	553.69
474.844	491.69
475.063	469.69
475.282	474.69
475.501	520.69
475.72	471.69
475.939	496.69
476.158	503.69
476.377	499.69
476.596	484.69
476.814	524.69
477.033	512.69
477.252	515.69
477.471	504.69
477.69	520.69
477.908	527.69
478.127	553.69
478.346	552.69
478.564	550.69
478.783	536.69
479.002	581.69
479.22	562.69
479.439	567.69
479.658	579.69
479.876	585.69
480.095	603.69
480.313	637.69
480.532	597.69
480.751	612.69
480.969	601.69
481.188	638.69
481.406	637.69
481.624	598.69
481.843	572.69
482.061	564.69
482.28	554.69
482.498	547.69
482.717	549.69
482.935	537.69
483.153	548.69
483.372	566.69
483.59	546.69
483.808	571.69
484.027	555.69
484.245	546.69
484.463	561.69
484.681	571.69
484.9	567.69
485.118	571.69
485.336	576.69
485.554	585.69
485.772	570.69
485.99	580.69
486.209	579.69
486.427	594.69
486.645	584.69
486.863	604.69
487.081	618.69
487.299	611.69
487.517	593.69
487.735	572.69
487.953	596.69
488.171	600.69
488.389	601.69
488.607	605.69
488.825	610.69
489.043	610.69
489.261	609.69
489.479	612.69
489.696	616.69
489.914	609.69
490.132	614.69
490.35	628.69
490.568	630.69
490.786	627.69
491.003	658.69
491.221	654.69
491.439	661.69
491.657	678.69
491.874	682.69
492.092	660.69
492.31	698.69
492.527	698.69
492.745	675.69
492.963	668.69
493.18	655.69
493.398	697.69
493.615	723.69
493.833	708.69
494.05	700.69
494.268	672.69
494.485	702.69
494.703	715.69
494.92	676.69
495.138	717.69
495.355	688.69
495.573	701.69
495.79	712.69
496.008	714.69
496.225	729.69
496.442	717.69
496.66	698.69
496.877	726.69
497.094	724.69
497.312	730.69
497.529	756.69
497.746	749.69
497.963	772.69
498.181	776.69
498.398	810.69
498.615	817.69
498.832	855.69
499.049	871.69
499.267	914.69
499.484	942.69
499.701	987.69
499.918	1057.69
500.135	1113.69
500.352	1164.69
500.569	1220.69
500.786	1229.69
501.003	1155.69
501.22	1111.69
501.437	1059.69
501.654	989.69
501.871	995.69
