Data from 1985.PennyLincolnUp.Lamp.En5.5.200Scan.071819.P1_HRD10591_17-02-48-970.txt Node
Date: Thu Jul 18 17:02:48 EDT 2019
User: cochatt
Spectrometer: HR+D1059
Trigger mode: 1
Integration Time (sec): 1.000000E-1
Scans to average: 1
Electric dark correction enabled: true
Nonlinearity correction enabled: false
Boxcar width: 0
XAxis mode: Wavelengths
Number of Pixels in Spectrum: 2048
>>>>>Begin Spectral Data<<<<<
223.165	-10.25
223.4	-10.25
223.635	-10.25
223.869	-14.25
224.104	-24.25
224.338	-13.25
224.573	-2.25
224.808	-18.25
225.042	-2.25
225.277	-20.25
225.511	4.75
225.746	2.75
225.98	1.75
226.215	21.75
226.449	10.75
226.683	9.75
226.918	21.75
227.152	31.75
227.387	41.75
227.621	37.75
227.856	43.75
228.09	54.75
228.324	56.75
228.559	39.75
228.793	54.75
229.027	97.75
229.262	91.75
229.496	97.75
229.73	113.75
229.964	137.75
230.199	127.75
230.433	117.75
230.667	115.75
230.901	93.75
231.136	106.75
231.37	109.75
231.604	106.75
231.838	107.75
232.072	108.75
232.306	111.75
232.541	107.75
232.775	101.75
233.009	122.75
233.243	113.75
233.477	115.75
233.711	132.75
233.945	116.75
234.179	113.75
234.413	101.75
234.647	108.75
234.881	105.75
235.115	127.75
235.349	121.75
235.583	124.75
235.817	111.75
236.051	93.75
236.285	135.75
236.519	126.75
236.753	129.75
236.987	142.75
237.221	175.75
237.455	210.75
237.689	164.75
237.922	126.75
238.156	120.75
238.39	135.75
238.624	133.75
238.858	129.75
239.091	133.75
239.325	109.75
239.559	117.75
239.793	134.75
240.027	130.75
240.26	154.75
240.494	144.75
240.728	157.75
240.961	137.75
241.195	137.75
241.429	144.75
241.662	144.75
241.896	142.75
242.13	130.75
242.363	125.75
242.597	135.75
242.83	124.75
243.064	149.75
243.298	139.75
243.531	139.75
243.765	141.75
243.998	139.75
244.232	135.75
244.465	136.75
244.699	150.75
244.932	141.75
245.166	145.75
245.399	137.75
245.633	144.75
245.866	153.75
246.099	149.75
246.333	151.75
246.566	143.75
246.8	146.75
247.033	170.75
247.266	147.75
247.5	167.75
247.733	180.75
247.966	171.75
248.2	166.75
248.433	174.75
248.666	153.75
248.899	171.75
249.133	179.75
249.366	196.75
249.599	165.75
249.832	163.75
250.066	174.75
250.299	178.75
250.532	190.75
250.765	191.75
250.998	211.75
251.231	221.75
251.465	201.75
251.698	201.75
251.931	188.75
252.164	182.75
252.397	200.75
252.63	186.75
252.863	210.75
253.096	214.75
253.329	222.75
253.562	217.75
253.795	214.75
254.028	202.75
254.261	216.75
254.494	221.75
254.727	244.75
254.96	265.75
255.193	246.75
255.426	233.75
255.659	233.75
255.892	223.75
256.124	214.75
256.357	218.75
256.59	218.75
256.823	212.75
257.056	197.75
257.289	186.75
257.521	202.75
257.754	199.75
257.987	198.75
258.22	206.75
258.452	198.75
258.685	201.75
258.918	193.75
259.151	199.75
259.383	220.75
259.616	217.75
259.849	225.75
260.081	226.75
260.314	238.75
260.547	243.75
260.779	243.75
261.012	222.75
261.244	228.75
261.477	213.75
261.71	227.75
261.942	222.75
262.175	220.75
262.407	222.75
262.64	217.75
262.872	215.75
263.105	215.75
263.337	229.75
263.57	222.75
263.802	205.75
264.035	225.75
264.267	226.75
264.499	229.75
264.732	214.75
264.964	226.75
265.197	229.75
265.429	198.75
265.661	220.75
265.894	226.75
266.126	218.75
266.358	223.75
266.591	225.75
266.823	237.75
267.055	234.75
267.287	244.75
267.52	226.75
267.752	219.75
267.984	216.75
268.216	213.75
268.448	259.75
268.681	245.75
268.913	247.75
269.145	256.75
269.377	281.75
269.609	279.75
269.841	276.75
270.073	269.75
270.306	298.75
270.538	309.75
270.77	323.75
271.002	305.75
271.234	286.75
271.466	305.75
271.698	326.75
271.93	324.75
272.162	316.75
272.394	297.75
272.626	313.75
272.858	281.75
273.09	305.75
273.322	274.75
273.553	266.75
273.785	268.75
274.017	272.75
274.249	280.75
274.481	274.75
274.713	277.75
274.945	294.75
275.176	279.75
275.408	257.75
275.64	276.75
275.872	276.75
276.104	284.75
276.335	271.75
276.567	285.75
276.799	269.75
277.031	298.75
277.262	315.75
277.494	317.75
277.726	309.75
277.957	292.75
278.189	271.75
278.421	278.75
278.652	303.75
278.884	278.75
279.115	286.75
279.347	277.75
279.579	267.75
279.81	275.75
280.042	280.75
280.273	276.75
280.505	289.75
280.736	299.75
280.968	269.75
281.199	289.75
281.431	277.75
281.662	283.75
281.894	291.75
282.125	287.75
282.356	300.75
282.588	337.75
282.819	327.75
283.051	300.75
283.282	289.75
283.513	290.75
283.745	310.75
283.976	309.75
284.207	297.75
284.439	302.75
284.67	297.75
284.901	306.75
285.132	297.75
285.364	298.75
285.595	288.75
285.826	286.75
286.057	313.75
286.288	294.75
286.52	306.75
286.751	290.75
286.982	300.75
287.213	295.75
287.444	287.75
287.675	310.75
287.906	322.75
288.138	319.75
288.369	349.75
288.6	325.75
288.831	305.75
289.062	316.75
289.293	320.75
289.524	305.75
289.755	315.75
289.986	311.75
290.217	310.75
290.448	298.75
290.679	305.75
290.91	313.75
291.141	295.75
291.371	317.75
291.602	316.75
291.833	315.75
292.064	291.75
292.295	310.75
292.526	307.75
292.757	316.75
292.987	296.75
293.218	310.75
293.449	297.75
293.68	320.75
293.91	338.75
294.141	322.75
294.372	326.75
294.603	328.75
294.833	324.75
295.064	308.75
295.295	326.75
295.525	312.75
295.756	331.75
295.987	329.75
296.217	372.75
296.448	377.75
296.679	347.75
296.909	339.75
297.14	316.75
297.37	316.75
297.601	325.75
297.831	326.75
298.062	333.75
298.292	331.75
298.523	333.75
298.753	335.75
298.984	343.75
299.214	344.75
299.445	337.75
299.675	346.75
299.905	356.75
300.136	333.75
300.366	332.75
300.597	346.75
300.827	339.75
301.057	353.75
301.288	357.75
301.518	369.75
301.748	338.75
301.979	349.75
302.209	372.75
302.439	379.75
302.669	356.75
302.9	371.75
303.13	349.75
303.36	364.75
303.59	372.75
303.82	353.75
304.051	365.75
304.281	355.75
304.511	358.75
304.741	350.75
304.971	335.75
305.201	363.75
305.431	345.75
305.661	359.75
305.891	360.75
306.121	339.75
306.352	363.75
306.582	370.75
306.812	363.75
307.042	356.75
307.272	357.75
307.502	370.75
307.731	371.75
307.961	346.75
308.191	363.75
308.421	369.75
308.651	365.75
308.881	372.75
309.111	373.75
309.341	363.75
309.571	381.75
309.8	378.75
310.03	393.75
310.26	400.75
310.49	403.75
310.72	385.75
310.949	422.75
311.179	443.75
311.409	400.75
311.639	409.75
311.868	388.75
312.098	424.75
312.328	397.75
312.557	421.75
312.787	432.75
313.017	414.75
313.246	414.75
313.476	419.75
313.706	424.75
313.935	416.75
314.165	413.75
314.394	438.75
314.624	421.75
314.853	405.75
315.083	403.75
315.312	409.75
315.542	385.75
315.771	391.75
316.001	390.75
316.23	399.75
316.46	396.75
316.689	388.75
316.919	409.75
317.148	398.75
317.377	413.75
317.607	403.75
317.836	400.75
318.065	392.75
318.295	417.75
318.524	422.75
318.753	416.75
318.983	413.75
319.212	389.75
319.441	414.75
319.67	424.75
319.9	417.75
320.129	402.75
320.358	430.75
320.587	412.75
320.816	436.75
321.046	433.75
321.275	433.75
321.504	428.75
321.733	443.75
321.962	426.75
322.191	431.75
322.42	452.75
322.649	481.75
322.878	467.75
323.108	489.75
323.337	494.75
323.566	509.75
323.795	526.75
324.024	556.75
324.253	673.75
324.482	937.75
324.71	1398.75
324.939	1950.75
325.168	1677.75
325.397	894.75
325.626	645.75
325.855	541.75
326.084	530.75
326.313	516.75
326.542	517.75
326.77	525.75
326.999	651.75
327.228	881.75
327.457	1251.75
327.686	1491.75
327.914	987.75
328.143	665.75
328.372	617.75
328.6	585.75
328.829	558.75
329.058	571.75
329.287	588.75
329.515	558.75
329.744	525.75
329.972	515.75
330.201	524.75
330.43	566.75
330.658	553.75
330.887	587.75
331.115	587.75
331.344	534.75
331.572	510.75
331.801	517.75
332.03	519.75
332.258	491.75
332.486	503.75
332.715	505.75
332.943	511.75
333.172	501.75
333.4	514.75
333.629	522.75
333.857	527.75
334.085	522.75
334.314	537.75
334.542	531.75
334.771	534.75
334.999	521.75
335.227	518.75
335.455	495.75
335.684	500.75
335.912	485.75
336.14	486.75
336.369	483.75
336.597	493.75
336.825	517.75
337.053	515.75
337.281	493.75
337.51	503.75
337.738	485.75
337.966	492.75
338.194	475.75
338.422	466.75
338.65	473.75
338.878	467.75
339.106	471.75
339.334	467.75
339.562	472.75
339.79	451.75
340.018	454.75
340.246	435.75
340.474	451.75
340.702	487.75
340.93	431.75
341.158	473.75
341.386	441.75
341.614	471.75
341.842	474.75
342.07	457.75
342.298	461.75
342.526	447.75
342.754	452.75
342.981	449.75
343.209	437.75
343.437	443.75
343.665	470.75
343.893	463.75
344.12	480.75
344.348	499.75
344.576	490.75
344.804	493.75
345.031	488.75
345.259	489.75
345.487	457.75
345.714	446.75
345.942	448.75
346.17	434.75
346.397	451.75
346.625	452.75
346.853	434.75
347.08	447.75
347.308	423.75
347.535	419.75
347.763	445.75
347.99	449.75
348.218	452.75
348.445	435.75
348.673	438.75
348.9	429.75
349.128	428.75
349.355	422.75
349.583	427.75
349.81	433.75
350.037	404.75
350.265	433.75
350.492	437.75
350.72	446.75
350.947	420.75
351.174	435.75
351.402	434.75
351.629	443.75
351.856	436.75
352.083	428.75
352.311	457.75
352.538	459.75
352.765	441.75
352.992	455.75
353.22	435.75
353.447	438.75
353.674	428.75
353.901	423.75
354.128	409.75
354.355	439.75
354.583	431.75
354.81	400.75
355.037	419.75
355.264	390.75
355.491	393.75
355.718	406.75
355.945	401.75
356.172	401.75
356.399	383.75
356.626	395.75
356.853	429.75
357.08	409.75
357.307	417.75
357.534	433.75
357.761	402.75
357.988	394.75
358.215	430.75
358.441	424.75
358.668	404.75
358.895	416.75
359.122	399.75
359.349	425.75
359.576	439.75
359.802	436.75
360.029	469.75
360.256	471.75
360.483	443.75
360.709	422.75
360.936	446.75
361.163	451.75
361.39	437.75
361.616	449.75
361.843	430.75
362.07	429.75
362.296	436.75
362.523	435.75
362.749	438.75
362.976	431.75
363.203	428.75
363.429	387.75
363.656	437.75
363.882	428.75
364.109	416.75
364.335	408.75
364.562	411.75
364.788	419.75
365.015	430.75
365.241	420.75
365.468	440.75
365.694	393.75
365.92	416.75
366.147	414.75
366.373	422.75
366.599	436.75
366.826	409.75
367.052	419.75
367.278	412.75
367.505	397.75
367.731	415.75
367.957	419.75
368.184	417.75
368.41	409.75
368.636	428.75
368.862	438.75
369.089	403.75
369.315	423.75
369.541	395.75
369.767	409.75
369.993	407.75
370.219	415.75
370.445	417.75
370.672	399.75
370.898	398.75
371.124	405.75
371.35	415.75
371.576	411.75
371.802	402.75
372.028	419.75
372.254	413.75
372.48	409.75
372.706	423.75
372.932	438.75
373.158	426.75
373.384	426.75
373.61	417.75
373.835	418.75
374.061	423.75
374.287	434.75
374.513	429.75
374.739	410.75
374.965	433.75
375.191	446.75
375.416	453.75
375.642	437.75
375.868	446.75
376.094	422.75
376.319	421.75
376.545	420.75
376.771	429.75
376.997	403.75
377.222	431.75
377.448	398.75
377.674	412.75
377.899	413.75
378.125	404.75
378.35	412.75
378.576	394.75
378.802	410.75
379.027	426.75
379.253	400.75
379.478	408.75
379.704	417.75
379.929	398.75
380.155	399.75
380.38	408.75
380.606	418.75
380.831	437.75
381.057	437.75
381.282	408.75
381.507	405.75
381.733	419.75
381.958	419.75
382.184	406.75
382.409	432.75
382.634	430.75
382.86	422.75
383.085	436.75
383.31	420.75
383.535	429.75
383.761	426.75
383.986	439.75
384.211	453.75
384.436	431.75
384.662	438.75
384.887	462.75
385.112	456.75
385.337	450.75
385.562	462.75
385.787	459.75
386.013	470.75
386.238	476.75
386.463	475.75
386.688	442.75
386.913	463.75
387.138	458.75
387.363	446.75
387.588	459.75
387.813	437.75
388.038	439.75
388.263	447.75
388.488	457.75
388.713	460.75
388.938	455.75
389.163	473.75
389.387	460.75
389.612	453.75
389.837	454.75
390.062	467.75
390.287	451.75
390.512	457.75
390.736	461.75
390.961	469.75
391.186	472.75
391.411	460.75
391.636	461.75
391.86	523.75
392.085	492.75
392.31	484.75
392.534	460.75
392.759	471.75
392.984	468.75
393.208	468.75
393.433	480.75
393.658	461.75
393.882	461.75
394.107	469.75
394.331	464.75
394.556	484.75
394.78	471.75
395.005	467.75
395.229	471.75
395.454	473.75
395.678	495.75
395.903	500.75
396.127	511.75
396.352	503.75
396.576	490.75
396.801	456.75
397.025	463.75
397.249	479.75
397.474	492.75
397.698	515.75
397.922	487.75
398.147	521.75
398.371	551.75
398.595	525.75
398.82	540.75
399.044	563.75
399.268	592.75
399.492	637.75
399.717	649.75
399.941	676.75
400.165	697.75
400.389	668.75
400.613	617.75
400.837	569.75
401.062	550.75
401.286	549.75
401.51	535.75
401.734	519.75
401.958	545.75
402.182	558.75
402.406	570.75
402.63	552.75
402.854	549.75
403.078	582.75
403.302	549.75
403.526	574.75
403.75	562.75
403.974	586.75
404.198	562.75
404.422	603.75
404.645	587.75
404.869	566.75
405.093	600.75
405.317	604.75
405.541	621.75
405.765	604.75
405.988	576.75
406.212	603.75
406.436	607.75
406.66	629.75
406.883	604.75
407.107	627.75
407.331	680.75
407.555	713.75
407.778	732.75
408.002	677.75
408.226	639.75
408.449	614.75
408.673	613.75
408.896	632.75
409.12	661.75
409.344	645.75
409.567	570.75
409.791	565.75
410.014	559.75
410.238	543.75
410.461	551.75
410.685	537.75
410.908	577.75
411.132	607.75
411.355	621.75
411.578	601.75
411.802	542.75
412.025	549.75
412.249	551.75
412.472	554.75
412.695	595.75
412.919	567.75
413.142	542.75
413.365	516.75
413.589	526.75
413.812	506.75
414.035	518.75
414.258	518.75
414.482	489.75
414.705	523.75
414.928	519.75
415.151	487.75
415.374	518.75
415.597	523.75
415.821	511.75
416.044	490.75
416.267	539.75
416.49	522.75
416.713	517.75
416.936	533.75
417.159	503.75
417.382	515.75
417.605	531.75
417.828	548.75
418.051	554.75
418.274	528.75
418.497	517.75
418.72	517.75
418.943	507.75
419.166	533.75
419.389	577.75
419.611	559.75
419.834	521.75
420.057	564.75
420.28	532.75
420.503	534.75
420.726	540.75
420.948	535.75
421.171	571.75
421.394	585.75
421.617	554.75
421.839	524.75
422.062	533.75
422.285	526.75
422.507	586.75
422.73	669.75
422.953	633.75
423.175	572.75
423.398	575.75
423.621	570.75
423.843	562.75
424.066	565.75
424.288	547.75
424.511	613.75
424.733	644.75
424.956	697.75
425.178	669.75
425.401	676.75
425.623	702.75
425.846	593.75
426.068	576.75
426.291	559.75
426.513	541.75
426.735	548.75
426.958	624.75
427.18	677.75
427.402	770.75
427.625	878.75
427.847	746.75
428.069	631.75
428.292	591.75
428.514	535.75
428.736	523.75
428.958	525.75
429.181	504.75
429.403	511.75
429.625	517.75
429.847	542.75
430.069	580.75
430.292	583.75
430.514	515.75
430.736	512.75
430.958	505.75
431.18	499.75
431.402	498.75
431.624	470.75
431.846	490.75
432.068	499.75
432.29	492.75
432.512	500.75
432.734	502.75
432.956	520.75
433.178	487.75
433.4	493.75
433.622	500.75
433.844	489.75
434.066	496.75
434.287	494.75
434.509	495.75
434.731	525.75
434.953	515.75
435.175	539.75
435.397	564.75
435.618	569.75
435.84	582.75
436.062	688.75
436.284	723.75
436.505	607.75
436.727	547.75
436.949	510.75
437.17	481.75
437.392	509.75
437.614	538.75
437.835	547.75
438.057	619.75
438.278	757.75
438.5	715.75
438.721	771.75
438.943	743.75
439.165	593.75
439.386	549.75
439.608	556.75
439.829	573.75
440.05	573.75
440.272	614.75
440.493	584.75
440.715	531.75
440.936	542.75
441.158	521.75
441.379	532.75
441.6	549.75
441.822	579.75
442.043	589.75
442.264	679.75
442.486	699.75
442.707	596.75
442.928	570.75
443.149	612.75
443.371	609.75
443.592	649.75
443.813	699.75
444.034	769.75
444.255	641.75
444.476	595.75
444.698	599.75
444.919	582.75
445.14	707.75
445.361	670.75
445.582	585.75
445.803	643.75
446.024	728.75
446.245	767.75
446.466	667.75
446.687	585.75
446.908	551.75
447.129	537.75
447.35	519.75
447.571	511.75
447.792	487.75
448.013	506.75
448.234	541.75
448.455	564.75
448.675	645.75
448.896	740.75
449.117	674.75
449.338	613.75
449.559	702.75
449.779	807.75
450	648.75
450.221	553.75
450.442	500.75
450.662	491.75
450.883	498.75
451.104	534.75
451.324	504.75
451.545	478.75
451.766	464.75
451.986	473.75
452.207	452.75
452.428	468.75
452.648	463.75
452.869	447.75
453.089	435.75
453.31	512.75
453.53	482.75
453.751	460.75
453.971	475.75
454.192	475.75
454.412	468.75
454.633	438.75
454.853	458.75
455.073	465.75
455.294	483.75
455.514	548.75
455.734	530.75
455.955	460.75
456.175	449.75
456.395	447.75
456.616	428.75
456.836	413.75
457.056	427.75
457.276	430.75
457.497	428.75
457.717	439.75
457.937	448.75
458.157	449.75
458.377	447.75
458.598	473.75
458.818	531.75
459.038	609.75
459.258	603.75
459.478	543.75
459.698	523.75
459.918	500.75
460.138	515.75
460.358	524.75
460.578	521.75
460.798	510.75
461.018	548.75
461.238	518.75
461.458	522.75
461.678	502.75
461.898	531.75
462.118	534.75
462.338	546.75
462.558	546.75
462.777	566.75
462.997	579.75
463.217	606.75
463.437	605.75
463.657	579.75
463.876	586.75
464.096	574.75
464.316	540.75
464.536	569.75
464.755	583.75
464.975	582.75
465.195	603.75
465.414	654.75
465.634	565.75
465.854	524.75
466.073	485.75
466.293	495.75
466.512	493.75
466.732	470.75
466.951	484.75
467.171	478.75
467.391	485.75
467.61	499.75
467.829	502.75
468.049	485.75
468.268	479.75
468.488	467.75
468.707	460.75
468.927	449.75
469.146	427.75
469.365	454.75
469.585	474.75
469.804	474.75
470.023	474.75
470.243	491.75
470.462	483.75
470.681	516.75
470.901	479.75
471.12	482.75
471.339	483.75
471.558	502.75
471.777	477.75
471.997	467.75
472.216	449.75
472.435	477.75
472.654	455.75
472.873	471.75
473.092	461.75
473.311	457.75
473.53	468.75
473.749	467.75
473.968	507.75
474.187	605.75
474.406	609.75
474.625	508.75
474.844	497.75
475.063	459.75
475.282	480.75
475.501	451.75
475.72	474.75
475.939	492.75
476.158	483.75
476.377	479.75
476.596	492.75
476.814	501.75
477.033	513.75
477.252	532.75
477.471	499.75
477.69	519.75
477.908	521.75
478.127	531.75
478.346	521.75
478.564	543.75
478.783	541.75
479.002	559.75
479.22	577.75
479.439	573.75
479.658	558.75
479.876	579.75
480.095	608.75
480.313	636.75
480.532	632.75
480.751	598.75
480.969	582.75
481.188	629.75
481.406	627.75
481.624	584.75
481.843	573.75
482.061	555.75
482.28	543.75
482.498	530.75
482.717	556.75
482.935	548.75
483.153	574.75
483.372	539.75
483.59	566.75
483.808	560.75
484.027	545.75
484.245	561.75
484.463	566.75
484.681	547.75
484.9	557.75
485.118	546.75
485.336	566.75
485.554	566.75
485.772	578.75
485.99	557.75
486.209	576.75
486.427	569.75
486.645	581.75
486.863	597.75
487.081	597.75
487.299	586.75
487.517	609.75
487.735	585.75
487.953	577.75
488.171	597.75
488.389	562.75
488.607	599.75
488.825	584.75
489.043	590.75
489.261	610.75
489.479	618.75
489.696	598.75
489.914	583.75
490.132	598.75
490.35	614.75
490.568	601.75
490.786	614.75
491.003	640.75
491.221	663.75
491.439	656.75
491.657	629.75
491.874	671.75
492.092	674.75
492.31	661.75
492.527	670.75
492.745	646.75
492.963	669.75
493.18	661.75
493.398	692.75
493.615	682.75
493.833	662.75
494.05	686.75
494.268	674.75
494.485	692.75
494.703	689.75
494.92	682.75
495.138	660.75
495.355	676.75
495.573	693.75
495.79	687.75
496.008	710.75
496.225	701.75
496.442	676.75
496.66	677.75
496.877	702.75
497.094	691.75
497.312	698.75
497.529	746.75
497.746	733.75
497.963	766.75
498.181	753.75
498.398	778.75
498.615	822.75
498.832	801.75
499.049	829.75
499.267	921.75
499.484	901.75
499.701	971.75
499.918	1038.75
500.135	1076.75
500.352	1158.75
500.569	1175.75
500.786	1197.75
501.003	1167.75
501.22	1075.75
501.437	1051.75
501.654	1006.75
501.871	981.75
