Data from 1985.PennyLincolnUp.Lamp.En5.5.200Scan.071819.P1_HRD10591_17-01-07-969.txt Node
Date: Thu Jul 18 17:01:07 EDT 2019
User: cochatt
Spectrometer: HR+D1059
Trigger mode: 1
Integration Time (sec): 1.000000E-1
Scans to average: 1
Electric dark correction enabled: true
Nonlinearity correction enabled: false
Boxcar width: 0
XAxis mode: Wavelengths
Number of Pixels in Spectrum: 2048
>>>>>Begin Spectral Data<<<<<
223.165	-9.56
223.4	-9.56
223.635	-9.56
223.869	-8.56
224.104	-10.56
224.338	-11.56
224.573	-8.56
224.808	-18.56
225.042	-21.56
225.277	-3.56
225.511	-4.56
225.746	3.44
225.98	14.44
226.215	4.44
226.449	16.44
226.683	20.44
226.918	10.44
227.152	27.44
227.387	21.44
227.621	42.44
227.856	30.44
228.09	51.44
228.324	64.44
228.559	46.44
228.793	64.44
229.027	97.44
229.262	102.44
229.496	104.44
229.73	124.44
229.964	146.44
230.199	130.44
230.433	110.44
230.667	109.44
230.901	118.44
231.136	114.44
231.37	128.44
231.604	115.44
231.838	111.44
232.072	111.44
232.306	116.44
232.541	118.44
232.775	107.44
233.009	122.44
233.243	108.44
233.477	124.44
233.711	122.44
233.945	123.44
234.179	119.44
234.413	118.44
234.647	114.44
234.881	126.44
235.115	119.44
235.349	132.44
235.583	111.44
235.817	103.44
236.051	129.44
236.285	118.44
236.519	143.44
236.753	127.44
236.987	142.44
237.221	173.44
237.455	210.44
237.689	158.44
237.922	128.44
238.156	127.44
238.39	126.44
238.624	122.44
238.858	114.44
239.091	105.44
239.325	105.44
239.559	128.44
239.793	134.44
240.027	122.44
240.26	137.44
240.494	140.44
240.728	146.44
240.961	158.44
241.195	125.44
241.429	129.44
241.662	139.44
241.896	136.44
242.13	150.44
242.363	137.44
242.597	134.44
242.83	144.44
243.064	111.44
243.298	130.44
243.531	129.44
243.765	144.44
243.998	134.44
244.232	142.44
244.465	145.44
244.699	132.44
244.932	154.44
245.166	127.44
245.399	141.44
245.633	153.44
245.866	133.44
246.099	158.44
246.333	139.44
246.566	140.44
246.8	140.44
247.033	152.44
247.266	159.44
247.5	149.44
247.733	178.44
247.966	180.44
248.2	183.44
248.433	169.44
248.666	172.44
248.899	176.44
249.133	164.44
249.366	188.44
249.599	184.44
249.832	166.44
250.066	174.44
250.299	180.44
250.532	188.44
250.765	188.44
250.998	210.44
251.231	210.44
251.465	201.44
251.698	194.44
251.931	198.44
252.164	206.44
252.397	186.44
252.63	199.44
252.863	204.44
253.096	199.44
253.329	218.44
253.562	214.44
253.795	202.44
254.028	187.44
254.261	211.44
254.494	208.44
254.727	242.44
254.96	242.44
255.193	244.44
255.426	219.44
255.659	209.44
255.892	209.44
256.124	205.44
256.357	197.44
256.59	208.44
256.823	196.44
257.056	206.44
257.289	200.44
257.521	189.44
257.754	181.44
257.987	200.44
258.22	206.44
258.452	197.44
258.685	210.44
258.918	208.44
259.151	211.44
259.383	206.44
259.616	208.44
259.849	221.44
260.081	224.44
260.314	257.44
260.547	237.44
260.779	227.44
261.012	236.44
261.244	226.44
261.477	219.44
261.71	203.44
261.942	207.44
262.175	227.44
262.407	244.44
262.64	216.44
262.872	227.44
263.105	212.44
263.337	217.44
263.57	202.44
263.802	227.44
264.035	206.44
264.267	227.44
264.499	218.44
264.732	218.44
264.964	229.44
265.197	205.44
265.429	221.44
265.661	223.44
265.894	221.44
266.126	203.44
266.358	217.44
266.591	221.44
266.823	232.44
267.055	245.44
267.287	230.44
267.52	222.44
267.752	237.44
267.984	201.44
268.216	228.44
268.448	250.44
268.681	236.44
268.913	237.44
269.145	248.44
269.377	252.44
269.609	261.44
269.841	256.44
270.073	264.44
270.306	294.44
270.538	295.44
270.77	304.44
271.002	292.44
271.234	292.44
271.466	278.44
271.698	302.44
271.93	293.44
272.162	290.44
272.394	301.44
272.626	301.44
272.858	270.44
273.09	286.44
273.322	279.44
273.553	268.44
273.785	272.44
274.017	263.44
274.249	251.44
274.481	276.44
274.713	263.44
274.945	277.44
275.176	268.44
275.408	274.44
275.64	265.44
275.872	248.44
276.104	279.44
276.335	274.44
276.567	268.44
276.799	291.44
277.031	301.44
277.262	308.44
277.494	327.44
277.726	296.44
277.957	281.44
278.189	311.44
278.421	308.44
278.652	285.44
278.884	283.44
279.115	316.44
279.347	372.44
279.579	437.44
279.81	509.44
280.042	490.44
280.273	431.44
280.505	436.44
280.736	385.44
280.968	310.44
281.199	294.44
281.431	297.44
281.662	294.44
281.894	299.44
282.125	278.44
282.356	303.44
282.588	324.44
282.819	333.44
283.051	307.44
283.282	295.44
283.513	290.44
283.745	311.44
283.976	306.44
284.207	302.44
284.439	306.44
284.67	303.44
284.901	294.44
285.132	309.44
285.364	314.44
285.595	323.44
285.826	301.44
286.057	311.44
286.288	316.44
286.52	298.44
286.751	303.44
286.982	297.44
287.213	296.44
287.444	309.44
287.675	316.44
287.906	327.44
288.138	329.44
288.369	339.44
288.6	322.44
288.831	320.44
289.062	314.44
289.293	297.44
289.524	287.44
289.755	332.44
289.986	303.44
290.217	302.44
290.448	298.44
290.679	283.44
290.91	311.44
291.141	289.44
291.371	299.44
291.602	318.44
291.833	293.44
292.064	300.44
292.295	322.44
292.526	314.44
292.757	320.44
292.987	302.44
293.218	302.44
293.449	313.44
293.68	321.44
293.91	306.44
294.141	316.44
294.372	314.44
294.603	310.44
294.833	326.44
295.064	306.44
295.295	316.44
295.525	303.44
295.756	317.44
295.987	322.44
296.217	354.44
296.448	359.44
296.679	336.44
296.909	325.44
297.14	329.44
297.37	329.44
297.601	342.44
297.831	333.44
298.062	339.44
298.292	326.44
298.523	342.44
298.753	326.44
298.984	331.44
299.214	322.44
299.445	328.44
299.675	330.44
299.905	358.44
300.136	328.44
300.366	328.44
300.597	334.44
300.827	345.44
301.057	333.44
301.288	368.44
301.518	377.44
301.748	342.44
301.979	329.44
302.209	367.44
302.439	365.44
302.669	363.44
302.9	340.44
303.13	333.44
303.36	363.44
303.59	340.44
303.82	373.44
304.051	371.44
304.281	350.44
304.511	354.44
304.741	340.44
304.971	352.44
305.201	364.44
305.431	383.44
305.661	363.44
305.891	338.44
306.121	363.44
306.352	354.44
306.582	370.44
306.812	366.44
307.042	346.44
307.272	351.44
307.502	366.44
307.731	375.44
307.961	352.44
308.191	359.44
308.421	358.44
308.651	382.44
308.881	368.44
309.111	353.44
309.341	358.44
309.571	373.44
309.8	375.44
310.03	392.44
310.26	401.44
310.49	397.44
310.72	426.44
310.949	411.44
311.179	422.44
311.409	394.44
311.639	405.44
311.868	383.44
312.098	400.44
312.328	406.44
312.557	423.44
312.787	442.44
313.017	416.44
313.246	410.44
313.476	404.44
313.706	404.44
313.935	410.44
314.165	422.44
314.394	438.44
314.624	424.44
314.853	413.44
315.083	410.44
315.312	427.44
315.542	420.44
315.771	403.44
316.001	418.44
316.23	432.44
316.46	401.44
316.689	420.44
316.919	423.44
317.148	426.44
317.377	427.44
317.607	409.44
317.836	432.44
318.065	431.44
318.295	437.44
318.524	420.44
318.753	420.44
318.983	422.44
319.212	405.44
319.441	409.44
319.67	417.44
319.9	405.44
320.129	409.44
320.358	401.44
320.587	405.44
320.816	419.44
321.046	421.44
321.275	427.44
321.504	407.44
321.733	438.44
321.962	441.44
322.191	445.44
322.42	446.44
322.649	456.44
322.878	467.44
323.108	476.44
323.337	491.44
323.566	500.44
323.795	540.44
324.024	590.44
324.253	712.44
324.482	1031.44
324.71	1590.44
324.939	2304.44
325.168	1897.44
325.397	946.44
325.626	634.44
325.855	553.44
326.084	507.44
326.313	501.44
326.542	518.44
326.77	551.44
326.999	660.44
327.228	925.44
327.457	1429.44
327.686	1730.44
327.914	1088.44
328.143	701.44
328.372	616.44
328.6	582.44
328.829	541.44
329.058	559.44
329.287	581.44
329.515	555.44
329.744	493.44
329.972	515.44
330.201	510.44
330.43	541.44
330.658	568.44
330.887	611.44
331.115	606.44
331.344	514.44
331.572	502.44
331.801	496.44
332.03	504.44
332.258	511.44
332.486	476.44
332.715	475.44
332.943	477.44
333.172	494.44
333.4	493.44
333.629	491.44
333.857	537.44
334.085	518.44
334.314	523.44
334.542	538.44
334.771	570.44
334.999	528.44
335.227	530.44
335.455	500.44
335.684	468.44
335.912	489.44
336.14	476.44
336.369	507.44
336.597	484.44
336.825	493.44
337.053	487.44
337.281	471.44
337.51	472.44
337.738	486.44
337.966	474.44
338.194	491.44
338.422	473.44
338.65	479.44
338.878	452.44
339.106	453.44
339.334	470.44
339.562	455.44
339.79	470.44
340.018	471.44
340.246	483.44
340.474	461.44
340.702	467.44
340.93	440.44
341.158	454.44
341.386	468.44
341.614	469.44
341.842	457.44
342.07	447.44
342.298	446.44
342.526	431.44
342.754	442.44
342.981	431.44
343.209	446.44
343.437	449.44
343.665	457.44
343.893	471.44
344.12	484.44
344.348	474.44
344.576	469.44
344.804	485.44
345.031	476.44
345.259	479.44
345.487	457.44
345.714	446.44
345.942	449.44
346.17	450.44
346.397	445.44
346.625	425.44
346.853	459.44
347.08	446.44
347.308	434.44
347.535	441.44
347.763	444.44
347.99	457.44
348.218	452.44
348.445	446.44
348.673	459.44
348.9	457.44
349.128	440.44
349.355	423.44
349.583	414.44
349.81	411.44
350.037	418.44
350.265	446.44
350.492	434.44
350.72	441.44
350.947	432.44
351.174	463.44
351.402	451.44
351.629	434.44
351.856	446.44
352.083	430.44
352.311	443.44
352.538	444.44
352.765	447.44
352.992	453.44
353.22	436.44
353.447	448.44
353.674	420.44
353.901	412.44
354.128	419.44
354.355	413.44
354.583	421.44
354.81	418.44
355.037	418.44
355.264	418.44
355.491	391.44
355.718	406.44
355.945	422.44
356.172	403.44
356.399	407.44
356.626	403.44
356.853	401.44
357.08	420.44
357.307	412.44
357.534	399.44
357.761	430.44
357.988	421.44
358.215	432.44
358.441	422.44
358.668	411.44
358.895	417.44
359.122	434.44
359.349	442.44
359.576	436.44
359.802	476.44
360.029	455.44
360.256	484.44
360.483	465.44
360.709	452.44
360.936	425.44
361.163	452.44
361.39	428.44
361.616	433.44
361.843	424.44
362.07	436.44
362.296	441.44
362.523	423.44
362.749	429.44
362.976	419.44
363.203	418.44
363.429	449.44
363.656	463.44
363.882	427.44
364.109	424.44
364.335	414.44
364.562	429.44
364.788	420.44
365.015	424.44
365.241	420.44
365.468	431.44
365.694	438.44
365.92	418.44
366.147	412.44
366.373	398.44
366.599	404.44
366.826	423.44
367.052	395.44
367.278	416.44
367.505	399.44
367.731	416.44
367.957	422.44
368.184	392.44
368.41	423.44
368.636	428.44
368.862	437.44
369.089	420.44
369.315	412.44
369.541	414.44
369.767	395.44
369.993	418.44
370.219	410.44
370.445	415.44
370.672	426.44
370.898	426.44
371.124	419.44
371.35	422.44
371.576	415.44
371.802	411.44
372.028	414.44
372.254	435.44
372.48	410.44
372.706	427.44
372.932	430.44
373.158	431.44
373.384	444.44
373.61	420.44
373.835	439.44
374.061	429.44
374.287	452.44
374.513	429.44
374.739	440.44
374.965	446.44
375.191	464.44
375.416	431.44
375.642	414.44
375.868	432.44
376.094	443.44
376.319	424.44
376.545	427.44
376.771	407.44
376.997	421.44
377.222	416.44
377.448	424.44
377.674	405.44
377.899	441.44
378.125	415.44
378.35	416.44
378.576	414.44
378.802	422.44
379.027	423.44
379.253	416.44
379.478	403.44
379.704	400.44
379.929	415.44
380.155	446.44
380.38	430.44
380.606	428.44
380.831	436.44
381.057	431.44
381.282	424.44
381.507	421.44
381.733	426.44
381.958	450.44
382.184	420.44
382.409	441.44
382.634	440.44
382.86	424.44
383.085	455.44
383.31	476.44
383.535	452.44
383.761	472.44
383.986	463.44
384.211	482.44
384.436	460.44
384.662	476.44
384.887	469.44
385.112	471.44
385.337	488.44
385.562	483.44
385.787	466.44
386.013	500.44
386.238	492.44
386.463	518.44
386.688	499.44
386.913	472.44
387.138	498.44
387.363	491.44
387.588	472.44
387.813	494.44
388.038	479.44
388.263	500.44
388.488	493.44
388.713	483.44
388.938	457.44
389.163	467.44
389.387	480.44
389.612	445.44
389.837	475.44
390.062	464.44
390.287	463.44
390.512	448.44
390.736	475.44
390.961	476.44
391.186	474.44
391.411	475.44
391.636	477.44
391.86	489.44
392.085	505.44
392.31	506.44
392.534	518.44
392.759	506.44
392.984	552.44
393.208	652.44
393.433	887.44
393.658	936.44
393.882	614.44
394.107	508.44
394.331	494.44
394.556	493.44
394.78	491.44
395.005	518.44
395.229	470.44
395.454	496.44
395.678	505.44
395.903	524.44
396.127	542.44
396.352	552.44
396.576	571.44
396.801	655.44
397.025	780.44
397.249	667.44
397.474	554.44
397.698	525.44
397.922	549.44
398.147	501.44
398.371	547.44
398.595	514.44
398.82	547.44
399.044	570.44
399.268	585.44
399.492	621.44
399.717	675.44
399.941	681.44
400.165	679.44
400.389	660.44
400.613	583.44
400.837	560.44
401.062	568.44
401.286	537.44
401.51	560.44
401.734	544.44
401.958	559.44
402.182	568.44
402.406	552.44
402.63	564.44
402.854	565.44
403.078	570.44
403.302	553.44
403.526	570.44
403.75	563.44
403.974	584.44
404.198	558.44
404.422	589.44
404.645	555.44
404.869	552.44
405.093	576.44
405.317	624.44
405.541	622.44
405.765	594.44
405.988	574.44
406.212	599.44
406.436	583.44
406.66	630.44
406.883	627.44
407.107	628.44
407.331	677.44
407.555	732.44
407.778	725.44
408.002	665.44
408.226	607.44
408.449	611.44
408.673	625.44
408.896	638.44
409.12	687.44
409.344	621.44
409.567	562.44
409.791	572.44
410.014	583.44
410.238	550.44
410.461	548.44
410.685	576.44
410.908	549.44
411.132	628.44
411.355	614.44
411.578	605.44
411.802	548.44
412.025	559.44
412.249	565.44
412.472	564.44
412.695	575.44
412.919	551.44
413.142	523.44
413.365	546.44
413.589	542.44
413.812	542.44
414.035	522.44
414.258	545.44
414.482	529.44
414.705	516.44
414.928	519.44
415.151	531.44
415.374	518.44
415.597	518.44
415.821	513.44
416.044	534.44
416.267	533.44
416.49	493.44
416.713	510.44
416.936	514.44
417.159	507.44
417.382	514.44
417.605	522.44
417.828	539.44
418.051	562.44
418.274	547.44
418.497	512.44
418.72	531.44
418.943	527.44
419.166	543.44
419.389	554.44
419.611	577.44
419.834	568.44
420.057	554.44
420.28	529.44
420.503	527.44
420.726	524.44
420.948	531.44
421.171	583.44
421.394	602.44
421.617	542.44
421.839	543.44
422.062	533.44
422.285	554.44
422.507	610.44
422.73	723.44
422.953	706.44
423.175	594.44
423.398	577.44
423.621	565.44
423.843	564.44
424.066	568.44
424.288	566.44
424.511	603.44
424.733	644.44
424.956	703.44
425.178	692.44
425.401	675.44
425.623	698.44
425.846	600.44
426.068	578.44
426.291	567.44
426.513	533.44
426.735	584.44
426.958	626.44
427.18	675.44
427.402	830.44
427.625	877.44
427.847	731.44
428.069	634.44
428.292	596.44
428.514	537.44
428.736	541.44
428.958	533.44
429.181	519.44
429.403	507.44
429.625	508.44
429.847	543.44
430.069	602.44
430.292	615.44
430.514	546.44
430.736	516.44
430.958	520.44
431.18	523.44
431.402	521.44
431.624	482.44
431.846	489.44
432.068	506.44
432.29	499.44
432.512	484.44
432.734	500.44
432.956	489.44
433.178	494.44
433.4	516.44
433.622	487.44
433.844	490.44
434.066	479.44
434.287	509.44
434.509	497.44
434.731	519.44
434.953	500.44
435.175	540.44
435.397	556.44
435.618	529.44
435.84	595.44
436.062	700.44
436.284	733.44
436.505	615.44
436.727	547.44
436.949	547.44
437.17	534.44
437.392	531.44
437.614	540.44
437.835	563.44
438.057	627.44
438.278	727.44
438.5	728.44
438.721	782.44
438.943	751.44
439.165	611.44
439.386	577.44
439.608	557.44
439.829	576.44
440.05	576.44
440.272	646.44
440.493	594.44
440.715	551.44
440.936	538.44
441.158	540.44
441.379	542.44
441.6	551.44
441.822	559.44
442.043	593.44
442.264	698.44
442.486	722.44
442.707	624.44
442.928	551.44
443.149	580.44
443.371	596.44
443.592	620.44
443.813	730.44
444.034	791.44
444.255	657.44
444.476	600.44
444.698	592.44
444.919	601.44
445.14	710.44
445.361	656.44
445.582	629.44
445.803	669.44
446.024	749.44
446.245	736.44
446.466	713.44
446.687	593.44
446.908	526.44
447.129	510.44
447.35	539.44
447.571	521.44
447.792	512.44
448.013	511.44
448.234	551.44
448.455	579.44
448.675	697.44
448.896	778.44
449.117	647.44
449.338	622.44
449.559	733.44
449.779	816.44
450	638.44
450.221	541.44
450.442	523.44
450.662	505.44
450.883	523.44
451.104	541.44
451.324	510.44
451.545	484.44
451.766	482.44
451.986	441.44
452.207	442.44
452.428	456.44
452.648	470.44
452.869	471.44
453.089	460.44
453.31	474.44
453.53	470.44
453.751	471.44
453.971	464.44
454.192	487.44
454.412	450.44
454.633	453.44
454.853	461.44
455.073	447.44
455.294	469.44
455.514	536.44
455.734	530.44
455.955	458.44
456.175	454.44
456.395	460.44
456.616	443.44
456.836	431.44
457.056	440.44
457.276	427.44
457.497	444.44
457.717	447.44
457.937	468.44
458.157	447.44
458.377	451.44
458.598	474.44
458.818	536.44
459.038	585.44
459.258	628.44
459.478	557.44
459.698	532.44
459.918	500.44
460.138	503.44
460.358	549.44
460.578	538.44
460.798	542.44
461.018	545.44
461.238	524.44
461.458	524.44
461.678	525.44
461.898	531.44
462.118	534.44
462.338	537.44
462.558	552.44
462.777	561.44
462.997	591.44
463.217	626.44
463.437	635.44
463.657	597.44
463.876	590.44
464.096	594.44
464.316	556.44
464.536	590.44
464.755	598.44
464.975	588.44
465.195	626.44
465.414	660.44
465.634	588.44
465.854	566.44
466.073	507.44
466.293	505.44
466.512	509.44
466.732	511.44
466.951	500.44
467.171	487.44
467.391	500.44
467.61	533.44
467.829	491.44
468.049	484.44
468.268	496.44
468.488	464.44
468.707	458.44
468.927	479.44
469.146	480.44
469.365	482.44
469.585	474.44
469.804	466.44
470.023	492.44
470.243	505.44
470.462	512.44
470.681	518.44
470.901	524.44
471.12	508.44
471.339	485.44
471.558	490.44
471.777	485.44
471.997	444.44
472.216	477.44
472.435	527.44
472.654	515.44
472.873	489.44
473.092	468.44
473.311	482.44
473.53	469.44
473.749	494.44
473.968	531.44
474.187	608.44
474.406	625.44
474.625	527.44
474.844	486.44
475.063	490.44
475.282	473.44
475.501	476.44
475.72	501.44
475.939	484.44
476.158	516.44
476.377	496.44
476.596	514.44
476.814	516.44
477.033	519.44
477.252	527.44
477.471	521.44
477.69	518.44
477.908	519.44
478.127	549.44
478.346	562.44
478.564	570.44
478.783	569.44
479.002	575.44
479.22	591.44
479.439	573.44
479.658	606.44
479.876	600.44
480.095	613.44
480.313	624.44
480.532	607.44
480.751	635.44
480.969	626.44
481.188	651.44
481.406	655.44
481.624	606.44
481.843	598.44
482.061	597.44
482.28	571.44
482.498	574.44
482.717	571.44
482.935	560.44
483.153	569.44
483.372	564.44
483.59	582.44
483.808	595.44
484.027	593.44
484.245	569.44
484.463	563.44
484.681	570.44
484.9	584.44
485.118	606.44
485.336	604.44
485.554	599.44
485.772	596.44
485.99	592.44
486.209	594.44
486.427	610.44
486.645	609.44
486.863	629.44
487.081	640.44
487.299	638.44
487.517	616.44
487.735	594.44
487.953	633.44
488.171	627.44
488.389	621.44
488.607	594.44
488.825	614.44
489.043	605.44
489.261	621.44
489.479	613.44
489.696	618.44
489.914	631.44
490.132	642.44
490.35	623.44
490.568	638.44
490.786	636.44
491.003	636.44
491.221	618.44
491.439	667.44
491.657	639.44
491.874	661.44
492.092	676.44
492.31	656.44
492.527	651.44
492.745	671.44
492.963	683.44
493.18	687.44
493.398	690.44
493.615	682.44
493.833	700.44
494.05	686.44
494.268	693.44
494.485	662.44
494.703	698.44
494.92	683.44
495.138	694.44
495.355	686.44
495.573	674.44
495.79	700.44
496.008	740.44
496.225	698.44
496.442	692.44
496.66	708.44
496.877	720.44
497.094	717.44
497.312	702.44
497.529	725.44
497.746	740.44
497.963	753.44
498.181	770.44
498.398	799.44
498.615	827.44
498.832	837.44
499.049	859.44
499.267	874.44
499.484	957.44
499.701	991.44
499.918	1058.44
500.135	1099.44
500.352	1161.44
500.569	1176.44
500.786	1192.44
501.003	1183.44
501.22	1118.44
501.437	1065.44
501.654	1028.44
501.871	973.44
