Data from 1985.PennyLincolnUp.Lamp.En5.5.200Scan.071819.P1_HRD10591_17-01-44-971.txt Node
Date: Thu Jul 18 17:01:44 EDT 2019
User: cochatt
Spectrometer: HR+D1059
Trigger mode: 1
Integration Time (sec): 1.000000E-1
Scans to average: 1
Electric dark correction enabled: true
Nonlinearity correction enabled: false
Boxcar width: 0
XAxis mode: Wavelengths
Number of Pixels in Spectrum: 2048
>>>>>Begin Spectral Data<<<<<
223.165	-24.81
223.4	-24.81
223.635	-24.81
223.869	-7.81
224.104	-19.81
224.338	-1.81
224.573	-6.81
224.808	-11.81
225.042	-14.81
225.277	-7.81
225.511	4.19
225.746	5.19
225.98	-3.81
226.215	12.19
226.449	24.19
226.683	18.19
226.918	16.19
227.152	19.19
227.387	48.19
227.621	41.19
227.856	37.19
228.09	58.19
228.324	52.19
228.559	44.19
228.793	60.19
229.027	90.19
229.262	81.19
229.496	83.19
229.73	123.19
229.964	144.19
230.199	126.19
230.433	112.19
230.667	99.19
230.901	107.19
231.136	84.19
231.37	113.19
231.604	114.19
231.838	112.19
232.072	125.19
232.306	106.19
232.541	118.19
232.775	96.19
233.009	96.19
233.243	103.19
233.477	109.19
233.711	133.19
233.945	116.19
234.179	102.19
234.413	110.19
234.647	104.19
234.881	120.19
235.115	109.19
235.349	110.19
235.583	119.19
235.817	113.19
236.051	133.19
236.285	113.19
236.519	113.19
236.753	136.19
236.987	134.19
237.221	173.19
237.455	211.19
237.689	169.19
237.922	141.19
238.156	151.19
238.39	121.19
238.624	132.19
238.858	115.19
239.091	122.19
239.325	112.19
239.559	122.19
239.793	138.19
240.027	132.19
240.26	154.19
240.494	146.19
240.728	146.19
240.961	146.19
241.195	135.19
241.429	137.19
241.662	133.19
241.896	135.19
242.13	126.19
242.363	129.19
242.597	135.19
242.83	144.19
243.064	139.19
243.298	135.19
243.531	133.19
243.765	149.19
243.998	146.19
244.232	136.19
244.465	141.19
244.699	148.19
244.932	156.19
245.166	144.19
245.399	156.19
245.633	160.19
245.866	129.19
246.099	161.19
246.333	160.19
246.566	156.19
246.8	152.19
247.033	152.19
247.266	165.19
247.5	162.19
247.733	152.19
247.966	157.19
248.2	155.19
248.433	163.19
248.666	165.19
248.899	180.19
249.133	194.19
249.366	204.19
249.599	169.19
249.832	184.19
250.066	194.19
250.299	176.19
250.532	187.19
250.765	182.19
250.998	218.19
251.231	219.19
251.465	181.19
251.698	188.19
251.931	207.19
252.164	188.19
252.397	192.19
252.63	198.19
252.863	185.19
253.096	201.19
253.329	216.19
253.562	203.19
253.795	197.19
254.028	190.19
254.261	210.19
254.494	220.19
254.727	233.19
254.96	272.19
255.193	235.19
255.426	240.19
255.659	226.19
255.892	220.19
256.124	215.19
256.357	228.19
256.59	180.19
256.823	203.19
257.056	190.19
257.289	205.19
257.521	201.19
257.754	185.19
257.987	197.19
258.22	204.19
258.452	212.19
258.685	201.19
258.918	201.19
259.151	210.19
259.383	222.19
259.616	221.19
259.849	219.19
260.081	232.19
260.314	251.19
260.547	245.19
260.779	219.19
261.012	260.19
261.244	216.19
261.477	211.19
261.71	228.19
261.942	223.19
262.175	235.19
262.407	236.19
262.64	208.19
262.872	219.19
263.105	205.19
263.337	223.19
263.57	217.19
263.802	209.19
264.035	217.19
264.267	219.19
264.499	216.19
264.732	225.19
264.964	218.19
265.197	212.19
265.429	214.19
265.661	241.19
265.894	218.19
266.126	214.19
266.358	229.19
266.591	213.19
266.823	245.19
267.055	255.19
267.287	232.19
267.52	246.19
267.752	239.19
267.984	222.19
268.216	229.19
268.448	244.19
268.681	248.19
268.913	241.19
269.145	248.19
269.377	288.19
269.609	279.19
269.841	276.19
270.073	278.19
270.306	304.19
270.538	312.19
270.77	319.19
271.002	306.19
271.234	292.19
271.466	283.19
271.698	305.19
271.93	317.19
272.162	323.19
272.394	316.19
272.626	295.19
272.858	278.19
273.09	282.19
273.322	278.19
273.553	261.19
273.785	261.19
274.017	282.19
274.249	281.19
274.481	286.19
274.713	256.19
274.945	267.19
275.176	274.19
275.408	263.19
275.64	290.19
275.872	278.19
276.104	294.19
276.335	271.19
276.567	289.19
276.799	301.19
277.031	322.19
277.262	316.19
277.494	324.19
277.726	315.19
277.957	316.19
278.189	298.19
278.421	273.19
278.652	282.19
278.884	285.19
279.115	298.19
279.347	280.19
279.579	272.19
279.81	275.19
280.042	291.19
280.273	294.19
280.505	269.19
280.736	280.19
280.968	266.19
281.199	277.19
281.431	282.19
281.662	286.19
281.894	292.19
282.125	289.19
282.356	322.19
282.588	316.19
282.819	317.19
283.051	296.19
283.282	298.19
283.513	295.19
283.745	302.19
283.976	292.19
284.207	319.19
284.439	298.19
284.67	285.19
284.901	312.19
285.132	302.19
285.364	301.19
285.595	305.19
285.826	304.19
286.057	317.19
286.288	308.19
286.52	314.19
286.751	318.19
286.982	310.19
287.213	299.19
287.444	301.19
287.675	310.19
287.906	318.19
288.138	329.19
288.369	330.19
288.6	340.19
288.831	310.19
289.062	329.19
289.293	309.19
289.524	326.19
289.755	286.19
289.986	307.19
290.217	314.19
290.448	318.19
290.679	323.19
290.91	319.19
291.141	311.19
291.371	300.19
291.602	324.19
291.833	301.19
292.064	320.19
292.295	316.19
292.526	336.19
292.757	312.19
292.987	320.19
293.218	321.19
293.449	318.19
293.68	312.19
293.91	306.19
294.141	316.19
294.372	306.19
294.603	314.19
294.833	315.19
295.064	321.19
295.295	333.19
295.525	322.19
295.756	332.19
295.987	341.19
296.217	340.19
296.448	353.19
296.679	338.19
296.909	349.19
297.14	330.19
297.37	331.19
297.601	335.19
297.831	341.19
298.062	327.19
298.292	337.19
298.523	342.19
298.753	340.19
298.984	330.19
299.214	354.19
299.445	344.19
299.675	344.19
299.905	336.19
300.136	339.19
300.366	355.19
300.597	358.19
300.827	365.19
301.057	349.19
301.288	347.19
301.518	381.19
301.748	352.19
301.979	362.19
302.209	358.19
302.439	369.19
302.669	357.19
302.9	374.19
303.13	354.19
303.36	390.19
303.59	377.19
303.82	376.19
304.051	376.19
304.281	366.19
304.511	359.19
304.741	358.19
304.971	373.19
305.201	358.19
305.431	348.19
305.661	352.19
305.891	357.19
306.121	365.19
306.352	365.19
306.582	359.19
306.812	374.19
307.042	368.19
307.272	366.19
307.502	370.19
307.731	362.19
307.961	348.19
308.191	369.19
308.421	342.19
308.651	390.19
308.881	372.19
309.111	376.19
309.341	362.19
309.571	389.19
309.8	400.19
310.03	386.19
310.26	400.19
310.49	391.19
310.72	393.19
310.949	413.19
311.179	407.19
311.409	392.19
311.639	404.19
311.868	417.19
312.098	408.19
312.328	416.19
312.557	404.19
312.787	435.19
313.017	429.19
313.246	409.19
313.476	393.19
313.706	418.19
313.935	425.19
314.165	418.19
314.394	421.19
314.624	438.19
314.853	406.19
315.083	425.19
315.312	414.19
315.542	421.19
315.771	415.19
316.001	404.19
316.23	389.19
316.46	424.19
316.689	413.19
316.919	407.19
317.148	421.19
317.377	407.19
317.607	415.19
317.836	416.19
318.065	393.19
318.295	403.19
318.524	412.19
318.753	407.19
318.983	416.19
319.212	413.19
319.441	407.19
319.67	404.19
319.9	432.19
320.129	405.19
320.358	416.19
320.587	428.19
320.816	429.19
321.046	420.19
321.275	410.19
321.504	409.19
321.733	461.19
321.962	433.19
322.191	443.19
322.42	449.19
322.649	441.19
322.878	451.19
323.108	462.19
323.337	508.19
323.566	498.19
323.795	513.19
324.024	540.19
324.253	647.19
324.482	880.19
324.71	1266.19
324.939	1831.19
325.168	1574.19
325.397	823.19
325.626	637.19
325.855	549.19
326.084	538.19
326.313	516.19
326.542	513.19
326.77	546.19
326.999	624.19
327.228	770.19
327.457	1195.19
327.686	1392.19
327.914	944.19
328.143	667.19
328.372	597.19
328.6	550.19
328.829	548.19
329.058	567.19
329.287	572.19
329.515	525.19
329.744	516.19
329.972	502.19
330.201	503.19
330.43	489.19
330.658	551.19
330.887	584.19
331.115	593.19
331.344	511.19
331.572	483.19
331.801	504.19
332.03	498.19
332.258	508.19
332.486	488.19
332.715	499.19
332.943	474.19
333.172	502.19
333.4	512.19
333.629	530.19
333.857	543.19
334.085	541.19
334.314	509.19
334.542	511.19
334.771	522.19
334.999	520.19
335.227	518.19
335.455	490.19
335.684	483.19
335.912	490.19
336.14	488.19
336.369	508.19
336.597	485.19
336.825	501.19
337.053	505.19
337.281	482.19
337.51	479.19
337.738	480.19
337.966	505.19
338.194	493.19
338.422	475.19
338.65	461.19
338.878	464.19
339.106	476.19
339.334	480.19
339.562	471.19
339.79	468.19
340.018	464.19
340.246	478.19
340.474	483.19
340.702	469.19
340.93	455.19
341.158	469.19
341.386	449.19
341.614	445.19
341.842	467.19
342.07	459.19
342.298	465.19
342.526	443.19
342.754	484.19
342.981	439.19
343.209	448.19
343.437	467.19
343.665	480.19
343.893	488.19
344.12	506.19
344.348	494.19
344.576	515.19
344.804	493.19
345.031	485.19
345.259	465.19
345.487	484.19
345.714	454.19
345.942	435.19
346.17	463.19
346.397	427.19
346.625	446.19
346.853	439.19
347.08	436.19
347.308	477.19
347.535	443.19
347.763	447.19
347.99	458.19
348.218	436.19
348.445	450.19
348.673	426.19
348.9	441.19
349.128	441.19
349.355	438.19
349.583	425.19
349.81	434.19
350.037	438.19
350.265	429.19
350.492	436.19
350.72	425.19
350.947	420.19
351.174	430.19
351.402	455.19
351.629	434.19
351.856	429.19
352.083	441.19
352.311	448.19
352.538	439.19
352.765	436.19
352.992	434.19
353.22	432.19
353.447	414.19
353.674	441.19
353.901	412.19
354.128	425.19
354.355	419.19
354.583	413.19
354.81	413.19
355.037	409.19
355.264	414.19
355.491	419.19
355.718	402.19
355.945	404.19
356.172	402.19
356.399	413.19
356.626	422.19
356.853	418.19
357.08	397.19
357.307	416.19
357.534	412.19
357.761	421.19
357.988	424.19
358.215	417.19
358.441	414.19
358.668	426.19
358.895	397.19
359.122	412.19
359.349	420.19
359.576	428.19
359.802	434.19
360.029	472.19
360.256	472.19
360.483	460.19
360.709	442.19
360.936	444.19
361.163	430.19
361.39	437.19
361.616	434.19
361.843	429.19
362.07	432.19
362.296	431.19
362.523	441.19
362.749	461.19
362.976	422.19
363.203	440.19
363.429	425.19
363.656	427.19
363.882	414.19
364.109	428.19
364.335	405.19
364.562	415.19
364.788	412.19
365.015	415.19
365.241	420.19
365.468	407.19
365.694	434.19
365.92	430.19
366.147	430.19
366.373	427.19
366.599	410.19
366.826	411.19
367.052	429.19
367.278	407.19
367.505	413.19
367.731	406.19
367.957	412.19
368.184	420.19
368.41	434.19
368.636	408.19
368.862	452.19
369.089	444.19
369.315	432.19
369.541	436.19
369.767	427.19
369.993	424.19
370.219	412.19
370.445	418.19
370.672	407.19
370.898	418.19
371.124	406.19
371.35	422.19
371.576	425.19
371.802	432.19
372.028	429.19
372.254	426.19
372.48	423.19
372.706	446.19
372.932	419.19
373.158	408.19
373.384	413.19
373.61	423.19
373.835	418.19
374.061	406.19
374.287	421.19
374.513	441.19
374.739	438.19
374.965	454.19
375.191	457.19
375.416	436.19
375.642	430.19
375.868	436.19
376.094	446.19
376.319	426.19
376.545	427.19
376.771	427.19
376.997	402.19
377.222	419.19
377.448	407.19
377.674	412.19
377.899	431.19
378.125	410.19
378.35	418.19
378.576	410.19
378.802	420.19
379.027	414.19
379.253	412.19
379.478	404.19
379.704	406.19
379.929	403.19
380.155	412.19
380.38	420.19
380.606	425.19
380.831	414.19
381.057	414.19
381.282	434.19
381.507	406.19
381.733	412.19
381.958	412.19
382.184	430.19
382.409	446.19
382.634	423.19
382.86	449.19
383.085	437.19
383.31	434.19
383.535	453.19
383.761	434.19
383.986	450.19
384.211	441.19
384.436	455.19
384.662	450.19
384.887	453.19
385.112	453.19
385.337	461.19
385.562	456.19
385.787	487.19
386.013	484.19
386.238	475.19
386.463	472.19
386.688	474.19
386.913	454.19
387.138	452.19
387.363	469.19
387.588	443.19
387.813	467.19
388.038	467.19
388.263	460.19
388.488	460.19
388.713	464.19
388.938	473.19
389.163	466.19
389.387	475.19
389.612	456.19
389.837	475.19
390.062	444.19
390.287	467.19
390.512	456.19
390.736	469.19
390.961	457.19
391.186	478.19
391.411	475.19
391.636	480.19
391.86	492.19
392.085	493.19
392.31	492.19
392.534	490.19
392.759	471.19
392.984	479.19
393.208	478.19
393.433	489.19
393.658	467.19
393.882	484.19
394.107	465.19
394.331	477.19
394.556	481.19
394.78	496.19
395.005	489.19
395.229	492.19
395.454	473.19
395.678	493.19
395.903	530.19
396.127	505.19
396.352	524.19
396.576	501.19
396.801	491.19
397.025	473.19
397.249	505.19
397.474	501.19
397.698	509.19
397.922	524.19
398.147	534.19
398.371	518.19
398.595	545.19
398.82	545.19
399.044	543.19
399.268	587.19
399.492	636.19
399.717	688.19
399.941	723.19
400.165	702.19
400.389	682.19
400.613	605.19
400.837	598.19
401.062	558.19
401.286	561.19
401.51	562.19
401.734	553.19
401.958	556.19
402.182	555.19
402.406	568.19
402.63	578.19
402.854	553.19
403.078	568.19
403.302	556.19
403.526	588.19
403.75	598.19
403.974	587.19
404.198	573.19
404.422	581.19
404.645	583.19
404.869	584.19
405.093	599.19
405.317	626.19
405.541	624.19
405.765	582.19
405.988	581.19
406.212	622.19
406.436	610.19
406.66	612.19
406.883	620.19
407.107	637.19
407.331	687.19
407.555	752.19
407.778	737.19
408.002	671.19
408.226	634.19
408.449	634.19
408.673	621.19
408.896	626.19
409.12	661.19
409.344	628.19
409.567	608.19
409.791	570.19
410.014	589.19
410.238	584.19
410.461	576.19
410.685	534.19
410.908	564.19
411.132	604.19
411.355	619.19
411.578	614.19
411.802	570.19
412.025	550.19
412.249	537.19
412.472	562.19
412.695	549.19
412.919	549.19
413.142	545.19
413.365	533.19
413.589	540.19
413.812	514.19
414.035	518.19
414.258	526.19
414.482	530.19
414.705	545.19
414.928	530.19
415.151	560.19
415.374	510.19
415.597	520.19
415.821	535.19
416.044	542.19
416.267	500.19
416.49	516.19
416.713	528.19
416.936	518.19
417.159	522.19
417.382	525.19
417.605	513.19
417.828	541.19
418.051	559.19
418.274	540.19
418.497	547.19
418.72	525.19
418.943	540.19
419.166	546.19
419.389	562.19
419.611	560.19
419.834	556.19
420.057	542.19
420.28	539.19
420.503	516.19
420.726	542.19
420.948	548.19
421.171	583.19
421.394	627.19
421.617	532.19
421.839	525.19
422.062	547.19
422.285	568.19
422.507	605.19
422.73	659.19
422.953	647.19
423.175	592.19
423.398	575.19
423.621	562.19
423.843	576.19
424.066	563.19
424.288	573.19
424.511	609.19
424.733	644.19
424.956	722.19
425.178	676.19
425.401	685.19
425.623	676.19
425.846	595.19
426.068	576.19
426.291	548.19
426.513	557.19
426.735	552.19
426.958	607.19
427.18	678.19
427.402	808.19
427.625	865.19
427.847	740.19
428.069	617.19
428.292	568.19
428.514	547.19
428.736	548.19
428.958	526.19
429.181	547.19
429.403	510.19
429.625	529.19
429.847	564.19
430.069	613.19
430.292	600.19
430.514	530.19
430.736	539.19
430.958	516.19
431.18	535.19
431.402	497.19
431.624	490.19
431.846	486.19
432.068	511.19
432.29	512.19
432.512	499.19
432.734	516.19
432.956	497.19
433.178	505.19
433.4	493.19
433.622	496.19
433.844	517.19
434.066	499.19
434.287	517.19
434.509	526.19
434.731	491.19
434.953	544.19
435.175	555.19
435.397	578.19
435.618	562.19
435.84	588.19
436.062	662.19
436.284	716.19
436.505	620.19
436.727	581.19
436.949	532.19
437.17	520.19
437.392	517.19
437.614	536.19
437.835	532.19
438.057	634.19
438.278	746.19
438.5	750.19
438.721	745.19
438.943	732.19
439.165	610.19
439.386	564.19
439.608	576.19
439.829	560.19
440.05	570.19
440.272	618.19
440.493	593.19
440.715	561.19
440.936	541.19
441.158	533.19
441.379	540.19
441.6	557.19
441.822	546.19
442.043	602.19
442.264	652.19
442.486	696.19
442.707	591.19
442.928	576.19
443.149	592.19
443.371	625.19
443.592	646.19
443.813	712.19
444.034	773.19
444.255	639.19
444.476	615.19
444.698	612.19
444.919	605.19
445.14	708.19
445.361	637.19
445.582	629.19
445.803	660.19
446.024	754.19
446.245	742.19
446.466	663.19
446.687	578.19
446.908	568.19
447.129	517.19
447.35	512.19
447.571	498.19
447.792	512.19
448.013	519.19
448.234	505.19
448.455	573.19
448.675	651.19
448.896	795.19
449.117	650.19
449.338	624.19
449.559	721.19
449.779	820.19
450	656.19
450.221	542.19
450.442	510.19
450.662	495.19
450.883	476.19
451.104	516.19
451.324	489.19
451.545	469.19
451.766	442.19
451.986	431.19
452.207	468.19
452.428	451.19
452.648	453.19
452.869	461.19
453.089	472.19
453.31	512.19
453.53	460.19
453.751	459.19
453.971	454.19
454.192	478.19
454.412	467.19
454.633	469.19
454.853	449.19
455.073	456.19
455.294	472.19
455.514	537.19
455.734	505.19
455.955	449.19
456.175	441.19
456.395	433.19
456.616	438.19
456.836	439.19
457.056	422.19
457.276	424.19
457.497	451.19
457.717	420.19
457.937	457.19
458.157	465.19
458.377	472.19
458.598	478.19
458.818	512.19
459.038	589.19
459.258	586.19
459.478	520.19
459.698	526.19
459.918	490.19
460.138	529.19
460.358	536.19
460.578	534.19
460.798	526.19
461.018	526.19
461.238	552.19
461.458	527.19
461.678	513.19
461.898	526.19
462.118	536.19
462.338	549.19
462.558	578.19
462.777	589.19
462.997	611.19
463.217	640.19
463.437	608.19
463.657	605.19
463.876	572.19
464.096	585.19
464.316	583.19
464.536	571.19
464.755	590.19
464.975	571.19
465.195	601.19
465.414	651.19
465.634	578.19
465.854	540.19
466.073	504.19
466.293	492.19
466.512	484.19
466.732	479.19
466.951	481.19
467.171	490.19
467.391	494.19
467.61	498.19
467.829	487.19
468.049	476.19
468.268	466.19
468.488	470.19
468.707	469.19
468.927	462.19
469.146	465.19
469.365	460.19
469.585	450.19
469.804	467.19
470.023	495.19
470.243	483.19
470.462	500.19
470.681	525.19
470.901	505.19
471.12	459.19
471.339	487.19
471.558	487.19
471.777	488.19
471.997	489.19
472.216	445.19
472.435	486.19
472.654	483.19
472.873	465.19
473.092	468.19
473.311	478.19
473.53	486.19
473.749	486.19
473.968	521.19
474.187	597.19
474.406	634.19
474.625	552.19
474.844	497.19
475.063	470.19
475.282	485.19
475.501	482.19
475.72	499.19
475.939	488.19
476.158	484.19
476.377	491.19
476.596	481.19
476.814	484.19
477.033	516.19
477.252	518.19
477.471	499.19
477.69	521.19
477.908	531.19
478.127	538.19
478.346	536.19
478.564	525.19
478.783	549.19
479.002	564.19
479.22	585.19
479.439	579.19
479.658	576.19
479.876	574.19
480.095	601.19
480.313	630.19
480.532	614.19
480.751	583.19
480.969	595.19
481.188	594.19
481.406	581.19
481.624	568.19
481.843	558.19
482.061	570.19
482.28	548.19
482.498	555.19
482.717	547.19
482.935	550.19
483.153	550.19
483.372	561.19
483.59	565.19
483.808	548.19
484.027	562.19
484.245	561.19
484.463	569.19
484.681	565.19
484.9	565.19
485.118	566.19
485.336	583.19
485.554	573.19
485.772	586.19
485.99	568.19
486.209	582.19
486.427	594.19
486.645	620.19
486.863	602.19
487.081	616.19
487.299	596.19
487.517	574.19
487.735	598.19
487.953	599.19
488.171	598.19
488.389	604.19
488.607	582.19
488.825	597.19
489.043	588.19
489.261	613.19
489.479	608.19
489.696	587.19
489.914	589.19
490.132	614.19
490.35	629.19
490.568	613.19
490.786	637.19
491.003	647.19
491.221	643.19
491.439	661.19
491.657	646.19
491.874	651.19
492.092	668.19
492.31	640.19
492.527	664.19
492.745	638.19
492.963	665.19
493.18	673.19
493.398	678.19
493.615	676.19
493.833	667.19
494.05	658.19
494.268	678.19
494.485	678.19
494.703	693.19
494.92	679.19
495.138	700.19
495.355	690.19
495.573	691.19
495.79	700.19
496.008	693.19
496.225	697.19
496.442	693.19
496.66	704.19
496.877	688.19
497.094	708.19
497.312	741.19
497.529	729.19
497.746	738.19
497.963	758.19
498.181	782.19
498.398	781.19
498.615	820.19
498.832	847.19
499.049	864.19
499.267	886.19
499.484	960.19
499.701	1006.19
499.918	1058.19
500.135	1109.19
500.352	1200.19
500.569	1213.19
500.786	1187.19
501.003	1188.19
501.22	1127.19
501.437	1074.19
501.654	1006.19
501.871	975.19
