Data from 1985.PennyLincolnUp.Lamp.En5.5.200Scan.071819.P1_HRD10591_17-01-24-970.txt Node
Date: Thu Jul 18 17:01:24 EDT 2019
User: cochatt
Spectrometer: HR+D1059
Trigger mode: 1
Integration Time (sec): 1.000000E-1
Scans to average: 1
Electric dark correction enabled: true
Nonlinearity correction enabled: false
Boxcar width: 0
XAxis mode: Wavelengths
Number of Pixels in Spectrum: 2048
>>>>>Begin Spectral Data<<<<<
223.165	-16.06
223.4	-16.06
223.635	-16.06
223.869	-18.06
224.104	-24.06
224.338	-17.06
224.573	-10.06
224.808	-6.06
225.042	-6.06
225.277	-10.06
225.511	-4.06
225.746	14.94
225.98	5.94
226.215	14.94
226.449	21.94
226.683	7.94
226.918	22.94
227.152	22.94
227.387	33.94
227.621	49.94
227.856	39.94
228.09	43.94
228.324	40.94
228.559	49.94
228.793	65.94
229.027	93.94
229.262	99.94
229.496	92.94
229.73	113.94
229.964	122.94
230.199	115.94
230.433	112.94
230.667	89.94
230.901	105.94
231.136	107.94
231.37	106.94
231.604	113.94
231.838	109.94
232.072	92.94
232.306	103.94
232.541	106.94
232.775	105.94
233.009	106.94
233.243	105.94
233.477	114.94
233.711	121.94
233.945	124.94
234.179	126.94
234.413	106.94
234.647	117.94
234.881	109.94
235.115	117.94
235.349	106.94
235.583	119.94
235.817	112.94
236.051	114.94
236.285	107.94
236.519	111.94
236.753	118.94
236.987	137.94
237.221	155.94
237.455	189.94
237.689	155.94
237.922	130.94
238.156	149.94
238.39	133.94
238.624	124.94
238.858	122.94
239.091	125.94
239.325	121.94
239.559	120.94
239.793	122.94
240.027	132.94
240.26	129.94
240.494	134.94
240.728	134.94
240.961	138.94
241.195	148.94
241.429	132.94
241.662	123.94
241.896	122.94
242.13	117.94
242.363	121.94
242.597	135.94
242.83	152.94
243.064	122.94
243.298	144.94
243.531	129.94
243.765	129.94
243.998	149.94
244.232	132.94
244.465	143.94
244.699	138.94
244.932	122.94
245.166	133.94
245.399	140.94
245.633	134.94
245.866	146.94
246.099	135.94
246.333	144.94
246.566	145.94
246.8	158.94
247.033	131.94
247.266	147.94
247.5	167.94
247.733	158.94
247.966	149.94
248.2	151.94
248.433	142.94
248.666	162.94
248.899	162.94
249.133	187.94
249.366	171.94
249.599	168.94
249.832	146.94
250.066	163.94
250.299	172.94
250.532	170.94
250.765	178.94
250.998	186.94
251.231	200.94
251.465	181.94
251.698	180.94
251.931	170.94
252.164	190.94
252.397	168.94
252.63	168.94
252.863	177.94
253.096	189.94
253.329	212.94
253.562	192.94
253.795	195.94
254.028	223.94
254.261	210.94
254.494	199.94
254.727	223.94
254.96	241.94
255.193	232.94
255.426	227.94
255.659	232.94
255.892	206.94
256.124	201.94
256.357	199.94
256.59	192.94
256.823	188.94
257.056	193.94
257.289	179.94
257.521	186.94
257.754	187.94
257.987	189.94
258.22	190.94
258.452	203.94
258.685	194.94
258.918	190.94
259.151	190.94
259.383	212.94
259.616	214.94
259.849	194.94
260.081	214.94
260.314	232.94
260.547	237.94
260.779	214.94
261.012	217.94
261.244	223.94
261.477	224.94
261.71	222.94
261.942	210.94
262.175	215.94
262.407	205.94
262.64	201.94
262.872	207.94
263.105	213.94
263.337	197.94
263.57	216.94
263.802	220.94
264.035	212.94
264.267	219.94
264.499	190.94
264.732	214.94
264.964	212.94
265.197	209.94
265.429	210.94
265.661	210.94
265.894	196.94
266.126	213.94
266.358	211.94
266.591	216.94
266.823	233.94
267.055	227.94
267.287	228.94
267.52	218.94
267.752	231.94
267.984	227.94
268.216	230.94
268.448	231.94
268.681	232.94
268.913	239.94
269.145	233.94
269.377	261.94
269.609	254.94
269.841	229.94
270.073	252.94
270.306	267.94
270.538	271.94
270.77	284.94
271.002	291.94
271.234	274.94
271.466	277.94
271.698	278.94
271.93	295.94
272.162	301.94
272.394	293.94
272.626	272.94
272.858	286.94
273.09	267.94
273.322	258.94
273.553	239.94
273.785	251.94
274.017	237.94
274.249	261.94
274.481	249.94
274.713	255.94
274.945	244.94
275.176	263.94
275.408	270.94
275.64	265.94
275.872	267.94
276.104	250.94
276.335	259.94
276.567	281.94
276.799	260.94
277.031	278.94
277.262	301.94
277.494	307.94
277.726	297.94
277.957	279.94
278.189	273.94
278.421	271.94
278.652	273.94
278.884	277.94
279.115	272.94
279.347	264.94
279.579	282.94
279.81	267.94
280.042	270.94
280.273	270.94
280.505	234.94
280.736	265.94
280.968	285.94
281.199	275.94
281.431	296.94
281.662	267.94
281.894	259.94
282.125	281.94
282.356	280.94
282.588	312.94
282.819	294.94
283.051	300.94
283.282	288.94
283.513	282.94
283.745	271.94
283.976	268.94
284.207	284.94
284.439	284.94
284.67	278.94
284.901	277.94
285.132	291.94
285.364	281.94
285.595	285.94
285.826	302.94
286.057	295.94
286.288	288.94
286.52	283.94
286.751	301.94
286.982	291.94
287.213	289.94
287.444	272.94
287.675	301.94
287.906	308.94
288.138	302.94
288.369	296.94
288.6	311.94
288.831	297.94
289.062	305.94
289.293	311.94
289.524	306.94
289.755	314.94
289.986	293.94
290.217	287.94
290.448	295.94
290.679	302.94
290.91	301.94
291.141	299.94
291.371	302.94
291.602	279.94
291.833	317.94
292.064	313.94
292.295	300.94
292.526	296.94
292.757	297.94
292.987	308.94
293.218	320.94
293.449	309.94
293.68	295.94
293.91	301.94
294.141	310.94
294.372	311.94
294.603	302.94
294.833	300.94
295.064	310.94
295.295	301.94
295.525	308.94
295.756	309.94
295.987	313.94
296.217	311.94
296.448	315.94
296.679	325.94
296.909	311.94
297.14	325.94
297.37	329.94
297.601	306.94
297.831	322.94
298.062	313.94
298.292	324.94
298.523	322.94
298.753	337.94
298.984	315.94
299.214	317.94
299.445	324.94
299.675	317.94
299.905	321.94
300.136	324.94
300.366	308.94
300.597	316.94
300.827	330.94
301.057	334.94
301.288	324.94
301.518	319.94
301.748	333.94
301.979	350.94
302.209	343.94
302.439	352.94
302.669	342.94
302.9	335.94
303.13	343.94
303.36	339.94
303.59	350.94
303.82	369.94
304.051	347.94
304.281	333.94
304.511	330.94
304.741	328.94
304.971	343.94
305.201	325.94
305.431	345.94
305.661	324.94
305.891	335.94
306.121	337.94
306.352	347.94
306.582	335.94
306.812	354.94
307.042	361.94
307.272	351.94
307.502	349.94
307.731	358.94
307.961	334.94
308.191	334.94
308.421	342.94
308.651	364.94
308.881	339.94
309.111	338.94
309.341	351.94
309.571	370.94
309.8	362.94
310.03	365.94
310.26	373.94
310.49	361.94
310.72	362.94
310.949	375.94
311.179	393.94
311.409	382.94
311.639	376.94
311.868	364.94
312.098	369.94
312.328	393.94
312.557	391.94
312.787	399.94
313.017	401.94
313.246	392.94
313.476	393.94
313.706	376.94
313.935	381.94
314.165	386.94
314.394	401.94
314.624	392.94
314.853	361.94
315.083	361.94
315.312	386.94
315.542	397.94
315.771	388.94
316.001	377.94
316.23	382.94
316.46	389.94
316.689	386.94
316.919	375.94
317.148	375.94
317.377	380.94
317.607	350.94
317.836	380.94
318.065	366.94
318.295	372.94
318.524	391.94
318.753	392.94
318.983	377.94
319.212	373.94
319.441	384.94
319.67	386.94
319.9	382.94
320.129	389.94
320.358	393.94
320.587	384.94
320.816	375.94
321.046	388.94
321.275	389.94
321.504	428.94
321.733	399.94
321.962	413.94
322.191	405.94
322.42	413.94
322.649	426.94
322.878	418.94
323.108	450.94
323.337	445.94
323.566	459.94
323.795	470.94
324.024	482.94
324.253	549.94
324.482	730.94
324.71	1060.94
324.939	1474.94
325.168	1251.94
325.397	724.94
325.626	519.94
325.855	477.94
326.084	453.94
326.313	449.94
326.542	474.94
326.77	470.94
326.999	554.94
327.228	678.94
327.457	925.94
327.686	1118.94
327.914	754.94
328.143	546.94
328.372	513.94
328.6	491.94
328.829	481.94
329.058	490.94
329.287	506.94
329.515	452.94
329.744	436.94
329.972	452.94
330.201	478.94
330.43	473.94
330.658	470.94
330.887	501.94
331.115	491.94
331.344	481.94
331.572	471.94
331.801	471.94
332.03	448.94
332.258	454.94
332.486	460.94
332.715	455.94
332.943	465.94
333.172	475.94
333.4	475.94
333.629	469.94
333.857	509.94
334.085	513.94
334.314	471.94
334.542	482.94
334.771	482.94
334.999	478.94
335.227	469.94
335.455	478.94
335.684	481.94
335.912	469.94
336.14	468.94
336.369	454.94
336.597	470.94
336.825	451.94
337.053	441.94
337.281	449.94
337.51	450.94
337.738	440.94
337.966	425.94
338.194	435.94
338.422	437.94
338.65	421.94
338.878	428.94
339.106	426.94
339.334	448.94
339.562	442.94
339.79	415.94
340.018	430.94
340.246	433.94
340.474	443.94
340.702	420.94
340.93	411.94
341.158	404.94
341.386	443.94
341.614	435.94
341.842	429.94
342.07	423.94
342.298	424.94
342.526	401.94
342.754	424.94
342.981	409.94
343.209	425.94
343.437	429.94
343.665	442.94
343.893	443.94
344.12	466.94
344.348	467.94
344.576	447.94
344.804	450.94
345.031	439.94
345.259	427.94
345.487	425.94
345.714	418.94
345.942	415.94
346.17	396.94
346.397	398.94
346.625	414.94
346.853	416.94
347.08	399.94
347.308	411.94
347.535	408.94
347.763	419.94
347.99	409.94
348.218	422.94
348.445	437.94
348.673	411.94
348.9	409.94
349.128	404.94
349.355	405.94
349.583	394.94
349.81	405.94
350.037	394.94
350.265	405.94
350.492	376.94
350.72	390.94
350.947	405.94
351.174	399.94
351.402	422.94
351.629	395.94
351.856	412.94
352.083	433.94
352.311	411.94
352.538	414.94
352.765	426.94
352.992	418.94
353.22	406.94
353.447	383.94
353.674	405.94
353.901	394.94
354.128	377.94
354.355	381.94
354.583	388.94
354.81	363.94
355.037	391.94
355.264	381.94
355.491	374.94
355.718	377.94
355.945	397.94
356.172	389.94
356.399	374.94
356.626	383.94
356.853	370.94
357.08	400.94
357.307	389.94
357.534	390.94
357.761	402.94
357.988	387.94
358.215	382.94
358.441	377.94
358.668	385.94
358.895	381.94
359.122	411.94
359.349	381.94
359.576	413.94
359.802	411.94
360.029	422.94
360.256	437.94
360.483	399.94
360.709	420.94
360.936	433.94
361.163	396.94
361.39	399.94
361.616	378.94
361.843	411.94
362.07	405.94
362.296	393.94
362.523	402.94
362.749	411.94
362.976	405.94
363.203	403.94
363.429	418.94
363.656	393.94
363.882	393.94
364.109	393.94
364.335	391.94
364.562	399.94
364.788	399.94
365.015	378.94
365.241	379.94
365.468	386.94
365.694	400.94
365.92	388.94
366.147	369.94
366.373	379.94
366.599	381.94
366.826	402.94
367.052	409.94
367.278	390.94
367.505	396.94
367.731	383.94
367.957	413.94
368.184	385.94
368.41	404.94
368.636	378.94
368.862	399.94
369.089	409.94
369.315	397.94
369.541	358.94
369.767	373.94
369.993	394.94
370.219	408.94
370.445	394.94
370.672	396.94
370.898	406.94
371.124	387.94
371.35	379.94
371.576	383.94
371.802	399.94
372.028	408.94
372.254	398.94
372.48	394.94
372.706	395.94
372.932	389.94
373.158	410.94
373.384	405.94
373.61	397.94
373.835	403.94
374.061	388.94
374.287	417.94
374.513	402.94
374.739	403.94
374.965	409.94
375.191	410.94
375.416	425.94
375.642	415.94
375.868	415.94
376.094	414.94
376.319	414.94
376.545	386.94
376.771	388.94
376.997	389.94
377.222	383.94
377.448	388.94
377.674	395.94
377.899	385.94
378.125	375.94
378.35	386.94
378.576	399.94
378.802	394.94
379.027	390.94
379.253	400.94
379.478	407.94
379.704	394.94
379.929	405.94
380.155	383.94
380.38	393.94
380.606	410.94
380.831	404.94
381.057	395.94
381.282	395.94
381.507	403.94
381.733	400.94
381.958	401.94
382.184	404.94
382.409	406.94
382.634	408.94
382.86	421.94
383.085	409.94
383.31	413.94
383.535	417.94
383.761	430.94
383.986	411.94
384.211	420.94
384.436	429.94
384.662	418.94
384.887	433.94
385.112	426.94
385.337	441.94
385.562	458.94
385.787	446.94
386.013	455.94
386.238	428.94
386.463	442.94
386.688	433.94
386.913	439.94
387.138	442.94
387.363	435.94
387.588	454.94
387.813	436.94
388.038	428.94
388.263	446.94
388.488	444.94
388.713	420.94
388.938	462.94
389.163	443.94
389.387	431.94
389.612	433.94
389.837	423.94
390.062	421.94
390.287	440.94
390.512	457.94
390.736	456.94
390.961	417.94
391.186	454.94
391.411	449.94
391.636	451.94
391.86	467.94
392.085	474.94
392.31	480.94
392.534	469.94
392.759	454.94
392.984	437.94
393.208	440.94
393.433	466.94
393.658	450.94
393.882	450.94
394.107	458.94
394.331	444.94
394.556	441.94
394.78	451.94
395.005	444.94
395.229	449.94
395.454	471.94
395.678	466.94
395.903	482.94
396.127	487.94
396.352	486.94
396.576	469.94
396.801	453.94
397.025	472.94
397.249	442.94
397.474	487.94
397.698	478.94
397.922	492.94
398.147	474.94
398.371	501.94
398.595	507.94
398.82	485.94
399.044	531.94
399.268	563.94
399.492	587.94
399.717	659.94
399.941	649.94
400.165	653.94
400.389	629.94
400.613	570.94
400.837	554.94
401.062	534.94
401.286	507.94
401.51	500.94
401.734	499.94
401.958	514.94
402.182	519.94
402.406	523.94
402.63	525.94
402.854	528.94
403.078	521.94
403.302	520.94
403.526	527.94
403.75	534.94
403.974	569.94
404.198	549.94
404.422	537.94
404.645	541.94
404.869	558.94
405.093	541.94
405.317	547.94
405.541	581.94
405.765	549.94
405.988	561.94
406.212	551.94
406.436	569.94
406.66	579.94
406.883	558.94
407.107	589.94
407.331	624.94
407.555	693.94
407.778	679.94
408.002	638.94
408.226	613.94
408.449	580.94
408.673	589.94
408.896	593.94
409.12	634.94
409.344	599.94
409.567	549.94
409.791	548.94
410.014	534.94
410.238	531.94
410.461	549.94
410.685	525.94
410.908	548.94
411.132	544.94
411.355	561.94
411.578	555.94
411.802	521.94
412.025	514.94
412.249	517.94
412.472	522.94
412.695	516.94
412.919	522.94
413.142	509.94
413.365	496.94
413.589	478.94
413.812	502.94
414.035	480.94
414.258	495.94
414.482	503.94
414.705	492.94
414.928	485.94
415.151	501.94
415.374	488.94
415.597	515.94
415.821	477.94
416.044	481.94
416.267	500.94
416.49	469.94
416.713	467.94
416.936	494.94
417.159	476.94
417.382	491.94
417.605	486.94
417.828	503.94
418.051	500.94
418.274	516.94
418.497	477.94
418.72	497.94
418.943	488.94
419.166	517.94
419.389	540.94
419.611	537.94
419.834	527.94
420.057	541.94
420.28	507.94
420.503	499.94
420.726	493.94
420.948	517.94
421.171	513.94
421.394	562.94
421.617	531.94
421.839	490.94
422.062	518.94
422.285	533.94
422.507	541.94
422.73	627.94
422.953	613.94
423.175	543.94
423.398	547.94
423.621	536.94
423.843	569.94
424.066	528.94
424.288	507.94
424.511	535.94
424.733	605.94
424.956	669.94
425.178	619.94
425.401	610.94
425.623	637.94
425.846	567.94
426.068	523.94
426.291	522.94
426.513	511.94
426.735	505.94
426.958	549.94
427.18	609.94
427.402	715.94
427.625	784.94
427.847	638.94
428.069	547.94
428.292	534.94
428.514	495.94
428.736	486.94
428.958	485.94
429.181	481.94
429.403	489.94
429.625	514.94
429.847	516.94
430.069	561.94
430.292	539.94
430.514	493.94
430.736	481.94
430.958	477.94
431.18	458.94
431.402	460.94
431.624	462.94
431.846	467.94
432.068	458.94
432.29	470.94
432.512	464.94
432.734	469.94
432.956	447.94
433.178	490.94
433.4	468.94
433.622	463.94
433.844	470.94
434.066	469.94
434.287	458.94
434.509	493.94
434.731	509.94
434.953	515.94
435.175	502.94
435.397	512.94
435.618	524.94
435.84	550.94
436.062	597.94
436.284	645.94
436.505	570.94
436.727	532.94
436.949	486.94
437.17	488.94
437.392	481.94
437.614	492.94
437.835	492.94
438.057	570.94
438.278	640.94
438.5	659.94
438.721	714.94
438.943	683.94
439.165	559.94
439.386	509.94
439.608	523.94
439.829	492.94
440.05	521.94
440.272	539.94
440.493	526.94
440.715	522.94
440.936	473.94
441.158	497.94
441.379	477.94
441.6	497.94
441.822	527.94
442.043	538.94
442.264	595.94
442.486	663.94
442.707	581.94
442.928	508.94
443.149	560.94
443.371	557.94
443.592	595.94
443.813	655.94
444.034	715.94
444.255	594.94
444.476	569.94
444.698	555.94
444.919	590.94
445.14	671.94
445.361	613.94
445.582	555.94
445.803	594.94
446.024	649.94
446.245	662.94
446.466	598.94
446.687	543.94
446.908	507.94
447.129	474.94
447.35	470.94
447.571	490.94
447.792	460.94
448.013	482.94
448.234	475.94
448.455	527.94
448.675	601.94
448.896	693.94
449.117	572.94
449.338	553.94
449.559	642.94
449.779	725.94
450	581.94
450.221	518.94
450.442	487.94
450.662	435.94
450.883	452.94
451.104	463.94
451.324	461.94
451.545	445.94
451.766	427.94
451.986	411.94
452.207	430.94
452.428	435.94
452.648	411.94
452.869	423.94
453.089	428.94
453.31	451.94
453.53	418.94
453.751	440.94
453.971	440.94
454.192	434.94
454.412	409.94
454.633	427.94
454.853	428.94
455.073	405.94
455.294	418.94
455.514	477.94
455.734	473.94
455.955	420.94
456.175	409.94
456.395	414.94
456.616	411.94
456.836	414.94
457.056	405.94
457.276	405.94
457.497	420.94
457.717	402.94
457.937	422.94
458.157	417.94
458.377	420.94
458.598	439.94
458.818	467.94
459.038	533.94
459.258	527.94
459.478	489.94
459.698	471.94
459.918	488.94
460.138	466.94
460.358	505.94
460.578	502.94
460.798	518.94
461.018	504.94
461.238	492.94
461.458	519.94
461.678	489.94
461.898	497.94
462.118	489.94
462.338	500.94
462.558	536.94
462.777	563.94
462.997	557.94
463.217	578.94
463.437	567.94
463.657	569.94
463.876	572.94
464.096	529.94
464.316	536.94
464.536	562.94
464.755	535.94
464.975	544.94
465.195	542.94
465.414	557.94
465.634	529.94
465.854	497.94
466.073	457.94
466.293	465.94
466.512	453.94
466.732	450.94
466.951	453.94
467.171	468.94
467.391	440.94
467.61	459.94
467.829	443.94
468.049	446.94
468.268	447.94
468.488	437.94
468.707	440.94
468.927	418.94
469.146	411.94
469.365	434.94
469.585	439.94
469.804	462.94
470.023	455.94
470.243	462.94
470.462	461.94
470.681	481.94
470.901	450.94
471.12	475.94
471.339	454.94
471.558	460.94
471.777	449.94
471.997	427.94
472.216	433.94
472.435	440.94
472.654	451.94
472.873	429.94
473.092	428.94
473.311	435.94
473.53	416.94
473.749	455.94
473.968	474.94
474.187	527.94
474.406	577.94
474.625	468.94
474.844	459.94
475.063	442.94
475.282	455.94
475.501	431.94
475.72	471.94
475.939	458.94
476.158	454.94
476.377	451.94
476.596	462.94
476.814	453.94
477.033	471.94
477.252	482.94
477.471	485.94
477.69	477.94
477.908	482.94
478.127	526.94
478.346	503.94
478.564	502.94
478.783	507.94
479.002	544.94
479.22	519.94
479.439	543.94
479.658	540.94
479.876	534.94
480.095	547.94
480.313	558.94
480.532	562.94
480.751	543.94
480.969	559.94
481.188	557.94
481.406	548.94
481.624	533.94
481.843	516.94
482.061	526.94
482.28	538.94
482.498	506.94
482.717	523.94
482.935	512.94
483.153	523.94
483.372	520.94
483.59	516.94
483.808	533.94
484.027	510.94
484.245	509.94
484.463	506.94
484.681	515.94
484.9	533.94
485.118	549.94
485.336	531.94
485.554	548.94
485.772	551.94
485.99	545.94
486.209	538.94
486.427	557.94
486.645	563.94
486.863	559.94
487.081	565.94
487.299	541.94
487.517	555.94
487.735	550.94
487.953	555.94
488.171	551.94
488.389	551.94
488.607	543.94
488.825	556.94
489.043	561.94
489.261	554.94
489.479	561.94
489.696	528.94
489.914	552.94
490.132	589.94
490.35	574.94
490.568	571.94
490.786	580.94
491.003	577.94
491.221	578.94
491.439	596.94
491.657	588.94
491.874	590.94
492.092	605.94
492.31	619.94
492.527	617.94
492.745	577.94
492.963	636.94
493.18	611.94
493.398	611.94
493.615	636.94
493.833	613.94
494.05	636.94
494.268	630.94
494.485	631.94
494.703	629.94
494.92	629.94
495.138	614.94
495.355	633.94
495.573	637.94
495.79	638.94
496.008	644.94
496.225	644.94
496.442	630.94
496.66	634.94
496.877	636.94
497.094	678.94
497.312	667.94
497.529	681.94
497.746	661.94
497.963	721.94
498.181	740.94
498.398	727.94
498.615	742.94
498.832	790.94
499.049	797.94
499.267	825.94
499.484	892.94
499.701	933.94
499.918	989.94
500.135	1056.94
500.352	1106.94
500.569	1137.94
500.786	1133.94
501.003	1093.94
501.22	1090.94
501.437	977.94
501.654	919.94
501.871	863.94
