Data from 1985.PennyLincolnUp.Lamp.En5.5.200Scan.071819.P1_HRD10591_17-02-15-970.txt Node
Date: Thu Jul 18 17:02:15 EDT 2019
User: cochatt
Spectrometer: HR+D1059
Trigger mode: 1
Integration Time (sec): 1.000000E-1
Scans to average: 1
Electric dark correction enabled: true
Nonlinearity correction enabled: false
Boxcar width: 0
XAxis mode: Wavelengths
Number of Pixels in Spectrum: 2048
>>>>>Begin Spectral Data<<<<<
223.165	-1.06
223.4	-1.06
223.635	-1.06
223.869	-25.06
224.104	-16.06
224.338	-3.06
224.573	-21.06
224.808	-9.06
225.042	-10.06
225.277	-0.06
225.511	-12.06
225.746	3.94
225.98	4.94
226.215	5.94
226.449	-3.06
226.683	27.94
226.918	20.94
227.152	36.94
227.387	15.94
227.621	34.94
227.856	33.94
228.09	48.94
228.324	42.94
228.559	57.94
228.793	69.94
229.027	83.94
229.262	89.94
229.496	117.94
229.73	106.94
229.964	131.94
230.199	117.94
230.433	117.94
230.667	93.94
230.901	99.94
231.136	118.94
231.37	89.94
231.604	119.94
231.838	118.94
232.072	101.94
232.306	121.94
232.541	105.94
232.775	106.94
233.009	120.94
233.243	117.94
233.477	120.94
233.711	125.94
233.945	104.94
234.179	109.94
234.413	115.94
234.647	127.94
234.881	114.94
235.115	107.94
235.349	119.94
235.583	129.94
235.817	112.94
236.051	119.94
236.285	115.94
236.519	140.94
236.753	131.94
236.987	140.94
237.221	176.94
237.455	201.94
237.689	163.94
237.922	127.94
238.156	118.94
238.39	114.94
238.624	108.94
238.858	115.94
239.091	113.94
239.325	116.94
239.559	115.94
239.793	122.94
240.027	121.94
240.26	145.94
240.494	148.94
240.728	138.94
240.961	147.94
241.195	130.94
241.429	133.94
241.662	135.94
241.896	137.94
242.13	132.94
242.363	117.94
242.597	129.94
242.83	130.94
243.064	132.94
243.298	138.94
243.531	154.94
243.765	133.94
243.998	131.94
244.232	144.94
244.465	136.94
244.699	139.94
244.932	139.94
245.166	133.94
245.399	161.94
245.633	149.94
245.866	142.94
246.099	145.94
246.333	145.94
246.566	149.94
246.8	150.94
247.033	148.94
247.266	157.94
247.5	149.94
247.733	159.94
247.966	155.94
248.2	164.94
248.433	169.94
248.666	169.94
248.899	188.94
249.133	185.94
249.366	181.94
249.599	183.94
249.832	159.94
250.066	168.94
250.299	178.94
250.532	183.94
250.765	195.94
250.998	209.94
251.231	198.94
251.465	183.94
251.698	187.94
251.931	180.94
252.164	178.94
252.397	197.94
252.63	206.94
252.863	190.94
253.096	217.94
253.329	216.94
253.562	188.94
253.795	204.94
254.028	206.94
254.261	207.94
254.494	211.94
254.727	234.94
254.96	253.94
255.193	242.94
255.426	234.94
255.659	203.94
255.892	215.94
256.124	187.94
256.357	199.94
256.59	213.94
256.823	206.94
257.056	203.94
257.289	185.94
257.521	193.94
257.754	195.94
257.987	192.94
258.22	207.94
258.452	208.94
258.685	209.94
258.918	212.94
259.151	211.94
259.383	208.94
259.616	207.94
259.849	216.94
260.081	220.94
260.314	233.94
260.547	238.94
260.779	243.94
261.012	217.94
261.244	223.94
261.477	211.94
261.71	210.94
261.942	220.94
262.175	224.94
262.407	231.94
262.64	211.94
262.872	219.94
263.105	198.94
263.337	221.94
263.57	220.94
263.802	204.94
264.035	189.94
264.267	211.94
264.499	221.94
264.732	233.94
264.964	210.94
265.197	209.94
265.429	208.94
265.661	232.94
265.894	216.94
266.126	210.94
266.358	207.94
266.591	223.94
266.823	229.94
267.055	226.94
267.287	213.94
267.52	223.94
267.752	214.94
267.984	218.94
268.216	245.94
268.448	229.94
268.681	236.94
268.913	243.94
269.145	269.94
269.377	267.94
269.609	269.94
269.841	270.94
270.073	256.94
270.306	289.94
270.538	316.94
270.77	298.94
271.002	281.94
271.234	273.94
271.466	292.94
271.698	303.94
271.93	310.94
272.162	297.94
272.394	321.94
272.626	287.94
272.858	283.94
273.09	270.94
273.322	278.94
273.553	269.94
273.785	275.94
274.017	283.94
274.249	262.94
274.481	262.94
274.713	260.94
274.945	254.94
275.176	264.94
275.408	248.94
275.64	279.94
275.872	252.94
276.104	277.94
276.335	260.94
276.567	259.94
276.799	290.94
277.031	280.94
277.262	309.94
277.494	316.94
277.726	294.94
277.957	281.94
278.189	309.94
278.421	279.94
278.652	271.94
278.884	292.94
279.115	278.94
279.347	282.94
279.579	282.94
279.81	276.94
280.042	266.94
280.273	274.94
280.505	255.94
280.736	275.94
280.968	283.94
281.199	297.94
281.431	276.94
281.662	283.94
281.894	280.94
282.125	282.94
282.356	292.94
282.588	324.94
282.819	313.94
283.051	294.94
283.282	273.94
283.513	286.94
283.745	287.94
283.976	291.94
284.207	301.94
284.439	277.94
284.67	278.94
284.901	322.94
285.132	297.94
285.364	300.94
285.595	285.94
285.826	288.94
286.057	288.94
286.288	290.94
286.52	293.94
286.751	290.94
286.982	307.94
287.213	305.94
287.444	293.94
287.675	306.94
287.906	326.94
288.138	319.94
288.369	322.94
288.6	297.94
288.831	306.94
289.062	307.94
289.293	306.94
289.524	318.94
289.755	314.94
289.986	312.94
290.217	330.94
290.448	309.94
290.679	321.94
290.91	306.94
291.141	291.94
291.371	315.94
291.602	319.94
291.833	307.94
292.064	314.94
292.295	304.94
292.526	313.94
292.757	321.94
292.987	311.94
293.218	312.94
293.449	307.94
293.68	319.94
293.91	311.94
294.141	309.94
294.372	315.94
294.603	308.94
294.833	297.94
295.064	320.94
295.295	320.94
295.525	309.94
295.756	310.94
295.987	323.94
296.217	331.94
296.448	342.94
296.679	319.94
296.909	324.94
297.14	307.94
297.37	320.94
297.601	332.94
297.831	336.94
298.062	323.94
298.292	324.94
298.523	319.94
298.753	315.94
298.984	336.94
299.214	312.94
299.445	333.94
299.675	345.94
299.905	351.94
300.136	338.94
300.366	338.94
300.597	352.94
300.827	338.94
301.057	354.94
301.288	361.94
301.518	351.94
301.748	360.94
301.979	358.94
302.209	337.94
302.439	339.94
302.669	357.94
302.9	367.94
303.13	345.94
303.36	358.94
303.59	379.94
303.82	377.94
304.051	347.94
304.281	345.94
304.511	337.94
304.741	353.94
304.971	371.94
305.201	356.94
305.431	358.94
305.661	348.94
305.891	359.94
306.121	332.94
306.352	339.94
306.582	357.94
306.812	363.94
307.042	370.94
307.272	367.94
307.502	344.94
307.731	351.94
307.961	367.94
308.191	362.94
308.421	344.94
308.651	364.94
308.881	363.94
309.111	370.94
309.341	355.94
309.571	369.94
309.8	379.94
310.03	392.94
310.26	388.94
310.49	389.94
310.72	402.94
310.949	398.94
311.179	398.94
311.409	390.94
311.639	390.94
311.868	390.94
312.098	403.94
312.328	387.94
312.557	402.94
312.787	433.94
313.017	450.94
313.246	421.94
313.476	374.94
313.706	381.94
313.935	403.94
314.165	406.94
314.394	426.94
314.624	433.94
314.853	410.94
315.083	406.94
315.312	406.94
315.542	404.94
315.771	380.94
316.001	403.94
316.23	395.94
316.46	394.94
316.689	405.94
316.919	395.94
317.148	389.94
317.377	408.94
317.607	398.94
317.836	409.94
318.065	396.94
318.295	405.94
318.524	395.94
318.753	409.94
318.983	390.94
319.212	403.94
319.441	403.94
319.67	423.94
319.9	404.94
320.129	392.94
320.358	414.94
320.587	393.94
320.816	414.94
321.046	410.94
321.275	427.94
321.504	420.94
321.733	409.94
321.962	400.94
322.191	449.94
322.42	447.94
322.649	438.94
322.878	459.94
323.108	466.94
323.337	484.94
323.566	477.94
323.795	526.94
324.024	551.94
324.253	665.94
324.482	892.94
324.71	1325.94
324.939	1871.94
325.168	1595.94
325.397	858.94
325.626	620.94
325.855	527.94
326.084	520.94
326.313	499.94
326.542	529.94
326.77	567.94
326.999	639.94
327.228	796.94
327.457	1199.94
327.686	1421.94
327.914	967.94
328.143	656.94
328.372	588.94
328.6	547.94
328.829	535.94
329.058	541.94
329.287	564.94
329.515	507.94
329.744	500.94
329.972	496.94
330.201	500.94
330.43	501.94
330.658	552.94
330.887	582.94
331.115	568.94
331.344	512.94
331.572	521.94
331.801	490.94
332.03	517.94
332.258	494.94
332.486	462.94
332.715	476.94
332.943	497.94
333.172	482.94
333.4	512.94
333.629	503.94
333.857	508.94
334.085	492.94
334.314	513.94
334.542	495.94
334.771	505.94
334.999	488.94
335.227	501.94
335.455	501.94
335.684	507.94
335.912	508.94
336.14	482.94
336.369	476.94
336.597	494.94
336.825	487.94
337.053	487.94
337.281	483.94
337.51	467.94
337.738	466.94
337.966	471.94
338.194	480.94
338.422	481.94
338.65	438.94
338.878	447.94
339.106	458.94
339.334	456.94
339.562	451.94
339.79	464.94
340.018	436.94
340.246	450.94
340.474	429.94
340.702	456.94
340.93	459.94
341.158	461.94
341.386	436.94
341.614	441.94
341.842	439.94
342.07	429.94
342.298	449.94
342.526	441.94
342.754	437.94
342.981	441.94
343.209	454.94
343.437	444.94
343.665	450.94
343.893	466.94
344.12	493.94
344.348	484.94
344.576	471.94
344.804	464.94
345.031	461.94
345.259	472.94
345.487	449.94
345.714	450.94
345.942	455.94
346.17	446.94
346.397	439.94
346.625	436.94
346.853	436.94
347.08	429.94
347.308	449.94
347.535	436.94
347.763	437.94
347.99	431.94
348.218	465.94
348.445	439.94
348.673	444.94
348.9	434.94
349.128	428.94
349.355	434.94
349.583	419.94
349.81	401.94
350.037	428.94
350.265	415.94
350.492	436.94
350.72	425.94
350.947	435.94
351.174	439.94
351.402	440.94
351.629	445.94
351.856	418.94
352.083	436.94
352.311	442.94
352.538	443.94
352.765	448.94
352.992	431.94
353.22	423.94
353.447	408.94
353.674	435.94
353.901	407.94
354.128	423.94
354.355	407.94
354.583	400.94
354.81	397.94
355.037	405.94
355.264	388.94
355.491	395.94
355.718	383.94
355.945	407.94
356.172	411.94
356.399	409.94
356.626	409.94
356.853	405.94
357.08	408.94
357.307	391.94
357.534	408.94
357.761	411.94
357.988	426.94
358.215	413.94
358.441	413.94
358.668	404.94
358.895	413.94
359.122	421.94
359.349	431.94
359.576	424.94
359.802	428.94
360.029	455.94
360.256	476.94
360.483	449.94
360.709	431.94
360.936	420.94
361.163	420.94
361.39	413.94
361.616	405.94
361.843	428.94
362.07	436.94
362.296	401.94
362.523	423.94
362.749	412.94
362.976	419.94
363.203	418.94
363.429	408.94
363.656	435.94
363.882	420.94
364.109	420.94
364.335	415.94
364.562	406.94
364.788	396.94
365.015	392.94
365.241	423.94
365.468	440.94
365.694	430.94
365.92	407.94
366.147	410.94
366.373	405.94
366.599	410.94
366.826	396.94
367.052	416.94
367.278	405.94
367.505	410.94
367.731	408.94
367.957	408.94
368.184	412.94
368.41	427.94
368.636	424.94
368.862	437.94
369.089	407.94
369.315	406.94
369.541	389.94
369.767	373.94
369.993	388.94
370.219	407.94
370.445	395.94
370.672	414.94
370.898	414.94
371.124	396.94
371.35	428.94
371.576	405.94
371.802	431.94
372.028	397.94
372.254	392.94
372.48	389.94
372.706	413.94
372.932	424.94
373.158	415.94
373.384	417.94
373.61	431.94
373.835	409.94
374.061	400.94
374.287	413.94
374.513	423.94
374.739	421.94
374.965	418.94
375.191	422.94
375.416	427.94
375.642	434.94
375.868	433.94
376.094	407.94
376.319	376.94
376.545	412.94
376.771	410.94
376.997	398.94
377.222	401.94
377.448	401.94
377.674	397.94
377.899	401.94
378.125	411.94
378.35	406.94
378.576	405.94
378.802	408.94
379.027	402.94
379.253	405.94
379.478	387.94
379.704	414.94
379.929	386.94
380.155	399.94
380.38	396.94
380.606	399.94
380.831	396.94
381.057	423.94
381.282	403.94
381.507	408.94
381.733	424.94
381.958	413.94
382.184	395.94
382.409	413.94
382.634	417.94
382.86	416.94
383.085	420.94
383.31	405.94
383.535	433.94
383.761	437.94
383.986	433.94
384.211	424.94
384.436	439.94
384.662	435.94
384.887	421.94
385.112	454.94
385.337	441.94
385.562	467.94
385.787	440.94
386.013	451.94
386.238	460.94
386.463	478.94
386.688	456.94
386.913	454.94
387.138	451.94
387.363	443.94
387.588	445.94
387.813	454.94
388.038	459.94
388.263	438.94
388.488	447.94
388.713	445.94
388.938	490.94
389.163	465.94
389.387	460.94
389.612	455.94
389.837	457.94
390.062	459.94
390.287	451.94
390.512	432.94
390.736	468.94
390.961	463.94
391.186	467.94
391.411	465.94
391.636	475.94
391.86	475.94
392.085	484.94
392.31	480.94
392.534	483.94
392.759	462.94
392.984	461.94
393.208	439.94
393.433	470.94
393.658	459.94
393.882	452.94
394.107	454.94
394.331	467.94
394.556	466.94
394.78	463.94
395.005	471.94
395.229	460.94
395.454	482.94
395.678	488.94
395.903	478.94
396.127	481.94
396.352	497.94
396.576	475.94
396.801	468.94
397.025	476.94
397.249	494.94
397.474	495.94
397.698	496.94
397.922	512.94
398.147	504.94
398.371	522.94
398.595	539.94
398.82	533.94
399.044	528.94
399.268	563.94
399.492	613.94
399.717	668.94
399.941	694.94
400.165	684.94
400.389	645.94
400.613	602.94
400.837	556.94
401.062	547.94
401.286	533.94
401.51	497.94
401.734	513.94
401.958	542.94
402.182	527.94
402.406	549.94
402.63	530.94
402.854	537.94
403.078	549.94
403.302	539.94
403.526	551.94
403.75	571.94
403.974	559.94
404.198	541.94
404.422	538.94
404.645	545.94
404.869	568.94
405.093	563.94
405.317	587.94
405.541	594.94
405.765	553.94
405.988	559.94
406.212	590.94
406.436	592.94
406.66	612.94
406.883	599.94
407.107	617.94
407.331	667.94
407.555	712.94
407.778	721.94
408.002	653.94
408.226	603.94
408.449	609.94
408.673	595.94
408.896	625.94
409.12	640.94
409.344	635.94
409.567	553.94
409.791	566.94
410.014	545.94
410.238	531.94
410.461	560.94
410.685	535.94
410.908	538.94
411.132	581.94
411.355	608.94
411.578	576.94
411.802	540.94
412.025	526.94
412.249	530.94
412.472	532.94
412.695	506.94
412.919	535.94
413.142	514.94
413.365	525.94
413.589	524.94
413.812	509.94
414.035	514.94
414.258	512.94
414.482	531.94
414.705	511.94
414.928	517.94
415.151	522.94
415.374	522.94
415.597	543.94
415.821	513.94
416.044	527.94
416.267	511.94
416.49	512.94
416.713	500.94
416.936	490.94
417.159	503.94
417.382	523.94
417.605	491.94
417.828	496.94
418.051	523.94
418.274	524.94
418.497	516.94
418.72	516.94
418.943	492.94
419.166	530.94
419.389	575.94
419.611	543.94
419.834	535.94
420.057	535.94
420.28	517.94
420.503	523.94
420.726	521.94
420.948	519.94
421.171	580.94
421.394	589.94
421.617	542.94
421.839	518.94
422.062	526.94
422.285	521.94
422.507	593.94
422.73	682.94
422.953	599.94
423.175	551.94
423.398	549.94
423.621	552.94
423.843	579.94
424.066	564.94
424.288	561.94
424.511	580.94
424.733	652.94
424.956	693.94
425.178	642.94
425.401	661.94
425.623	689.94
425.846	570.94
426.068	571.94
426.291	556.94
426.513	537.94
426.735	555.94
426.958	587.94
427.18	651.94
427.402	771.94
427.625	844.94
427.847	705.94
428.069	624.94
428.292	554.94
428.514	526.94
428.736	509.94
428.958	504.94
429.181	499.94
429.403	493.94
429.625	521.94
429.847	520.94
430.069	596.94
430.292	575.94
430.514	522.94
430.736	514.94
430.958	484.94
431.18	482.94
431.402	470.94
431.624	476.94
431.846	489.94
432.068	489.94
432.29	486.94
432.512	483.94
432.734	495.94
432.956	491.94
433.178	509.94
433.4	503.94
433.622	509.94
433.844	485.94
434.066	514.94
434.287	476.94
434.509	502.94
434.731	495.94
434.953	520.94
435.175	542.94
435.397	554.94
435.618	559.94
435.84	580.94
436.062	651.94
436.284	708.94
436.505	595.94
436.727	523.94
436.949	501.94
437.17	485.94
437.392	513.94
437.614	540.94
437.835	538.94
438.057	618.94
438.278	683.94
438.5	693.94
438.721	768.94
438.943	722.94
439.165	590.94
439.386	558.94
439.608	534.94
439.829	560.94
440.05	559.94
440.272	592.94
440.493	552.94
440.715	528.94
440.936	505.94
441.158	510.94
441.379	523.94
441.6	515.94
441.822	542.94
442.043	579.94
442.264	656.94
442.486	699.94
442.707	603.94
442.928	563.94
443.149	572.94
443.371	590.94
443.592	625.94
443.813	700.94
444.034	757.94
444.255	649.94
444.476	596.94
444.698	580.94
444.919	574.94
445.14	690.94
445.361	634.94
445.582	597.94
445.803	651.94
446.024	742.94
446.245	708.94
446.466	663.94
446.687	575.94
446.908	543.94
447.129	517.94
447.35	521.94
447.571	483.94
447.792	485.94
448.013	462.94
448.234	505.94
448.455	563.94
448.675	684.94
448.896	727.94
449.117	658.94
449.338	603.94
449.559	716.94
449.779	789.94
450	633.94
450.221	512.94
450.442	501.94
450.662	500.94
450.883	501.94
451.104	506.94
451.324	516.94
451.545	452.94
451.766	469.94
451.986	435.94
452.207	456.94
452.428	441.94
452.648	467.94
452.869	455.94
453.089	452.94
453.31	465.94
453.53	458.94
453.751	442.94
453.971	440.94
454.192	454.94
454.412	444.94
454.633	427.94
454.853	445.94
455.073	438.94
455.294	470.94
455.514	538.94
455.734	509.94
455.955	430.94
456.175	427.94
456.395	412.94
456.616	412.94
456.836	433.94
457.056	419.94
457.276	409.94
457.497	431.94
457.717	418.94
457.937	426.94
458.157	442.94
458.377	436.94
458.598	460.94
458.818	530.94
459.038	563.94
459.258	591.94
459.478	528.94
459.698	470.94
459.918	493.94
460.138	499.94
460.358	520.94
460.578	537.94
460.798	523.94
461.018	499.94
461.238	546.94
461.458	540.94
461.678	509.94
461.898	532.94
462.118	511.94
462.338	532.94
462.558	519.94
462.777	538.94
462.997	589.94
463.217	607.94
463.437	600.94
463.657	565.94
463.876	554.94
464.096	575.94
464.316	564.94
464.536	549.94
464.755	564.94
464.975	554.94
465.195	582.94
465.414	635.94
465.634	573.94
465.854	538.94
466.073	520.94
466.293	469.94
466.512	468.94
466.732	486.94
466.951	466.94
467.171	460.94
467.391	466.94
467.61	468.94
467.829	492.94
468.049	471.94
468.268	455.94
468.488	440.94
468.707	437.94
468.927	450.94
469.146	437.94
469.365	447.94
469.585	434.94
469.804	461.94
470.023	479.94
470.243	468.94
470.462	480.94
470.681	505.94
470.901	489.94
471.12	471.94
471.339	476.94
471.558	472.94
471.777	488.94
471.997	462.94
472.216	459.94
472.435	467.94
472.654	469.94
472.873	449.94
473.092	445.94
473.311	461.94
473.53	458.94
473.749	470.94
473.968	498.94
474.187	599.94
474.406	588.94
474.625	503.94
474.844	462.94
475.063	458.94
475.282	457.94
475.501	469.94
475.72	489.94
475.939	469.94
476.158	496.94
476.377	475.94
476.596	481.94
476.814	502.94
477.033	496.94
477.252	496.94
477.471	482.94
477.69	508.94
477.908	533.94
478.127	535.94
478.346	521.94
478.564	537.94
478.783	536.94
479.002	557.94
479.22	530.94
479.439	554.94
479.658	584.94
479.876	562.94
480.095	565.94
480.313	611.94
480.532	605.94
480.751	601.94
480.969	598.94
481.188	594.94
481.406	596.94
481.624	547.94
481.843	550.94
482.061	556.94
482.28	521.94
482.498	529.94
482.717	527.94
482.935	566.94
483.153	532.94
483.372	546.94
483.59	523.94
483.808	525.94
484.027	529.94
484.245	546.94
484.463	537.94
484.681	549.94
484.9	533.94
485.118	563.94
485.336	532.94
485.554	571.94
485.772	538.94
485.99	563.94
486.209	573.94
486.427	546.94
486.645	569.94
486.863	575.94
487.081	582.94
487.299	553.94
487.517	577.94
487.735	589.94
487.953	543.94
488.171	584.94
488.389	546.94
488.607	573.94
488.825	588.94
489.043	574.94
489.261	572.94
489.479	583.94
489.696	583.94
489.914	587.94
490.132	594.94
490.35	589.94
490.568	582.94
490.786	612.94
491.003	627.94
491.221	614.94
491.439	643.94
491.657	607.94
491.874	638.94
492.092	659.94
492.31	658.94
492.527	636.94
492.745	651.94
492.963	643.94
493.18	649.94
493.398	666.94
493.615	643.94
493.833	660.94
494.05	682.94
494.268	663.94
494.485	687.94
494.703	669.94
494.92	701.94
495.138	647.94
495.355	685.94
495.573	669.94
495.79	698.94
496.008	691.94
496.225	656.94
496.442	690.94
496.66	682.94
496.877	694.94
497.094	678.94
497.312	691.94
497.529	713.94
497.746	728.94
497.963	723.94
498.181	757.94
498.398	775.94
498.615	781.94
498.832	838.94
499.049	839.94
499.267	843.94
499.484	892.94
499.701	953.94
499.918	1018.94
500.135	1062.94
500.352	1140.94
500.569	1149.94
500.786	1160.94
501.003	1123.94
501.22	1062.94
501.437	1013.94
501.654	967.94
501.871	927.94
