Data from 1985.PennyLincolnUp.Lamp.En5.5.200Scan.071819.P1_HRD10591_17-04-18-971.txt Node
Date: Thu Jul 18 17:04:18 EDT 2019
User: cochatt
Spectrometer: HR+D1059
Trigger mode: 1
Integration Time (sec): 1.000000E-1
Scans to average: 1
Electric dark correction enabled: true
Nonlinearity correction enabled: false
Boxcar width: 0
XAxis mode: Wavelengths
Number of Pixels in Spectrum: 2048
>>>>>Begin Spectral Data<<<<<
223.165	-23.06
223.4	-23.06
223.635	-23.06
223.869	-21.06
224.104	-9.06
224.338	-15.06
224.573	-12.06
224.808	-10.06
225.042	-16.06
225.277	-11.06
225.511	-10.06
225.746	-1.06
225.98	14.94
226.215	13.94
226.449	13.94
226.683	23.94
226.918	42.94
227.152	18.94
227.387	31.94
227.621	39.94
227.856	39.94
228.09	49.94
228.324	54.94
228.559	54.94
228.793	63.94
229.027	80.94
229.262	97.94
229.496	114.94
229.73	106.94
229.964	130.94
230.199	113.94
230.433	97.94
230.667	107.94
230.901	94.94
231.136	114.94
231.37	129.94
231.604	104.94
231.838	104.94
232.072	113.94
232.306	109.94
232.541	115.94
232.775	102.94
233.009	113.94
233.243	102.94
233.477	120.94
233.711	118.94
233.945	112.94
234.179	113.94
234.413	120.94
234.647	104.94
234.881	121.94
235.115	121.94
235.349	119.94
235.583	122.94
235.817	128.94
236.051	119.94
236.285	127.94
236.519	124.94
236.753	123.94
236.987	146.94
237.221	191.94
237.455	201.94
237.689	169.94
237.922	145.94
238.156	125.94
238.39	137.94
238.624	130.94
238.858	128.94
239.091	119.94
239.325	132.94
239.559	123.94
239.793	128.94
240.027	135.94
240.26	131.94
240.494	131.94
240.728	156.94
240.961	160.94
241.195	140.94
241.429	149.94
241.662	132.94
241.896	143.94
242.13	136.94
242.363	136.94
242.597	153.94
242.83	134.94
243.064	146.94
243.298	155.94
243.531	142.94
243.765	155.94
243.998	138.94
244.232	139.94
244.465	145.94
244.699	154.94
244.932	153.94
245.166	146.94
245.399	144.94
245.633	145.94
245.866	152.94
246.099	145.94
246.333	150.94
246.566	146.94
246.8	146.94
247.033	155.94
247.266	152.94
247.5	147.94
247.733	171.94
247.966	163.94
248.2	164.94
248.433	184.94
248.666	165.94
248.899	165.94
249.133	199.94
249.366	199.94
249.599	203.94
249.832	185.94
250.066	188.94
250.299	175.94
250.532	197.94
250.765	220.94
250.998	216.94
251.231	235.94
251.465	190.94
251.698	198.94
251.931	198.94
252.164	197.94
252.397	208.94
252.63	218.94
252.863	201.94
253.096	217.94
253.329	212.94
253.562	232.94
253.795	218.94
254.028	205.94
254.261	220.94
254.494	203.94
254.727	252.94
254.96	260.94
255.193	260.94
255.426	234.94
255.659	243.94
255.892	247.94
256.124	255.94
256.357	258.94
256.59	242.94
256.823	245.94
257.056	236.94
257.289	205.94
257.521	216.94
257.754	212.94
257.987	217.94
258.22	229.94
258.452	213.94
258.685	216.94
258.918	204.94
259.151	211.94
259.383	217.94
259.616	215.94
259.849	218.94
260.081	254.94
260.314	251.94
260.547	267.94
260.779	253.94
261.012	236.94
261.244	228.94
261.477	240.94
261.71	219.94
261.942	217.94
262.175	234.94
262.407	237.94
262.64	215.94
262.872	215.94
263.105	229.94
263.337	227.94
263.57	203.94
263.802	217.94
264.035	227.94
264.267	226.94
264.499	230.94
264.732	210.94
264.964	227.94
265.197	201.94
265.429	217.94
265.661	221.94
265.894	231.94
266.126	220.94
266.358	211.94
266.591	230.94
266.823	242.94
267.055	236.94
267.287	243.94
267.52	232.94
267.752	243.94
267.984	228.94
268.216	233.94
268.448	240.94
268.681	237.94
268.913	265.94
269.145	263.94
269.377	274.94
269.609	289.94
269.841	279.94
270.073	280.94
270.306	295.94
270.538	336.94
270.77	322.94
271.002	299.94
271.234	292.94
271.466	296.94
271.698	329.94
271.93	325.94
272.162	316.94
272.394	320.94
272.626	304.94
272.858	290.94
273.09	277.94
273.322	275.94
273.553	283.94
273.785	276.94
274.017	260.94
274.249	278.94
274.481	285.94
274.713	292.94
274.945	293.94
275.176	283.94
275.408	300.94
275.64	265.94
275.872	281.94
276.104	303.94
276.335	283.94
276.567	288.94
276.799	300.94
277.031	315.94
277.262	313.94
277.494	352.94
277.726	327.94
277.957	300.94
278.189	298.94
278.421	287.94
278.652	295.94
278.884	288.94
279.115	301.94
279.347	288.94
279.579	281.94
279.81	284.94
280.042	282.94
280.273	303.94
280.505	290.94
280.736	279.94
280.968	295.94
281.199	308.94
281.431	299.94
281.662	289.94
281.894	285.94
282.125	297.94
282.356	300.94
282.588	316.94
282.819	321.94
283.051	316.94
283.282	308.94
283.513	315.94
283.745	292.94
283.976	325.94
284.207	329.94
284.439	312.94
284.67	293.94
284.901	311.94
285.132	320.94
285.364	305.94
285.595	313.94
285.826	310.94
286.057	332.94
286.288	324.94
286.52	309.94
286.751	299.94
286.982	319.94
287.213	330.94
287.444	310.94
287.675	310.94
287.906	323.94
288.138	319.94
288.369	332.94
288.6	335.94
288.831	329.94
289.062	338.94
289.293	329.94
289.524	322.94
289.755	319.94
289.986	323.94
290.217	323.94
290.448	316.94
290.679	320.94
290.91	311.94
291.141	319.94
291.371	340.94
291.602	327.94
291.833	313.94
292.064	305.94
292.295	322.94
292.526	330.94
292.757	329.94
292.987	311.94
293.218	313.94
293.449	331.94
293.68	323.94
293.91	326.94
294.141	319.94
294.372	322.94
294.603	325.94
294.833	336.94
295.064	335.94
295.295	331.94
295.525	325.94
295.756	358.94
295.987	351.94
296.217	358.94
296.448	349.94
296.679	346.94
296.909	343.94
297.14	333.94
297.37	340.94
297.601	340.94
297.831	334.94
298.062	343.94
298.292	356.94
298.523	348.94
298.753	362.94
298.984	354.94
299.214	349.94
299.445	352.94
299.675	355.94
299.905	337.94
300.136	339.94
300.366	351.94
300.597	371.94
300.827	370.94
301.057	371.94
301.288	372.94
301.518	387.94
301.748	373.94
301.979	355.94
302.209	378.94
302.439	371.94
302.669	384.94
302.9	371.94
303.13	383.94
303.36	369.94
303.59	374.94
303.82	375.94
304.051	372.94
304.281	374.94
304.511	353.94
304.741	382.94
304.971	375.94
305.201	385.94
305.431	377.94
305.661	367.94
305.891	360.94
306.121	369.94
306.352	377.94
306.582	383.94
306.812	383.94
307.042	379.94
307.272	375.94
307.502	373.94
307.731	375.94
307.961	380.94
308.191	378.94
308.421	373.94
308.651	376.94
308.881	389.94
309.111	370.94
309.341	379.94
309.571	398.94
309.8	391.94
310.03	407.94
310.26	405.94
310.49	410.94
310.72	419.94
310.949	436.94
311.179	421.94
311.409	401.94
311.639	419.94
311.868	420.94
312.098	422.94
312.328	413.94
312.557	436.94
312.787	452.94
313.017	427.94
313.246	397.94
313.476	414.94
313.706	416.94
313.935	422.94
314.165	438.94
314.394	435.94
314.624	448.94
314.853	418.94
315.083	425.94
315.312	418.94
315.542	414.94
315.771	432.94
316.001	416.94
316.23	418.94
316.46	419.94
316.689	423.94
316.919	445.94
317.148	405.94
317.377	447.94
317.607	443.94
317.836	435.94
318.065	428.94
318.295	421.94
318.524	437.94
318.753	433.94
318.983	408.94
319.212	420.94
319.441	441.94
319.67	469.94
319.9	421.94
320.129	408.94
320.358	425.94
320.587	420.94
320.816	450.94
321.046	458.94
321.275	431.94
321.504	440.94
321.733	451.94
321.962	452.94
322.191	462.94
322.42	452.94
322.649	475.94
322.878	496.94
323.108	485.94
323.337	500.94
323.566	506.94
323.795	549.94
324.024	611.94
324.253	700.94
324.482	990.94
324.71	1431.94
324.939	2040.94
325.168	1723.94
325.397	921.94
325.626	635.94
325.855	567.94
326.084	538.94
326.313	534.94
326.542	540.94
326.77	589.94
326.999	669.94
327.228	880.94
327.457	1307.94
327.686	1510.94
327.914	1033.94
328.143	735.94
328.372	647.94
328.6	631.94
328.829	620.94
329.058	611.94
329.287	623.94
329.515	602.94
329.744	559.94
329.972	583.94
330.201	602.94
330.43	646.94
330.658	668.94
330.887	661.94
331.115	644.94
331.344	592.94
331.572	537.94
331.801	551.94
332.03	543.94
332.258	516.94
332.486	529.94
332.715	515.94
332.943	535.94
333.172	535.94
333.4	535.94
333.629	587.94
333.857	590.94
334.085	607.94
334.314	649.94
334.542	659.94
334.771	695.94
334.999	636.94
335.227	569.94
335.455	537.94
335.684	524.94
335.912	540.94
336.14	500.94
336.369	506.94
336.597	492.94
336.825	508.94
337.053	491.94
337.281	487.94
337.51	484.94
337.738	489.94
337.966	490.94
338.194	471.94
338.422	514.94
338.65	489.94
338.878	483.94
339.106	472.94
339.334	465.94
339.562	484.94
339.79	477.94
340.018	463.94
340.246	475.94
340.474	479.94
340.702	468.94
340.93	474.94
341.158	453.94
341.386	473.94
341.614	471.94
341.842	462.94
342.07	455.94
342.298	482.94
342.526	482.94
342.754	458.94
342.981	470.94
343.209	459.94
343.437	479.94
343.665	501.94
343.893	505.94
344.12	515.94
344.348	508.94
344.576	470.94
344.804	511.94
345.031	487.94
345.259	509.94
345.487	502.94
345.714	458.94
345.942	437.94
346.17	459.94
346.397	460.94
346.625	453.94
346.853	465.94
347.08	460.94
347.308	452.94
347.535	449.94
347.763	462.94
347.99	486.94
348.218	462.94
348.445	454.94
348.673	451.94
348.9	455.94
349.128	466.94
349.355	445.94
349.583	440.94
349.81	441.94
350.037	425.94
350.265	447.94
350.492	436.94
350.72	434.94
350.947	444.94
351.174	447.94
351.402	451.94
351.629	458.94
351.856	457.94
352.083	465.94
352.311	444.94
352.538	464.94
352.765	454.94
352.992	444.94
353.22	453.94
353.447	432.94
353.674	445.94
353.901	439.94
354.128	455.94
354.355	417.94
354.583	439.94
354.81	411.94
355.037	408.94
355.264	420.94
355.491	436.94
355.718	405.94
355.945	428.94
356.172	432.94
356.399	422.94
356.626	417.94
356.853	417.94
357.08	412.94
357.307	444.94
357.534	425.94
357.761	430.94
357.988	426.94
358.215	425.94
358.441	427.94
358.668	431.94
358.895	421.94
359.122	420.94
359.349	443.94
359.576	436.94
359.802	458.94
360.029	476.94
360.256	496.94
360.483	474.94
360.709	459.94
360.936	442.94
361.163	455.94
361.39	441.94
361.616	453.94
361.843	456.94
362.07	446.94
362.296	468.94
362.523	454.94
362.749	457.94
362.976	438.94
363.203	419.94
363.429	434.94
363.656	437.94
363.882	423.94
364.109	427.94
364.335	426.94
364.562	415.94
364.788	426.94
365.015	417.94
365.241	415.94
365.468	430.94
365.694	437.94
365.92	415.94
366.147	421.94
366.373	439.94
366.599	418.94
366.826	434.94
367.052	415.94
367.278	431.94
367.505	436.94
367.731	425.94
367.957	418.94
368.184	424.94
368.41	408.94
368.636	456.94
368.862	440.94
369.089	426.94
369.315	435.94
369.541	439.94
369.767	446.94
369.993	421.94
370.219	453.94
370.445	428.94
370.672	428.94
370.898	433.94
371.124	423.94
371.35	430.94
371.576	427.94
371.802	429.94
372.028	429.94
372.254	440.94
372.48	437.94
372.706	430.94
372.932	428.94
373.158	437.94
373.384	432.94
373.61	446.94
373.835	427.94
374.061	425.94
374.287	431.94
374.513	447.94
374.739	466.94
374.965	472.94
375.191	449.94
375.416	461.94
375.642	435.94
375.868	426.94
376.094	417.94
376.319	442.94
376.545	435.94
376.771	424.94
376.997	449.94
377.222	420.94
377.448	424.94
377.674	435.94
377.899	417.94
378.125	407.94
378.35	428.94
378.576	405.94
378.802	413.94
379.027	429.94
379.253	430.94
379.478	439.94
379.704	425.94
379.929	417.94
380.155	414.94
380.38	422.94
380.606	433.94
380.831	429.94
381.057	424.94
381.282	442.94
381.507	423.94
381.733	415.94
381.958	407.94
382.184	421.94
382.409	419.94
382.634	435.94
382.86	442.94
383.085	464.94
383.31	421.94
383.535	447.94
383.761	452.94
383.986	451.94
384.211	458.94
384.436	459.94
384.662	461.94
384.887	432.94
385.112	468.94
385.337	458.94
385.562	465.94
385.787	461.94
386.013	501.94
386.238	486.94
386.463	468.94
386.688	480.94
386.913	472.94
387.138	486.94
387.363	451.94
387.588	486.94
387.813	486.94
388.038	479.94
388.263	489.94
388.488	467.94
388.713	468.94
388.938	455.94
389.163	470.94
389.387	476.94
389.612	466.94
389.837	447.94
390.062	461.94
390.287	482.94
390.512	471.94
390.736	485.94
390.961	484.94
391.186	472.94
391.411	481.94
391.636	492.94
391.86	483.94
392.085	505.94
392.31	513.94
392.534	491.94
392.759	495.94
392.984	473.94
393.208	486.94
393.433	465.94
393.658	473.94
393.882	500.94
394.107	477.94
394.331	505.94
394.556	485.94
394.78	483.94
395.005	459.94
395.229	470.94
395.454	500.94
395.678	504.94
395.903	501.94
396.127	528.94
396.352	518.94
396.576	508.94
396.801	505.94
397.025	488.94
397.249	499.94
397.474	500.94
397.698	483.94
397.922	527.94
398.147	525.94
398.371	526.94
398.595	549.94
398.82	547.94
399.044	568.94
399.268	611.94
399.492	647.94
399.717	694.94
399.941	724.94
400.165	689.94
400.389	705.94
400.613	617.94
400.837	596.94
401.062	578.94
401.286	597.94
401.51	558.94
401.734	541.94
401.958	564.94
402.182	568.94
402.406	581.94
402.63	586.94
402.854	574.94
403.078	569.94
403.302	583.94
403.526	603.94
403.75	579.94
403.974	582.94
404.198	600.94
404.422	603.94
404.645	603.94
404.869	626.94
405.093	636.94
405.317	695.94
405.541	722.94
405.765	673.94
405.988	627.94
406.212	615.94
406.436	632.94
406.66	658.94
406.883	632.94
407.107	663.94
407.331	695.94
407.555	755.94
407.778	737.94
408.002	680.94
408.226	620.94
408.449	602.94
408.673	616.94
408.896	657.94
409.12	676.94
409.344	633.94
409.567	606.94
409.791	582.94
410.014	567.94
410.238	560.94
410.461	553.94
410.685	580.94
410.908	579.94
411.132	623.94
411.355	637.94
411.578	609.94
411.802	570.94
412.025	577.94
412.249	572.94
412.472	595.94
412.695	640.94
412.919	623.94
413.142	600.94
413.365	588.94
413.589	557.94
413.812	544.94
414.035	549.94
414.258	547.94
414.482	542.94
414.705	565.94
414.928	544.94
415.151	565.94
415.374	564.94
415.597	546.94
415.821	526.94
416.044	535.94
416.267	546.94
416.49	547.94
416.713	524.94
416.936	521.94
417.159	516.94
417.382	548.94
417.605	549.94
417.828	562.94
418.051	566.94
418.274	538.94
418.497	568.94
418.72	535.94
418.943	537.94
419.166	563.94
419.389	579.94
419.611	572.94
419.834	586.94
420.057	569.94
420.28	584.94
420.503	579.94
420.726	567.94
420.948	582.94
421.171	596.94
421.394	616.94
421.617	544.94
421.839	554.94
422.062	557.94
422.285	554.94
422.507	629.94
422.73	697.94
422.953	653.94
423.175	591.94
423.398	589.94
423.621	554.94
423.843	597.94
424.066	607.94
424.288	587.94
424.511	611.94
424.733	656.94
424.956	711.94
425.178	706.94
425.401	689.94
425.623	693.94
425.846	586.94
426.068	582.94
426.291	570.94
426.513	572.94
426.735	571.94
426.958	611.94
427.18	678.94
427.402	827.94
427.625	857.94
427.847	776.94
428.069	695.94
428.292	614.94
428.514	556.94
428.736	546.94
428.958	524.94
429.181	529.94
429.403	527.94
429.625	528.94
429.847	541.94
430.069	609.94
430.292	618.94
430.514	566.94
430.736	509.94
430.958	499.94
431.18	518.94
431.402	490.94
431.624	501.94
431.846	503.94
432.068	497.94
432.29	488.94
432.512	519.94
432.734	513.94
432.956	522.94
433.178	491.94
433.4	515.94
433.622	507.94
433.844	533.94
434.066	511.94
434.287	513.94
434.509	507.94
434.731	507.94
434.953	525.94
435.175	557.94
435.397	562.94
435.618	585.94
435.84	620.94
436.062	692.94
436.284	769.94
436.505	647.94
436.727	591.94
436.949	535.94
437.17	524.94
437.392	503.94
437.614	532.94
437.835	552.94
438.057	639.94
438.278	758.94
438.5	733.94
438.721	820.94
438.943	769.94
439.165	610.94
439.386	565.94
439.608	581.94
439.829	555.94
440.05	579.94
440.272	636.94
440.493	599.94
440.715	561.94
440.936	551.94
441.158	541.94
441.379	534.94
441.6	567.94
441.822	587.94
442.043	618.94
442.264	683.94
442.486	709.94
442.707	628.94
442.928	579.94
443.149	581.94
443.371	582.94
443.592	656.94
443.813	742.94
444.034	784.94
444.255	670.94
444.476	600.94
444.698	632.94
444.919	610.94
445.14	703.94
445.361	669.94
445.582	609.94
445.803	679.94
446.024	737.94
446.245	747.94
446.466	673.94
446.687	588.94
446.908	563.94
447.129	525.94
447.35	539.94
447.571	523.94
447.792	531.94
448.013	501.94
448.234	539.94
448.455	579.94
448.675	691.94
448.896	803.94
449.117	649.94
449.338	625.94
449.559	716.94
449.779	834.94
450	639.94
450.221	553.94
450.442	516.94
450.662	496.94
450.883	530.94
451.104	527.94
451.324	498.94
451.545	490.94
451.766	478.94
451.986	464.94
452.207	481.94
452.428	457.94
452.648	460.94
452.869	454.94
453.089	475.94
453.31	482.94
453.53	484.94
453.751	473.94
453.971	467.94
454.192	494.94
454.412	479.94
454.633	468.94
454.853	471.94
455.073	480.94
455.294	501.94
455.514	545.94
455.734	535.94
455.955	461.94
456.175	451.94
456.395	432.94
456.616	455.94
456.836	453.94
457.056	439.94
457.276	439.94
457.497	443.94
457.717	444.94
457.937	460.94
458.157	469.94
458.377	474.94
458.598	513.94
458.818	563.94
459.038	585.94
459.258	621.94
459.478	580.94
459.698	515.94
459.918	530.94
460.138	503.94
460.358	524.94
460.578	539.94
460.798	557.94
461.018	553.94
461.238	540.94
461.458	529.94
461.678	546.94
461.898	531.94
462.118	526.94
462.338	545.94
462.558	557.94
462.777	564.94
462.997	602.94
463.217	615.94
463.437	623.94
463.657	587.94
463.876	582.94
464.096	583.94
464.316	595.94
464.536	613.94
464.755	607.94
464.975	590.94
465.195	596.94
465.414	656.94
465.634	581.94
465.854	548.94
466.073	538.94
466.293	536.94
466.512	510.94
466.732	498.94
466.951	483.94
467.171	471.94
467.391	507.94
467.61	491.94
467.829	495.94
468.049	504.94
468.268	482.94
468.488	505.94
468.707	460.94
468.927	487.94
469.146	481.94
469.365	490.94
469.585	462.94
469.804	500.94
470.023	492.94
470.243	508.94
470.462	518.94
470.681	541.94
470.901	532.94
471.12	485.94
471.339	511.94
471.558	513.94
471.777	506.94
471.997	505.94
472.216	491.94
472.435	572.94
472.654	571.94
472.873	499.94
473.092	496.94
473.311	489.94
473.53	483.94
473.749	489.94
473.968	556.94
474.187	625.94
474.406	645.94
474.625	532.94
474.844	494.94
475.063	500.94
475.282	495.94
475.501	498.94
475.72	497.94
475.939	487.94
476.158	529.94
476.377	507.94
476.596	495.94
476.814	521.94
477.033	512.94
477.252	522.94
477.471	549.94
477.69	531.94
477.908	533.94
478.127	534.94
478.346	543.94
478.564	553.94
478.783	545.94
479.002	575.94
479.22	576.94
479.439	575.94
479.658	609.94
479.876	607.94
480.095	609.94
480.313	644.94
480.532	645.94
480.751	625.94
480.969	644.94
481.188	723.94
481.406	767.94
481.624	672.94
481.843	603.94
482.061	599.94
482.28	577.94
482.498	579.94
482.717	605.94
482.935	579.94
483.153	569.94
483.372	560.94
483.59	578.94
483.808	571.94
484.027	592.94
484.245	579.94
484.463	587.94
484.681	587.94
484.9	577.94
485.118	592.94
485.336	597.94
485.554	581.94
485.772	589.94
485.99	600.94
486.209	580.94
486.427	597.94
486.645	594.94
486.863	621.94
487.081	626.94
487.299	630.94
487.517	608.94
487.735	616.94
487.953	601.94
488.171	610.94
488.389	606.94
488.607	611.94
488.825	605.94
489.043	617.94
489.261	605.94
489.479	627.94
489.696	611.94
489.914	637.94
490.132	663.94
490.35	661.94
490.568	627.94
490.786	657.94
491.003	663.94
491.221	672.94
491.439	688.94
491.657	719.94
491.874	690.94
492.092	690.94
492.31	712.94
492.527	744.94
492.745	722.94
492.963	725.94
493.18	739.94
493.398	735.94
493.615	728.94
493.833	725.94
494.05	720.94
494.268	712.94
494.485	735.94
494.703	736.94
494.92	732.94
495.138	715.94
495.355	720.94
495.573	740.94
495.79	716.94
496.008	747.94
496.225	745.94
496.442	718.94
496.66	717.94
496.877	736.94
497.094	736.94
497.312	743.94
497.529	721.94
497.746	768.94
497.963	778.94
498.181	780.94
498.398	820.94
498.615	846.94
498.832	890.94
499.049	867.94
499.267	921.94
499.484	949.94
499.701	1019.94
499.918	1072.94
500.135	1139.94
500.352	1223.94
500.569	1216.94
500.786	1240.94
501.003	1207.94
501.22	1155.94
501.437	1091.94
501.654	1035.94
501.871	994.94
