Data from 1985.PennyLincolnUp.Lamp.En5.5.200Scan.071819.P1_HRD10591_17-04-21-971.txt Node
Date: Thu Jul 18 17:04:21 EDT 2019
User: cochatt
Spectrometer: HR+D1059
Trigger mode: 1
Integration Time (sec): 1.000000E-1
Scans to average: 1
Electric dark correction enabled: true
Nonlinearity correction enabled: false
Boxcar width: 0
XAxis mode: Wavelengths
Number of Pixels in Spectrum: 2048
>>>>>Begin Spectral Data<<<<<
223.165	-8.38
223.4	-8.38
223.635	-8.38
223.869	-23.38
224.104	-28.38
224.338	-10.38
224.573	-21.38
224.808	-17.38
225.042	-2.38
225.277	-17.38
225.511	-4.38
225.746	3.62
225.98	5.62
226.215	14.62
226.449	13.62
226.683	39.62
226.918	25.62
227.152	30.62
227.387	41.62
227.621	30.62
227.856	56.62
228.09	34.62
228.324	51.62
228.559	67.62
228.793	57.62
229.027	98.62
229.262	107.62
229.496	105.62
229.73	128.62
229.964	144.62
230.199	123.62
230.433	94.62
230.667	116.62
230.901	115.62
231.136	117.62
231.37	113.62
231.604	109.62
231.838	103.62
232.072	112.62
232.306	123.62
232.541	124.62
232.775	120.62
233.009	111.62
233.243	125.62
233.477	117.62
233.711	110.62
233.945	133.62
234.179	110.62
234.413	129.62
234.647	119.62
234.881	117.62
235.115	121.62
235.349	125.62
235.583	111.62
235.817	121.62
236.051	124.62
236.285	120.62
236.519	126.62
236.753	143.62
236.987	135.62
237.221	178.62
237.455	222.62
237.689	174.62
237.922	146.62
238.156	137.62
238.39	126.62
238.624	125.62
238.858	130.62
239.091	121.62
239.325	123.62
239.559	124.62
239.793	132.62
240.027	133.62
240.26	143.62
240.494	145.62
240.728	172.62
240.961	147.62
241.195	132.62
241.429	143.62
241.662	133.62
241.896	136.62
242.13	129.62
242.363	133.62
242.597	147.62
242.83	147.62
243.064	146.62
243.298	148.62
243.531	148.62
243.765	142.62
243.998	145.62
244.232	132.62
244.465	138.62
244.699	157.62
244.932	147.62
245.166	156.62
245.399	143.62
245.633	136.62
245.866	149.62
246.099	143.62
246.333	153.62
246.566	170.62
246.8	145.62
247.033	163.62
247.266	169.62
247.5	164.62
247.733	166.62
247.966	171.62
248.2	159.62
248.433	171.62
248.666	169.62
248.899	197.62
249.133	196.62
249.366	199.62
249.599	195.62
249.832	185.62
250.066	177.62
250.299	183.62
250.532	203.62
250.765	226.62
250.998	222.62
251.231	224.62
251.465	220.62
251.698	200.62
251.931	204.62
252.164	186.62
252.397	210.62
252.63	193.62
252.863	205.62
253.096	221.62
253.329	215.62
253.562	225.62
253.795	214.62
254.028	232.62
254.261	222.62
254.494	212.62
254.727	263.62
254.96	270.62
255.193	260.62
255.426	248.62
255.659	227.62
255.892	249.62
256.124	277.62
256.357	257.62
256.59	269.62
256.823	220.62
257.056	231.62
257.289	204.62
257.521	215.62
257.754	219.62
257.987	219.62
258.22	225.62
258.452	207.62
258.685	230.62
258.918	236.62
259.151	219.62
259.383	220.62
259.616	223.62
259.849	242.62
260.081	229.62
260.314	243.62
260.547	265.62
260.779	249.62
261.012	250.62
261.244	226.62
261.477	241.62
261.71	240.62
261.942	238.62
262.175	249.62
262.407	217.62
262.64	207.62
262.872	225.62
263.105	212.62
263.337	219.62
263.57	220.62
263.802	217.62
264.035	219.62
264.267	244.62
264.499	234.62
264.732	231.62
264.964	218.62
265.197	242.62
265.429	234.62
265.661	228.62
265.894	225.62
266.126	228.62
266.358	222.62
266.591	241.62
266.823	245.62
267.055	249.62
267.287	258.62
267.52	246.62
267.752	237.62
267.984	234.62
268.216	254.62
268.448	247.62
268.681	283.62
268.913	249.62
269.145	279.62
269.377	279.62
269.609	275.62
269.841	281.62
270.073	306.62
270.306	305.62
270.538	327.62
270.77	319.62
271.002	314.62
271.234	313.62
271.466	303.62
271.698	322.62
271.93	353.62
272.162	339.62
272.394	330.62
272.626	316.62
272.858	314.62
273.09	298.62
273.322	298.62
273.553	292.62
273.785	290.62
274.017	284.62
274.249	278.62
274.481	281.62
274.713	297.62
274.945	301.62
275.176	291.62
275.408	290.62
275.64	298.62
275.872	273.62
276.104	285.62
276.335	295.62
276.567	293.62
276.799	298.62
277.031	321.62
277.262	317.62
277.494	335.62
277.726	313.62
277.957	309.62
278.189	306.62
278.421	283.62
278.652	302.62
278.884	311.62
279.115	290.62
279.347	291.62
279.579	291.62
279.81	296.62
280.042	309.62
280.273	283.62
280.505	290.62
280.736	298.62
280.968	307.62
281.199	286.62
281.431	292.62
281.662	305.62
281.894	310.62
282.125	294.62
282.356	317.62
282.588	322.62
282.819	329.62
283.051	279.62
283.282	293.62
283.513	312.62
283.745	291.62
283.976	305.62
284.207	303.62
284.439	299.62
284.67	327.62
284.901	302.62
285.132	305.62
285.364	301.62
285.595	305.62
285.826	302.62
286.057	327.62
286.288	319.62
286.52	312.62
286.751	293.62
286.982	321.62
287.213	309.62
287.444	311.62
287.675	320.62
287.906	326.62
288.138	328.62
288.369	337.62
288.6	310.62
288.831	317.62
289.062	327.62
289.293	321.62
289.524	331.62
289.755	332.62
289.986	326.62
290.217	320.62
290.448	334.62
290.679	317.62
290.91	322.62
291.141	311.62
291.371	342.62
291.602	351.62
291.833	331.62
292.064	334.62
292.295	324.62
292.526	329.62
292.757	340.62
292.987	340.62
293.218	324.62
293.449	338.62
293.68	330.62
293.91	338.62
294.141	329.62
294.372	317.62
294.603	327.62
294.833	342.62
295.064	342.62
295.295	322.62
295.525	332.62
295.756	324.62
295.987	338.62
296.217	366.62
296.448	383.62
296.679	349.62
296.909	345.62
297.14	329.62
297.37	353.62
297.601	329.62
297.831	349.62
298.062	324.62
298.292	355.62
298.523	352.62
298.753	344.62
298.984	339.62
299.214	362.62
299.445	369.62
299.675	353.62
299.905	357.62
300.136	348.62
300.366	360.62
300.597	362.62
300.827	394.62
301.057	369.62
301.288	371.62
301.518	391.62
301.748	372.62
301.979	379.62
302.209	386.62
302.439	363.62
302.669	391.62
302.9	374.62
303.13	374.62
303.36	376.62
303.59	363.62
303.82	404.62
304.051	402.62
304.281	382.62
304.511	378.62
304.741	361.62
304.971	375.62
305.201	375.62
305.431	377.62
305.661	376.62
305.891	387.62
306.121	386.62
306.352	373.62
306.582	383.62
306.812	389.62
307.042	373.62
307.272	377.62
307.502	381.62
307.731	374.62
307.961	374.62
308.191	375.62
308.421	385.62
308.651	388.62
308.881	386.62
309.111	395.62
309.341	379.62
309.571	410.62
309.8	411.62
310.03	414.62
310.26	415.62
310.49	406.62
310.72	435.62
310.949	417.62
311.179	424.62
311.409	411.62
311.639	397.62
311.868	414.62
312.098	436.62
312.328	437.62
312.557	428.62
312.787	437.62
313.017	445.62
313.246	429.62
313.476	413.62
313.706	385.62
313.935	433.62
314.165	436.62
314.394	454.62
314.624	459.62
314.853	425.62
315.083	431.62
315.312	453.62
315.542	428.62
315.771	427.62
316.001	445.62
316.23	412.62
316.46	427.62
316.689	440.62
316.919	423.62
317.148	430.62
317.377	423.62
317.607	430.62
317.836	426.62
318.065	412.62
318.295	435.62
318.524	429.62
318.753	425.62
318.983	421.62
319.212	436.62
319.441	423.62
319.67	465.62
319.9	439.62
320.129	431.62
320.358	428.62
320.587	442.62
320.816	418.62
321.046	437.62
321.275	435.62
321.504	441.62
321.733	470.62
321.962	457.62
322.191	466.62
322.42	494.62
322.649	493.62
322.878	508.62
323.108	505.62
323.337	522.62
323.566	545.62
323.795	557.62
324.024	593.62
324.253	700.62
324.482	975.62
324.71	1427.62
324.939	2022.62
325.168	1723.62
325.397	910.62
325.626	678.62
325.855	565.62
326.084	551.62
326.313	546.62
326.542	567.62
326.77	598.62
326.999	694.62
327.228	901.62
327.457	1321.62
327.686	1533.62
327.914	1045.62
328.143	752.62
328.372	678.62
328.6	634.62
328.829	598.62
329.058	608.62
329.287	616.62
329.515	589.62
329.744	583.62
329.972	592.62
330.201	618.62
330.43	651.62
330.658	643.62
330.887	666.62
331.115	632.62
331.344	564.62
331.572	545.62
331.801	543.62
332.03	554.62
332.258	547.62
332.486	529.62
332.715	505.62
332.943	549.62
333.172	538.62
333.4	528.62
333.629	560.62
333.857	586.62
334.085	606.62
334.314	643.62
334.542	679.62
334.771	683.62
334.999	629.62
335.227	566.62
335.455	544.62
335.684	518.62
335.912	531.62
336.14	520.62
336.369	516.62
336.597	536.62
336.825	527.62
337.053	537.62
337.281	505.62
337.51	517.62
337.738	502.62
337.966	519.62
338.194	501.62
338.422	496.62
338.65	498.62
338.878	476.62
339.106	487.62
339.334	470.62
339.562	484.62
339.79	498.62
340.018	473.62
340.246	467.62
340.474	487.62
340.702	494.62
340.93	483.62
341.158	465.62
341.386	500.62
341.614	490.62
341.842	447.62
342.07	471.62
342.298	486.62
342.526	463.62
342.754	469.62
342.981	465.62
343.209	479.62
343.437	485.62
343.665	494.62
343.893	510.62
344.12	521.62
344.348	498.62
344.576	502.62
344.804	501.62
345.031	500.62
345.259	502.62
345.487	488.62
345.714	476.62
345.942	472.62
346.17	461.62
346.397	471.62
346.625	477.62
346.853	470.62
347.08	441.62
347.308	462.62
347.535	472.62
347.763	485.62
347.99	484.62
348.218	465.62
348.445	475.62
348.673	471.62
348.9	472.62
349.128	448.62
349.355	439.62
349.583	430.62
349.81	442.62
350.037	442.62
350.265	452.62
350.492	435.62
350.72	442.62
350.947	467.62
351.174	459.62
351.402	449.62
351.629	465.62
351.856	457.62
352.083	457.62
352.311	442.62
352.538	460.62
352.765	446.62
352.992	473.62
353.22	474.62
353.447	441.62
353.674	421.62
353.901	436.62
354.128	422.62
354.355	431.62
354.583	433.62
354.81	425.62
355.037	403.62
355.264	439.62
355.491	415.62
355.718	417.62
355.945	439.62
356.172	422.62
356.399	440.62
356.626	433.62
356.853	422.62
357.08	441.62
357.307	428.62
357.534	421.62
357.761	421.62
357.988	414.62
358.215	412.62
358.441	437.62
358.668	413.62
358.895	432.62
359.122	428.62
359.349	425.62
359.576	458.62
359.802	446.62
360.029	486.62
360.256	503.62
360.483	493.62
360.709	455.62
360.936	460.62
361.163	422.62
361.39	462.62
361.616	456.62
361.843	456.62
362.07	452.62
362.296	447.62
362.523	454.62
362.749	425.62
362.976	444.62
363.203	450.62
363.429	438.62
363.656	420.62
363.882	421.62
364.109	415.62
364.335	420.62
364.562	449.62
364.788	446.62
365.015	421.62
365.241	436.62
365.468	449.62
365.694	434.62
365.92	433.62
366.147	435.62
366.373	421.62
366.599	432.62
366.826	421.62
367.052	438.62
367.278	429.62
367.505	441.62
367.731	422.62
367.957	435.62
368.184	441.62
368.41	434.62
368.636	447.62
368.862	436.62
369.089	422.62
369.315	436.62
369.541	440.62
369.767	433.62
369.993	430.62
370.219	425.62
370.445	422.62
370.672	448.62
370.898	429.62
371.124	425.62
371.35	428.62
371.576	433.62
371.802	421.62
372.028	444.62
372.254	436.62
372.48	440.62
372.706	441.62
372.932	450.62
373.158	448.62
373.384	427.62
373.61	439.62
373.835	449.62
374.061	436.62
374.287	442.62
374.513	436.62
374.739	439.62
374.965	453.62
375.191	445.62
375.416	435.62
375.642	444.62
375.868	446.62
376.094	450.62
376.319	434.62
376.545	425.62
376.771	421.62
376.997	430.62
377.222	433.62
377.448	433.62
377.674	429.62
377.899	437.62
378.125	433.62
378.35	414.62
378.576	430.62
378.802	438.62
379.027	414.62
379.253	425.62
379.478	415.62
379.704	424.62
379.929	439.62
380.155	425.62
380.38	424.62
380.606	431.62
380.831	431.62
381.057	437.62
381.282	433.62
381.507	413.62
381.733	448.62
381.958	425.62
382.184	428.62
382.409	423.62
382.634	439.62
382.86	462.62
383.085	429.62
383.31	456.62
383.535	453.62
383.761	460.62
383.986	445.62
384.211	461.62
384.436	472.62
384.662	476.62
384.887	487.62
385.112	482.62
385.337	478.62
385.562	480.62
385.787	467.62
386.013	494.62
386.238	497.62
386.463	478.62
386.688	482.62
386.913	478.62
387.138	462.62
387.363	466.62
387.588	461.62
387.813	483.62
388.038	473.62
388.263	466.62
388.488	471.62
388.713	460.62
388.938	462.62
389.163	485.62
389.387	496.62
389.612	471.62
389.837	464.62
390.062	472.62
390.287	486.62
390.512	467.62
390.736	478.62
390.961	470.62
391.186	498.62
391.411	467.62
391.636	488.62
391.86	505.62
392.085	504.62
392.31	494.62
392.534	491.62
392.759	505.62
392.984	471.62
393.208	477.62
393.433	498.62
393.658	471.62
393.882	494.62
394.107	488.62
394.331	498.62
394.556	503.62
394.78	488.62
395.005	491.62
395.229	476.62
395.454	501.62
395.678	515.62
395.903	521.62
396.127	497.62
396.352	524.62
396.576	533.62
396.801	502.62
397.025	511.62
397.249	522.62
397.474	516.62
397.698	482.62
397.922	511.62
398.147	551.62
398.371	541.62
398.595	562.62
398.82	545.62
399.044	567.62
399.268	595.62
399.492	635.62
399.717	709.62
399.941	718.62
400.165	708.62
400.389	671.62
400.613	631.62
400.837	596.62
401.062	569.62
401.286	553.62
401.51	580.62
401.734	557.62
401.958	549.62
402.182	578.62
402.406	587.62
402.63	606.62
402.854	611.62
403.078	561.62
403.302	588.62
403.526	596.62
403.75	569.62
403.974	590.62
404.198	595.62
404.422	590.62
404.645	587.62
404.869	609.62
405.093	637.62
405.317	705.62
405.541	718.62
405.765	656.62
405.988	606.62
406.212	639.62
406.436	616.62
406.66	659.62
406.883	646.62
407.107	681.62
407.331	699.62
407.555	779.62
407.778	754.62
408.002	694.62
408.226	664.62
408.449	627.62
408.673	617.62
408.896	640.62
409.12	688.62
409.344	650.62
409.567	593.62
409.791	612.62
410.014	574.62
410.238	589.62
410.461	565.62
410.685	576.62
410.908	613.62
411.132	636.62
411.355	647.62
411.578	606.62
411.802	609.62
412.025	581.62
412.249	601.62
412.472	626.62
412.695	643.62
412.919	644.62
413.142	625.62
413.365	586.62
413.589	575.62
413.812	566.62
414.035	552.62
414.258	563.62
414.482	544.62
414.705	550.62
414.928	567.62
415.151	534.62
415.374	554.62
415.597	533.62
415.821	545.62
416.044	558.62
416.267	529.62
416.49	554.62
416.713	533.62
416.936	532.62
417.159	540.62
417.382	545.62
417.605	570.62
417.828	552.62
418.051	562.62
418.274	573.62
418.497	532.62
418.72	560.62
418.943	540.62
419.166	574.62
419.389	597.62
419.611	591.62
419.834	600.62
420.057	594.62
420.28	604.62
420.503	593.62
420.726	589.62
420.948	626.62
421.171	632.62
421.394	630.62
421.617	565.62
421.839	575.62
422.062	569.62
422.285	577.62
422.507	619.62
422.73	689.62
422.953	663.62
423.175	609.62
423.398	588.62
423.621	580.62
423.843	609.62
424.066	608.62
424.288	582.62
424.511	589.62
424.733	668.62
424.956	727.62
425.178	707.62
425.401	681.62
425.623	727.62
425.846	629.62
426.068	579.62
426.291	562.62
426.513	593.62
426.735	590.62
426.958	610.62
427.18	693.62
427.402	833.62
427.625	903.62
427.847	803.62
428.069	702.62
428.292	621.62
428.514	572.62
428.736	543.62
428.958	555.62
429.181	525.62
429.403	535.62
429.625	543.62
429.847	573.62
430.069	622.62
430.292	651.62
430.514	535.62
430.736	515.62
430.958	517.62
431.18	486.62
431.402	511.62
431.624	500.62
431.846	497.62
432.068	502.62
432.29	516.62
432.512	495.62
432.734	515.62
432.956	492.62
433.178	523.62
433.4	515.62
433.622	527.62
433.844	523.62
434.066	523.62
434.287	508.62
434.509	504.62
434.731	528.62
434.953	537.62
435.175	544.62
435.397	587.62
435.618	579.62
435.84	606.62
436.062	689.62
436.284	759.62
436.505	636.62
436.727	569.62
436.949	532.62
437.17	543.62
437.392	521.62
437.614	565.62
437.835	573.62
438.057	646.62
438.278	755.62
438.5	737.62
438.721	796.62
438.943	777.62
439.165	653.62
439.386	581.62
439.608	605.62
439.829	571.62
440.05	571.62
440.272	649.62
440.493	599.62
440.715	571.62
440.936	539.62
441.158	548.62
441.379	551.62
441.6	568.62
441.822	591.62
442.043	603.62
442.264	700.62
442.486	735.62
442.707	629.62
442.928	606.62
443.149	577.62
443.371	630.62
443.592	653.62
443.813	753.62
444.034	781.62
444.255	676.62
444.476	602.62
444.698	599.62
444.919	607.62
445.14	757.62
445.361	654.62
445.582	637.62
445.803	668.62
446.024	745.62
446.245	781.62
446.466	716.62
446.687	612.62
446.908	569.62
447.129	545.62
447.35	523.62
447.571	518.62
447.792	528.62
448.013	526.62
448.234	551.62
448.455	567.62
448.675	693.62
448.896	838.62
449.117	663.62
449.338	656.62
449.559	743.62
449.779	827.62
450	670.62
450.221	585.62
450.442	531.62
450.662	502.62
450.883	526.62
451.104	549.62
451.324	517.62
451.545	489.62
451.766	506.62
451.986	472.62
452.207	487.62
452.428	469.62
452.648	477.62
452.869	458.62
453.089	493.62
453.31	477.62
453.53	467.62
453.751	491.62
453.971	471.62
454.192	477.62
454.412	492.62
454.633	468.62
454.853	474.62
455.073	474.62
455.294	494.62
455.514	557.62
455.734	521.62
455.955	466.62
456.175	461.62
456.395	454.62
456.616	441.62
456.836	441.62
457.056	449.62
457.276	451.62
457.497	422.62
457.717	460.62
457.937	437.62
458.157	453.62
458.377	473.62
458.598	482.62
458.818	522.62
459.038	583.62
459.258	623.62
459.478	557.62
459.698	511.62
459.918	526.62
460.138	545.62
460.358	554.62
460.578	537.62
460.798	525.62
461.018	572.62
461.238	527.62
461.458	550.62
461.678	546.62
461.898	537.62
462.118	569.62
462.338	562.62
462.558	575.62
462.777	602.62
462.997	632.62
463.217	619.62
463.437	637.62
463.657	612.62
463.876	587.62
464.096	615.62
464.316	607.62
464.536	611.62
464.755	593.62
464.975	597.62
465.195	620.62
465.414	675.62
465.634	617.62
465.854	553.62
466.073	523.62
466.293	504.62
466.512	484.62
466.732	503.62
466.951	485.62
467.171	505.62
467.391	494.62
467.61	511.62
467.829	501.62
468.049	491.62
468.268	501.62
468.488	487.62
468.707	487.62
468.927	477.62
469.146	482.62
469.365	508.62
469.585	501.62
469.804	500.62
470.023	530.62
470.243	494.62
470.462	492.62
470.681	500.62
470.901	507.62
471.12	495.62
471.339	527.62
471.558	493.62
471.777	497.62
471.997	494.62
472.216	533.62
472.435	572.62
472.654	546.62
472.873	519.62
473.092	503.62
473.311	476.62
473.53	516.62
473.749	528.62
473.968	535.62
474.187	628.62
474.406	637.62
474.625	541.62
474.844	519.62
475.063	513.62
475.282	493.62
475.501	489.62
475.72	519.62
475.939	507.62
476.158	532.62
476.377	525.62
476.596	498.62
476.814	533.62
477.033	524.62
477.252	528.62
477.471	544.62
477.69	551.62
477.908	535.62
478.127	563.62
478.346	554.62
478.564	560.62
478.783	558.62
479.002	538.62
479.22	583.62
479.439	584.62
479.658	582.62
479.876	622.62
480.095	613.62
480.313	633.62
480.532	631.62
480.751	602.62
480.969	662.62
481.188	719.62
481.406	789.62
481.624	677.62
481.843	635.62
482.061	613.62
482.28	603.62
482.498	587.62
482.717	579.62
482.935	592.62
483.153	583.62
483.372	575.62
483.59	586.62
483.808	586.62
484.027	589.62
484.245	583.62
484.463	583.62
484.681	586.62
484.9	584.62
485.118	591.62
485.336	579.62
485.554	579.62
485.772	611.62
485.99	589.62
486.209	590.62
486.427	621.62
486.645	619.62
486.863	617.62
487.081	619.62
487.299	628.62
487.517	603.62
487.735	628.62
487.953	629.62
488.171	620.62
488.389	615.62
488.607	622.62
488.825	609.62
489.043	618.62
489.261	633.62
489.479	625.62
489.696	611.62
489.914	649.62
490.132	659.62
490.35	660.62
490.568	641.62
490.786	670.62
491.003	667.62
491.221	668.62
491.439	709.62
491.657	690.62
491.874	725.62
492.092	709.62
492.31	734.62
492.527	741.62
492.745	727.62
492.963	733.62
493.18	727.62
493.398	756.62
493.615	763.62
493.833	753.62
494.05	701.62
494.268	769.62
494.485	755.62
494.703	751.62
494.92	726.62
495.138	753.62
495.355	728.62
495.573	759.62
495.79	730.62
496.008	732.62
496.225	740.62
496.442	733.62
496.66	729.62
496.877	744.62
497.094	718.62
497.312	759.62
497.529	746.62
497.746	781.62
497.963	767.62
498.181	830.62
498.398	832.62
498.615	867.62
498.832	881.62
499.049	893.62
499.267	926.62
499.484	965.62
499.701	1025.62
499.918	1094.62
500.135	1117.62
500.352	1179.62
500.569	1223.62
500.786	1244.62
501.003	1219.62
501.22	1131.62
501.437	1081.62
501.654	1047.62
501.871	1026.62
