Data from 1985.PennyLincolnUp.Lamp.En5.5.200Scan.071819.P1_HRD10591_17-02-50-970.txt Node
Date: Thu Jul 18 17:02:50 EDT 2019
User: cochatt
Spectrometer: HR+D1059
Trigger mode: 1
Integration Time (sec): 1.000000E-1
Scans to average: 1
Electric dark correction enabled: true
Nonlinearity correction enabled: false
Boxcar width: 0
XAxis mode: Wavelengths
Number of Pixels in Spectrum: 2048
>>>>>Begin Spectral Data<<<<<
223.165	-18.12
223.4	-18.12
223.635	-18.12
223.869	-15.12
224.104	-15.12
224.338	-13.12
224.573	-5.12
224.808	-28.12
225.042	-8.12
225.277	4.88
225.511	1.88
225.746	-13.12
225.98	6.88
226.215	13.88
226.449	16.88
226.683	17.88
226.918	18.88
227.152	34.88
227.387	12.88
227.621	32.88
227.856	46.88
228.09	45.88
228.324	42.88
228.559	50.88
228.793	61.88
229.027	88.88
229.262	106.88
229.496	120.88
229.73	132.88
229.964	146.88
230.199	124.88
230.433	108.88
230.667	114.88
230.901	124.88
231.136	111.88
231.37	114.88
231.604	96.88
231.838	107.88
232.072	122.88
232.306	119.88
232.541	120.88
232.775	117.88
233.009	114.88
233.243	116.88
233.477	117.88
233.711	116.88
233.945	110.88
234.179	109.88
234.413	123.88
234.647	121.88
234.881	124.88
235.115	124.88
235.349	117.88
235.583	118.88
235.817	126.88
236.051	124.88
236.285	125.88
236.519	108.88
236.753	133.88
236.987	147.88
237.221	180.88
237.455	204.88
237.689	188.88
237.922	141.88
238.156	132.88
238.39	125.88
238.624	125.88
238.858	114.88
239.091	132.88
239.325	136.88
239.559	110.88
239.793	136.88
240.027	128.88
240.26	142.88
240.494	156.88
240.728	154.88
240.961	146.88
241.195	154.88
241.429	144.88
241.662	138.88
241.896	130.88
242.13	136.88
242.363	132.88
242.597	142.88
242.83	149.88
243.064	124.88
243.298	144.88
243.531	124.88
243.765	136.88
243.998	141.88
244.232	148.88
244.465	135.88
244.699	164.88
244.932	156.88
245.166	145.88
245.399	150.88
245.633	133.88
245.866	148.88
246.099	145.88
246.333	140.88
246.566	146.88
246.8	146.88
247.033	158.88
247.266	154.88
247.5	161.88
247.733	153.88
247.966	180.88
248.2	168.88
248.433	169.88
248.666	188.88
248.899	183.88
249.133	204.88
249.366	198.88
249.599	196.88
249.832	174.88
250.066	184.88
250.299	176.88
250.532	185.88
250.765	186.88
250.998	206.88
251.231	216.88
251.465	203.88
251.698	191.88
251.931	195.88
252.164	192.88
252.397	205.88
252.63	194.88
252.863	211.88
253.096	201.88
253.329	221.88
253.562	212.88
253.795	217.88
254.028	202.88
254.261	204.88
254.494	228.88
254.727	247.88
254.96	267.88
255.193	265.88
255.426	227.88
255.659	218.88
255.892	225.88
256.124	219.88
256.357	220.88
256.59	211.88
256.823	211.88
257.056	200.88
257.289	194.88
257.521	208.88
257.754	216.88
257.987	203.88
258.22	213.88
258.452	219.88
258.685	206.88
258.918	201.88
259.151	230.88
259.383	230.88
259.616	231.88
259.849	224.88
260.081	221.88
260.314	237.88
260.547	259.88
260.779	242.88
261.012	237.88
261.244	216.88
261.477	229.88
261.71	241.88
261.942	220.88
262.175	228.88
262.407	229.88
262.64	236.88
262.872	222.88
263.105	212.88
263.337	214.88
263.57	204.88
263.802	213.88
264.035	214.88
264.267	212.88
264.499	197.88
264.732	233.88
264.964	199.88
265.197	210.88
265.429	212.88
265.661	222.88
265.894	226.88
266.126	210.88
266.358	223.88
266.591	218.88
266.823	220.88
267.055	245.88
267.287	228.88
267.52	227.88
267.752	231.88
267.984	238.88
268.216	229.88
268.448	218.88
268.681	225.88
268.913	239.88
269.145	254.88
269.377	286.88
269.609	279.88
269.841	276.88
270.073	271.88
270.306	304.88
270.538	326.88
270.77	330.88
271.002	297.88
271.234	293.88
271.466	297.88
271.698	305.88
271.93	306.88
272.162	314.88
272.394	322.88
272.626	302.88
272.858	290.88
273.09	277.88
273.322	269.88
273.553	279.88
273.785	276.88
274.017	266.88
274.249	266.88
274.481	252.88
274.713	269.88
274.945	273.88
275.176	276.88
275.408	267.88
275.64	263.88
275.872	270.88
276.104	266.88
276.335	290.88
276.567	285.88
276.799	296.88
277.031	315.88
277.262	331.88
277.494	325.88
277.726	316.88
277.957	296.88
278.189	304.88
278.421	278.88
278.652	277.88
278.884	277.88
279.115	286.88
279.347	273.88
279.579	268.88
279.81	289.88
280.042	274.88
280.273	281.88
280.505	301.88
280.736	282.88
280.968	291.88
281.199	291.88
281.431	289.88
281.662	295.88
281.894	283.88
282.125	293.88
282.356	325.88
282.588	304.88
282.819	333.88
283.051	312.88
283.282	294.88
283.513	299.88
283.745	295.88
283.976	305.88
284.207	297.88
284.439	308.88
284.67	306.88
284.901	304.88
285.132	312.88
285.364	295.88
285.595	300.88
285.826	302.88
286.057	312.88
286.288	301.88
286.52	308.88
286.751	311.88
286.982	308.88
287.213	295.88
287.444	317.88
287.675	318.88
287.906	335.88
288.138	330.88
288.369	306.88
288.6	336.88
288.831	310.88
289.062	309.88
289.293	328.88
289.524	312.88
289.755	299.88
289.986	322.88
290.217	318.88
290.448	290.88
290.679	323.88
290.91	315.88
291.141	308.88
291.371	323.88
291.602	321.88
291.833	324.88
292.064	323.88
292.295	305.88
292.526	320.88
292.757	324.88
292.987	306.88
293.218	296.88
293.449	324.88
293.68	334.88
293.91	314.88
294.141	315.88
294.372	311.88
294.603	334.88
294.833	326.88
295.064	328.88
295.295	342.88
295.525	311.88
295.756	319.88
295.987	336.88
296.217	347.88
296.448	374.88
296.679	341.88
296.909	318.88
297.14	322.88
297.37	340.88
297.601	336.88
297.831	341.88
298.062	320.88
298.292	321.88
298.523	339.88
298.753	357.88
298.984	320.88
299.214	338.88
299.445	325.88
299.675	344.88
299.905	347.88
300.136	331.88
300.366	348.88
300.597	354.88
300.827	363.88
301.057	370.88
301.288	364.88
301.518	366.88
301.748	363.88
301.979	345.88
302.209	375.88
302.439	358.88
302.669	358.88
302.9	372.88
303.13	360.88
303.36	361.88
303.59	376.88
303.82	371.88
304.051	354.88
304.281	378.88
304.511	355.88
304.741	352.88
304.971	368.88
305.201	369.88
305.431	353.88
305.661	360.88
305.891	337.88
306.121	358.88
306.352	369.88
306.582	376.88
306.812	375.88
307.042	360.88
307.272	367.88
307.502	368.88
307.731	377.88
307.961	365.88
308.191	364.88
308.421	359.88
308.651	359.88
308.881	377.88
309.111	382.88
309.341	389.88
309.571	358.88
309.8	381.88
310.03	382.88
310.26	416.88
310.49	403.88
310.72	399.88
310.949	421.88
311.179	431.88
311.409	413.88
311.639	409.88
311.868	412.88
312.098	418.88
312.328	423.88
312.557	425.88
312.787	441.88
313.017	432.88
313.246	404.88
313.476	410.88
313.706	414.88
313.935	402.88
314.165	420.88
314.394	445.88
314.624	401.88
314.853	434.88
315.083	442.88
315.312	429.88
315.542	415.88
315.771	398.88
316.001	397.88
316.23	403.88
316.46	404.88
316.689	417.88
316.919	406.88
317.148	435.88
317.377	424.88
317.607	429.88
317.836	405.88
318.065	412.88
318.295	421.88
318.524	424.88
318.753	413.88
318.983	405.88
319.212	419.88
319.441	424.88
319.67	425.88
319.9	392.88
320.129	405.88
320.358	422.88
320.587	437.88
320.816	416.88
321.046	441.88
321.275	435.88
321.504	419.88
321.733	424.88
321.962	434.88
322.191	458.88
322.42	477.88
322.649	461.88
322.878	479.88
323.108	484.88
323.337	519.88
323.566	530.88
323.795	542.88
324.024	582.88
324.253	692.88
324.482	980.88
324.71	1483.88
324.939	2034.88
325.168	1773.88
325.397	928.88
325.626	674.88
325.855	571.88
326.084	508.88
326.313	524.88
326.542	541.88
326.77	588.88
326.999	666.88
327.228	893.88
327.457	1321.88
327.686	1578.88
327.914	1029.88
328.143	696.88
328.372	610.88
328.6	613.88
328.829	574.88
329.058	586.88
329.287	599.88
329.515	570.88
329.744	516.88
329.972	514.88
330.201	514.88
330.43	545.88
330.658	569.88
330.887	618.88
331.115	616.88
331.344	557.88
331.572	490.88
331.801	513.88
332.03	526.88
332.258	524.88
332.486	489.88
332.715	490.88
332.943	476.88
333.172	502.88
333.4	533.88
333.629	523.88
333.857	555.88
334.085	555.88
334.314	537.88
334.542	532.88
334.771	542.88
334.999	526.88
335.227	511.88
335.455	486.88
335.684	498.88
335.912	497.88
336.14	486.88
336.369	490.88
336.597	493.88
336.825	520.88
337.053	513.88
337.281	478.88
337.51	461.88
337.738	478.88
337.966	476.88
338.194	494.88
338.422	478.88
338.65	474.88
338.878	480.88
339.106	459.88
339.334	472.88
339.562	472.88
339.79	453.88
340.018	457.88
340.246	470.88
340.474	423.88
340.702	466.88
340.93	452.88
341.158	483.88
341.386	439.88
341.614	460.88
341.842	477.88
342.07	446.88
342.298	453.88
342.526	458.88
342.754	468.88
342.981	466.88
343.209	446.88
343.437	467.88
343.665	482.88
343.893	502.88
344.12	494.88
344.348	483.88
344.576	461.88
344.804	482.88
345.031	511.88
345.259	483.88
345.487	463.88
345.714	438.88
345.942	470.88
346.17	446.88
346.397	451.88
346.625	433.88
346.853	434.88
347.08	454.88
347.308	448.88
347.535	461.88
347.763	471.88
347.99	457.88
348.218	456.88
348.445	461.88
348.673	450.88
348.9	449.88
349.128	438.88
349.355	441.88
349.583	412.88
349.81	436.88
350.037	430.88
350.265	411.88
350.492	422.88
350.72	425.88
350.947	449.88
351.174	416.88
351.402	437.88
351.629	435.88
351.856	421.88
352.083	444.88
352.311	438.88
352.538	457.88
352.765	459.88
352.992	464.88
353.22	448.88
353.447	438.88
353.674	436.88
353.901	430.88
354.128	422.88
354.355	419.88
354.583	398.88
354.81	420.88
355.037	436.88
355.264	405.88
355.491	410.88
355.718	396.88
355.945	410.88
356.172	404.88
356.399	404.88
356.626	417.88
356.853	404.88
357.08	409.88
357.307	423.88
357.534	398.88
357.761	410.88
357.988	425.88
358.215	417.88
358.441	415.88
358.668	421.88
358.895	417.88
359.122	417.88
359.349	436.88
359.576	450.88
359.802	466.88
360.029	501.88
360.256	477.88
360.483	451.88
360.709	432.88
360.936	449.88
361.163	426.88
361.39	443.88
361.616	428.88
361.843	434.88
362.07	435.88
362.296	438.88
362.523	432.88
362.749	421.88
362.976	435.88
363.203	421.88
363.429	400.88
363.656	418.88
363.882	420.88
364.109	418.88
364.335	414.88
364.562	425.88
364.788	411.88
365.015	424.88
365.241	422.88
365.468	420.88
365.694	413.88
365.92	411.88
366.147	409.88
366.373	422.88
366.599	415.88
366.826	413.88
367.052	424.88
367.278	411.88
367.505	422.88
367.731	414.88
367.957	408.88
368.184	416.88
368.41	424.88
368.636	433.88
368.862	435.88
369.089	426.88
369.315	408.88
369.541	415.88
369.767	421.88
369.993	430.88
370.219	397.88
370.445	413.88
370.672	428.88
370.898	427.88
371.124	424.88
371.35	428.88
371.576	421.88
371.802	426.88
372.028	408.88
372.254	438.88
372.48	439.88
372.706	422.88
372.932	412.88
373.158	410.88
373.384	435.88
373.61	432.88
373.835	417.88
374.061	429.88
374.287	435.88
374.513	425.88
374.739	436.88
374.965	424.88
375.191	438.88
375.416	430.88
375.642	449.88
375.868	429.88
376.094	408.88
376.319	420.88
376.545	414.88
376.771	410.88
376.997	398.88
377.222	412.88
377.448	409.88
377.674	418.88
377.899	402.88
378.125	407.88
378.35	411.88
378.576	401.88
378.802	406.88
379.027	423.88
379.253	413.88
379.478	395.88
379.704	409.88
379.929	406.88
380.155	442.88
380.38	430.88
380.606	413.88
380.831	418.88
381.057	414.88
381.282	428.88
381.507	435.88
381.733	426.88
381.958	412.88
382.184	426.88
382.409	409.88
382.634	444.88
382.86	424.88
383.085	413.88
383.31	410.88
383.535	432.88
383.761	402.88
383.986	450.88
384.211	474.88
384.436	450.88
384.662	458.88
384.887	448.88
385.112	453.88
385.337	449.88
385.562	458.88
385.787	451.88
386.013	462.88
386.238	490.88
386.463	462.88
386.688	458.88
386.913	446.88
387.138	450.88
387.363	458.88
387.588	439.88
387.813	451.88
388.038	472.88
388.263	464.88
388.488	461.88
388.713	470.88
388.938	470.88
389.163	458.88
389.387	456.88
389.612	440.88
389.837	460.88
390.062	457.88
390.287	453.88
390.512	459.88
390.736	464.88
390.961	471.88
391.186	453.88
391.411	438.88
391.636	474.88
391.86	489.88
392.085	484.88
392.31	478.88
392.534	486.88
392.759	468.88
392.984	467.88
393.208	473.88
393.433	474.88
393.658	463.88
393.882	464.88
394.107	480.88
394.331	486.88
394.556	473.88
394.78	467.88
395.005	496.88
395.229	484.88
395.454	469.88
395.678	498.88
395.903	507.88
396.127	498.88
396.352	508.88
396.576	477.88
396.801	489.88
397.025	468.88
397.249	489.88
397.474	481.88
397.698	485.88
397.922	523.88
398.147	526.88
398.371	534.88
398.595	538.88
398.82	524.88
399.044	555.88
399.268	573.88
399.492	638.88
399.717	696.88
399.941	677.88
400.165	698.88
400.389	655.88
400.613	610.88
400.837	586.88
401.062	537.88
401.286	540.88
401.51	539.88
401.734	536.88
401.958	560.88
402.182	574.88
402.406	563.88
402.63	541.88
402.854	555.88
403.078	578.88
403.302	547.88
403.526	584.88
403.75	592.88
403.974	572.88
404.198	565.88
404.422	576.88
404.645	591.88
404.869	586.88
405.093	610.88
405.317	618.88
405.541	646.88
405.765	586.88
405.988	587.88
406.212	570.88
406.436	609.88
406.66	642.88
406.883	641.88
407.107	626.88
407.331	684.88
407.555	739.88
407.778	732.88
408.002	690.88
408.226	646.88
408.449	609.88
408.673	621.88
408.896	625.88
409.12	666.88
409.344	659.88
409.567	584.88
409.791	553.88
410.014	557.88
410.238	550.88
410.461	564.88
410.685	570.88
410.908	581.88
411.132	581.88
411.355	608.88
411.578	614.88
411.802	576.88
412.025	545.88
412.249	556.88
412.472	591.88
412.695	576.88
412.919	551.88
413.142	539.88
413.365	560.88
413.589	547.88
413.812	536.88
414.035	519.88
414.258	508.88
414.482	506.88
414.705	524.88
414.928	516.88
415.151	538.88
415.374	514.88
415.597	527.88
415.821	513.88
416.044	521.88
416.267	537.88
416.49	503.88
416.713	524.88
416.936	504.88
417.159	491.88
417.382	521.88
417.605	503.88
417.828	536.88
418.051	543.88
418.274	544.88
418.497	528.88
418.72	536.88
418.943	522.88
419.166	566.88
419.389	576.88
419.611	581.88
419.834	540.88
420.057	565.88
420.28	570.88
420.503	523.88
420.726	544.88
420.948	546.88
421.171	596.88
421.394	604.88
421.617	585.88
421.839	523.88
422.062	541.88
422.285	537.88
422.507	609.88
422.73	666.88
422.953	642.88
423.175	576.88
423.398	564.88
423.621	554.88
423.843	595.88
424.066	572.88
424.288	573.88
424.511	581.88
424.733	645.88
424.956	715.88
425.178	669.88
425.401	660.88
425.623	680.88
425.846	613.88
426.068	576.88
426.291	551.88
426.513	546.88
426.735	561.88
426.958	602.88
427.18	682.88
427.402	801.88
427.625	877.88
427.847	753.88
428.069	647.88
428.292	580.88
428.514	521.88
428.736	525.88
428.958	531.88
429.181	506.88
429.403	504.88
429.625	512.88
429.847	566.88
430.069	628.88
430.292	601.88
430.514	510.88
430.736	516.88
430.958	524.88
431.18	475.88
431.402	480.88
431.624	475.88
431.846	480.88
432.068	478.88
432.29	501.88
432.512	490.88
432.734	496.88
432.956	507.88
433.178	510.88
433.4	508.88
433.622	509.88
433.844	514.88
434.066	490.88
434.287	473.88
434.509	486.88
434.731	525.88
434.953	535.88
435.175	555.88
435.397	561.88
435.618	548.88
435.84	586.88
436.062	681.88
436.284	736.88
436.505	613.88
436.727	546.88
436.949	512.88
437.17	523.88
437.392	494.88
437.614	520.88
437.835	554.88
438.057	644.88
438.278	716.88
438.5	717.88
438.721	803.88
438.943	776.88
439.165	608.88
439.386	572.88
439.608	548.88
439.829	573.88
440.05	590.88
440.272	642.88
440.493	585.88
440.715	547.88
440.936	525.88
441.158	545.88
441.379	542.88
441.6	548.88
441.822	560.88
442.043	629.88
442.264	681.88
442.486	703.88
442.707	619.88
442.928	570.88
443.149	573.88
443.371	607.88
443.592	621.88
443.813	717.88
444.034	787.88
444.255	667.88
444.476	618.88
444.698	599.88
444.919	594.88
445.14	699.88
445.361	660.88
445.582	626.88
445.803	668.88
446.024	743.88
446.245	724.88
446.466	666.88
446.687	573.88
446.908	552.88
447.129	519.88
447.35	505.88
447.571	517.88
447.792	498.88
448.013	496.88
448.234	529.88
448.455	585.88
448.675	653.88
448.896	771.88
449.117	644.88
449.338	618.88
449.559	734.88
449.779	814.88
450	633.88
450.221	548.88
450.442	511.88
450.662	518.88
450.883	496.88
451.104	514.88
451.324	510.88
451.545	485.88
451.766	475.88
451.986	459.88
452.207	471.88
452.428	440.88
452.648	468.88
452.869	477.88
453.089	484.88
453.31	480.88
453.53	475.88
453.751	468.88
453.971	490.88
454.192	509.88
454.412	468.88
454.633	444.88
454.853	449.88
455.073	460.88
455.294	477.88
455.514	552.88
455.734	526.88
455.955	475.88
456.175	428.88
456.395	425.88
456.616	419.88
456.836	465.88
457.056	409.88
457.276	432.88
457.497	450.88
457.717	434.88
457.937	440.88
458.157	465.88
458.377	462.88
458.598	477.88
458.818	533.88
459.038	621.88
459.258	642.88
459.478	544.88
459.698	502.88
459.918	512.88
460.138	513.88
460.358	513.88
460.578	534.88
460.798	546.88
461.018	534.88
461.238	523.88
461.458	536.88
461.678	529.88
461.898	513.88
462.118	542.88
462.338	516.88
462.558	570.88
462.777	579.88
462.997	589.88
463.217	601.88
463.437	616.88
463.657	602.88
463.876	566.88
464.096	564.88
464.316	559.88
464.536	573.88
464.755	570.88
464.975	589.88
465.195	596.88
465.414	667.88
465.634	591.88
465.854	536.88
466.073	500.88
466.293	482.88
466.512	463.88
466.732	478.88
466.951	501.88
467.171	470.88
467.391	500.88
467.61	507.88
467.829	527.88
468.049	492.88
468.268	465.88
468.488	467.88
468.707	462.88
468.927	469.88
469.146	459.88
469.365	481.88
469.585	456.88
469.804	464.88
470.023	490.88
470.243	501.88
470.462	486.88
470.681	490.88
470.901	496.88
471.12	502.88
471.339	486.88
471.558	468.88
471.777	494.88
471.997	465.88
472.216	471.88
472.435	485.88
472.654	502.88
472.873	441.88
473.092	444.88
473.311	484.88
473.53	491.88
473.749	481.88
473.968	510.88
474.187	630.88
474.406	648.88
474.625	539.88
474.844	493.88
475.063	474.88
475.282	468.88
475.501	478.88
475.72	487.88
475.939	480.88
476.158	498.88
476.377	494.88
476.596	476.88
476.814	509.88
477.033	508.88
477.252	507.88
477.471	517.88
477.69	552.88
477.908	534.88
478.127	525.88
478.346	541.88
478.564	538.88
478.783	556.88
479.002	572.88
479.22	562.88
479.439	566.88
479.658	591.88
479.876	560.88
480.095	601.88
480.313	622.88
480.532	592.88
480.751	585.88
480.969	600.88
481.188	615.88
481.406	625.88
481.624	596.88
481.843	560.88
482.061	553.88
482.28	548.88
482.498	556.88
482.717	555.88
482.935	558.88
483.153	544.88
483.372	564.88
483.59	557.88
483.808	534.88
484.027	555.88
484.245	548.88
484.463	552.88
484.681	543.88
484.9	566.88
485.118	548.88
485.336	567.88
485.554	595.88
485.772	588.88
485.99	581.88
486.209	593.88
486.427	572.88
486.645	565.88
486.863	615.88
487.081	588.88
487.299	592.88
487.517	582.88
487.735	594.88
487.953	587.88
488.171	578.88
488.389	599.88
488.607	590.88
488.825	584.88
489.043	602.88
489.261	570.88
489.479	577.88
489.696	568.88
489.914	609.88
490.132	586.88
490.35	625.88
490.568	635.88
490.786	640.88
491.003	630.88
491.221	636.88
491.439	649.88
491.657	675.88
491.874	694.88
492.092	672.88
492.31	676.88
492.527	649.88
492.745	668.88
492.963	694.88
493.18	676.88
493.398	685.88
493.615	701.88
493.833	707.88
494.05	699.88
494.268	694.88
494.485	678.88
494.703	693.88
494.92	700.88
495.138	685.88
495.355	670.88
495.573	699.88
495.79	702.88
496.008	669.88
496.225	672.88
496.442	682.88
496.66	682.88
496.877	702.88
497.094	700.88
497.312	717.88
497.529	735.88
497.746	749.88
497.963	745.88
498.181	783.88
498.398	758.88
498.615	831.88
498.832	846.88
499.049	864.88
499.267	892.88
499.484	918.88
499.701	969.88
499.918	1003.88
500.135	1078.88
500.352	1178.88
500.569	1176.88
500.786	1232.88
501.003	1170.88
501.22	1092.88
501.437	1060.88
501.654	1033.88
501.871	970.88
