Data from 1985.PennyLincolnUp.Lamp.En5.5.200Scan.071819.P1_HRD10591_17-04-09-971.txt Node
Date: Thu Jul 18 17:04:09 EDT 2019
User: cochatt
Spectrometer: HR+D1059
Trigger mode: 1
Integration Time (sec): 1.000000E-1
Scans to average: 1
Electric dark correction enabled: true
Nonlinearity correction enabled: false
Boxcar width: 0
XAxis mode: Wavelengths
Number of Pixels in Spectrum: 2048
>>>>>Begin Spectral Data<<<<<
223.165	-9.81
223.4	-9.81
223.635	-9.81
223.869	-1.81
224.104	-29.81
224.338	-4.81
224.573	-26.81
224.808	-21.81
225.042	-7.81
225.277	-7.81
225.511	-3.81
225.746	1.19
225.98	6.19
226.215	2.19
226.449	36.19
226.683	20.19
226.918	28.19
227.152	20.19
227.387	41.19
227.621	29.19
227.856	46.19
228.09	43.19
228.324	57.19
228.559	62.19
228.793	72.19
229.027	90.19
229.262	96.19
229.496	104.19
229.73	125.19
229.964	143.19
230.199	130.19
230.433	115.19
230.667	111.19
230.901	111.19
231.136	117.19
231.37	115.19
231.604	110.19
231.838	101.19
232.072	102.19
232.306	124.19
232.541	109.19
232.775	108.19
233.009	101.19
233.243	109.19
233.477	123.19
233.711	107.19
233.945	106.19
234.179	125.19
234.413	123.19
234.647	124.19
234.881	116.19
235.115	114.19
235.349	111.19
235.583	115.19
235.817	113.19
236.051	127.19
236.285	125.19
236.519	113.19
236.753	135.19
236.987	151.19
237.221	170.19
237.455	220.19
237.689	168.19
237.922	142.19
238.156	142.19
238.39	129.19
238.624	125.19
238.858	133.19
239.091	119.19
239.325	132.19
239.559	127.19
239.793	129.19
240.027	139.19
240.26	129.19
240.494	158.19
240.728	149.19
240.961	156.19
241.195	163.19
241.429	142.19
241.662	146.19
241.896	125.19
242.13	145.19
242.363	141.19
242.597	138.19
242.83	133.19
243.064	136.19
243.298	141.19
243.531	127.19
243.765	123.19
243.998	143.19
244.232	137.19
244.465	137.19
244.699	141.19
244.932	158.19
245.166	161.19
245.399	153.19
245.633	150.19
245.866	149.19
246.099	143.19
246.333	156.19
246.566	138.19
246.8	157.19
247.033	153.19
247.266	164.19
247.5	165.19
247.733	164.19
247.966	155.19
248.2	174.19
248.433	181.19
248.666	187.19
248.899	171.19
249.133	197.19
249.366	193.19
249.599	203.19
249.832	183.19
250.066	192.19
250.299	181.19
250.532	197.19
250.765	219.19
250.998	234.19
251.231	243.19
251.465	226.19
251.698	215.19
251.931	206.19
252.164	214.19
252.397	193.19
252.63	190.19
252.863	213.19
253.096	197.19
253.329	219.19
253.562	246.19
253.795	227.19
254.028	203.19
254.261	206.19
254.494	232.19
254.727	248.19
254.96	289.19
255.193	267.19
255.426	226.19
255.659	241.19
255.892	243.19
256.124	263.19
256.357	269.19
256.59	238.19
256.823	217.19
257.056	227.19
257.289	213.19
257.521	209.19
257.754	220.19
257.987	213.19
258.22	219.19
258.452	241.19
258.685	222.19
258.918	220.19
259.151	216.19
259.383	226.19
259.616	230.19
259.849	235.19
260.081	239.19
260.314	267.19
260.547	251.19
260.779	238.19
261.012	250.19
261.244	226.19
261.477	228.19
261.71	230.19
261.942	232.19
262.175	260.19
262.407	227.19
262.64	212.19
262.872	225.19
263.105	222.19
263.337	220.19
263.57	209.19
263.802	225.19
264.035	221.19
264.267	216.19
264.499	221.19
264.732	231.19
264.964	231.19
265.197	240.19
265.429	238.19
265.661	225.19
265.894	225.19
266.126	214.19
266.358	235.19
266.591	211.19
266.823	262.19
267.055	232.19
267.287	229.19
267.52	238.19
267.752	250.19
267.984	248.19
268.216	255.19
268.448	265.19
268.681	235.19
268.913	255.19
269.145	283.19
269.377	311.19
269.609	297.19
269.841	286.19
270.073	270.19
270.306	293.19
270.538	342.19
270.77	324.19
271.002	302.19
271.234	315.19
271.466	318.19
271.698	321.19
271.93	351.19
272.162	333.19
272.394	331.19
272.626	299.19
272.858	302.19
273.09	294.19
273.322	294.19
273.553	279.19
273.785	291.19
274.017	287.19
274.249	293.19
274.481	262.19
274.713	287.19
274.945	301.19
275.176	275.19
275.408	286.19
275.64	290.19
275.872	280.19
276.104	279.19
276.335	291.19
276.567	282.19
276.799	300.19
277.031	345.19
277.262	344.19
277.494	349.19
277.726	330.19
277.957	315.19
278.189	302.19
278.421	283.19
278.652	293.19
278.884	307.19
279.115	283.19
279.347	313.19
279.579	309.19
279.81	271.19
280.042	286.19
280.273	291.19
280.505	323.19
280.736	306.19
280.968	283.19
281.199	309.19
281.431	309.19
281.662	282.19
281.894	285.19
282.125	309.19
282.356	318.19
282.588	343.19
282.819	339.19
283.051	313.19
283.282	312.19
283.513	310.19
283.745	311.19
283.976	306.19
284.207	314.19
284.439	309.19
284.67	317.19
284.901	319.19
285.132	313.19
285.364	317.19
285.595	308.19
285.826	305.19
286.057	311.19
286.288	305.19
286.52	309.19
286.751	304.19
286.982	322.19
287.213	318.19
287.444	321.19
287.675	324.19
287.906	339.19
288.138	357.19
288.369	347.19
288.6	354.19
288.831	337.19
289.062	326.19
289.293	338.19
289.524	334.19
289.755	322.19
289.986	338.19
290.217	326.19
290.448	321.19
290.679	331.19
290.91	328.19
291.141	331.19
291.371	337.19
291.602	327.19
291.833	321.19
292.064	334.19
292.295	343.19
292.526	334.19
292.757	317.19
292.987	320.19
293.218	308.19
293.449	339.19
293.68	311.19
293.91	324.19
294.141	349.19
294.372	330.19
294.603	339.19
294.833	332.19
295.064	343.19
295.295	334.19
295.525	351.19
295.756	375.19
295.987	321.19
296.217	345.19
296.448	369.19
296.679	325.19
296.909	333.19
297.14	339.19
297.37	337.19
297.601	362.19
297.831	357.19
298.062	367.19
298.292	363.19
298.523	371.19
298.753	364.19
298.984	347.19
299.214	327.19
299.445	373.19
299.675	366.19
299.905	363.19
300.136	355.19
300.366	358.19
300.597	346.19
300.827	365.19
301.057	365.19
301.288	372.19
301.518	373.19
301.748	385.19
301.979	381.19
302.209	379.19
302.439	378.19
302.669	367.19
302.9	377.19
303.13	376.19
303.36	367.19
303.59	381.19
303.82	390.19
304.051	375.19
304.281	379.19
304.511	348.19
304.741	367.19
304.971	369.19
305.201	383.19
305.431	362.19
305.661	379.19
305.891	375.19
306.121	370.19
306.352	382.19
306.582	382.19
306.812	354.19
307.042	375.19
307.272	381.19
307.502	373.19
307.731	388.19
307.961	389.19
308.191	386.19
308.421	387.19
308.651	395.19
308.881	379.19
309.111	384.19
309.341	386.19
309.571	399.19
309.8	391.19
310.03	410.19
310.26	417.19
310.49	427.19
310.72	434.19
310.949	421.19
311.179	431.19
311.409	424.19
311.639	399.19
311.868	422.19
312.098	438.19
312.328	426.19
312.557	423.19
312.787	450.19
313.017	449.19
313.246	432.19
313.476	437.19
313.706	419.19
313.935	424.19
314.165	437.19
314.394	438.19
314.624	438.19
314.853	443.19
315.083	423.19
315.312	436.19
315.542	426.19
315.771	433.19
316.001	438.19
316.23	441.19
316.46	392.19
316.689	410.19
316.919	423.19
317.148	439.19
317.377	438.19
317.607	425.19
317.836	432.19
318.065	435.19
318.295	426.19
318.524	443.19
318.753	417.19
318.983	429.19
319.212	422.19
319.441	424.19
319.67	433.19
319.9	415.19
320.129	426.19
320.358	420.19
320.587	418.19
320.816	452.19
321.046	434.19
321.275	434.19
321.504	444.19
321.733	449.19
321.962	447.19
322.191	461.19
322.42	483.19
322.649	489.19
322.878	497.19
323.108	486.19
323.337	524.19
323.566	527.19
323.795	563.19
324.024	611.19
324.253	685.19
324.482	970.19
324.71	1485.19
324.939	2030.19
325.168	1765.19
325.397	911.19
325.626	633.19
325.855	583.19
326.084	548.19
326.313	542.19
326.542	545.19
326.77	604.19
326.999	675.19
327.228	905.19
327.457	1289.19
327.686	1530.19
327.914	1035.19
328.143	735.19
328.372	652.19
328.6	610.19
328.829	603.19
329.058	617.19
329.287	603.19
329.515	589.19
329.744	570.19
329.972	575.19
330.201	611.19
330.43	650.19
330.658	676.19
330.887	680.19
331.115	608.19
331.344	582.19
331.572	558.19
331.801	557.19
332.03	559.19
332.258	540.19
332.486	536.19
332.715	518.19
332.943	533.19
333.172	520.19
333.4	546.19
333.629	570.19
333.857	579.19
334.085	625.19
334.314	627.19
334.542	656.19
334.771	670.19
334.999	605.19
335.227	571.19
335.455	528.19
335.684	518.19
335.912	517.19
336.14	533.19
336.369	518.19
336.597	527.19
336.825	527.19
337.053	522.19
337.281	521.19
337.51	512.19
337.738	497.19
337.966	510.19
338.194	479.19
338.422	526.19
338.65	497.19
338.878	475.19
339.106	484.19
339.334	481.19
339.562	503.19
339.79	499.19
340.018	486.19
340.246	499.19
340.474	498.19
340.702	485.19
340.93	489.19
341.158	498.19
341.386	466.19
341.614	473.19
341.842	465.19
342.07	467.19
342.298	489.19
342.526	467.19
342.754	456.19
342.981	460.19
343.209	451.19
343.437	488.19
343.665	490.19
343.893	481.19
344.12	493.19
344.348	503.19
344.576	509.19
344.804	490.19
345.031	492.19
345.259	476.19
345.487	480.19
345.714	481.19
345.942	474.19
346.17	474.19
346.397	472.19
346.625	462.19
346.853	467.19
347.08	458.19
347.308	446.19
347.535	446.19
347.763	483.19
347.99	487.19
348.218	485.19
348.445	464.19
348.673	478.19
348.9	461.19
349.128	461.19
349.355	440.19
349.583	429.19
349.81	446.19
350.037	441.19
350.265	440.19
350.492	439.19
350.72	439.19
350.947	451.19
351.174	444.19
351.402	486.19
351.629	473.19
351.856	471.19
352.083	440.19
352.311	462.19
352.538	499.19
352.765	473.19
352.992	431.19
353.22	433.19
353.447	465.19
353.674	441.19
353.901	443.19
354.128	443.19
354.355	423.19
354.583	438.19
354.81	415.19
355.037	445.19
355.264	430.19
355.491	427.19
355.718	429.19
355.945	412.19
356.172	404.19
356.399	415.19
356.626	416.19
356.853	424.19
357.08	459.19
357.307	433.19
357.534	410.19
357.761	427.19
357.988	443.19
358.215	435.19
358.441	406.19
358.668	437.19
358.895	445.19
359.122	442.19
359.349	439.19
359.576	470.19
359.802	469.19
360.029	495.19
360.256	498.19
360.483	478.19
360.709	466.19
360.936	446.19
361.163	470.19
361.39	437.19
361.616	443.19
361.843	474.19
362.07	445.19
362.296	455.19
362.523	447.19
362.749	443.19
362.976	428.19
363.203	425.19
363.429	440.19
363.656	444.19
363.882	435.19
364.109	437.19
364.335	429.19
364.562	431.19
364.788	443.19
365.015	449.19
365.241	433.19
365.468	434.19
365.694	448.19
365.92	425.19
366.147	415.19
366.373	426.19
366.599	438.19
366.826	426.19
367.052	427.19
367.278	433.19
367.505	420.19
367.731	420.19
367.957	445.19
368.184	433.19
368.41	450.19
368.636	462.19
368.862	446.19
369.089	450.19
369.315	420.19
369.541	445.19
369.767	424.19
369.993	433.19
370.219	427.19
370.445	438.19
370.672	437.19
370.898	446.19
371.124	445.19
371.35	453.19
371.576	451.19
371.802	441.19
372.028	425.19
372.254	437.19
372.48	427.19
372.706	448.19
372.932	443.19
373.158	459.19
373.384	455.19
373.61	448.19
373.835	425.19
374.061	459.19
374.287	439.19
374.513	438.19
374.739	451.19
374.965	436.19
375.191	434.19
375.416	452.19
375.642	460.19
375.868	442.19
376.094	423.19
376.319	424.19
376.545	427.19
376.771	437.19
376.997	405.19
377.222	443.19
377.448	424.19
377.674	425.19
377.899	426.19
378.125	435.19
378.35	430.19
378.576	428.19
378.802	439.19
379.027	424.19
379.253	428.19
379.478	418.19
379.704	411.19
379.929	435.19
380.155	433.19
380.38	416.19
380.606	433.19
380.831	433.19
381.057	448.19
381.282	455.19
381.507	438.19
381.733	442.19
381.958	425.19
382.184	430.19
382.409	444.19
382.634	452.19
382.86	434.19
383.085	451.19
383.31	466.19
383.535	455.19
383.761	446.19
383.986	457.19
384.211	456.19
384.436	464.19
384.662	467.19
384.887	486.19
385.112	472.19
385.337	470.19
385.562	480.19
385.787	481.19
386.013	495.19
386.238	482.19
386.463	494.19
386.688	468.19
386.913	483.19
387.138	481.19
387.363	479.19
387.588	466.19
387.813	484.19
388.038	474.19
388.263	477.19
388.488	478.19
388.713	460.19
388.938	467.19
389.163	494.19
389.387	470.19
389.612	449.19
389.837	469.19
390.062	471.19
390.287	485.19
390.512	457.19
390.736	485.19
390.961	478.19
391.186	483.19
391.411	489.19
391.636	495.19
391.86	470.19
392.085	507.19
392.31	497.19
392.534	513.19
392.759	509.19
392.984	494.19
393.208	485.19
393.433	473.19
393.658	481.19
393.882	483.19
394.107	481.19
394.331	491.19
394.556	486.19
394.78	473.19
395.005	490.19
395.229	487.19
395.454	503.19
395.678	491.19
395.903	484.19
396.127	521.19
396.352	529.19
396.576	513.19
396.801	497.19
397.025	486.19
397.249	489.19
397.474	519.19
397.698	525.19
397.922	558.19
398.147	544.19
398.371	550.19
398.595	559.19
398.82	552.19
399.044	575.19
399.268	614.19
399.492	668.19
399.717	681.19
399.941	706.19
400.165	725.19
400.389	679.19
400.613	656.19
400.837	593.19
401.062	587.19
401.286	570.19
401.51	565.19
401.734	547.19
401.958	593.19
402.182	540.19
402.406	557.19
402.63	571.19
402.854	554.19
403.078	551.19
403.302	580.19
403.526	581.19
403.75	568.19
403.974	586.19
404.198	610.19
404.422	620.19
404.645	601.19
404.869	599.19
405.093	637.19
405.317	673.19
405.541	695.19
405.765	661.19
405.988	598.19
406.212	620.19
406.436	645.19
406.66	650.19
406.883	634.19
407.107	666.19
407.331	677.19
407.555	766.19
407.778	777.19
408.002	702.19
408.226	666.19
408.449	627.19
408.673	603.19
408.896	665.19
409.12	679.19
409.344	641.19
409.567	602.19
409.791	606.19
410.014	583.19
410.238	569.19
410.461	573.19
410.685	581.19
410.908	591.19
411.132	600.19
411.355	649.19
411.578	635.19
411.802	596.19
412.025	577.19
412.249	586.19
412.472	611.19
412.695	667.19
412.919	635.19
413.142	603.19
413.365	578.19
413.589	582.19
413.812	576.19
414.035	545.19
414.258	574.19
414.482	547.19
414.705	535.19
414.928	535.19
415.151	539.19
415.374	536.19
415.597	507.19
415.821	534.19
416.044	519.19
416.267	549.19
416.49	526.19
416.713	561.19
416.936	531.19
417.159	540.19
417.382	541.19
417.605	533.19
417.828	540.19
418.051	554.19
418.274	555.19
418.497	565.19
418.72	542.19
418.943	537.19
419.166	575.19
419.389	591.19
419.611	580.19
419.834	575.19
420.057	589.19
420.28	572.19
420.503	577.19
420.726	589.19
420.948	581.19
421.171	607.19
421.394	616.19
421.617	589.19
421.839	561.19
422.062	565.19
422.285	592.19
422.507	637.19
422.73	685.19
422.953	651.19
423.175	607.19
423.398	594.19
423.621	578.19
423.843	609.19
424.066	599.19
424.288	579.19
424.511	635.19
424.733	667.19
424.956	725.19
425.178	702.19
425.401	701.19
425.623	716.19
425.846	615.19
426.068	585.19
426.291	594.19
426.513	569.19
426.735	548.19
426.958	633.19
427.18	705.19
427.402	834.19
427.625	904.19
427.847	787.19
428.069	714.19
428.292	622.19
428.514	579.19
428.736	525.19
428.958	552.19
429.181	534.19
429.403	535.19
429.625	553.19
429.847	577.19
430.069	633.19
430.292	639.19
430.514	555.19
430.736	556.19
430.958	523.19
431.18	499.19
431.402	519.19
431.624	518.19
431.846	512.19
432.068	510.19
432.29	524.19
432.512	535.19
432.734	517.19
432.956	501.19
433.178	529.19
433.4	548.19
433.622	532.19
433.844	524.19
434.066	514.19
434.287	518.19
434.509	511.19
434.731	548.19
434.953	561.19
435.175	561.19
435.397	570.19
435.618	581.19
435.84	629.19
436.062	693.19
436.284	747.19
436.505	621.19
436.727	580.19
436.949	552.19
437.17	545.19
437.392	532.19
437.614	558.19
437.835	579.19
438.057	664.19
438.278	748.19
438.5	747.19
438.721	786.19
438.943	795.19
439.165	642.19
439.386	565.19
439.608	579.19
439.829	569.19
440.05	585.19
440.272	634.19
440.493	635.19
440.715	591.19
440.936	573.19
441.158	536.19
441.379	549.19
441.6	574.19
441.822	589.19
442.043	630.19
442.264	685.19
442.486	750.19
442.707	636.19
442.928	605.19
443.149	606.19
443.371	629.19
443.592	654.19
443.813	709.19
444.034	794.19
444.255	689.19
444.476	605.19
444.698	599.19
444.919	598.19
445.14	732.19
445.361	667.19
445.582	653.19
445.803	665.19
446.024	779.19
446.245	748.19
446.466	680.19
446.687	598.19
446.908	578.19
447.129	522.19
447.35	537.19
447.571	511.19
447.792	513.19
448.013	519.19
448.234	547.19
448.455	595.19
448.675	690.19
448.896	804.19
449.117	674.19
449.338	650.19
449.559	754.19
449.779	838.19
450	659.19
450.221	553.19
450.442	515.19
450.662	501.19
450.883	525.19
451.104	518.19
451.324	533.19
451.545	505.19
451.766	475.19
451.986	461.19
452.207	454.19
452.428	499.19
452.648	465.19
452.869	465.19
453.089	490.19
453.31	483.19
453.53	490.19
453.751	487.19
453.971	462.19
454.192	500.19
454.412	474.19
454.633	462.19
454.853	467.19
455.073	464.19
455.294	486.19
455.514	557.19
455.734	529.19
455.955	478.19
456.175	474.19
456.395	446.19
456.616	450.19
456.836	434.19
457.056	453.19
457.276	442.19
457.497	459.19
457.717	457.19
457.937	465.19
458.157	477.19
458.377	469.19
458.598	489.19
458.818	555.19
459.038	627.19
459.258	639.19
459.478	585.19
459.698	513.19
459.918	531.19
460.138	551.19
460.358	538.19
460.578	531.19
460.798	541.19
461.018	542.19
461.238	546.19
461.458	538.19
461.678	529.19
461.898	541.19
462.118	539.19
462.338	564.19
462.558	574.19
462.777	590.19
462.997	619.19
463.217	627.19
463.437	631.19
463.657	606.19
463.876	579.19
464.096	585.19
464.316	602.19
464.536	600.19
464.755	578.19
464.975	576.19
465.195	602.19
465.414	666.19
465.634	586.19
465.854	531.19
466.073	530.19
466.293	503.19
466.512	509.19
466.732	475.19
466.951	492.19
467.171	495.19
467.391	514.19
467.61	517.19
467.829	511.19
468.049	499.19
468.268	524.19
468.488	503.19
468.707	491.19
468.927	475.19
469.146	481.19
469.365	471.19
469.585	513.19
469.804	488.19
470.023	516.19
470.243	502.19
470.462	530.19
470.681	540.19
470.901	504.19
471.12	497.19
471.339	507.19
471.558	482.19
471.777	485.19
471.997	517.19
472.216	537.19
472.435	550.19
472.654	540.19
472.873	509.19
473.092	492.19
473.311	508.19
473.53	517.19
473.749	518.19
473.968	535.19
474.187	640.19
474.406	645.19
474.625	556.19
474.844	516.19
475.063	482.19
475.282	471.19
475.501	519.19
475.72	516.19
475.939	519.19
476.158	511.19
476.377	524.19
476.596	520.19
476.814	533.19
477.033	521.19
477.252	519.19
477.471	537.19
477.69	541.19
477.908	543.19
478.127	545.19
478.346	576.19
478.564	552.19
478.783	563.19
479.002	570.19
479.22	591.19
479.439	623.19
479.658	602.19
479.876	602.19
480.095	605.19
480.313	663.19
480.532	621.19
480.751	611.19
480.969	627.19
481.188	681.19
481.406	771.19
481.624	672.19
481.843	651.19
482.061	605.19
482.28	592.19
482.498	591.19
482.717	595.19
482.935	578.19
483.153	554.19
483.372	564.19
483.59	571.19
483.808	571.19
484.027	576.19
484.245	583.19
484.463	572.19
484.681	586.19
484.9	585.19
485.118	587.19
485.336	602.19
485.554	605.19
485.772	591.19
485.99	587.19
486.209	599.19
486.427	612.19
486.645	608.19
486.863	607.19
487.081	618.19
487.299	612.19
487.517	612.19
487.735	620.19
487.953	638.19
488.171	612.19
488.389	617.19
488.607	639.19
488.825	605.19
489.043	631.19
489.261	633.19
489.479	605.19
489.696	639.19
489.914	640.19
490.132	643.19
490.35	670.19
490.568	648.19
490.786	667.19
491.003	662.19
491.221	682.19
491.439	707.19
491.657	710.19
491.874	723.19
492.092	724.19
492.31	700.19
492.527	709.19
492.745	712.19
492.963	747.19
493.18	735.19
493.398	745.19
493.615	746.19
493.833	753.19
494.05	729.19
494.268	735.19
494.485	740.19
494.703	734.19
494.92	717.19
495.138	723.19
495.355	741.19
495.573	738.19
495.79	736.19
496.008	714.19
496.225	701.19
496.442	762.19
496.66	703.19
496.877	737.19
497.094	739.19
497.312	737.19
497.529	753.19
497.746	755.19
497.963	788.19
498.181	793.19
498.398	849.19
498.615	851.19
498.832	897.19
499.049	884.19
499.267	910.19
499.484	977.19
499.701	1029.19
499.918	1061.19
500.135	1120.19
500.352	1194.19
500.569	1236.19
500.786	1238.19
501.003	1217.19
501.22	1158.19
501.437	1100.19
501.654	1035.19
501.871	995.19
