Data from 1985.PennyLincolnUp.Lamp.En5.5.200Scan.071819.P1_HRD10591_17-01-52-970.txt Node
Date: Thu Jul 18 17:01:52 EDT 2019
User: cochatt
Spectrometer: HR+D1059
Trigger mode: 1
Integration Time (sec): 1.000000E-1
Scans to average: 1
Electric dark correction enabled: true
Nonlinearity correction enabled: false
Boxcar width: 0
XAxis mode: Wavelengths
Number of Pixels in Spectrum: 2048
>>>>>Begin Spectral Data<<<<<
223.165	-25.88
223.4	-25.88
223.635	-25.88
223.869	-9.88
224.104	-5.88
224.338	-10.88
224.573	-17.88
224.808	-24.88
225.042	-16.88
225.277	-13.88
225.511	-7.88
225.746	2.12
225.98	10.12
226.215	16.12
226.449	24.12
226.683	16.12
226.918	34.12
227.152	31.12
227.387	51.12
227.621	30.12
227.856	41.12
228.09	60.12
228.324	45.12
228.559	47.12
228.793	67.12
229.027	97.12
229.262	109.12
229.496	109.12
229.73	119.12
229.964	134.12
230.199	117.12
230.433	116.12
230.667	114.12
230.901	117.12
231.136	109.12
231.37	96.12
231.604	125.12
231.838	118.12
232.072	103.12
232.306	110.12
232.541	109.12
232.775	119.12
233.009	114.12
233.243	115.12
233.477	123.12
233.711	102.12
233.945	126.12
234.179	117.12
234.413	127.12
234.647	115.12
234.881	120.12
235.115	116.12
235.349	111.12
235.583	114.12
235.817	118.12
236.051	130.12
236.285	134.12
236.519	130.12
236.753	130.12
236.987	140.12
237.221	160.12
237.455	208.12
237.689	188.12
237.922	150.12
238.156	135.12
238.39	140.12
238.624	137.12
238.858	130.12
239.091	148.12
239.325	119.12
239.559	130.12
239.793	117.12
240.027	135.12
240.26	125.12
240.494	148.12
240.728	145.12
240.961	147.12
241.195	150.12
241.429	148.12
241.662	143.12
241.896	138.12
242.13	133.12
242.363	145.12
242.597	138.12
242.83	150.12
243.064	134.12
243.298	140.12
243.531	147.12
243.765	140.12
243.998	134.12
244.232	143.12
244.465	158.12
244.699	152.12
244.932	132.12
245.166	146.12
245.399	144.12
245.633	155.12
245.866	152.12
246.099	146.12
246.333	139.12
246.566	162.12
246.8	165.12
247.033	154.12
247.266	151.12
247.5	150.12
247.733	165.12
247.966	174.12
248.2	167.12
248.433	182.12
248.666	176.12
248.899	169.12
249.133	202.12
249.366	205.12
249.599	184.12
249.832	189.12
250.066	173.12
250.299	167.12
250.532	190.12
250.765	191.12
250.998	213.12
251.231	210.12
251.465	199.12
251.698	213.12
251.931	195.12
252.164	202.12
252.397	197.12
252.63	202.12
252.863	193.12
253.096	222.12
253.329	231.12
253.562	208.12
253.795	226.12
254.028	213.12
254.261	218.12
254.494	228.12
254.727	248.12
254.96	262.12
255.193	245.12
255.426	245.12
255.659	216.12
255.892	205.12
256.124	212.12
256.357	224.12
256.59	209.12
256.823	196.12
257.056	213.12
257.289	228.12
257.521	217.12
257.754	206.12
257.987	211.12
258.22	208.12
258.452	198.12
258.685	199.12
258.918	202.12
259.151	219.12
259.383	219.12
259.616	228.12
259.849	231.12
260.081	234.12
260.314	239.12
260.547	269.12
260.779	245.12
261.012	222.12
261.244	223.12
261.477	240.12
261.71	221.12
261.942	230.12
262.175	248.12
262.407	254.12
262.64	213.12
262.872	228.12
263.105	230.12
263.337	228.12
263.57	208.12
263.802	227.12
264.035	232.12
264.267	224.12
264.499	238.12
264.732	229.12
264.964	214.12
265.197	225.12
265.429	236.12
265.661	212.12
265.894	217.12
266.126	234.12
266.358	234.12
266.591	216.12
266.823	248.12
267.055	231.12
267.287	218.12
267.52	218.12
267.752	228.12
267.984	240.12
268.216	244.12
268.448	248.12
268.681	258.12
268.913	262.12
269.145	264.12
269.377	295.12
269.609	293.12
269.841	286.12
270.073	286.12
270.306	294.12
270.538	298.12
270.77	326.12
271.002	303.12
271.234	293.12
271.466	305.12
271.698	326.12
271.93	308.12
272.162	325.12
272.394	318.12
272.626	322.12
272.858	292.12
273.09	294.12
273.322	300.12
273.553	285.12
273.785	288.12
274.017	264.12
274.249	279.12
274.481	286.12
274.713	292.12
274.945	283.12
275.176	280.12
275.408	279.12
275.64	286.12
275.872	285.12
276.104	284.12
276.335	260.12
276.567	279.12
276.799	281.12
277.031	325.12
277.262	336.12
277.494	331.12
277.726	307.12
277.957	308.12
278.189	295.12
278.421	271.12
278.652	292.12
278.884	283.12
279.115	292.12
279.347	308.12
279.579	290.12
279.81	292.12
280.042	281.12
280.273	301.12
280.505	301.12
280.736	288.12
280.968	281.12
281.199	290.12
281.431	299.12
281.662	284.12
281.894	291.12
282.125	292.12
282.356	313.12
282.588	322.12
282.819	304.12
283.051	306.12
283.282	293.12
283.513	296.12
283.745	294.12
283.976	305.12
284.207	310.12
284.439	326.12
284.67	296.12
284.901	324.12
285.132	306.12
285.364	298.12
285.595	311.12
285.826	326.12
286.057	316.12
286.288	323.12
286.52	312.12
286.751	317.12
286.982	321.12
287.213	303.12
287.444	292.12
287.675	321.12
287.906	332.12
288.138	324.12
288.369	325.12
288.6	333.12
288.831	328.12
289.062	352.12
289.293	328.12
289.524	310.12
289.755	332.12
289.986	330.12
290.217	334.12
290.448	323.12
290.679	315.12
290.91	322.12
291.141	315.12
291.371	331.12
291.602	319.12
291.833	324.12
292.064	314.12
292.295	323.12
292.526	333.12
292.757	317.12
292.987	320.12
293.218	323.12
293.449	319.12
293.68	332.12
293.91	322.12
294.141	329.12
294.372	334.12
294.603	344.12
294.833	345.12
295.064	330.12
295.295	344.12
295.525	324.12
295.756	346.12
295.987	350.12
296.217	346.12
296.448	353.12
296.679	362.12
296.909	337.12
297.14	335.12
297.37	340.12
297.601	342.12
297.831	353.12
298.062	355.12
298.292	346.12
298.523	352.12
298.753	363.12
298.984	343.12
299.214	341.12
299.445	356.12
299.675	346.12
299.905	356.12
300.136	354.12
300.366	359.12
300.597	342.12
300.827	349.12
301.057	371.12
301.288	376.12
301.518	354.12
301.748	374.12
301.979	382.12
302.209	360.12
302.439	360.12
302.669	365.12
302.9	357.12
303.13	357.12
303.36	371.12
303.59	362.12
303.82	380.12
304.051	370.12
304.281	355.12
304.511	377.12
304.741	390.12
304.971	374.12
305.201	363.12
305.431	362.12
305.661	367.12
305.891	375.12
306.121	365.12
306.352	388.12
306.582	367.12
306.812	364.12
307.042	373.12
307.272	378.12
307.502	375.12
307.731	386.12
307.961	376.12
308.191	373.12
308.421	378.12
308.651	388.12
308.881	401.12
309.111	367.12
309.341	385.12
309.571	388.12
309.8	382.12
310.03	402.12
310.26	411.12
310.49	393.12
310.72	409.12
310.949	432.12
311.179	428.12
311.409	413.12
311.639	393.12
311.868	408.12
312.098	419.12
312.328	429.12
312.557	416.12
312.787	441.12
313.017	455.12
313.246	434.12
313.476	414.12
313.706	406.12
313.935	413.12
314.165	438.12
314.394	427.12
314.624	440.12
314.853	448.12
315.083	422.12
315.312	400.12
315.542	415.12
315.771	400.12
316.001	422.12
316.23	389.12
316.46	411.12
316.689	410.12
316.919	423.12
317.148	431.12
317.377	432.12
317.607	438.12
317.836	404.12
318.065	400.12
318.295	407.12
318.524	430.12
318.753	421.12
318.983	429.12
319.212	431.12
319.441	425.12
319.67	424.12
319.9	414.12
320.129	411.12
320.358	412.12
320.587	436.12
320.816	422.12
321.046	444.12
321.275	431.12
321.504	447.12
321.733	430.12
321.962	454.12
322.191	450.12
322.42	437.12
322.649	485.12
322.878	459.12
323.108	480.12
323.337	499.12
323.566	532.12
323.795	554.12
324.024	558.12
324.253	665.12
324.482	900.12
324.71	1365.12
324.939	1862.12
325.168	1600.12
325.397	832.12
325.626	638.12
325.855	549.12
326.084	527.12
326.313	509.12
326.542	518.12
326.77	564.12
326.999	634.12
327.228	820.12
327.457	1187.12
327.686	1442.12
327.914	975.12
328.143	669.12
328.372	614.12
328.6	570.12
328.829	555.12
329.058	578.12
329.287	588.12
329.515	562.12
329.744	519.12
329.972	526.12
330.201	519.12
330.43	539.12
330.658	574.12
330.887	600.12
331.115	570.12
331.344	525.12
331.572	514.12
331.801	506.12
332.03	517.12
332.258	488.12
332.486	490.12
332.715	514.12
332.943	533.12
333.172	511.12
333.4	527.12
333.629	531.12
333.857	521.12
334.085	517.12
334.314	546.12
334.542	508.12
334.771	531.12
334.999	502.12
335.227	520.12
335.455	526.12
335.684	503.12
335.912	520.12
336.14	481.12
336.369	492.12
336.597	510.12
336.825	516.12
337.053	512.12
337.281	498.12
337.51	498.12
337.738	486.12
337.966	471.12
338.194	471.12
338.422	465.12
338.65	470.12
338.878	477.12
339.106	480.12
339.334	462.12
339.562	484.12
339.79	479.12
340.018	479.12
340.246	480.12
340.474	457.12
340.702	478.12
340.93	475.12
341.158	466.12
341.386	462.12
341.614	457.12
341.842	481.12
342.07	478.12
342.298	459.12
342.526	466.12
342.754	442.12
342.981	463.12
343.209	462.12
343.437	470.12
343.665	494.12
343.893	493.12
344.12	500.12
344.348	505.12
344.576	498.12
344.804	479.12
345.031	487.12
345.259	506.12
345.487	470.12
345.714	446.12
345.942	456.12
346.17	471.12
346.397	458.12
346.625	442.12
346.853	436.12
347.08	444.12
347.308	446.12
347.535	479.12
347.763	469.12
347.99	462.12
348.218	459.12
348.445	471.12
348.673	444.12
348.9	448.12
349.128	465.12
349.355	440.12
349.583	427.12
349.81	441.12
350.037	416.12
350.265	419.12
350.492	418.12
350.72	414.12
350.947	446.12
351.174	442.12
351.402	448.12
351.629	428.12
351.856	442.12
352.083	454.12
352.311	432.12
352.538	447.12
352.765	465.12
352.992	454.12
353.22	425.12
353.447	456.12
353.674	429.12
353.901	431.12
354.128	436.12
354.355	429.12
354.583	428.12
354.81	419.12
355.037	435.12
355.264	443.12
355.491	428.12
355.718	422.12
355.945	432.12
356.172	417.12
356.399	418.12
356.626	416.12
356.853	424.12
357.08	420.12
357.307	438.12
357.534	431.12
357.761	408.12
357.988	416.12
358.215	420.12
358.441	430.12
358.668	422.12
358.895	422.12
359.122	444.12
359.349	456.12
359.576	421.12
359.802	461.12
360.029	463.12
360.256	467.12
360.483	467.12
360.709	436.12
360.936	451.12
361.163	424.12
361.39	436.12
361.616	447.12
361.843	450.12
362.07	461.12
362.296	475.12
362.523	452.12
362.749	424.12
362.976	419.12
363.203	424.12
363.429	436.12
363.656	445.12
363.882	420.12
364.109	424.12
364.335	419.12
364.562	423.12
364.788	411.12
365.015	413.12
365.241	423.12
365.468	431.12
365.694	448.12
365.92	429.12
366.147	421.12
366.373	420.12
366.599	418.12
366.826	445.12
367.052	428.12
367.278	434.12
367.505	446.12
367.731	444.12
367.957	414.12
368.184	420.12
368.41	455.12
368.636	435.12
368.862	452.12
369.089	434.12
369.315	436.12
369.541	444.12
369.767	421.12
369.993	414.12
370.219	416.12
370.445	434.12
370.672	411.12
370.898	444.12
371.124	423.12
371.35	444.12
371.576	442.12
371.802	429.12
372.028	428.12
372.254	425.12
372.48	420.12
372.706	438.12
372.932	454.12
373.158	440.12
373.384	455.12
373.61	450.12
373.835	434.12
374.061	439.12
374.287	431.12
374.513	451.12
374.739	454.12
374.965	455.12
375.191	440.12
375.416	425.12
375.642	438.12
375.868	427.12
376.094	415.12
376.319	426.12
376.545	428.12
376.771	421.12
376.997	416.12
377.222	414.12
377.448	429.12
377.674	435.12
377.899	415.12
378.125	427.12
378.35	426.12
378.576	406.12
378.802	438.12
379.027	434.12
379.253	409.12
379.478	413.12
379.704	428.12
379.929	431.12
380.155	442.12
380.38	417.12
380.606	434.12
380.831	413.12
381.057	444.12
381.282	445.12
381.507	427.12
381.733	420.12
381.958	415.12
382.184	439.12
382.409	427.12
382.634	444.12
382.86	451.12
383.085	455.12
383.31	430.12
383.535	426.12
383.761	451.12
383.986	468.12
384.211	444.12
384.436	433.12
384.662	460.12
384.887	459.12
385.112	469.12
385.337	467.12
385.562	465.12
385.787	455.12
386.013	523.12
386.238	470.12
386.463	483.12
386.688	469.12
386.913	463.12
387.138	456.12
387.363	471.12
387.588	474.12
387.813	488.12
388.038	464.12
388.263	481.12
388.488	488.12
388.713	472.12
388.938	495.12
389.163	481.12
389.387	462.12
389.612	487.12
389.837	466.12
390.062	471.12
390.287	479.12
390.512	482.12
390.736	478.12
390.961	482.12
391.186	457.12
391.411	490.12
391.636	488.12
391.86	516.12
392.085	525.12
392.31	516.12
392.534	477.12
392.759	496.12
392.984	494.12
393.208	470.12
393.433	483.12
393.658	485.12
393.882	464.12
394.107	468.12
394.331	495.12
394.556	488.12
394.78	485.12
395.005	479.12
395.229	481.12
395.454	492.12
395.678	504.12
395.903	517.12
396.127	529.12
396.352	496.12
396.576	490.12
396.801	490.12
397.025	503.12
397.249	510.12
397.474	515.12
397.698	502.12
397.922	524.12
398.147	552.12
398.371	555.12
398.595	543.12
398.82	529.12
399.044	600.12
399.268	598.12
399.492	643.12
399.717	690.12
399.941	696.12
400.165	733.12
400.389	700.12
400.613	639.12
400.837	600.12
401.062	583.12
401.286	569.12
401.51	578.12
401.734	542.12
401.958	546.12
402.182	556.12
402.406	582.12
402.63	557.12
402.854	547.12
403.078	561.12
403.302	588.12
403.526	592.12
403.75	581.12
403.974	576.12
404.198	573.12
404.422	577.12
404.645	592.12
404.869	569.12
405.093	619.12
405.317	615.12
405.541	618.12
405.765	612.12
405.988	606.12
406.212	611.12
406.436	625.12
406.66	621.12
406.883	628.12
407.107	652.12
407.331	688.12
407.555	773.12
407.778	758.12
408.002	675.12
408.226	649.12
408.449	642.12
408.673	660.12
408.896	651.12
409.12	694.12
409.344	660.12
409.567	597.12
409.791	569.12
410.014	586.12
410.238	553.12
410.461	556.12
410.685	570.12
410.908	598.12
411.132	631.12
411.355	632.12
411.578	622.12
411.802	568.12
412.025	573.12
412.249	565.12
412.472	568.12
412.695	534.12
412.919	552.12
413.142	556.12
413.365	553.12
413.589	536.12
413.812	547.12
414.035	532.12
414.258	547.12
414.482	556.12
414.705	539.12
414.928	529.12
415.151	543.12
415.374	539.12
415.597	526.12
415.821	532.12
416.044	548.12
416.267	527.12
416.49	524.12
416.713	527.12
416.936	517.12
417.159	511.12
417.382	539.12
417.605	542.12
417.828	552.12
418.051	570.12
418.274	548.12
418.497	548.12
418.72	517.12
418.943	560.12
419.166	568.12
419.389	590.12
419.611	592.12
419.834	570.12
420.057	572.12
420.28	547.12
420.503	544.12
420.726	535.12
420.948	554.12
421.171	587.12
421.394	590.12
421.617	565.12
421.839	561.12
422.062	544.12
422.285	562.12
422.507	602.12
422.73	679.12
422.953	654.12
423.175	586.12
423.398	580.12
423.621	572.12
423.843	588.12
424.066	603.12
424.288	588.12
424.511	620.12
424.733	632.12
424.956	729.12
425.178	666.12
425.401	662.12
425.623	688.12
425.846	605.12
426.068	576.12
426.291	572.12
426.513	586.12
426.735	563.12
426.958	602.12
427.18	684.12
427.402	803.12
427.625	872.12
427.847	755.12
428.069	618.12
428.292	586.12
428.514	559.12
428.736	546.12
428.958	514.12
429.181	540.12
429.403	520.12
429.625	535.12
429.847	554.12
430.069	626.12
430.292	594.12
430.514	547.12
430.736	538.12
430.958	534.12
431.18	522.12
431.402	491.12
431.624	478.12
431.846	490.12
432.068	512.12
432.29	511.12
432.512	515.12
432.734	505.12
432.956	499.12
433.178	510.12
433.4	515.12
433.622	525.12
433.844	506.12
434.066	524.12
434.287	517.12
434.509	511.12
434.731	535.12
434.953	559.12
435.175	562.12
435.397	580.12
435.618	571.12
435.84	598.12
436.062	701.12
436.284	747.12
436.505	634.12
436.727	570.12
436.949	566.12
437.17	510.12
437.392	537.12
437.614	549.12
437.835	551.12
438.057	656.12
438.278	712.12
438.5	747.12
438.721	802.12
438.943	776.12
439.165	619.12
439.386	563.12
439.608	564.12
439.829	586.12
440.05	583.12
440.272	631.12
440.493	581.12
440.715	545.12
440.936	534.12
441.158	551.12
441.379	548.12
441.6	549.12
441.822	583.12
442.043	631.12
442.264	684.12
442.486	714.12
442.707	596.12
442.928	596.12
443.149	598.12
443.371	603.12
443.592	632.12
443.813	747.12
444.034	796.12
444.255	680.12
444.476	604.12
444.698	606.12
444.919	613.12
445.14	708.12
445.361	671.12
445.582	636.12
445.803	651.12
446.024	734.12
446.245	778.12
446.466	700.12
446.687	607.12
446.908	569.12
447.129	530.12
447.35	549.12
447.571	528.12
447.792	515.12
448.013	520.12
448.234	525.12
448.455	607.12
448.675	690.12
448.896	770.12
449.117	648.12
449.338	619.12
449.559	741.12
449.779	828.12
450	660.12
450.221	562.12
450.442	523.12
450.662	495.12
450.883	512.12
451.104	530.12
451.324	522.12
451.545	486.12
451.766	503.12
451.986	459.12
452.207	455.12
452.428	446.12
452.648	471.12
452.869	464.12
453.089	510.12
453.31	498.12
453.53	480.12
453.751	465.12
453.971	477.12
454.192	491.12
454.412	468.12
454.633	471.12
454.853	458.12
455.073	470.12
455.294	485.12
455.514	514.12
455.734	526.12
455.955	486.12
456.175	456.12
456.395	448.12
456.616	444.12
456.836	450.12
457.056	451.12
457.276	434.12
457.497	431.12
457.717	447.12
457.937	450.12
458.157	457.12
458.377	469.12
458.598	482.12
458.818	559.12
459.038	623.12
459.258	615.12
459.478	540.12
459.698	526.12
459.918	525.12
460.138	515.12
460.358	526.12
460.578	529.12
460.798	557.12
461.018	540.12
461.238	529.12
461.458	550.12
461.678	534.12
461.898	550.12
462.118	528.12
462.338	550.12
462.558	560.12
462.777	565.12
462.997	603.12
463.217	635.12
463.437	626.12
463.657	631.12
463.876	583.12
464.096	599.12
464.316	588.12
464.536	576.12
464.755	589.12
464.975	579.12
465.195	595.12
465.414	645.12
465.634	586.12
465.854	534.12
466.073	520.12
466.293	509.12
466.512	509.12
466.732	486.12
466.951	491.12
467.171	490.12
467.391	492.12
467.61	484.12
467.829	499.12
468.049	494.12
468.268	489.12
468.488	469.12
468.707	447.12
468.927	487.12
469.146	476.12
469.365	467.12
469.585	482.12
469.804	470.12
470.023	487.12
470.243	507.12
470.462	515.12
470.681	503.12
470.901	507.12
471.12	492.12
471.339	509.12
471.558	506.12
471.777	484.12
471.997	514.12
472.216	478.12
472.435	492.12
472.654	463.12
472.873	456.12
473.092	457.12
473.311	486.12
473.53	488.12
473.749	492.12
473.968	518.12
474.187	602.12
474.406	627.12
474.625	528.12
474.844	515.12
475.063	483.12
475.282	486.12
475.501	504.12
475.72	486.12
475.939	502.12
476.158	491.12
476.377	495.12
476.596	495.12
476.814	504.12
477.033	511.12
477.252	531.12
477.471	516.12
477.69	525.12
477.908	508.12
478.127	549.12
478.346	556.12
478.564	570.12
478.783	540.12
479.002	566.12
479.22	587.12
479.439	564.12
479.658	584.12
479.876	574.12
480.095	626.12
480.313	653.12
480.532	627.12
480.751	619.12
480.969	604.12
481.188	606.12
481.406	595.12
481.624	598.12
481.843	575.12
482.061	554.12
482.28	568.12
482.498	581.12
482.717	555.12
482.935	582.12
483.153	567.12
483.372	567.12
483.59	582.12
483.808	563.12
484.027	554.12
484.245	572.12
484.463	569.12
484.681	597.12
484.9	560.12
485.118	576.12
485.336	592.12
485.554	597.12
485.772	575.12
485.99	591.12
486.209	590.12
486.427	588.12
486.645	580.12
486.863	596.12
487.081	618.12
487.299	584.12
487.517	606.12
487.735	606.12
487.953	599.12
488.171	596.12
488.389	605.12
488.607	615.12
488.825	592.12
489.043	589.12
489.261	601.12
489.479	596.12
489.696	598.12
489.914	629.12
490.132	614.12
490.35	617.12
490.568	619.12
490.786	634.12
491.003	631.12
491.221	643.12
491.439	650.12
491.657	648.12
491.874	650.12
492.092	654.12
492.31	654.12
492.527	657.12
492.745	645.12
492.963	661.12
493.18	668.12
493.398	686.12
493.615	698.12
493.833	702.12
494.05	692.12
494.268	724.12
494.485	693.12
494.703	693.12
494.92	696.12
495.138	706.12
495.355	701.12
495.573	702.12
495.79	726.12
496.008	713.12
496.225	714.12
496.442	695.12
496.66	708.12
496.877	692.12
497.094	711.12
497.312	715.12
497.529	752.12
497.746	757.12
497.963	770.12
498.181	797.12
498.398	815.12
498.615	834.12
498.832	856.12
499.049	896.12
499.267	940.12
499.484	976.12
499.701	999.12
499.918	1050.12
500.135	1142.12
500.352	1222.12
500.569	1218.12
500.786	1250.12
501.003	1193.12
501.22	1147.12
501.437	1096.12
501.654	1034.12
501.871	1007.12
