Data from 1985.PennyLincolnUp.Lamp.En5.5.200Scan.071819.P1_HRD10591_17-02-37-971.txt Node
Date: Thu Jul 18 17:02:37 EDT 2019
User: cochatt
Spectrometer: HR+D1059
Trigger mode: 1
Integration Time (sec): 1.000000E-1
Scans to average: 1
Electric dark correction enabled: true
Nonlinearity correction enabled: false
Boxcar width: 0
XAxis mode: Wavelengths
Number of Pixels in Spectrum: 2048
>>>>>Begin Spectral Data<<<<<
223.165	-10.38
223.4	-10.38
223.635	-10.38
223.869	-22.38
224.104	-17.38
224.338	-13.38
224.573	-9.38
224.808	-21.38
225.042	0.62
225.277	-9.38
225.511	10.62
225.746	-14.38
225.98	9.62
226.215	17.62
226.449	22.62
226.683	2.62
226.918	26.62
227.152	27.62
227.387	36.62
227.621	31.62
227.856	41.62
228.09	34.62
228.324	37.62
228.559	49.62
228.793	81.62
229.027	97.62
229.262	120.62
229.496	107.62
229.73	134.62
229.964	143.62
230.199	133.62
230.433	127.62
230.667	122.62
230.901	103.62
231.136	117.62
231.37	113.62
231.604	106.62
231.838	108.62
232.072	117.62
232.306	110.62
232.541	125.62
232.775	115.62
233.009	126.62
233.243	119.62
233.477	109.62
233.711	117.62
233.945	115.62
234.179	121.62
234.413	120.62
234.647	109.62
234.881	122.62
235.115	128.62
235.349	132.62
235.583	130.62
235.817	130.62
236.051	126.62
236.285	130.62
236.519	129.62
236.753	140.62
236.987	154.62
237.221	164.62
237.455	220.62
237.689	163.62
237.922	145.62
238.156	139.62
238.39	121.62
238.624	123.62
238.858	125.62
239.091	122.62
239.325	126.62
239.559	132.62
239.793	132.62
240.027	136.62
240.26	135.62
240.494	159.62
240.728	139.62
240.961	162.62
241.195	135.62
241.429	138.62
241.662	134.62
241.896	138.62
242.13	137.62
242.363	127.62
242.597	137.62
242.83	141.62
243.064	135.62
243.298	135.62
243.531	131.62
243.765	129.62
243.998	135.62
244.232	137.62
244.465	146.62
244.699	153.62
244.932	145.62
245.166	151.62
245.399	145.62
245.633	140.62
245.866	153.62
246.099	142.62
246.333	159.62
246.566	153.62
246.8	151.62
247.033	169.62
247.266	162.62
247.5	160.62
247.733	168.62
247.966	174.62
248.2	177.62
248.433	171.62
248.666	167.62
248.899	194.62
249.133	201.62
249.366	205.62
249.599	180.62
249.832	189.62
250.066	182.62
250.299	175.62
250.532	189.62
250.765	186.62
250.998	208.62
251.231	225.62
251.465	212.62
251.698	200.62
251.931	194.62
252.164	198.62
252.397	201.62
252.63	195.62
252.863	206.62
253.096	213.62
253.329	209.62
253.562	221.62
253.795	213.62
254.028	213.62
254.261	215.62
254.494	216.62
254.727	241.62
254.96	266.62
255.193	270.62
255.426	233.62
255.659	217.62
255.892	220.62
256.124	217.62
256.357	218.62
256.59	204.62
256.823	220.62
257.056	209.62
257.289	200.62
257.521	198.62
257.754	193.62
257.987	208.62
258.22	206.62
258.452	213.62
258.685	215.62
258.918	210.62
259.151	215.62
259.383	214.62
259.616	236.62
259.849	232.62
260.081	244.62
260.314	248.62
260.547	248.62
260.779	258.62
261.012	241.62
261.244	234.62
261.477	231.62
261.71	216.62
261.942	237.62
262.175	235.62
262.407	222.62
262.64	235.62
262.872	216.62
263.105	207.62
263.337	238.62
263.57	228.62
263.802	229.62
264.035	227.62
264.267	235.62
264.499	218.62
264.732	220.62
264.964	223.62
265.197	238.62
265.429	221.62
265.661	231.62
265.894	241.62
266.126	224.62
266.358	229.62
266.591	242.62
266.823	238.62
267.055	249.62
267.287	249.62
267.52	253.62
267.752	244.62
267.984	223.62
268.216	240.62
268.448	246.62
268.681	262.62
268.913	278.62
269.145	263.62
269.377	287.62
269.609	283.62
269.841	293.62
270.073	303.62
270.306	295.62
270.538	320.62
270.77	329.62
271.002	301.62
271.234	295.62
271.466	295.62
271.698	323.62
271.93	320.62
272.162	338.62
272.394	336.62
272.626	303.62
272.858	284.62
273.09	279.62
273.322	279.62
273.553	266.62
273.785	275.62
274.017	260.62
274.249	292.62
274.481	276.62
274.713	282.62
274.945	279.62
275.176	283.62
275.408	286.62
275.64	297.62
275.872	285.62
276.104	288.62
276.335	282.62
276.567	286.62
276.799	300.62
277.031	318.62
277.262	339.62
277.494	320.62
277.726	314.62
277.957	302.62
278.189	311.62
278.421	290.62
278.652	293.62
278.884	295.62
279.115	287.62
279.347	295.62
279.579	296.62
279.81	300.62
280.042	285.62
280.273	289.62
280.505	317.62
280.736	288.62
280.968	283.62
281.199	281.62
281.431	278.62
281.662	304.62
281.894	304.62
282.125	304.62
282.356	316.62
282.588	314.62
282.819	325.62
283.051	290.62
283.282	288.62
283.513	322.62
283.745	322.62
283.976	311.62
284.207	321.62
284.439	314.62
284.67	277.62
284.901	292.62
285.132	299.62
285.364	308.62
285.595	324.62
285.826	312.62
286.057	310.62
286.288	310.62
286.52	300.62
286.751	310.62
286.982	333.62
287.213	300.62
287.444	322.62
287.675	323.62
287.906	317.62
288.138	337.62
288.369	328.62
288.6	320.62
288.831	318.62
289.062	318.62
289.293	325.62
289.524	309.62
289.755	320.62
289.986	313.62
290.217	324.62
290.448	333.62
290.679	310.62
290.91	334.62
291.141	306.62
291.371	336.62
291.602	333.62
291.833	332.62
292.064	320.62
292.295	312.62
292.526	345.62
292.757	319.62
292.987	318.62
293.218	319.62
293.449	316.62
293.68	329.62
293.91	312.62
294.141	322.62
294.372	329.62
294.603	335.62
294.833	325.62
295.064	312.62
295.295	323.62
295.525	326.62
295.756	338.62
295.987	341.62
296.217	352.62
296.448	346.62
296.679	354.62
296.909	351.62
297.14	318.62
297.37	316.62
297.601	344.62
297.831	353.62
298.062	344.62
298.292	333.62
298.523	349.62
298.753	357.62
298.984	343.62
299.214	349.62
299.445	356.62
299.675	346.62
299.905	348.62
300.136	359.62
300.366	361.62
300.597	336.62
300.827	357.62
301.057	356.62
301.288	380.62
301.518	374.62
301.748	360.62
301.979	368.62
302.209	373.62
302.439	372.62
302.669	352.62
302.9	360.62
303.13	381.62
303.36	369.62
303.59	357.62
303.82	382.62
304.051	364.62
304.281	359.62
304.511	360.62
304.741	381.62
304.971	349.62
305.201	370.62
305.431	368.62
305.661	368.62
305.891	363.62
306.121	374.62
306.352	375.62
306.582	396.62
306.812	388.62
307.042	386.62
307.272	391.62
307.502	372.62
307.731	373.62
307.961	365.62
308.191	360.62
308.421	365.62
308.651	382.62
308.881	381.62
309.111	390.62
309.341	373.62
309.571	395.62
309.8	389.62
310.03	380.62
310.26	384.62
310.49	413.62
310.72	413.62
310.949	432.62
311.179	429.62
311.409	423.62
311.639	389.62
311.868	407.62
312.098	434.62
312.328	427.62
312.557	441.62
312.787	440.62
313.017	424.62
313.246	419.62
313.476	419.62
313.706	414.62
313.935	436.62
314.165	427.62
314.394	430.62
314.624	445.62
314.853	445.62
315.083	421.62
315.312	408.62
315.542	395.62
315.771	414.62
316.001	430.62
316.23	398.62
316.46	421.62
316.689	426.62
316.919	403.62
317.148	433.62
317.377	419.62
317.607	416.62
317.836	426.62
318.065	406.62
318.295	416.62
318.524	426.62
318.753	414.62
318.983	421.62
319.212	394.62
319.441	421.62
319.67	416.62
319.9	402.62
320.129	430.62
320.358	428.62
320.587	434.62
320.816	432.62
321.046	439.62
321.275	430.62
321.504	444.62
321.733	444.62
321.962	448.62
322.191	452.62
322.42	472.62
322.649	489.62
322.878	481.62
323.108	471.62
323.337	506.62
323.566	507.62
323.795	552.62
324.024	608.62
324.253	704.62
324.482	957.62
324.71	1409.62
324.939	2017.62
325.168	1716.62
325.397	900.62
325.626	646.62
325.855	585.62
326.084	539.62
326.313	521.62
326.542	524.62
326.77	557.62
326.999	656.62
327.228	878.62
327.457	1287.62
327.686	1546.62
327.914	1058.62
328.143	692.62
328.372	608.62
328.6	585.62
328.829	564.62
329.058	590.62
329.287	601.62
329.515	553.62
329.744	546.62
329.972	498.62
330.201	537.62
330.43	549.62
330.658	587.62
330.887	613.62
331.115	610.62
331.344	537.62
331.572	529.62
331.801	514.62
332.03	537.62
332.258	516.62
332.486	524.62
332.715	500.62
332.943	491.62
333.172	493.62
333.4	507.62
333.629	540.62
333.857	548.62
334.085	535.62
334.314	527.62
334.542	548.62
334.771	550.62
334.999	534.62
335.227	528.62
335.455	542.62
335.684	484.62
335.912	497.62
336.14	494.62
336.369	508.62
336.597	480.62
336.825	490.62
337.053	495.62
337.281	485.62
337.51	482.62
337.738	492.62
337.966	506.62
338.194	495.62
338.422	492.62
338.65	489.62
338.878	469.62
339.106	481.62
339.334	456.62
339.562	470.62
339.79	468.62
340.018	472.62
340.246	457.62
340.474	477.62
340.702	471.62
340.93	479.62
341.158	466.62
341.386	466.62
341.614	466.62
341.842	458.62
342.07	447.62
342.298	444.62
342.526	463.62
342.754	466.62
342.981	457.62
343.209	475.62
343.437	473.62
343.665	462.62
343.893	489.62
344.12	495.62
344.348	517.62
344.576	492.62
344.804	492.62
345.031	494.62
345.259	492.62
345.487	491.62
345.714	482.62
345.942	460.62
346.17	467.62
346.397	463.62
346.625	470.62
346.853	432.62
347.08	436.62
347.308	435.62
347.535	458.62
347.763	483.62
347.99	466.62
348.218	464.62
348.445	461.62
348.673	456.62
348.9	444.62
349.128	420.62
349.355	431.62
349.583	433.62
349.81	420.62
350.037	419.62
350.265	447.62
350.492	424.62
350.72	411.62
350.947	449.62
351.174	449.62
351.402	446.62
351.629	466.62
351.856	456.62
352.083	454.62
352.311	452.62
352.538	457.62
352.765	460.62
352.992	453.62
353.22	435.62
353.447	431.62
353.674	449.62
353.901	430.62
354.128	430.62
354.355	414.62
354.583	421.62
354.81	416.62
355.037	418.62
355.264	438.62
355.491	390.62
355.718	409.62
355.945	416.62
356.172	430.62
356.399	406.62
356.626	401.62
356.853	446.62
357.08	420.62
357.307	415.62
357.534	424.62
357.761	417.62
357.988	416.62
358.215	424.62
358.441	419.62
358.668	411.62
358.895	436.62
359.122	421.62
359.349	444.62
359.576	440.62
359.802	472.62
360.029	485.62
360.256	496.62
360.483	490.62
360.709	436.62
360.936	458.62
361.163	442.62
361.39	454.62
361.616	457.62
361.843	428.62
362.07	431.62
362.296	449.62
362.523	441.62
362.749	452.62
362.976	434.62
363.203	448.62
363.429	431.62
363.656	416.62
363.882	438.62
364.109	433.62
364.335	420.62
364.562	415.62
364.788	400.62
365.015	424.62
365.241	419.62
365.468	429.62
365.694	415.62
365.92	430.62
366.147	437.62
366.373	456.62
366.599	411.62
366.826	408.62
367.052	428.62
367.278	414.62
367.505	446.62
367.731	414.62
367.957	422.62
368.184	426.62
368.41	410.62
368.636	446.62
368.862	437.62
369.089	434.62
369.315	403.62
369.541	423.62
369.767	444.62
369.993	450.62
370.219	411.62
370.445	432.62
370.672	392.62
370.898	438.62
371.124	429.62
371.35	422.62
371.576	406.62
371.802	434.62
372.028	416.62
372.254	416.62
372.48	424.62
372.706	416.62
372.932	444.62
373.158	452.62
373.384	439.62
373.61	426.62
373.835	442.62
374.061	427.62
374.287	436.62
374.513	438.62
374.739	427.62
374.965	443.62
375.191	452.62
375.416	444.62
375.642	433.62
375.868	440.62
376.094	425.62
376.319	426.62
376.545	429.62
376.771	427.62
376.997	439.62
377.222	428.62
377.448	413.62
377.674	431.62
377.899	409.62
378.125	418.62
378.35	416.62
378.576	393.62
378.802	425.62
379.027	419.62
379.253	401.62
379.478	438.62
379.704	427.62
379.929	416.62
380.155	402.62
380.38	420.62
380.606	396.62
380.831	408.62
381.057	424.62
381.282	421.62
381.507	417.62
381.733	416.62
381.958	402.62
382.184	429.62
382.409	418.62
382.634	444.62
382.86	418.62
383.085	446.62
383.31	451.62
383.535	450.62
383.761	460.62
383.986	450.62
384.211	434.62
384.436	459.62
384.662	462.62
384.887	462.62
385.112	447.62
385.337	462.62
385.562	477.62
385.787	457.62
386.013	477.62
386.238	464.62
386.463	473.62
386.688	473.62
386.913	457.62
387.138	456.62
387.363	468.62
387.588	468.62
387.813	461.62
388.038	450.62
388.263	458.62
388.488	481.62
388.713	461.62
388.938	483.62
389.163	470.62
389.387	466.62
389.612	466.62
389.837	465.62
390.062	458.62
390.287	457.62
390.512	461.62
390.736	469.62
390.961	466.62
391.186	470.62
391.411	470.62
391.636	495.62
391.86	502.62
392.085	486.62
392.31	498.62
392.534	473.62
392.759	481.62
392.984	472.62
393.208	476.62
393.433	486.62
393.658	473.62
393.882	477.62
394.107	488.62
394.331	464.62
394.556	475.62
394.78	494.62
395.005	498.62
395.229	473.62
395.454	494.62
395.678	500.62
395.903	492.62
396.127	524.62
396.352	519.62
396.576	517.62
396.801	488.62
397.025	481.62
397.249	482.62
397.474	506.62
397.698	521.62
397.922	520.62
398.147	518.62
398.371	548.62
398.595	538.62
398.82	569.62
399.044	586.62
399.268	594.62
399.492	634.62
399.717	676.62
399.941	698.62
400.165	710.62
400.389	690.62
400.613	605.62
400.837	566.62
401.062	575.62
401.286	558.62
401.51	570.62
401.734	564.62
401.958	549.62
402.182	566.62
402.406	554.62
402.63	566.62
402.854	569.62
403.078	554.62
403.302	593.62
403.526	593.62
403.75	598.62
403.974	581.62
404.198	595.62
404.422	600.62
404.645	593.62
404.869	598.62
405.093	622.62
405.317	629.62
405.541	647.62
405.765	622.62
405.988	598.62
406.212	607.62
406.436	638.62
406.66	646.62
406.883	616.62
407.107	625.62
407.331	693.62
407.555	721.62
407.778	752.62
408.002	664.62
408.226	622.62
408.449	630.62
408.673	616.62
408.896	648.62
409.12	692.62
409.344	623.62
409.567	596.62
409.791	592.62
410.014	568.62
410.238	557.62
410.461	562.62
410.685	580.62
410.908	594.62
411.132	596.62
411.355	623.62
411.578	593.62
411.802	574.62
412.025	535.62
412.249	590.62
412.472	571.62
412.695	584.62
412.919	579.62
413.142	550.62
413.365	550.62
413.589	575.62
413.812	521.62
414.035	519.62
414.258	535.62
414.482	546.62
414.705	528.62
414.928	536.62
415.151	534.62
415.374	535.62
415.597	527.62
415.821	511.62
416.044	537.62
416.267	509.62
416.49	527.62
416.713	508.62
416.936	546.62
417.159	543.62
417.382	553.62
417.605	527.62
417.828	556.62
418.051	529.62
418.274	545.62
418.497	498.62
418.72	524.62
418.943	534.62
419.166	574.62
419.389	578.62
419.611	569.62
419.834	571.62
420.057	577.62
420.28	527.62
420.503	539.62
420.726	541.62
420.948	566.62
421.171	580.62
421.394	628.62
421.617	574.62
421.839	544.62
422.062	538.62
422.285	550.62
422.507	618.62
422.73	671.62
422.953	655.62
423.175	597.62
423.398	578.62
423.621	573.62
423.843	592.62
424.066	583.62
424.288	590.62
424.511	574.62
424.733	654.62
424.956	741.62
425.178	692.62
425.401	678.62
425.623	694.62
425.846	608.62
426.068	557.62
426.291	555.62
426.513	570.62
426.735	577.62
426.958	604.62
427.18	685.62
427.402	838.62
427.625	888.62
427.847	743.62
428.069	648.62
428.292	581.62
428.514	550.62
428.736	537.62
428.958	543.62
429.181	538.62
429.403	532.62
429.625	509.62
429.847	545.62
430.069	617.62
430.292	633.62
430.514	538.62
430.736	529.62
430.958	516.62
431.18	494.62
431.402	521.62
431.624	507.62
431.846	502.62
432.068	490.62
432.29	513.62
432.512	508.62
432.734	513.62
432.956	492.62
433.178	474.62
433.4	526.62
433.622	522.62
433.844	517.62
434.066	509.62
434.287	513.62
434.509	548.62
434.731	540.62
434.953	541.62
435.175	542.62
435.397	584.62
435.618	574.62
435.84	575.62
436.062	672.62
436.284	717.62
436.505	631.62
436.727	568.62
436.949	518.62
437.17	533.62
437.392	517.62
437.614	507.62
437.835	582.62
438.057	656.62
438.278	716.62
438.5	744.62
438.721	810.62
438.943	765.62
439.165	617.62
439.386	560.62
439.608	559.62
439.829	588.62
440.05	564.62
440.272	625.62
440.493	605.62
440.715	534.62
440.936	553.62
441.158	538.62
441.379	523.62
441.6	512.62
441.822	608.62
442.043	614.62
442.264	688.62
442.486	747.62
442.707	625.62
442.928	572.62
443.149	602.62
443.371	595.62
443.592	664.62
443.813	721.62
444.034	794.62
444.255	683.62
444.476	622.62
444.698	624.62
444.919	629.62
445.14	726.62
445.361	639.62
445.582	631.62
445.803	680.62
446.024	756.62
446.245	764.62
446.466	701.62
446.687	580.62
446.908	566.62
447.129	536.62
447.35	524.62
447.571	522.62
447.792	517.62
448.013	519.62
448.234	528.62
448.455	585.62
448.675	676.62
448.896	780.62
449.117	674.62
449.338	630.62
449.559	729.62
449.779	823.62
450	637.62
450.221	537.62
450.442	518.62
450.662	515.62
450.883	529.62
451.104	518.62
451.324	506.62
451.545	489.62
451.766	473.62
451.986	464.62
452.207	465.62
452.428	466.62
452.648	479.62
452.869	457.62
453.089	462.62
453.31	493.62
453.53	478.62
453.751	473.62
453.971	446.62
454.192	464.62
454.412	487.62
454.633	460.62
454.853	448.62
455.073	480.62
455.294	486.62
455.514	548.62
455.734	528.62
455.955	471.62
456.175	443.62
456.395	436.62
456.616	443.62
456.836	463.62
457.056	448.62
457.276	433.62
457.497	439.62
457.717	440.62
457.937	468.62
458.157	453.62
458.377	462.62
458.598	501.62
458.818	557.62
459.038	594.62
459.258	622.62
459.478	554.62
459.698	516.62
459.918	548.62
460.138	511.62
460.358	559.62
460.578	533.62
460.798	540.62
461.018	548.62
461.238	545.62
461.458	552.62
461.678	530.62
461.898	566.62
462.118	562.62
462.338	561.62
462.558	564.62
462.777	584.62
462.997	588.62
463.217	622.62
463.437	642.62
463.657	608.62
463.876	576.62
464.096	582.62
464.316	582.62
464.536	591.62
464.755	588.62
464.975	596.62
465.195	604.62
465.414	684.62
465.634	584.62
465.854	526.62
466.073	514.62
466.293	521.62
466.512	513.62
466.732	466.62
466.951	490.62
467.171	487.62
467.391	481.62
467.61	477.62
467.829	488.62
468.049	489.62
468.268	495.62
468.488	483.62
468.707	487.62
468.927	478.62
469.146	458.62
469.365	460.62
469.585	470.62
469.804	488.62
470.023	507.62
470.243	503.62
470.462	494.62
470.681	507.62
470.901	518.62
471.12	495.62
471.339	505.62
471.558	495.62
471.777	478.62
471.997	500.62
472.216	495.62
472.435	489.62
472.654	478.62
472.873	466.62
473.092	477.62
473.311	469.62
473.53	472.62
473.749	489.62
473.968	539.62
474.187	615.62
474.406	632.62
474.625	553.62
474.844	514.62
475.063	504.62
475.282	489.62
475.501	495.62
475.72	494.62
475.939	502.62
476.158	500.62
476.377	509.62
476.596	493.62
476.814	510.62
477.033	516.62
477.252	513.62
477.471	533.62
477.69	534.62
477.908	539.62
478.127	552.62
478.346	540.62
478.564	554.62
478.783	560.62
479.002	570.62
479.22	553.62
479.439	581.62
479.658	582.62
479.876	605.62
480.095	613.62
480.313	618.62
480.532	608.62
480.751	614.62
480.969	612.62
481.188	606.62
481.406	622.62
481.624	574.62
481.843	568.62
482.061	561.62
482.28	564.62
482.498	556.62
482.717	598.62
482.935	536.62
483.153	556.62
483.372	566.62
483.59	590.62
483.808	569.62
484.027	541.62
484.245	569.62
484.463	551.62
484.681	573.62
484.9	583.62
485.118	580.62
485.336	585.62
485.554	551.62
485.772	576.62
485.99	566.62
486.209	593.62
486.427	570.62
486.645	590.62
486.863	601.62
487.081	608.62
487.299	594.62
487.517	584.62
487.735	603.62
487.953	590.62
488.171	611.62
488.389	594.62
488.607	589.62
488.825	587.62
489.043	597.62
489.261	584.62
489.479	607.62
489.696	595.62
489.914	621.62
490.132	637.62
490.35	619.62
490.568	633.62
490.786	614.62
491.003	656.62
491.221	648.62
491.439	640.62
491.657	668.62
491.874	694.62
492.092	681.62
492.31	654.62
492.527	682.62
492.745	673.62
492.963	656.62
493.18	695.62
493.398	672.62
493.615	683.62
493.833	702.62
494.05	684.62
494.268	683.62
494.485	653.62
494.703	683.62
494.92	730.62
495.138	708.62
495.355	694.62
495.573	692.62
495.79	701.62
496.008	699.62
496.225	682.62
496.442	698.62
496.66	718.62
496.877	732.62
497.094	694.62
497.312	732.62
497.529	716.62
497.746	759.62
497.963	765.62
498.181	826.62
498.398	806.62
498.615	842.62
498.832	847.62
499.049	891.62
499.267	928.62
499.484	952.62
499.701	986.62
499.918	1042.62
500.135	1106.62
500.352	1209.62
500.569	1216.62
500.786	1207.62
501.003	1176.62
501.22	1106.62
501.437	1090.62
501.654	1005.62
501.871	992.62
