Data from 1985.PennyLincolnUp.Lamp.En5.5.200Scan.071819.P1_HRD10591_17-03-02-971.txt Node
Date: Thu Jul 18 17:03:02 EDT 2019
User: cochatt
Spectrometer: HR+D1059
Trigger mode: 1
Integration Time (sec): 1.000000E-1
Scans to average: 1
Electric dark correction enabled: true
Nonlinearity correction enabled: false
Boxcar width: 0
XAxis mode: Wavelengths
Number of Pixels in Spectrum: 2048
>>>>>Begin Spectral Data<<<<<
223.165	-13.94
223.4	-13.94
223.635	-13.94
223.869	-19.94
224.104	-26.94
224.338	-16.94
224.573	-11.94
224.808	-14.94
225.042	-13.94
225.277	2.06
225.511	15.06
225.746	4.06
225.98	4.06
226.215	9.06
226.449	17.06
226.683	25.06
226.918	21.06
227.152	21.06
227.387	22.06
227.621	32.06
227.856	36.06
228.09	37.06
228.324	57.06
228.559	60.06
228.793	71.06
229.027	88.06
229.262	105.06
229.496	117.06
229.73	131.06
229.964	145.06
230.199	123.06
230.433	108.06
230.667	109.06
230.901	119.06
231.136	119.06
231.37	118.06
231.604	121.06
231.838	114.06
232.072	115.06
232.306	113.06
232.541	106.06
232.775	115.06
233.009	115.06
233.243	115.06
233.477	120.06
233.711	108.06
233.945	112.06
234.179	121.06
234.413	124.06
234.647	128.06
234.881	115.06
235.115	104.06
235.349	126.06
235.583	114.06
235.817	104.06
236.051	125.06
236.285	119.06
236.519	115.06
236.753	131.06
236.987	143.06
237.221	177.06
237.455	211.06
237.689	169.06
237.922	136.06
238.156	137.06
238.39	127.06
238.624	129.06
238.858	121.06
239.091	106.06
239.325	117.06
239.559	129.06
239.793	129.06
240.027	125.06
240.26	135.06
240.494	151.06
240.728	165.06
240.961	155.06
241.195	146.06
241.429	135.06
241.662	139.06
241.896	131.06
242.13	125.06
242.363	120.06
242.597	131.06
242.83	126.06
243.064	129.06
243.298	140.06
243.531	129.06
243.765	141.06
243.998	141.06
244.232	135.06
244.465	139.06
244.699	148.06
244.932	140.06
245.166	148.06
245.399	149.06
245.633	142.06
245.866	152.06
246.099	147.06
246.333	158.06
246.566	141.06
246.8	139.06
247.033	151.06
247.266	156.06
247.5	150.06
247.733	158.06
247.966	175.06
248.2	180.06
248.433	175.06
248.666	171.06
248.899	182.06
249.133	196.06
249.366	207.06
249.599	183.06
249.832	174.06
250.066	188.06
250.299	174.06
250.532	182.06
250.765	209.06
250.998	212.06
251.231	213.06
251.465	210.06
251.698	199.06
251.931	198.06
252.164	196.06
252.397	205.06
252.63	185.06
252.863	195.06
253.096	199.06
253.329	230.06
253.562	219.06
253.795	211.06
254.028	230.06
254.261	214.06
254.494	226.06
254.727	245.06
254.96	270.06
255.193	250.06
255.426	231.06
255.659	230.06
255.892	230.06
256.124	221.06
256.357	214.06
256.59	225.06
256.823	201.06
257.056	206.06
257.289	198.06
257.521	211.06
257.754	189.06
257.987	205.06
258.22	219.06
258.452	209.06
258.685	225.06
258.918	205.06
259.151	214.06
259.383	212.06
259.616	212.06
259.849	229.06
260.081	237.06
260.314	240.06
260.547	255.06
260.779	245.06
261.012	229.06
261.244	211.06
261.477	231.06
261.71	235.06
261.942	233.06
262.175	260.06
262.407	225.06
262.64	227.06
262.872	228.06
263.105	218.06
263.337	226.06
263.57	199.06
263.802	227.06
264.035	225.06
264.267	215.06
264.499	201.06
264.732	215.06
264.964	216.06
265.197	210.06
265.429	235.06
265.661	211.06
265.894	225.06
266.126	242.06
266.358	202.06
266.591	221.06
266.823	231.06
267.055	218.06
267.287	250.06
267.52	241.06
267.752	248.06
267.984	222.06
268.216	228.06
268.448	234.06
268.681	231.06
268.913	263.06
269.145	259.06
269.377	285.06
269.609	281.06
269.841	274.06
270.073	285.06
270.306	313.06
270.538	329.06
270.77	321.06
271.002	316.06
271.234	302.06
271.466	301.06
271.698	314.06
271.93	297.06
272.162	310.06
272.394	319.06
272.626	293.06
272.858	292.06
273.09	291.06
273.322	301.06
273.553	288.06
273.785	269.06
274.017	275.06
274.249	277.06
274.481	276.06
274.713	275.06
274.945	275.06
275.176	271.06
275.408	288.06
275.64	266.06
275.872	284.06
276.104	284.06
276.335	267.06
276.567	285.06
276.799	295.06
277.031	311.06
277.262	331.06
277.494	342.06
277.726	317.06
277.957	282.06
278.189	316.06
278.421	287.06
278.652	285.06
278.884	289.06
279.115	302.06
279.347	286.06
279.579	275.06
279.81	293.06
280.042	283.06
280.273	288.06
280.505	299.06
280.736	282.06
280.968	287.06
281.199	291.06
281.431	296.06
281.662	298.06
281.894	290.06
282.125	287.06
282.356	300.06
282.588	321.06
282.819	308.06
283.051	294.06
283.282	299.06
283.513	311.06
283.745	301.06
283.976	309.06
284.207	310.06
284.439	283.06
284.67	300.06
284.901	302.06
285.132	294.06
285.364	314.06
285.595	305.06
285.826	309.06
286.057	291.06
286.288	302.06
286.52	308.06
286.751	317.06
286.982	311.06
287.213	326.06
287.444	323.06
287.675	322.06
287.906	329.06
288.138	311.06
288.369	344.06
288.6	331.06
288.831	308.06
289.062	325.06
289.293	321.06
289.524	338.06
289.755	295.06
289.986	318.06
290.217	316.06
290.448	295.06
290.679	325.06
290.91	326.06
291.141	323.06
291.371	306.06
291.602	330.06
291.833	314.06
292.064	332.06
292.295	335.06
292.526	315.06
292.757	309.06
292.987	317.06
293.218	314.06
293.449	328.06
293.68	327.06
293.91	313.06
294.141	333.06
294.372	319.06
294.603	331.06
294.833	300.06
295.064	333.06
295.295	322.06
295.525	324.06
295.756	350.06
295.987	355.06
296.217	370.06
296.448	359.06
296.679	343.06
296.909	342.06
297.14	339.06
297.37	339.06
297.601	333.06
297.831	343.06
298.062	327.06
298.292	357.06
298.523	334.06
298.753	335.06
298.984	336.06
299.214	343.06
299.445	350.06
299.675	350.06
299.905	349.06
300.136	357.06
300.366	353.06
300.597	335.06
300.827	348.06
301.057	363.06
301.288	371.06
301.518	359.06
301.748	345.06
301.979	357.06
302.209	369.06
302.439	379.06
302.669	379.06
302.9	357.06
303.13	369.06
303.36	369.06
303.59	354.06
303.82	376.06
304.051	384.06
304.281	374.06
304.511	362.06
304.741	372.06
304.971	363.06
305.201	374.06
305.431	355.06
305.661	341.06
305.891	351.06
306.121	355.06
306.352	358.06
306.582	375.06
306.812	345.06
307.042	387.06
307.272	381.06
307.502	361.06
307.731	385.06
307.961	376.06
308.191	359.06
308.421	359.06
308.651	377.06
308.881	380.06
309.111	390.06
309.341	365.06
309.571	411.06
309.8	389.06
310.03	389.06
310.26	418.06
310.49	415.06
310.72	408.06
310.949	428.06
311.179	447.06
311.409	418.06
311.639	405.06
311.868	389.06
312.098	406.06
312.328	420.06
312.557	422.06
312.787	453.06
313.017	414.06
313.246	440.06
313.476	416.06
313.706	430.06
313.935	435.06
314.165	449.06
314.394	458.06
314.624	441.06
314.853	404.06
315.083	424.06
315.312	435.06
315.542	401.06
315.771	416.06
316.001	410.06
316.23	407.06
316.46	391.06
316.689	409.06
316.919	423.06
317.148	451.06
317.377	431.06
317.607	405.06
317.836	421.06
318.065	438.06
318.295	425.06
318.524	405.06
318.753	429.06
318.983	418.06
319.212	402.06
319.441	418.06
319.67	424.06
319.9	419.06
320.129	408.06
320.358	422.06
320.587	431.06
320.816	447.06
321.046	438.06
321.275	421.06
321.504	443.06
321.733	449.06
321.962	442.06
322.191	435.06
322.42	460.06
322.649	462.06
322.878	467.06
323.108	500.06
323.337	488.06
323.566	534.06
323.795	545.06
324.024	600.06
324.253	689.06
324.482	940.06
324.71	1464.06
324.939	2014.06
325.168	1709.06
325.397	906.06
325.626	657.06
325.855	585.06
326.084	561.06
326.313	542.06
326.542	525.06
326.77	571.06
326.999	666.06
327.228	893.06
327.457	1292.06
327.686	1575.06
327.914	1043.06
328.143	704.06
328.372	632.06
328.6	588.06
328.829	599.06
329.058	592.06
329.287	595.06
329.515	579.06
329.744	556.06
329.972	541.06
330.201	534.06
330.43	553.06
330.658	581.06
330.887	615.06
331.115	603.06
331.344	543.06
331.572	539.06
331.801	527.06
332.03	541.06
332.258	514.06
332.486	488.06
332.715	506.06
332.943	519.06
333.172	502.06
333.4	507.06
333.629	537.06
333.857	514.06
334.085	528.06
334.314	548.06
334.542	542.06
334.771	547.06
334.999	544.06
335.227	533.06
335.455	497.06
335.684	511.06
335.912	502.06
336.14	490.06
336.369	489.06
336.597	502.06
336.825	509.06
337.053	491.06
337.281	482.06
337.51	493.06
337.738	466.06
337.966	486.06
338.194	494.06
338.422	494.06
338.65	484.06
338.878	481.06
339.106	465.06
339.334	468.06
339.562	471.06
339.79	469.06
340.018	457.06
340.246	471.06
340.474	480.06
340.702	466.06
340.93	476.06
341.158	455.06
341.386	442.06
341.614	486.06
341.842	477.06
342.07	465.06
342.298	463.06
342.526	455.06
342.754	463.06
342.981	460.06
343.209	452.06
343.437	474.06
343.665	475.06
343.893	500.06
344.12	498.06
344.348	502.06
344.576	481.06
344.804	471.06
345.031	485.06
345.259	475.06
345.487	457.06
345.714	466.06
345.942	445.06
346.17	444.06
346.397	442.06
346.625	456.06
346.853	445.06
347.08	447.06
347.308	446.06
347.535	465.06
347.763	458.06
347.99	458.06
348.218	449.06
348.445	477.06
348.673	457.06
348.9	466.06
349.128	447.06
349.355	437.06
349.583	454.06
349.81	439.06
350.037	419.06
350.265	425.06
350.492	422.06
350.72	406.06
350.947	417.06
351.174	452.06
351.402	457.06
351.629	428.06
351.856	462.06
352.083	457.06
352.311	455.06
352.538	463.06
352.765	453.06
352.992	461.06
353.22	451.06
353.447	446.06
353.674	428.06
353.901	423.06
354.128	430.06
354.355	423.06
354.583	431.06
354.81	435.06
355.037	430.06
355.264	429.06
355.491	405.06
355.718	399.06
355.945	418.06
356.172	427.06
356.399	418.06
356.626	428.06
356.853	426.06
357.08	423.06
357.307	421.06
357.534	433.06
357.761	418.06
357.988	418.06
358.215	418.06
358.441	408.06
358.668	409.06
358.895	418.06
359.122	429.06
359.349	433.06
359.576	447.06
359.802	436.06
360.029	484.06
360.256	487.06
360.483	476.06
360.709	437.06
360.936	466.06
361.163	441.06
361.39	447.06
361.616	448.06
361.843	432.06
362.07	435.06
362.296	447.06
362.523	442.06
362.749	437.06
362.976	433.06
363.203	423.06
363.429	423.06
363.656	410.06
363.882	427.06
364.109	429.06
364.335	429.06
364.562	427.06
364.788	402.06
365.015	411.06
365.241	439.06
365.468	433.06
365.694	416.06
365.92	445.06
366.147	415.06
366.373	426.06
366.599	421.06
366.826	417.06
367.052	431.06
367.278	406.06
367.505	430.06
367.731	422.06
367.957	410.06
368.184	419.06
368.41	439.06
368.636	450.06
368.862	430.06
369.089	422.06
369.315	414.06
369.541	427.06
369.767	427.06
369.993	410.06
370.219	430.06
370.445	428.06
370.672	439.06
370.898	433.06
371.124	415.06
371.35	421.06
371.576	413.06
371.802	420.06
372.028	410.06
372.254	416.06
372.48	430.06
372.706	438.06
372.932	417.06
373.158	435.06
373.384	426.06
373.61	432.06
373.835	407.06
374.061	425.06
374.287	403.06
374.513	434.06
374.739	439.06
374.965	434.06
375.191	430.06
375.416	452.06
375.642	435.06
375.868	444.06
376.094	439.06
376.319	403.06
376.545	419.06
376.771	439.06
376.997	426.06
377.222	429.06
377.448	430.06
377.674	431.06
377.899	429.06
378.125	414.06
378.35	413.06
378.576	413.06
378.802	424.06
379.027	439.06
379.253	417.06
379.478	421.06
379.704	418.06
379.929	406.06
380.155	411.06
380.38	414.06
380.606	425.06
380.831	419.06
381.057	423.06
381.282	429.06
381.507	421.06
381.733	431.06
381.958	423.06
382.184	418.06
382.409	432.06
382.634	440.06
382.86	433.06
383.085	448.06
383.31	433.06
383.535	440.06
383.761	455.06
383.986	428.06
384.211	458.06
384.436	441.06
384.662	449.06
384.887	473.06
385.112	451.06
385.337	459.06
385.562	462.06
385.787	469.06
386.013	491.06
386.238	477.06
386.463	483.06
386.688	462.06
386.913	465.06
387.138	487.06
387.363	452.06
387.588	483.06
387.813	472.06
388.038	444.06
388.263	459.06
388.488	477.06
388.713	455.06
388.938	463.06
389.163	459.06
389.387	460.06
389.612	477.06
389.837	458.06
390.062	467.06
390.287	467.06
390.512	458.06
390.736	467.06
390.961	487.06
391.186	464.06
391.411	461.06
391.636	485.06
391.86	456.06
392.085	503.06
392.31	492.06
392.534	486.06
392.759	485.06
392.984	472.06
393.208	488.06
393.433	463.06
393.658	459.06
393.882	470.06
394.107	473.06
394.331	473.06
394.556	472.06
394.78	462.06
395.005	473.06
395.229	478.06
395.454	492.06
395.678	486.06
395.903	509.06
396.127	486.06
396.352	505.06
396.576	517.06
396.801	481.06
397.025	483.06
397.249	475.06
397.474	487.06
397.698	503.06
397.922	531.06
398.147	517.06
398.371	522.06
398.595	517.06
398.82	526.06
399.044	586.06
399.268	594.06
399.492	652.06
399.717	693.06
399.941	690.06
400.165	716.06
400.389	695.06
400.613	603.06
400.837	557.06
401.062	556.06
401.286	533.06
401.51	544.06
401.734	524.06
401.958	533.06
402.182	541.06
402.406	559.06
402.63	557.06
402.854	558.06
403.078	557.06
403.302	568.06
403.526	593.06
403.75	588.06
403.974	593.06
404.198	561.06
404.422	576.06
404.645	565.06
404.869	593.06
405.093	583.06
405.317	605.06
405.541	652.06
405.765	603.06
405.988	589.06
406.212	630.06
406.436	619.06
406.66	621.06
406.883	619.06
407.107	652.06
407.331	697.06
407.555	728.06
407.778	715.06
408.002	663.06
408.226	651.06
408.449	620.06
408.673	597.06
408.896	619.06
409.12	650.06
409.344	644.06
409.567	607.06
409.791	574.06
410.014	553.06
410.238	566.06
410.461	591.06
410.685	582.06
410.908	581.06
411.132	600.06
411.355	637.06
411.578	626.06
411.802	582.06
412.025	594.06
412.249	579.06
412.472	594.06
412.695	598.06
412.919	590.06
413.142	547.06
413.365	536.06
413.589	521.06
413.812	531.06
414.035	531.06
414.258	495.06
414.482	526.06
414.705	532.06
414.928	516.06
415.151	525.06
415.374	519.06
415.597	548.06
415.821	533.06
416.044	518.06
416.267	532.06
416.49	503.06
416.713	518.06
416.936	509.06
417.159	524.06
417.382	519.06
417.605	534.06
417.828	542.06
418.051	558.06
418.274	531.06
418.497	506.06
418.72	517.06
418.943	538.06
419.166	558.06
419.389	561.06
419.611	567.06
419.834	571.06
420.057	578.06
420.28	569.06
420.503	565.06
420.726	521.06
420.948	567.06
421.171	620.06
421.394	612.06
421.617	546.06
421.839	544.06
422.062	541.06
422.285	553.06
422.507	596.06
422.73	682.06
422.953	649.06
423.175	578.06
423.398	545.06
423.621	574.06
423.843	607.06
424.066	560.06
424.288	599.06
424.511	580.06
424.733	634.06
424.956	726.06
425.178	689.06
425.401	680.06
425.623	716.06
425.846	627.06
426.068	559.06
426.291	559.06
426.513	543.06
426.735	557.06
426.958	619.06
427.18	678.06
427.402	809.06
427.625	885.06
427.847	753.06
428.069	659.06
428.292	589.06
428.514	554.06
428.736	538.06
428.958	539.06
429.181	501.06
429.403	519.06
429.625	497.06
429.847	558.06
430.069	608.06
430.292	609.06
430.514	551.06
430.736	532.06
430.958	510.06
431.18	507.06
431.402	501.06
431.624	463.06
431.846	485.06
432.068	489.06
432.29	495.06
432.512	510.06
432.734	507.06
432.956	531.06
433.178	533.06
433.4	511.06
433.622	487.06
433.844	482.06
434.066	478.06
434.287	494.06
434.509	515.06
434.731	526.06
434.953	533.06
435.175	553.06
435.397	565.06
435.618	551.06
435.84	611.06
436.062	654.06
436.284	736.06
436.505	617.06
436.727	586.06
436.949	521.06
437.17	518.06
437.392	505.06
437.614	538.06
437.835	553.06
438.057	643.06
438.278	739.06
438.5	718.06
438.721	782.06
438.943	732.06
439.165	615.06
439.386	561.06
439.608	557.06
439.829	551.06
440.05	605.06
440.272	621.06
440.493	594.06
440.715	547.06
440.936	542.06
441.158	536.06
441.379	533.06
441.6	558.06
441.822	565.06
442.043	584.06
442.264	687.06
442.486	735.06
442.707	602.06
442.928	571.06
443.149	575.06
443.371	610.06
443.592	646.06
443.813	751.06
444.034	793.06
444.255	674.06
444.476	583.06
444.698	601.06
444.919	612.06
445.14	727.06
445.361	656.06
445.582	620.06
445.803	661.06
446.024	773.06
446.245	761.06
446.466	693.06
446.687	603.06
446.908	557.06
447.129	543.06
447.35	521.06
447.571	494.06
447.792	501.06
448.013	502.06
448.234	533.06
448.455	567.06
448.675	661.06
448.896	778.06
449.117	629.06
449.338	639.06
449.559	707.06
449.779	821.06
450	669.06
450.221	576.06
450.442	521.06
450.662	501.06
450.883	503.06
451.104	527.06
451.324	526.06
451.545	467.06
451.766	467.06
451.986	460.06
452.207	459.06
452.428	461.06
452.648	461.06
452.869	483.06
453.089	472.06
453.31	483.06
453.53	481.06
453.751	466.06
453.971	467.06
454.192	471.06
454.412	454.06
454.633	456.06
454.853	472.06
455.073	491.06
455.294	479.06
455.514	567.06
455.734	507.06
455.955	458.06
456.175	460.06
456.395	447.06
456.616	425.06
456.836	435.06
457.056	441.06
457.276	437.06
457.497	454.06
457.717	445.06
457.937	455.06
458.157	442.06
458.377	453.06
458.598	471.06
458.818	527.06
459.038	618.06
459.258	643.06
459.478	544.06
459.698	502.06
459.918	507.06
460.138	514.06
460.358	533.06
460.578	540.06
460.798	546.06
461.018	538.06
461.238	530.06
461.458	523.06
461.678	516.06
461.898	513.06
462.118	533.06
462.338	544.06
462.558	542.06
462.777	579.06
462.997	590.06
463.217	607.06
463.437	623.06
463.657	594.06
463.876	585.06
464.096	579.06
464.316	552.06
464.536	566.06
464.755	578.06
464.975	548.06
465.195	610.06
465.414	672.06
465.634	589.06
465.854	540.06
466.073	490.06
466.293	513.06
466.512	492.06
466.732	475.06
466.951	472.06
467.171	451.06
467.391	481.06
467.61	498.06
467.829	482.06
468.049	499.06
468.268	497.06
468.488	478.06
468.707	463.06
468.927	460.06
469.146	453.06
469.365	455.06
469.585	470.06
469.804	472.06
470.023	469.06
470.243	485.06
470.462	488.06
470.681	500.06
470.901	489.06
471.12	515.06
471.339	499.06
471.558	504.06
471.777	472.06
471.997	482.06
472.216	478.06
472.435	508.06
472.654	485.06
472.873	469.06
473.092	466.06
473.311	466.06
473.53	467.06
473.749	487.06
473.968	532.06
474.187	609.06
474.406	637.06
474.625	515.06
474.844	490.06
475.063	487.06
475.282	478.06
475.501	471.06
475.72	475.06
475.939	477.06
476.158	508.06
476.377	488.06
476.596	481.06
476.814	499.06
477.033	523.06
477.252	499.06
477.471	532.06
477.69	528.06
477.908	542.06
478.127	540.06
478.346	535.06
478.564	555.06
478.783	556.06
479.002	551.06
479.22	549.06
479.439	575.06
479.658	593.06
479.876	571.06
480.095	594.06
480.313	629.06
480.532	605.06
480.751	601.06
480.969	578.06
481.188	606.06
481.406	621.06
481.624	591.06
481.843	582.06
482.061	562.06
482.28	553.06
482.498	579.06
482.717	534.06
482.935	571.06
483.153	550.06
483.372	565.06
483.59	553.06
483.808	539.06
484.027	553.06
484.245	567.06
484.463	543.06
484.681	571.06
484.9	559.06
485.118	582.06
485.336	561.06
485.554	583.06
485.772	557.06
485.99	560.06
486.209	605.06
486.427	568.06
486.645	593.06
486.863	602.06
487.081	602.06
487.299	595.06
487.517	587.06
487.735	573.06
487.953	577.06
488.171	589.06
488.389	578.06
488.607	597.06
488.825	610.06
489.043	613.06
489.261	596.06
489.479	613.06
489.696	605.06
489.914	582.06
490.132	610.06
490.35	631.06
490.568	612.06
490.786	633.06
491.003	633.06
491.221	647.06
491.439	647.06
491.657	649.06
491.874	651.06
492.092	675.06
492.31	685.06
492.527	712.06
492.745	680.06
492.963	687.06
493.18	698.06
493.398	689.06
493.615	668.06
493.833	703.06
494.05	689.06
494.268	686.06
494.485	690.06
494.703	683.06
494.92	710.06
495.138	680.06
495.355	700.06
495.573	713.06
495.79	705.06
496.008	699.06
496.225	712.06
496.442	692.06
496.66	687.06
496.877	694.06
497.094	701.06
497.312	742.06
497.529	747.06
497.746	747.06
497.963	774.06
498.181	742.06
498.398	798.06
498.615	815.06
498.832	819.06
499.049	881.06
499.267	903.06
499.484	965.06
499.701	973.06
499.918	1022.06
500.135	1117.06
500.352	1191.06
500.569	1202.06
500.786	1219.06
501.003	1159.06
501.22	1135.06
501.437	1080.06
501.654	998.06
501.871	987.06
