Data from 1985.PennyLincolnUp.Lamp.En5.5.200Scan.071819.P1_HRD10591_17-04-12-971.txt Node
Date: Thu Jul 18 17:04:12 EDT 2019
User: cochatt
Spectrometer: HR+D1059
Trigger mode: 1
Integration Time (sec): 1.000000E-1
Scans to average: 1
Electric dark correction enabled: true
Nonlinearity correction enabled: false
Boxcar width: 0
XAxis mode: Wavelengths
Number of Pixels in Spectrum: 2048
>>>>>Begin Spectral Data<<<<<
223.165	-16.56
223.4	-16.56
223.635	-16.56
223.869	-12.56
224.104	-19.56
224.338	-20.56
224.573	-11.56
224.808	-21.56
225.042	-2.56
225.277	7.44
225.511	-6.56
225.746	-0.56
225.98	-1.56
226.215	20.44
226.449	17.44
226.683	18.44
226.918	23.44
227.152	26.44
227.387	32.44
227.621	34.44
227.856	48.44
228.09	40.44
228.324	61.44
228.559	58.44
228.793	72.44
229.027	90.44
229.262	106.44
229.496	109.44
229.73	117.44
229.964	139.44
230.199	126.44
230.433	118.44
230.667	105.44
230.901	115.44
231.136	113.44
231.37	92.44
231.604	110.44
231.838	100.44
232.072	97.44
232.306	105.44
232.541	106.44
232.775	118.44
233.009	117.44
233.243	110.44
233.477	111.44
233.711	121.44
233.945	110.44
234.179	127.44
234.413	119.44
234.647	106.44
234.881	125.44
235.115	113.44
235.349	111.44
235.583	120.44
235.817	116.44
236.051	128.44
236.285	120.44
236.519	116.44
236.753	119.44
236.987	153.44
237.221	156.44
237.455	201.44
237.689	155.44
237.922	143.44
238.156	134.44
238.39	133.44
238.624	124.44
238.858	126.44
239.091	117.44
239.325	125.44
239.559	111.44
239.793	131.44
240.027	152.44
240.26	146.44
240.494	148.44
240.728	141.44
240.961	151.44
241.195	131.44
241.429	148.44
241.662	130.44
241.896	146.44
242.13	132.44
242.363	136.44
242.597	136.44
242.83	133.44
243.064	130.44
243.298	140.44
243.531	136.44
243.765	142.44
243.998	142.44
244.232	142.44
244.465	155.44
244.699	145.44
244.932	142.44
245.166	149.44
245.399	128.44
245.633	133.44
245.866	141.44
246.099	140.44
246.333	159.44
246.566	151.44
246.8	154.44
247.033	166.44
247.266	152.44
247.5	151.44
247.733	149.44
247.966	167.44
248.2	169.44
248.433	155.44
248.666	166.44
248.899	173.44
249.133	193.44
249.366	191.44
249.599	175.44
249.832	178.44
250.066	182.44
250.299	187.44
250.532	177.44
250.765	192.44
250.998	208.44
251.231	212.44
251.465	193.44
251.698	194.44
251.931	189.44
252.164	187.44
252.397	171.44
252.63	177.44
252.863	168.44
253.096	203.44
253.329	203.44
253.562	205.44
253.795	187.44
254.028	209.44
254.261	207.44
254.494	223.44
254.727	218.44
254.96	235.44
255.193	259.44
255.426	229.44
255.659	219.44
255.892	231.44
256.124	255.44
256.357	266.44
256.59	241.44
256.823	223.44
257.056	205.44
257.289	203.44
257.521	197.44
257.754	201.44
257.987	193.44
258.22	193.44
258.452	192.44
258.685	203.44
258.918	208.44
259.151	189.44
259.383	206.44
259.616	222.44
259.849	219.44
260.081	207.44
260.314	231.44
260.547	225.44
260.779	228.44
261.012	243.44
261.244	216.44
261.477	206.44
261.71	219.44
261.942	207.44
262.175	203.44
262.407	217.44
262.64	208.44
262.872	209.44
263.105	223.44
263.337	215.44
263.57	205.44
263.802	211.44
264.035	204.44
264.267	216.44
264.499	209.44
264.732	216.44
264.964	211.44
265.197	218.44
265.429	220.44
265.661	235.44
265.894	211.44
266.126	201.44
266.358	215.44
266.591	216.44
266.823	237.44
267.055	237.44
267.287	227.44
267.52	237.44
267.752	221.44
267.984	228.44
268.216	219.44
268.448	252.44
268.681	230.44
268.913	243.44
269.145	245.44
269.377	275.44
269.609	274.44
269.841	276.44
270.073	268.44
270.306	279.44
270.538	293.44
270.77	295.44
271.002	301.44
271.234	274.44
271.466	276.44
271.698	271.44
271.93	285.44
272.162	298.44
272.394	304.44
272.626	284.44
272.858	277.44
273.09	251.44
273.322	247.44
273.553	239.44
273.785	263.44
274.017	265.44
274.249	261.44
274.481	280.44
274.713	265.44
274.945	281.44
275.176	274.44
275.408	252.44
275.64	273.44
275.872	274.44
276.104	261.44
276.335	249.44
276.567	272.44
276.799	280.44
277.031	288.44
277.262	305.44
277.494	310.44
277.726	288.44
277.957	267.44
278.189	283.44
278.421	277.44
278.652	270.44
278.884	295.44
279.115	274.44
279.347	268.44
279.579	279.44
279.81	262.44
280.042	261.44
280.273	281.44
280.505	277.44
280.736	292.44
280.968	272.44
281.199	271.44
281.431	285.44
281.662	281.44
281.894	271.44
282.125	292.44
282.356	272.44
282.588	296.44
282.819	296.44
283.051	276.44
283.282	287.44
283.513	279.44
283.745	296.44
283.976	291.44
284.207	291.44
284.439	297.44
284.67	293.44
284.901	274.44
285.132	272.44
285.364	296.44
285.595	283.44
285.826	273.44
286.057	285.44
286.288	303.44
286.52	286.44
286.751	297.44
286.982	288.44
287.213	296.44
287.444	273.44
287.675	307.44
287.906	321.44
288.138	320.44
288.369	311.44
288.6	305.44
288.831	305.44
289.062	305.44
289.293	296.44
289.524	295.44
289.755	298.44
289.986	293.44
290.217	299.44
290.448	302.44
290.679	296.44
290.91	294.44
291.141	315.44
291.371	296.44
291.602	300.44
291.833	299.44
292.064	312.44
292.295	315.44
292.526	317.44
292.757	301.44
292.987	307.44
293.218	317.44
293.449	293.44
293.68	291.44
293.91	264.44
294.141	297.44
294.372	305.44
294.603	311.44
294.833	314.44
295.064	299.44
295.295	309.44
295.525	309.44
295.756	312.44
295.987	327.44
296.217	323.44
296.448	352.44
296.679	322.44
296.909	319.44
297.14	305.44
297.37	319.44
297.601	289.44
297.831	328.44
298.062	323.44
298.292	311.44
298.523	323.44
298.753	337.44
298.984	323.44
299.214	327.44
299.445	301.44
299.675	326.44
299.905	327.44
300.136	323.44
300.366	316.44
300.597	332.44
300.827	335.44
301.057	350.44
301.288	348.44
301.518	348.44
301.748	328.44
301.979	358.44
302.209	355.44
302.439	346.44
302.669	353.44
302.9	351.44
303.13	348.44
303.36	324.44
303.59	348.44
303.82	340.44
304.051	326.44
304.281	368.44
304.511	340.44
304.741	327.44
304.971	352.44
305.201	315.44
305.431	334.44
305.661	358.44
305.891	338.44
306.121	351.44
306.352	354.44
306.582	352.44
306.812	326.44
307.042	323.44
307.272	344.44
307.502	341.44
307.731	367.44
307.961	343.44
308.191	357.44
308.421	337.44
308.651	358.44
308.881	354.44
309.111	369.44
309.341	344.44
309.571	368.44
309.8	373.44
310.03	356.44
310.26	375.44
310.49	364.44
310.72	371.44
310.949	398.44
311.179	392.44
311.409	394.44
311.639	382.44
311.868	391.44
312.098	391.44
312.328	388.44
312.557	401.44
312.787	403.44
313.017	418.44
313.246	391.44
313.476	389.44
313.706	366.44
313.935	383.44
314.165	404.44
314.394	419.44
314.624	400.44
314.853	401.44
315.083	398.44
315.312	388.44
315.542	379.44
315.771	376.44
316.001	388.44
316.23	382.44
316.46	381.44
316.689	385.44
316.919	386.44
317.148	405.44
317.377	410.44
317.607	415.44
317.836	391.44
318.065	406.44
318.295	399.44
318.524	403.44
318.753	379.44
318.983	402.44
319.212	391.44
319.441	389.44
319.67	397.44
319.9	401.44
320.129	401.44
320.358	398.44
320.587	376.44
320.816	387.44
321.046	393.44
321.275	414.44
321.504	393.44
321.733	413.44
321.962	415.44
322.191	438.44
322.42	412.44
322.649	447.44
322.878	468.44
323.108	448.44
323.337	457.44
323.566	503.44
323.795	514.44
324.024	535.44
324.253	646.44
324.482	867.44
324.71	1267.44
324.939	1813.44
325.168	1545.44
325.397	828.44
325.626	587.44
325.855	517.44
326.084	501.44
326.313	489.44
326.542	471.44
326.77	535.44
326.999	610.44
327.228	822.44
327.457	1166.44
327.686	1383.44
327.914	931.44
328.143	666.44
328.372	577.44
328.6	565.44
328.829	541.44
329.058	573.44
329.287	572.44
329.515	551.44
329.744	537.44
329.972	521.44
330.201	536.44
330.43	585.44
330.658	587.44
330.887	570.44
331.115	557.44
331.344	529.44
331.572	487.44
331.801	515.44
332.03	483.44
332.258	491.44
332.486	490.44
332.715	460.44
332.943	486.44
333.172	501.44
333.4	508.44
333.629	511.44
333.857	535.44
334.085	539.44
334.314	568.44
334.542	592.44
334.771	603.44
334.999	542.44
335.227	507.44
335.455	487.44
335.684	496.44
335.912	463.44
336.14	472.44
336.369	459.44
336.597	487.44
336.825	491.44
337.053	464.44
337.281	447.44
337.51	468.44
337.738	459.44
337.966	441.44
338.194	453.44
338.422	464.44
338.65	450.44
338.878	451.44
339.106	440.44
339.334	450.44
339.562	447.44
339.79	423.44
340.018	424.44
340.246	452.44
340.474	435.44
340.702	463.44
340.93	438.44
341.158	419.44
341.386	432.44
341.614	418.44
341.842	467.44
342.07	431.44
342.298	427.44
342.526	437.44
342.754	431.44
342.981	419.44
343.209	439.44
343.437	431.44
343.665	456.44
343.893	481.44
344.12	467.44
344.348	457.44
344.576	460.44
344.804	445.44
345.031	438.44
345.259	447.44
345.487	444.44
345.714	442.44
345.942	446.44
346.17	423.44
346.397	431.44
346.625	419.44
346.853	425.44
347.08	413.44
347.308	410.44
347.535	422.44
347.763	443.44
347.99	432.44
348.218	431.44
348.445	425.44
348.673	421.44
348.9	416.44
349.128	393.44
349.355	397.44
349.583	414.44
349.81	415.44
350.037	422.44
350.265	417.44
350.492	412.44
350.72	407.44
350.947	401.44
351.174	400.44
351.402	424.44
351.629	408.44
351.856	392.44
352.083	430.44
352.311	442.44
352.538	430.44
352.765	437.44
352.992	424.44
353.22	423.44
353.447	412.44
353.674	402.44
353.901	415.44
354.128	388.44
354.355	402.44
354.583	410.44
354.81	390.44
355.037	389.44
355.264	394.44
355.491	375.44
355.718	391.44
355.945	391.44
356.172	394.44
356.399	395.44
356.626	395.44
356.853	390.44
357.08	376.44
357.307	385.44
357.534	398.44
357.761	391.44
357.988	405.44
358.215	387.44
358.441	373.44
358.668	382.44
358.895	396.44
359.122	391.44
359.349	407.44
359.576	406.44
359.802	402.44
360.029	427.44
360.256	423.44
360.483	446.44
360.709	413.44
360.936	430.44
361.163	407.44
361.39	414.44
361.616	415.44
361.843	404.44
362.07	403.44
362.296	413.44
362.523	415.44
362.749	387.44
362.976	398.44
363.203	407.44
363.429	390.44
363.656	391.44
363.882	407.44
364.109	399.44
364.335	397.44
364.562	413.44
364.788	400.44
365.015	392.44
365.241	403.44
365.468	427.44
365.694	401.44
365.92	404.44
366.147	396.44
366.373	411.44
366.599	395.44
366.826	380.44
367.052	403.44
367.278	393.44
367.505	380.44
367.731	377.44
367.957	393.44
368.184	398.44
368.41	403.44
368.636	405.44
368.862	412.44
369.089	408.44
369.315	375.44
369.541	391.44
369.767	412.44
369.993	388.44
370.219	392.44
370.445	389.44
370.672	401.44
370.898	406.44
371.124	406.44
371.35	407.44
371.576	408.44
371.802	430.44
372.028	413.44
372.254	403.44
372.48	369.44
372.706	405.44
372.932	391.44
373.158	425.44
373.384	402.44
373.61	403.44
373.835	389.44
374.061	414.44
374.287	407.44
374.513	396.44
374.739	415.44
374.965	435.44
375.191	417.44
375.416	411.44
375.642	422.44
375.868	408.44
376.094	431.44
376.319	412.44
376.545	373.44
376.771	377.44
376.997	419.44
377.222	398.44
377.448	399.44
377.674	403.44
377.899	399.44
378.125	376.44
378.35	414.44
378.576	382.44
378.802	381.44
379.027	394.44
379.253	383.44
379.478	393.44
379.704	402.44
379.929	390.44
380.155	396.44
380.38	395.44
380.606	390.44
380.831	391.44
381.057	392.44
381.282	399.44
381.507	411.44
381.733	392.44
381.958	400.44
382.184	412.44
382.409	392.44
382.634	421.44
382.86	423.44
383.085	427.44
383.31	429.44
383.535	407.44
383.761	437.44
383.986	412.44
384.211	427.44
384.436	437.44
384.662	435.44
384.887	447.44
385.112	420.44
385.337	447.44
385.562	443.44
385.787	438.44
386.013	454.44
386.238	439.44
386.463	439.44
386.688	448.44
386.913	438.44
387.138	447.44
387.363	430.44
387.588	429.44
387.813	455.44
388.038	436.44
388.263	430.44
388.488	433.44
388.713	450.44
388.938	439.44
389.163	443.44
389.387	443.44
389.612	445.44
389.837	423.44
390.062	435.44
390.287	450.44
390.512	437.44
390.736	423.44
390.961	454.44
391.186	453.44
391.411	451.44
391.636	472.44
391.86	479.44
392.085	454.44
392.31	447.44
392.534	454.44
392.759	442.44
392.984	453.44
393.208	431.44
393.433	423.44
393.658	439.44
393.882	431.44
394.107	455.44
394.331	448.44
394.556	449.44
394.78	439.44
395.005	433.44
395.229	444.44
395.454	473.44
395.678	457.44
395.903	484.44
396.127	484.44
396.352	481.44
396.576	480.44
396.801	457.44
397.025	465.44
397.249	452.44
397.474	473.44
397.698	489.44
397.922	473.44
398.147	477.44
398.371	506.44
398.595	503.44
398.82	510.44
399.044	525.44
399.268	547.44
399.492	583.44
399.717	633.44
399.941	638.44
400.165	638.44
400.389	640.44
400.613	570.44
400.837	538.44
401.062	513.44
401.286	518.44
401.51	520.44
401.734	505.44
401.958	496.44
402.182	494.44
402.406	523.44
402.63	533.44
402.854	525.44
403.078	524.44
403.302	558.44
403.526	543.44
403.75	522.44
403.974	545.44
404.198	550.44
404.422	535.44
404.645	541.44
404.869	556.44
405.093	561.44
405.317	640.44
405.541	657.44
405.765	587.44
405.988	565.44
406.212	555.44
406.436	566.44
406.66	575.44
406.883	567.44
407.107	610.44
407.331	633.44
407.555	707.44
407.778	655.44
408.002	630.44
408.226	598.44
408.449	584.44
408.673	582.44
408.896	584.44
409.12	607.44
409.344	615.44
409.567	560.44
409.791	546.44
410.014	528.44
410.238	514.44
410.461	521.44
410.685	536.44
410.908	543.44
411.132	550.44
411.355	585.44
411.578	565.44
411.802	517.44
412.025	517.44
412.249	527.44
412.472	555.44
412.695	596.44
412.919	588.44
413.142	557.44
413.365	531.44
413.589	519.44
413.812	487.44
414.035	491.44
414.258	492.44
414.482	491.44
414.705	497.44
414.928	488.44
415.151	510.44
415.374	494.44
415.597	480.44
415.821	469.44
416.044	507.44
416.267	502.44
416.49	478.44
416.713	517.44
416.936	507.44
417.159	508.44
417.382	479.44
417.605	495.44
417.828	508.44
418.051	500.44
418.274	519.44
418.497	480.44
418.72	489.44
418.943	505.44
419.166	525.44
419.389	534.44
419.611	534.44
419.834	543.44
420.057	529.44
420.28	542.44
420.503	537.44
420.726	530.44
420.948	545.44
421.171	544.44
421.394	568.44
421.617	525.44
421.839	483.44
422.062	511.44
422.285	506.44
422.507	557.44
422.73	634.44
422.953	587.44
423.175	544.44
423.398	535.44
423.621	524.44
423.843	541.44
424.066	544.44
424.288	545.44
424.511	538.44
424.733	569.44
424.956	633.44
425.178	620.44
425.401	609.44
425.623	623.44
425.846	544.44
426.068	540.44
426.291	547.44
426.513	547.44
426.735	530.44
426.958	558.44
427.18	637.44
427.402	749.44
427.625	835.44
427.847	703.44
428.069	612.44
428.292	563.44
428.514	537.44
428.736	500.44
428.958	499.44
429.181	492.44
429.403	482.44
429.625	500.44
429.847	517.44
430.069	575.44
430.292	553.44
430.514	501.44
430.736	471.44
430.958	481.44
431.18	478.44
431.402	472.44
431.624	442.44
431.846	470.44
432.068	469.44
432.29	470.44
432.512	476.44
432.734	472.44
432.956	471.44
433.178	476.44
433.4	471.44
433.622	482.44
433.844	482.44
434.066	461.44
434.287	451.44
434.509	461.44
434.731	495.44
434.953	490.44
435.175	512.44
435.397	530.44
435.618	538.44
435.84	550.44
436.062	631.44
436.284	677.44
436.505	584.44
436.727	519.44
436.949	508.44
437.17	511.44
437.392	477.44
437.614	489.44
437.835	516.44
438.057	576.44
438.278	688.44
438.5	678.44
438.721	740.44
438.943	719.44
439.165	553.44
439.386	531.44
439.608	501.44
439.829	523.44
440.05	532.44
440.272	580.44
440.493	547.44
440.715	503.44
440.936	480.44
441.158	514.44
441.379	515.44
441.6	526.44
441.822	549.44
442.043	547.44
442.264	616.44
442.486	629.44
442.707	566.44
442.928	523.44
443.149	511.44
443.371	557.44
443.592	570.44
443.813	659.44
444.034	710.44
444.255	595.44
444.476	530.44
444.698	552.44
444.919	574.44
445.14	675.44
445.361	618.44
445.582	571.44
445.803	621.44
446.024	701.44
446.245	693.44
446.466	644.44
446.687	552.44
446.908	495.44
447.129	496.44
447.35	489.44
447.571	492.44
447.792	474.44
448.013	477.44
448.234	502.44
448.455	523.44
448.675	624.44
448.896	716.44
449.117	604.44
449.338	592.44
449.559	668.44
449.779	761.44
450	616.44
450.221	519.44
450.442	505.44
450.662	454.44
450.883	467.44
451.104	496.44
451.324	459.44
451.545	452.44
451.766	463.44
451.986	444.44
452.207	447.44
452.428	421.44
452.648	439.44
452.869	448.44
453.089	465.44
453.31	463.44
453.53	448.44
453.751	441.44
453.971	427.44
454.192	447.44
454.412	449.44
454.633	431.44
454.853	417.44
455.073	433.44
455.294	459.44
455.514	485.44
455.734	464.44
455.955	430.44
456.175	416.44
456.395	411.44
456.616	423.44
456.836	406.44
457.056	415.44
457.276	392.44
457.497	433.44
457.717	419.44
457.937	419.44
458.157	415.44
458.377	443.44
458.598	430.44
458.818	484.44
459.038	558.44
459.258	554.44
459.478	504.44
459.698	467.44
459.918	489.44
460.138	467.44
460.358	496.44
460.578	519.44
460.798	505.44
461.018	485.44
461.238	501.44
461.458	500.44
461.678	503.44
461.898	486.44
462.118	501.44
462.338	526.44
462.558	544.44
462.777	534.44
462.997	543.44
463.217	567.44
463.437	573.44
463.657	541.44
463.876	545.44
464.096	542.44
464.316	561.44
464.536	544.44
464.755	525.44
464.975	532.44
465.195	571.44
465.414	619.44
465.634	525.44
465.854	473.44
466.073	490.44
466.293	472.44
466.512	459.44
466.732	455.44
466.951	478.44
467.171	440.44
467.391	447.44
467.61	457.44
467.829	481.44
468.049	466.44
468.268	470.44
468.488	451.44
468.707	426.44
468.927	448.44
469.146	442.44
469.365	439.44
469.585	444.44
469.804	441.44
470.023	470.44
470.243	434.44
470.462	454.44
470.681	466.44
470.901	477.44
471.12	462.44
471.339	462.44
471.558	443.44
471.777	447.44
471.997	447.44
472.216	459.44
472.435	487.44
472.654	481.44
472.873	466.44
473.092	445.44
473.311	443.44
473.53	464.44
473.749	470.44
473.968	475.44
474.187	567.44
474.406	572.44
474.625	489.44
474.844	469.44
475.063	455.44
475.282	449.44
475.501	456.44
475.72	464.44
475.939	465.44
476.158	453.44
476.377	465.44
476.596	468.44
476.814	475.44
477.033	470.44
477.252	475.44
477.471	497.44
477.69	494.44
477.908	513.44
478.127	526.44
478.346	515.44
478.564	524.44
478.783	517.44
479.002	523.44
479.22	513.44
479.439	558.44
479.658	558.44
479.876	544.44
480.095	563.44
480.313	589.44
480.532	585.44
480.751	589.44
480.969	592.44
481.188	648.44
481.406	685.44
481.624	607.44
481.843	570.44
482.061	527.44
482.28	526.44
482.498	535.44
482.717	529.44
482.935	507.44
483.153	525.44
483.372	543.44
483.59	523.44
483.808	528.44
484.027	531.44
484.245	518.44
484.463	533.44
484.681	539.44
484.9	531.44
485.118	533.44
485.336	548.44
485.554	551.44
485.772	545.44
485.99	549.44
486.209	551.44
486.427	543.44
486.645	560.44
486.863	568.44
487.081	571.44
487.299	557.44
487.517	585.44
487.735	574.44
487.953	559.44
488.171	565.44
488.389	540.44
488.607	555.44
488.825	561.44
489.043	559.44
489.261	570.44
489.479	565.44
489.696	563.44
489.914	554.44
490.132	571.44
490.35	591.44
490.568	581.44
490.786	595.44
491.003	602.44
491.221	637.44
491.439	631.44
491.657	628.44
491.874	647.44
492.092	638.44
492.31	649.44
492.527	652.44
492.745	642.44
492.963	669.44
493.18	672.44
493.398	688.44
493.615	681.44
493.833	663.44
494.05	669.44
494.268	650.44
494.485	671.44
494.703	663.44
494.92	650.44
495.138	676.44
495.355	647.44
495.573	658.44
495.79	669.44
496.008	667.44
496.225	661.44
496.442	667.44
496.66	672.44
496.877	648.44
497.094	668.44
497.312	671.44
497.529	690.44
497.746	704.44
497.963	702.44
498.181	752.44
498.398	718.44
498.615	759.44
498.832	800.44
499.049	811.44
499.267	816.44
499.484	855.44
499.701	908.44
499.918	978.44
500.135	1031.44
500.352	1091.44
500.569	1132.44
500.786	1108.44
501.003	1059.44
501.22	1042.44
501.437	987.44
501.654	958.44
501.871	919.44
