Data from 1985.PennyLincolnUp.Lamp.En5.5.200Scan.071819.P1_HRD10591_17-01-17-969.txt Node
Date: Thu Jul 18 17:01:17 EDT 2019
User: cochatt
Spectrometer: HR+D1059
Trigger mode: 1
Integration Time (sec): 1.000000E-1
Scans to average: 1
Electric dark correction enabled: true
Nonlinearity correction enabled: false
Boxcar width: 0
XAxis mode: Wavelengths
Number of Pixels in Spectrum: 2048
>>>>>Begin Spectral Data<<<<<
223.165	-6.56
223.4	-6.56
223.635	-6.56
223.869	-12.56
224.104	-21.56
224.338	-17.56
224.573	-7.56
224.808	-12.56
225.042	-14.56
225.277	5.44
225.511	17.44
225.746	-6.56
225.98	-10.56
226.215	9.44
226.449	18.44
226.683	17.44
226.918	11.44
227.152	30.44
227.387	31.44
227.621	48.44
227.856	34.44
228.09	45.44
228.324	37.44
228.559	54.44
228.793	55.44
229.027	86.44
229.262	88.44
229.496	97.44
229.73	110.44
229.964	112.44
230.199	122.44
230.433	91.44
230.667	109.44
230.901	105.44
231.136	114.44
231.37	117.44
231.604	108.44
231.838	99.44
232.072	108.44
232.306	102.44
232.541	122.44
232.775	98.44
233.009	101.44
233.243	106.44
233.477	110.44
233.711	121.44
233.945	117.44
234.179	103.44
234.413	104.44
234.647	114.44
234.881	109.44
235.115	118.44
235.349	108.44
235.583	98.44
235.817	101.44
236.051	123.44
236.285	119.44
236.519	124.44
236.753	111.44
236.987	124.44
237.221	149.44
237.455	178.44
237.689	155.44
237.922	132.44
238.156	131.44
238.39	117.44
238.624	121.44
238.858	120.44
239.091	125.44
239.325	116.44
239.559	119.44
239.793	119.44
240.027	124.44
240.26	126.44
240.494	130.44
240.728	133.44
240.961	119.44
241.195	135.44
241.429	125.44
241.662	133.44
241.896	117.44
242.13	130.44
242.363	126.44
242.597	140.44
242.83	125.44
243.064	127.44
243.298	131.44
243.531	129.44
243.765	133.44
243.998	134.44
244.232	150.44
244.465	135.44
244.699	134.44
244.932	134.44
245.166	132.44
245.399	131.44
245.633	148.44
245.866	151.44
246.099	132.44
246.333	147.44
246.566	153.44
246.8	150.44
247.033	155.44
247.266	159.44
247.5	146.44
247.733	161.44
247.966	166.44
248.2	173.44
248.433	165.44
248.666	154.44
248.899	164.44
249.133	175.44
249.366	180.44
249.599	177.44
249.832	163.44
250.066	151.44
250.299	177.44
250.532	161.44
250.765	174.44
250.998	192.44
251.231	185.44
251.465	167.44
251.698	190.44
251.931	185.44
252.164	159.44
252.397	183.44
252.63	188.44
252.863	179.44
253.096	211.44
253.329	211.44
253.562	197.44
253.795	178.44
254.028	180.44
254.261	189.44
254.494	190.44
254.727	218.44
254.96	221.44
255.193	224.44
255.426	202.44
255.659	191.44
255.892	205.44
256.124	198.44
256.357	195.44
256.59	196.44
256.823	187.44
257.056	190.44
257.289	186.44
257.521	177.44
257.754	186.44
257.987	174.44
258.22	195.44
258.452	195.44
258.685	210.44
258.918	203.44
259.151	193.44
259.383	199.44
259.616	209.44
259.849	193.44
260.081	208.44
260.314	205.44
260.547	222.44
260.779	203.44
261.012	215.44
261.244	204.44
261.477	214.44
261.71	213.44
261.942	213.44
262.175	223.44
262.407	220.44
262.64	214.44
262.872	184.44
263.105	205.44
263.337	210.44
263.57	214.44
263.802	213.44
264.035	223.44
264.267	202.44
264.499	215.44
264.732	204.44
264.964	213.44
265.197	215.44
265.429	201.44
265.661	201.44
265.894	212.44
266.126	202.44
266.358	211.44
266.591	231.44
266.823	204.44
267.055	219.44
267.287	215.44
267.52	215.44
267.752	203.44
267.984	217.44
268.216	223.44
268.448	215.44
268.681	236.44
268.913	232.44
269.145	240.44
269.377	244.44
269.609	237.44
269.841	231.44
270.073	273.44
270.306	257.44
270.538	251.44
270.77	269.44
271.002	272.44
271.234	255.44
271.466	270.44
271.698	277.44
271.93	270.44
272.162	261.44
272.394	291.44
272.626	275.44
272.858	262.44
273.09	275.44
273.322	263.44
273.553	237.44
273.785	263.44
274.017	255.44
274.249	241.44
274.481	247.44
274.713	241.44
274.945	253.44
275.176	257.44
275.408	233.44
275.64	285.44
275.872	250.44
276.104	257.44
276.335	243.44
276.567	252.44
276.799	270.44
277.031	271.44
277.262	298.44
277.494	282.44
277.726	284.44
277.957	280.44
278.189	270.44
278.421	249.44
278.652	254.44
278.884	257.44
279.115	277.44
279.347	256.44
279.579	271.44
279.81	276.44
280.042	265.44
280.273	274.44
280.505	269.44
280.736	260.44
280.968	265.44
281.199	272.44
281.431	275.44
281.662	285.44
281.894	293.44
282.125	269.44
282.356	292.44
282.588	299.44
282.819	281.44
283.051	275.44
283.282	278.44
283.513	261.44
283.745	270.44
283.976	276.44
284.207	281.44
284.439	283.44
284.67	285.44
284.901	279.44
285.132	281.44
285.364	286.44
285.595	286.44
285.826	293.44
286.057	283.44
286.288	286.44
286.52	276.44
286.751	281.44
286.982	301.44
287.213	280.44
287.444	295.44
287.675	303.44
287.906	308.44
288.138	301.44
288.369	297.44
288.6	308.44
288.831	289.44
289.062	314.44
289.293	293.44
289.524	311.44
289.755	297.44
289.986	298.44
290.217	286.44
290.448	291.44
290.679	309.44
290.91	281.44
291.141	301.44
291.371	294.44
291.602	297.44
291.833	298.44
292.064	303.44
292.295	293.44
292.526	309.44
292.757	312.44
292.987	293.44
293.218	302.44
293.449	330.44
293.68	329.44
293.91	306.44
294.141	298.44
294.372	298.44
294.603	291.44
294.833	303.44
295.064	300.44
295.295	298.44
295.525	321.44
295.756	317.44
295.987	318.44
296.217	317.44
296.448	328.44
296.679	298.44
296.909	307.44
297.14	300.44
297.37	295.44
297.601	338.44
297.831	319.44
298.062	305.44
298.292	322.44
298.523	324.44
298.753	340.44
298.984	327.44
299.214	327.44
299.445	311.44
299.675	324.44
299.905	324.44
300.136	321.44
300.366	324.44
300.597	321.44
300.827	322.44
301.057	339.44
301.288	345.44
301.518	331.44
301.748	339.44
301.979	339.44
302.209	329.44
302.439	347.44
302.669	338.44
302.9	345.44
303.13	340.44
303.36	346.44
303.59	351.44
303.82	366.44
304.051	329.44
304.281	339.44
304.511	339.44
304.741	329.44
304.971	337.44
305.201	341.44
305.431	351.44
305.661	341.44
305.891	339.44
306.121	361.44
306.352	335.44
306.582	334.44
306.812	331.44
307.042	338.44
307.272	335.44
307.502	341.44
307.731	353.44
307.961	350.44
308.191	335.44
308.421	333.44
308.651	329.44
308.881	344.44
309.111	352.44
309.341	343.44
309.571	343.44
309.8	376.44
310.03	359.44
310.26	371.44
310.49	369.44
310.72	356.44
310.949	379.44
311.179	375.44
311.409	371.44
311.639	346.44
311.868	373.44
312.098	377.44
312.328	373.44
312.557	383.44
312.787	382.44
313.017	384.44
313.246	375.44
313.476	370.44
313.706	351.44
313.935	373.44
314.165	383.44
314.394	402.44
314.624	398.44
314.853	382.44
315.083	377.44
315.312	380.44
315.542	374.44
315.771	378.44
316.001	380.44
316.23	378.44
316.46	371.44
316.689	366.44
316.919	373.44
317.148	384.44
317.377	382.44
317.607	384.44
317.836	387.44
318.065	379.44
318.295	369.44
318.524	363.44
318.753	372.44
318.983	377.44
319.212	377.44
319.441	381.44
319.67	394.44
319.9	385.44
320.129	389.44
320.358	374.44
320.587	386.44
320.816	400.44
321.046	385.44
321.275	393.44
321.504	374.44
321.733	412.44
321.962	401.44
322.191	406.44
322.42	401.44
322.649	412.44
322.878	402.44
323.108	417.44
323.337	408.44
323.566	445.44
323.795	442.44
324.024	464.44
324.253	519.44
324.482	654.44
324.71	947.44
324.939	1296.44
325.168	1135.44
325.397	653.44
325.626	492.44
325.855	446.44
326.084	438.44
326.313	445.44
326.542	448.44
326.77	469.44
326.999	524.44
327.228	615.44
327.457	859.44
327.686	990.44
327.914	693.44
328.143	541.44
328.372	464.44
328.6	476.44
328.829	446.44
329.058	474.44
329.287	487.44
329.515	466.44
329.744	431.44
329.972	442.44
330.201	441.44
330.43	456.44
330.658	466.44
330.887	474.44
331.115	482.44
331.344	459.44
331.572	439.44
331.801	430.44
332.03	443.44
332.258	448.44
332.486	462.44
332.715	463.44
332.943	451.44
333.172	454.44
333.4	478.44
333.629	465.44
333.857	492.44
334.085	465.44
334.314	490.44
334.542	464.44
334.771	481.44
334.999	509.44
335.227	461.44
335.455	446.44
335.684	461.44
335.912	463.44
336.14	449.44
336.369	467.44
336.597	446.44
336.825	467.44
337.053	447.44
337.281	442.44
337.51	431.44
337.738	439.44
337.966	447.44
338.194	446.44
338.422	440.44
338.65	444.44
338.878	436.44
339.106	446.44
339.334	446.44
339.562	422.44
339.79	420.44
340.018	422.44
340.246	425.44
340.474	415.44
340.702	409.44
340.93	428.44
341.158	424.44
341.386	413.44
341.614	399.44
341.842	430.44
342.07	411.44
342.298	415.44
342.526	419.44
342.754	412.44
342.981	445.44
343.209	419.44
343.437	446.44
343.665	429.44
343.893	453.44
344.12	463.44
344.348	449.44
344.576	457.44
344.804	442.44
345.031	443.44
345.259	456.44
345.487	407.44
345.714	423.44
345.942	413.44
346.17	412.44
346.397	405.44
346.625	410.44
346.853	425.44
347.08	403.44
347.308	406.44
347.535	406.44
347.763	404.44
347.99	419.44
348.218	412.44
348.445	400.44
348.673	426.44
348.9	428.44
349.128	399.44
349.355	389.44
349.583	396.44
349.81	394.44
350.037	382.44
350.265	416.44
350.492	404.44
350.72	386.44
350.947	410.44
351.174	400.44
351.402	385.44
351.629	382.44
351.856	409.44
352.083	394.44
352.311	403.44
352.538	396.44
352.765	403.44
352.992	412.44
353.22	381.44
353.447	387.44
353.674	394.44
353.901	399.44
354.128	387.44
354.355	391.44
354.583	390.44
354.81	385.44
355.037	389.44
355.264	384.44
355.491	398.44
355.718	380.44
355.945	384.44
356.172	412.44
356.399	373.44
356.626	389.44
356.853	394.44
357.08	393.44
357.307	405.44
357.534	371.44
357.761	387.44
357.988	396.44
358.215	381.44
358.441	389.44
358.668	407.44
358.895	382.44
359.122	396.44
359.349	385.44
359.576	404.44
359.802	409.44
360.029	417.44
360.256	421.44
360.483	398.44
360.709	404.44
360.936	389.44
361.163	406.44
361.39	397.44
361.616	401.44
361.843	381.44
362.07	392.44
362.296	409.44
362.523	385.44
362.749	392.44
362.976	392.44
363.203	390.44
363.429	378.44
363.656	379.44
363.882	388.44
364.109	383.44
364.335	389.44
364.562	389.44
364.788	391.44
365.015	399.44
365.241	375.44
365.468	384.44
365.694	391.44
365.92	397.44
366.147	382.44
366.373	376.44
366.599	382.44
366.826	379.44
367.052	386.44
367.278	369.44
367.505	376.44
367.731	381.44
367.957	400.44
368.184	393.44
368.41	393.44
368.636	411.44
368.862	407.44
369.089	400.44
369.315	399.44
369.541	405.44
369.767	387.44
369.993	410.44
370.219	393.44
370.445	383.44
370.672	391.44
370.898	408.44
371.124	405.44
371.35	405.44
371.576	391.44
371.802	402.44
372.028	403.44
372.254	385.44
372.48	413.44
372.706	395.44
372.932	400.44
373.158	403.44
373.384	413.44
373.61	390.44
373.835	389.44
374.061	390.44
374.287	397.44
374.513	409.44
374.739	406.44
374.965	396.44
375.191	421.44
375.416	431.44
375.642	416.44
375.868	387.44
376.094	400.44
376.319	385.44
376.545	390.44
376.771	403.44
376.997	374.44
377.222	396.44
377.448	385.44
377.674	403.44
377.899	392.44
378.125	396.44
378.35	382.44
378.576	390.44
378.802	374.44
379.027	369.44
379.253	386.44
379.478	376.44
379.704	410.44
379.929	393.44
380.155	365.44
380.38	381.44
380.606	391.44
380.831	402.44
381.057	399.44
381.282	405.44
381.507	395.44
381.733	405.44
381.958	407.44
382.184	417.44
382.409	397.44
382.634	417.44
382.86	414.44
383.085	422.44
383.31	418.44
383.535	408.44
383.761	416.44
383.986	423.44
384.211	427.44
384.436	440.44
384.662	421.44
384.887	441.44
385.112	446.44
385.337	457.44
385.562	430.44
385.787	444.44
386.013	461.44
386.238	448.44
386.463	457.44
386.688	453.44
386.913	425.44
387.138	444.44
387.363	449.44
387.588	424.44
387.813	455.44
388.038	438.44
388.263	450.44
388.488	429.44
388.713	456.44
388.938	433.44
389.163	437.44
389.387	417.44
389.612	427.44
389.837	455.44
390.062	407.44
390.287	426.44
390.512	440.44
390.736	429.44
390.961	456.44
391.186	455.44
391.411	449.44
391.636	457.44
391.86	469.44
392.085	462.44
392.31	446.44
392.534	466.44
392.759	451.44
392.984	456.44
393.208	451.44
393.433	463.44
393.658	468.44
393.882	436.44
394.107	438.44
394.331	456.44
394.556	469.44
394.78	453.44
395.005	460.44
395.229	441.44
395.454	487.44
395.678	453.44
395.903	487.44
396.127	467.44
396.352	482.44
396.576	474.44
396.801	470.44
397.025	451.44
397.249	467.44
397.474	498.44
397.698	491.44
397.922	510.44
398.147	517.44
398.371	485.44
398.595	501.44
398.82	515.44
399.044	551.44
399.268	555.44
399.492	587.44
399.717	657.44
399.941	661.44
400.165	654.44
400.389	611.44
400.613	583.44
400.837	548.44
401.062	533.44
401.286	520.44
401.51	529.44
401.734	514.44
401.958	533.44
402.182	530.44
402.406	526.44
402.63	515.44
402.854	510.44
403.078	536.44
403.302	531.44
403.526	537.44
403.75	538.44
403.974	534.44
404.198	545.44
404.422	561.44
404.645	532.44
404.869	523.44
405.093	529.44
405.317	550.44
405.541	579.44
405.765	566.44
405.988	522.44
406.212	556.44
406.436	554.44
406.66	589.44
406.883	551.44
407.107	604.44
407.331	622.44
407.555	695.44
407.778	650.44
408.002	619.44
408.226	580.44
408.449	595.44
408.673	583.44
408.896	585.44
409.12	598.44
409.344	603.44
409.567	547.44
409.791	545.44
410.014	509.44
410.238	532.44
410.461	533.44
410.685	534.44
410.908	536.44
411.132	554.44
411.355	581.44
411.578	558.44
411.802	505.44
412.025	514.44
412.249	506.44
412.472	522.44
412.695	513.44
412.919	528.44
413.142	511.44
413.365	498.44
413.589	490.44
413.812	528.44
414.035	483.44
414.258	497.44
414.482	497.44
414.705	508.44
414.928	499.44
415.151	493.44
415.374	491.44
415.597	481.44
415.821	501.44
416.044	482.44
416.267	489.44
416.49	495.44
416.713	474.44
416.936	480.44
417.159	498.44
417.382	521.44
417.605	500.44
417.828	492.44
418.051	508.44
418.274	523.44
418.497	492.44
418.72	502.44
418.943	490.44
419.166	523.44
419.389	564.44
419.611	537.44
419.834	511.44
420.057	507.44
420.28	495.44
420.503	502.44
420.726	490.44
420.948	529.44
421.171	535.44
421.394	562.44
421.617	515.44
421.839	487.44
422.062	501.44
422.285	528.44
422.507	537.44
422.73	587.44
422.953	588.44
423.175	540.44
423.398	520.44
423.621	524.44
423.843	526.44
424.066	543.44
424.288	519.44
424.511	554.44
424.733	591.44
424.956	666.44
425.178	616.44
425.401	603.44
425.623	612.44
425.846	574.44
426.068	516.44
426.291	502.44
426.513	524.44
426.735	530.44
426.958	527.44
427.18	576.44
427.402	702.44
427.625	755.44
427.847	634.44
428.069	554.44
428.292	531.44
428.514	500.44
428.736	487.44
428.958	497.44
429.181	477.44
429.403	468.44
429.625	491.44
429.847	515.44
430.069	560.44
430.292	537.44
430.514	495.44
430.736	477.44
430.958	475.44
431.18	469.44
431.402	464.44
431.624	460.44
431.846	468.44
432.068	478.44
432.29	470.44
432.512	457.44
432.734	467.44
432.956	446.44
433.178	476.44
433.4	475.44
433.622	458.44
433.844	454.44
434.066	487.44
434.287	484.44
434.509	454.44
434.731	486.44
434.953	482.44
435.175	534.44
435.397	510.44
435.618	502.44
435.84	556.44
436.062	595.44
436.284	662.44
436.505	563.44
436.727	500.44
436.949	485.44
437.17	478.44
437.392	452.44
437.614	478.44
437.835	469.44
438.057	569.44
438.278	597.44
438.5	658.44
438.721	680.44
438.943	643.44
439.165	539.44
439.386	506.44
439.608	505.44
439.829	517.44
440.05	534.44
440.272	542.44
440.493	514.44
440.715	486.44
440.936	489.44
441.158	499.44
441.379	490.44
441.6	527.44
441.822	537.44
442.043	544.44
442.264	604.44
442.486	633.44
442.707	541.44
442.928	541.44
443.149	523.44
443.371	559.44
443.592	600.44
443.813	647.44
444.034	701.44
444.255	607.44
444.476	554.44
444.698	550.44
444.919	568.44
445.14	663.44
445.361	591.44
445.582	561.44
445.803	591.44
446.024	648.44
446.245	630.44
446.466	580.44
446.687	516.44
446.908	505.44
447.129	492.44
447.35	467.44
447.571	464.44
447.792	461.44
448.013	463.44
448.234	476.44
448.455	509.44
448.675	598.44
448.896	668.44
449.117	595.44
449.338	534.44
449.559	640.44
449.779	691.44
450	581.44
450.221	497.44
450.442	474.44
450.662	457.44
450.883	457.44
451.104	464.44
451.324	437.44
451.545	442.44
451.766	446.44
451.986	394.44
452.207	411.44
452.428	418.44
452.648	429.44
452.869	426.44
453.089	439.44
453.31	447.44
453.53	427.44
453.751	426.44
453.971	408.44
454.192	440.44
454.412	420.44
454.633	406.44
454.853	412.44
455.073	409.44
455.294	429.44
455.514	494.44
455.734	449.44
455.955	437.44
456.175	412.44
456.395	408.44
456.616	389.44
456.836	407.44
457.056	406.44
457.276	404.44
457.497	399.44
457.717	423.44
457.937	411.44
458.157	421.44
458.377	427.44
458.598	428.44
458.818	490.44
459.038	504.44
459.258	539.44
459.478	505.44
459.698	475.44
459.918	473.44
460.138	497.44
460.358	478.44
460.578	477.44
460.798	507.44
461.018	487.44
461.238	485.44
461.458	507.44
461.678	502.44
461.898	493.44
462.118	509.44
462.338	533.44
462.558	541.44
462.777	549.44
462.997	564.44
463.217	591.44
463.437	580.44
463.657	568.44
463.876	541.44
464.096	566.44
464.316	526.44
464.536	568.44
464.755	536.44
464.975	546.44
465.195	539.44
465.414	554.44
465.634	513.44
465.854	497.44
466.073	485.44
466.293	464.44
466.512	459.44
466.732	436.44
466.951	457.44
467.171	429.44
467.391	440.44
467.61	447.44
467.829	448.44
468.049	444.44
468.268	435.44
468.488	436.44
468.707	426.44
468.927	451.44
469.146	451.44
469.365	448.44
469.585	441.44
469.804	443.44
470.023	479.44
470.243	477.44
470.462	472.44
470.681	463.44
470.901	467.44
471.12	440.44
471.339	460.44
471.558	447.44
471.777	463.44
471.997	455.44
472.216	441.44
472.435	446.44
472.654	450.44
472.873	454.44
473.092	445.44
473.311	463.44
473.53	453.44
473.749	455.44
473.968	490.44
474.187	533.44
474.406	533.44
474.625	457.44
474.844	461.44
475.063	441.44
475.282	458.44
475.501	447.44
475.72	478.44
475.939	457.44
476.158	453.44
476.377	473.44
476.596	436.44
476.814	473.44
477.033	478.44
477.252	482.44
477.471	478.44
477.69	495.44
477.908	480.44
478.127	489.44
478.346	505.44
478.564	472.44
478.783	513.44
479.002	518.44
479.22	527.44
479.439	506.44
479.658	519.44
479.876	545.44
480.095	535.44
480.313	567.44
480.532	558.44
480.751	569.44
480.969	551.44
481.188	550.44
481.406	551.44
481.624	513.44
481.843	524.44
482.061	490.44
482.28	521.44
482.498	510.44
482.717	501.44
482.935	541.44
483.153	530.44
483.372	511.44
483.59	503.44
483.808	505.44
484.027	507.44
484.245	527.44
484.463	527.44
484.681	554.44
484.9	554.44
485.118	517.44
485.336	519.44
485.554	527.44
485.772	520.44
485.99	549.44
486.209	550.44
486.427	532.44
486.645	545.44
486.863	578.44
487.081	544.44
487.299	539.44
487.517	538.44
487.735	541.44
487.953	550.44
488.171	550.44
488.389	543.44
488.607	534.44
488.825	542.44
489.043	531.44
489.261	556.44
489.479	553.44
489.696	584.44
489.914	579.44
490.132	550.44
490.35	537.44
490.568	557.44
490.786	589.44
491.003	600.44
491.221	593.44
491.439	583.44
491.657	576.44
491.874	610.44
492.092	595.44
492.31	603.44
492.527	589.44
492.745	610.44
492.963	630.44
493.18	625.44
493.398	639.44
493.615	621.44
493.833	618.44
494.05	615.44
494.268	611.44
494.485	612.44
494.703	630.44
494.92	628.44
495.138	622.44
495.355	615.44
495.573	663.44
495.79	622.44
496.008	617.44
496.225	637.44
496.442	641.44
496.66	646.44
496.877	651.44
497.094	653.44
497.312	650.44
497.529	677.44
497.746	666.44
497.963	701.44
498.181	711.44
498.398	743.44
498.615	739.44
498.832	781.44
499.049	797.44
499.267	837.44
499.484	878.44
499.701	937.44
499.918	994.44
500.135	1058.44
500.352	1112.44
500.569	1158.44
500.786	1139.44
501.003	1117.44
501.22	1045.44
501.437	990.44
501.654	912.44
501.871	895.44
502.088	867.44
