Data from 1985.PennyLincolnUp.Lamp.En5.5.200Scan.071819.P1_HRD10591_17-03-00-971.txt Node
Date: Thu Jul 18 17:03:00 EDT 2019
User: cochatt
Spectrometer: HR+D1059
Trigger mode: 1
Integration Time (sec): 1.000000E-1
Scans to average: 1
Electric dark correction enabled: true
Nonlinearity correction enabled: false
Boxcar width: 0
XAxis mode: Wavelengths
Number of Pixels in Spectrum: 2048
>>>>>Begin Spectral Data<<<<<
223.165	-24.56
223.4	-24.56
223.635	-24.56
223.869	-5.56
224.104	-19.56
224.338	-12.56
224.573	-7.56
224.808	4.44
225.042	-8.56
225.277	-18.56
225.511	-6.56
225.746	-8.56
225.98	5.44
226.215	15.44
226.449	23.44
226.683	18.44
226.918	16.44
227.152	28.44
227.387	35.44
227.621	33.44
227.856	52.44
228.09	43.44
228.324	49.44
228.559	64.44
228.793	70.44
229.027	89.44
229.262	105.44
229.496	107.44
229.73	133.44
229.964	145.44
230.199	127.44
230.433	120.44
230.667	111.44
230.901	126.44
231.136	119.44
231.37	108.44
231.604	115.44
231.838	113.44
232.072	111.44
232.306	105.44
232.541	110.44
232.775	122.44
233.009	121.44
233.243	112.44
233.477	107.44
233.711	127.44
233.945	129.44
234.179	120.44
234.413	124.44
234.647	121.44
234.881	137.44
235.115	128.44
235.349	128.44
235.583	109.44
235.817	127.44
236.051	133.44
236.285	129.44
236.519	125.44
236.753	123.44
236.987	143.44
237.221	162.44
237.455	214.44
237.689	172.44
237.922	141.44
238.156	145.44
238.39	133.44
238.624	130.44
238.858	114.44
239.091	113.44
239.325	129.44
239.559	136.44
239.793	126.44
240.027	133.44
240.26	128.44
240.494	140.44
240.728	148.44
240.961	158.44
241.195	149.44
241.429	155.44
241.662	129.44
241.896	135.44
242.13	126.44
242.363	142.44
242.597	139.44
242.83	131.44
243.064	141.44
243.298	133.44
243.531	152.44
243.765	145.44
243.998	139.44
244.232	138.44
244.465	135.44
244.699	149.44
244.932	147.44
245.166	145.44
245.399	154.44
245.633	135.44
245.866	161.44
246.099	144.44
246.333	148.44
246.566	162.44
246.8	147.44
247.033	171.44
247.266	168.44
247.5	172.44
247.733	172.44
247.966	174.44
248.2	189.44
248.433	169.44
248.666	190.44
248.899	183.44
249.133	190.44
249.366	214.44
249.599	186.44
249.832	180.44
250.066	183.44
250.299	185.44
250.532	181.44
250.765	208.44
250.998	231.44
251.231	212.44
251.465	205.44
251.698	219.44
251.931	194.44
252.164	206.44
252.397	200.44
252.63	187.44
252.863	204.44
253.096	215.44
253.329	215.44
253.562	223.44
253.795	205.44
254.028	223.44
254.261	227.44
254.494	223.44
254.727	255.44
254.96	275.44
255.193	271.44
255.426	247.44
255.659	245.44
255.892	224.44
256.124	222.44
256.357	226.44
256.59	218.44
256.823	202.44
257.056	226.44
257.289	212.44
257.521	202.44
257.754	211.44
257.987	213.44
258.22	218.44
258.452	207.44
258.685	221.44
258.918	210.44
259.151	231.44
259.383	223.44
259.616	217.44
259.849	215.44
260.081	241.44
260.314	261.44
260.547	241.44
260.779	251.44
261.012	225.44
261.244	229.44
261.477	231.44
261.71	235.44
261.942	231.44
262.175	250.44
262.407	223.44
262.64	227.44
262.872	229.44
263.105	234.44
263.337	216.44
263.57	220.44
263.802	199.44
264.035	213.44
264.267	224.44
264.499	224.44
264.732	235.44
264.964	226.44
265.197	228.44
265.429	224.44
265.661	232.44
265.894	228.44
266.126	216.44
266.358	218.44
266.591	249.44
266.823	234.44
267.055	241.44
267.287	262.44
267.52	239.44
267.752	254.44
267.984	253.44
268.216	246.44
268.448	254.44
268.681	250.44
268.913	261.44
269.145	270.44
269.377	290.44
269.609	266.44
269.841	277.44
270.073	283.44
270.306	297.44
270.538	339.44
270.77	321.44
271.002	309.44
271.234	305.44
271.466	310.44
271.698	343.44
271.93	316.44
272.162	325.44
272.394	324.44
272.626	330.44
272.858	294.44
273.09	281.44
273.322	305.44
273.553	302.44
273.785	287.44
274.017	290.44
274.249	286.44
274.481	284.44
274.713	282.44
274.945	274.44
275.176	286.44
275.408	293.44
275.64	282.44
275.872	278.44
276.104	289.44
276.335	289.44
276.567	309.44
276.799	303.44
277.031	335.44
277.262	327.44
277.494	317.44
277.726	313.44
277.957	305.44
278.189	284.44
278.421	301.44
278.652	311.44
278.884	297.44
279.115	269.44
279.347	287.44
279.579	286.44
279.81	294.44
280.042	287.44
280.273	293.44
280.505	291.44
280.736	299.44
280.968	301.44
281.199	310.44
281.431	287.44
281.662	299.44
281.894	298.44
282.125	298.44
282.356	315.44
282.588	341.44
282.819	343.44
283.051	312.44
283.282	305.44
283.513	297.44
283.745	305.44
283.976	301.44
284.207	308.44
284.439	293.44
284.67	314.44
284.901	300.44
285.132	300.44
285.364	311.44
285.595	301.44
285.826	310.44
286.057	315.44
286.288	316.44
286.52	310.44
286.751	315.44
286.982	310.44
287.213	308.44
287.444	325.44
287.675	317.44
287.906	333.44
288.138	337.44
288.369	342.44
288.6	341.44
288.831	339.44
289.062	331.44
289.293	338.44
289.524	315.44
289.755	327.44
289.986	336.44
290.217	331.44
290.448	319.44
290.679	309.44
290.91	324.44
291.141	319.44
291.371	333.44
291.602	314.44
291.833	322.44
292.064	313.44
292.295	333.44
292.526	333.44
292.757	312.44
292.987	321.44
293.218	326.44
293.449	341.44
293.68	325.44
293.91	324.44
294.141	327.44
294.372	318.44
294.603	339.44
294.833	336.44
295.064	323.44
295.295	341.44
295.525	316.44
295.756	353.44
295.987	340.44
296.217	349.44
296.448	347.44
296.679	366.44
296.909	341.44
297.14	343.44
297.37	316.44
297.601	332.44
297.831	342.44
298.062	349.44
298.292	341.44
298.523	367.44
298.753	356.44
298.984	372.44
299.214	343.44
299.445	333.44
299.675	352.44
299.905	359.44
300.136	351.44
300.366	332.44
300.597	343.44
300.827	350.44
301.057	383.44
301.288	363.44
301.518	375.44
301.748	357.44
301.979	371.44
302.209	355.44
302.439	369.44
302.669	355.44
302.9	364.44
303.13	360.44
303.36	396.44
303.59	387.44
303.82	381.44
304.051	395.44
304.281	366.44
304.511	361.44
304.741	342.44
304.971	360.44
305.201	358.44
305.431	371.44
305.661	365.44
305.891	356.44
306.121	358.44
306.352	388.44
306.582	363.44
306.812	365.44
307.042	385.44
307.272	383.44
307.502	369.44
307.731	383.44
307.961	355.44
308.191	380.44
308.421	383.44
308.651	384.44
308.881	379.44
309.111	382.44
309.341	381.44
309.571	396.44
309.8	414.44
310.03	397.44
310.26	413.44
310.49	411.44
310.72	411.44
310.949	427.44
311.179	441.44
311.409	410.44
311.639	423.44
311.868	398.44
312.098	423.44
312.328	417.44
312.557	437.44
312.787	445.44
313.017	454.44
313.246	438.44
313.476	417.44
313.706	411.44
313.935	426.44
314.165	438.44
314.394	464.44
314.624	455.44
314.853	445.44
315.083	438.44
315.312	423.44
315.542	415.44
315.771	418.44
316.001	420.44
316.23	431.44
316.46	413.44
316.689	426.44
316.919	426.44
317.148	443.44
317.377	439.44
317.607	432.44
317.836	427.44
318.065	421.44
318.295	426.44
318.524	422.44
318.753	425.44
318.983	440.44
319.212	418.44
319.441	445.44
319.67	433.44
319.9	419.44
320.129	414.44
320.358	416.44
320.587	420.44
320.816	433.44
321.046	437.44
321.275	423.44
321.504	417.44
321.733	426.44
321.962	445.44
322.191	469.44
322.42	461.44
322.649	501.44
322.878	476.44
323.108	494.44
323.337	526.44
323.566	507.44
323.795	548.44
324.024	605.44
324.253	707.44
324.482	1004.44
324.71	1491.44
324.939	2119.44
325.168	1783.44
325.397	933.44
325.626	661.44
325.855	584.44
326.084	565.44
326.313	544.44
326.542	533.44
326.77	561.44
326.999	663.44
327.228	903.44
327.457	1307.44
327.686	1605.44
327.914	1054.44
328.143	741.44
328.372	624.44
328.6	616.44
328.829	602.44
329.058	614.44
329.287	620.44
329.515	572.44
329.744	544.44
329.972	521.44
330.201	556.44
330.43	569.44
330.658	607.44
330.887	614.44
331.115	622.44
331.344	580.44
331.572	531.44
331.801	521.44
332.03	536.44
332.258	523.44
332.486	491.44
332.715	505.44
332.943	524.44
333.172	495.44
333.4	532.44
333.629	545.44
333.857	529.44
334.085	545.44
334.314	559.44
334.542	542.44
334.771	564.44
334.999	549.44
335.227	547.44
335.455	509.44
335.684	508.44
335.912	491.44
336.14	497.44
336.369	534.44
336.597	507.44
336.825	524.44
337.053	514.44
337.281	498.44
337.51	536.44
337.738	503.44
337.966	478.44
338.194	490.44
338.422	495.44
338.65	489.44
338.878	472.44
339.106	473.44
339.334	458.44
339.562	479.44
339.79	477.44
340.018	492.44
340.246	479.44
340.474	493.44
340.702	477.44
340.93	461.44
341.158	475.44
341.386	453.44
341.614	457.44
341.842	458.44
342.07	450.44
342.298	462.44
342.526	457.44
342.754	455.44
342.981	462.44
343.209	468.44
343.437	475.44
343.665	479.44
343.893	486.44
344.12	498.44
344.348	498.44
344.576	498.44
344.804	482.44
345.031	474.44
345.259	503.44
345.487	501.44
345.714	476.44
345.942	454.44
346.17	438.44
346.397	462.44
346.625	449.44
346.853	445.44
347.08	433.44
347.308	450.44
347.535	484.44
347.763	464.44
347.99	445.44
348.218	445.44
348.445	463.44
348.673	476.44
348.9	461.44
349.128	447.44
349.355	434.44
349.583	425.44
349.81	427.44
350.037	441.44
350.265	434.44
350.492	445.44
350.72	439.44
350.947	429.44
351.174	458.44
351.402	449.44
351.629	448.44
351.856	452.44
352.083	446.44
352.311	455.44
352.538	457.44
352.765	444.44
352.992	468.44
353.22	462.44
353.447	447.44
353.674	419.44
353.901	420.44
354.128	441.44
354.355	419.44
354.583	447.44
354.81	435.44
355.037	434.44
355.264	422.44
355.491	413.44
355.718	407.44
355.945	405.44
356.172	425.44
356.399	430.44
356.626	423.44
356.853	429.44
357.08	411.44
357.307	411.44
357.534	437.44
357.761	427.44
357.988	420.44
358.215	426.44
358.441	422.44
358.668	422.44
358.895	433.44
359.122	446.44
359.349	426.44
359.576	454.44
359.802	459.44
360.029	493.44
360.256	494.44
360.483	487.44
360.709	427.44
360.936	463.44
361.163	445.44
361.39	437.44
361.616	454.44
361.843	443.44
362.07	446.44
362.296	454.44
362.523	454.44
362.749	468.44
362.976	425.44
363.203	434.44
363.429	428.44
363.656	441.44
363.882	441.44
364.109	450.44
364.335	431.44
364.562	409.44
364.788	438.44
365.015	437.44
365.241	440.44
365.468	426.44
365.694	456.44
365.92	421.44
366.147	407.44
366.373	428.44
366.599	425.44
366.826	427.44
367.052	427.44
367.278	412.44
367.505	437.44
367.731	428.44
367.957	410.44
368.184	409.44
368.41	430.44
368.636	433.44
368.862	437.44
369.089	449.44
369.315	415.44
369.541	439.44
369.767	409.44
369.993	433.44
370.219	431.44
370.445	441.44
370.672	435.44
370.898	421.44
371.124	443.44
371.35	440.44
371.576	420.44
371.802	411.44
372.028	416.44
372.254	431.44
372.48	431.44
372.706	438.44
372.932	408.44
373.158	432.44
373.384	451.44
373.61	425.44
373.835	414.44
374.061	438.44
374.287	426.44
374.513	430.44
374.739	442.44
374.965	428.44
375.191	442.44
375.416	440.44
375.642	430.44
375.868	441.44
376.094	427.44
376.319	431.44
376.545	428.44
376.771	414.44
376.997	440.44
377.222	425.44
377.448	416.44
377.674	446.44
377.899	440.44
378.125	411.44
378.35	403.44
378.576	423.44
378.802	430.44
379.027	416.44
379.253	415.44
379.478	390.44
379.704	414.44
379.929	431.44
380.155	407.44
380.38	425.44
380.606	420.44
380.831	415.44
381.057	420.44
381.282	433.44
381.507	417.44
381.733	429.44
381.958	422.44
382.184	441.44
382.409	413.44
382.634	423.44
382.86	432.44
383.085	445.44
383.31	436.44
383.535	422.44
383.761	439.44
383.986	468.44
384.211	461.44
384.436	415.44
384.662	439.44
384.887	469.44
385.112	449.44
385.337	459.44
385.562	481.44
385.787	474.44
386.013	473.44
386.238	466.44
386.463	471.44
386.688	472.44
386.913	483.44
387.138	466.44
387.363	465.44
387.588	471.44
387.813	479.44
388.038	465.44
388.263	471.44
388.488	444.44
388.713	485.44
388.938	487.44
389.163	467.44
389.387	477.44
389.612	467.44
389.837	471.44
390.062	459.44
390.287	458.44
390.512	476.44
390.736	481.44
390.961	441.44
391.186	466.44
391.411	482.44
391.636	479.44
391.86	493.44
392.085	506.44
392.31	495.44
392.534	480.44
392.759	467.44
392.984	466.44
393.208	466.44
393.433	481.44
393.658	477.44
393.882	483.44
394.107	467.44
394.331	474.44
394.556	484.44
394.78	484.44
395.005	487.44
395.229	493.44
395.454	506.44
395.678	495.44
395.903	517.44
396.127	523.44
396.352	515.44
396.576	500.44
396.801	506.44
397.025	512.44
397.249	499.44
397.474	494.44
397.698	503.44
397.922	505.44
398.147	523.44
398.371	543.44
398.595	560.44
398.82	531.44
399.044	552.44
399.268	611.44
399.492	627.44
399.717	669.44
399.941	707.44
400.165	708.44
400.389	682.44
400.613	622.44
400.837	597.44
401.062	558.44
401.286	575.44
401.51	537.44
401.734	554.44
401.958	564.44
402.182	578.44
402.406	586.44
402.63	577.44
402.854	574.44
403.078	582.44
403.302	563.44
403.526	595.44
403.75	577.44
403.974	562.44
404.198	568.44
404.422	592.44
404.645	590.44
404.869	579.44
405.093	626.44
405.317	625.44
405.541	681.44
405.765	606.44
405.988	611.44
406.212	602.44
406.436	638.44
406.66	646.44
406.883	643.44
407.107	661.44
407.331	687.44
407.555	741.44
407.778	731.44
408.002	680.44
408.226	665.44
408.449	609.44
408.673	634.44
408.896	663.44
409.12	684.44
409.344	675.44
409.567	612.44
409.791	580.44
410.014	579.44
410.238	561.44
410.461	580.44
410.685	557.44
410.908	580.44
411.132	595.44
411.355	652.44
411.578	630.44
411.802	584.44
412.025	576.44
412.249	572.44
412.472	583.44
412.695	597.44
412.919	600.44
413.142	561.44
413.365	547.44
413.589	549.44
413.812	563.44
414.035	525.44
414.258	528.44
414.482	548.44
414.705	531.44
414.928	523.44
415.151	524.44
415.374	529.44
415.597	529.44
415.821	531.44
416.044	526.44
416.267	506.44
416.49	520.44
416.713	517.44
416.936	533.44
417.159	540.44
417.382	506.44
417.605	535.44
417.828	534.44
418.051	548.44
418.274	565.44
418.497	542.44
418.72	519.44
418.943	527.44
419.166	558.44
419.389	568.44
419.611	548.44
419.834	567.44
420.057	577.44
420.28	538.44
420.503	537.44
420.726	541.44
420.948	567.44
421.171	581.44
421.394	618.44
421.617	565.44
421.839	558.44
422.062	545.44
422.285	561.44
422.507	648.44
422.73	683.44
422.953	677.44
423.175	600.44
423.398	577.44
423.621	558.44
423.843	598.44
424.066	597.44
424.288	554.44
424.511	633.44
424.733	651.44
424.956	732.44
425.178	691.44
425.401	709.44
425.623	706.44
425.846	619.44
426.068	595.44
426.291	561.44
426.513	560.44
426.735	564.44
426.958	608.44
427.18	713.44
427.402	818.44
427.625	895.44
427.847	750.44
428.069	651.44
428.292	609.44
428.514	547.44
428.736	513.44
428.958	543.44
429.181	543.44
429.403	529.44
429.625	547.44
429.847	595.44
430.069	635.44
430.292	611.44
430.514	568.44
430.736	528.44
430.958	499.44
431.18	525.44
431.402	487.44
431.624	503.44
431.846	499.44
432.068	478.44
432.29	502.44
432.512	507.44
432.734	493.44
432.956	509.44
433.178	496.44
433.4	533.44
433.622	525.44
433.844	524.44
434.066	502.44
434.287	493.44
434.509	529.44
434.731	524.44
434.953	550.44
435.175	553.44
435.397	563.44
435.618	571.44
435.84	576.44
436.062	686.44
436.284	748.44
436.505	635.44
436.727	576.44
436.949	535.44
437.17	513.44
437.392	528.44
437.614	523.44
437.835	571.44
438.057	654.44
438.278	760.44
438.5	736.44
438.721	833.44
438.943	780.44
439.165	640.44
439.386	566.44
439.608	569.44
439.829	578.44
440.05	594.44
440.272	643.44
440.493	601.44
440.715	555.44
440.936	567.44
441.158	528.44
441.379	534.44
441.6	535.44
441.822	582.44
442.043	605.44
442.264	697.44
442.486	710.44
442.707	626.44
442.928	569.44
443.149	594.44
443.371	626.44
443.592	671.44
443.813	766.44
444.034	801.44
444.255	684.44
444.476	620.44
444.698	628.44
444.919	600.44
445.14	726.44
445.361	661.44
445.582	637.44
445.803	699.44
446.024	806.44
446.245	789.44
446.466	690.44
446.687	614.44
446.908	563.44
447.129	515.44
447.35	523.44
447.571	533.44
447.792	505.44
448.013	509.44
448.234	543.44
448.455	573.44
448.675	691.44
448.896	785.44
449.117	675.44
449.338	659.44
449.559	737.44
449.779	831.44
450	654.44
450.221	575.44
450.442	531.44
450.662	510.44
450.883	529.44
451.104	535.44
451.324	521.44
451.545	490.44
451.766	474.44
451.986	481.44
452.207	452.44
452.428	463.44
452.648	481.44
452.869	466.44
453.089	465.44
453.31	504.44
453.53	478.44
453.751	453.44
453.971	485.44
454.192	492.44
454.412	471.44
454.633	482.44
454.853	465.44
455.073	450.44
455.294	497.44
455.514	545.44
455.734	546.44
455.955	458.44
456.175	459.44
456.395	438.44
456.616	439.44
456.836	444.44
457.056	443.44
457.276	421.44
457.497	460.44
457.717	460.44
457.937	452.44
458.157	453.44
458.377	469.44
458.598	487.44
458.818	541.44
459.038	616.44
459.258	620.44
459.478	555.44
459.698	533.44
459.918	515.44
460.138	538.44
460.358	526.44
460.578	513.44
460.798	525.44
461.018	518.44
461.238	530.44
461.458	509.44
461.678	523.44
461.898	542.44
462.118	554.44
462.338	544.44
462.558	552.44
462.777	600.44
462.997	622.44
463.217	632.44
463.437	626.44
463.657	612.44
463.876	565.44
464.096	591.44
464.316	589.44
464.536	593.44
464.755	577.44
464.975	573.44
465.195	604.44
465.414	692.44
465.634	588.44
465.854	542.44
466.073	520.44
466.293	523.44
466.512	500.44
466.732	482.44
466.951	503.44
467.171	478.44
467.391	504.44
467.61	481.44
467.829	501.44
468.049	494.44
468.268	471.44
468.488	468.44
468.707	485.44
468.927	487.44
469.146	478.44
469.365	491.44
469.585	489.44
469.804	474.44
470.023	490.44
470.243	494.44
470.462	503.44
470.681	525.44
470.901	507.44
471.12	511.44
471.339	487.44
471.558	525.44
471.777	478.44
471.997	465.44
472.216	494.44
472.435	503.44
472.654	493.44
472.873	479.44
473.092	485.44
473.311	471.44
473.53	468.44
473.749	498.44
473.968	509.44
474.187	622.44
474.406	621.44
474.625	546.44
474.844	493.44
475.063	502.44
475.282	477.44
475.501	477.44
475.72	485.44
475.939	491.44
476.158	486.44
476.377	484.44
476.596	490.44
476.814	517.44
477.033	510.44
477.252	511.44
477.471	516.44
477.69	528.44
477.908	542.44
478.127	543.44
478.346	545.44
478.564	531.44
478.783	559.44
479.002	561.44
479.22	551.44
479.439	570.44
479.658	595.44
479.876	600.44
480.095	604.44
480.313	619.44
480.532	627.44
480.751	574.44
480.969	612.44
481.188	631.44
481.406	646.44
481.624	588.44
481.843	571.44
482.061	554.44
482.28	581.44
482.498	554.44
482.717	539.44
482.935	566.44
483.153	561.44
483.372	556.44
483.59	551.44
483.808	564.44
484.027	564.44
484.245	566.44
484.463	567.44
484.681	570.44
484.9	567.44
485.118	551.44
485.336	569.44
485.554	585.44
485.772	586.44
485.99	587.44
486.209	590.44
486.427	597.44
486.645	602.44
486.863	603.44
487.081	593.44
487.299	609.44
487.517	603.44
487.735	614.44
487.953	591.44
488.171	612.44
488.389	594.44
488.607	612.44
488.825	582.44
489.043	599.44
489.261	598.44
489.479	610.44
489.696	621.44
489.914	604.44
490.132	633.44
490.35	631.44
490.568	612.44
490.786	649.44
491.003	652.44
491.221	656.44
491.439	673.44
491.657	675.44
491.874	660.44
492.092	666.44
492.31	702.44
492.527	695.44
492.745	676.44
492.963	693.44
493.18	718.44
493.398	706.44
493.615	718.44
493.833	703.44
494.05	699.44
494.268	689.44
494.485	696.44
494.703	711.44
494.92	703.44
495.138	707.44
495.355	721.44
495.573	679.44
495.79	723.44
496.008	708.44
496.225	701.44
496.442	706.44
496.66	723.44
496.877	713.44
497.094	707.44
497.312	737.44
497.529	772.44
497.746	780.44
497.963	794.44
498.181	828.44
498.398	799.44
498.615	823.44
498.832	844.44
499.049	892.44
499.267	881.44
499.484	965.44
499.701	975.44
499.918	1036.44
500.135	1109.44
500.352	1166.44
500.569	1220.44
500.786	1234.44
501.003	1219.44
501.22	1114.44
501.437	1066.44
501.654	1044.44
501.871	1016.44
