Data from 1985.PennyLincolnUp.Lamp.En5.5.200Scan.071819.P1_HRD10591_17-01-59-971.txt Node
Date: Thu Jul 18 17:01:59 EDT 2019
User: cochatt
Spectrometer: HR+D1059
Trigger mode: 1
Integration Time (sec): 1.000000E-1
Scans to average: 1
Electric dark correction enabled: true
Nonlinearity correction enabled: false
Boxcar width: 0
XAxis mode: Wavelengths
Number of Pixels in Spectrum: 2048
>>>>>Begin Spectral Data<<<<<
223.165	-17.19
223.4	-17.19
223.635	-17.19
223.869	-15.19
224.104	-13.19
224.338	-2.19
224.573	-13.19
224.808	-13.19
225.042	-32.19
225.277	-5.19
225.511	-1.19
225.746	2.81
225.98	13.81
226.215	11.81
226.449	13.81
226.683	2.81
226.918	31.81
227.152	35.81
227.387	35.81
227.621	38.81
227.856	32.81
228.09	43.81
228.324	49.81
228.559	62.81
228.793	76.81
229.027	82.81
229.262	94.81
229.496	102.81
229.73	130.81
229.964	140.81
230.199	94.81
230.433	107.81
230.667	110.81
230.901	120.81
231.136	122.81
231.37	113.81
231.604	107.81
231.838	112.81
232.072	113.81
232.306	95.81
232.541	107.81
232.775	111.81
233.009	110.81
233.243	117.81
233.477	105.81
233.711	104.81
233.945	115.81
234.179	116.81
234.413	112.81
234.647	127.81
234.881	115.81
235.115	103.81
235.349	124.81
235.583	117.81
235.817	126.81
236.051	117.81
236.285	113.81
236.519	132.81
236.753	116.81
236.987	132.81
237.221	164.81
237.455	223.81
237.689	180.81
237.922	127.81
238.156	134.81
238.39	122.81
238.624	103.81
238.858	120.81
239.091	111.81
239.325	130.81
239.559	134.81
239.793	127.81
240.027	123.81
240.26	135.81
240.494	143.81
240.728	150.81
240.961	162.81
241.195	140.81
241.429	120.81
241.662	134.81
241.896	124.81
242.13	139.81
242.363	122.81
242.597	126.81
242.83	127.81
243.064	141.81
243.298	131.81
243.531	127.81
243.765	132.81
243.998	134.81
244.232	134.81
244.465	126.81
244.699	152.81
244.932	151.81
245.166	134.81
245.399	143.81
245.633	136.81
245.866	142.81
246.099	141.81
246.333	153.81
246.566	147.81
246.8	139.81
247.033	155.81
247.266	169.81
247.5	161.81
247.733	169.81
247.966	159.81
248.2	171.81
248.433	182.81
248.666	147.81
248.899	176.81
249.133	172.81
249.366	198.81
249.599	184.81
249.832	180.81
250.066	174.81
250.299	176.81
250.532	182.81
250.765	198.81
250.998	205.81
251.231	214.81
251.465	194.81
251.698	186.81
251.931	199.81
252.164	196.81
252.397	191.81
252.63	199.81
252.863	202.81
253.096	209.81
253.329	208.81
253.562	212.81
253.795	200.81
254.028	212.81
254.261	230.81
254.494	203.81
254.727	230.81
254.96	256.81
255.193	244.81
255.426	226.81
255.659	216.81
255.892	205.81
256.124	202.81
256.357	208.81
256.59	202.81
256.823	191.81
257.056	195.81
257.289	195.81
257.521	196.81
257.754	195.81
257.987	195.81
258.22	194.81
258.452	209.81
258.685	200.81
258.918	195.81
259.151	201.81
259.383	200.81
259.616	207.81
259.849	217.81
260.081	229.81
260.314	250.81
260.547	236.81
260.779	229.81
261.012	230.81
261.244	221.81
261.477	220.81
261.71	200.81
261.942	234.81
262.175	222.81
262.407	226.81
262.64	194.81
262.872	208.81
263.105	216.81
263.337	233.81
263.57	208.81
263.802	212.81
264.035	194.81
264.267	209.81
264.499	223.81
264.732	204.81
264.964	217.81
265.197	218.81
265.429	197.81
265.661	219.81
265.894	222.81
266.126	224.81
266.358	206.81
266.591	241.81
266.823	231.81
267.055	234.81
267.287	228.81
267.52	244.81
267.752	238.81
267.984	231.81
268.216	240.81
268.448	233.81
268.681	217.81
268.913	260.81
269.145	268.81
269.377	275.81
269.609	272.81
269.841	278.81
270.073	258.81
270.306	285.81
270.538	294.81
270.77	321.81
271.002	304.81
271.234	296.81
271.466	282.81
271.698	300.81
271.93	305.81
272.162	317.81
272.394	303.81
272.626	311.81
272.858	268.81
273.09	280.81
273.322	278.81
273.553	255.81
273.785	276.81
274.017	264.81
274.249	291.81
274.481	268.81
274.713	274.81
274.945	274.81
275.176	251.81
275.408	278.81
275.64	249.81
275.872	275.81
276.104	258.81
276.335	270.81
276.567	267.81
276.799	286.81
277.031	295.81
277.262	324.81
277.494	322.81
277.726	300.81
277.957	297.81
278.189	287.81
278.421	279.81
278.652	300.81
278.884	290.81
279.115	272.81
279.347	280.81
279.579	273.81
279.81	288.81
280.042	292.81
280.273	273.81
280.505	288.81
280.736	283.81
280.968	274.81
281.199	280.81
281.431	288.81
281.662	282.81
281.894	281.81
282.125	291.81
282.356	300.81
282.588	320.81
282.819	320.81
283.051	298.81
283.282	286.81
283.513	299.81
283.745	288.81
283.976	296.81
284.207	299.81
284.439	313.81
284.67	288.81
284.901	296.81
285.132	300.81
285.364	288.81
285.595	282.81
285.826	296.81
286.057	290.81
286.288	297.81
286.52	320.81
286.751	292.81
286.982	299.81
287.213	316.81
287.444	319.81
287.675	303.81
287.906	319.81
288.138	319.81
288.369	320.81
288.6	310.81
288.831	321.81
289.062	312.81
289.293	301.81
289.524	318.81
289.755	332.81
289.986	313.81
290.217	313.81
290.448	315.81
290.679	307.81
290.91	303.81
291.141	308.81
291.371	327.81
291.602	301.81
291.833	314.81
292.064	316.81
292.295	300.81
292.526	303.81
292.757	322.81
292.987	296.81
293.218	303.81
293.449	329.81
293.68	326.81
293.91	321.81
294.141	310.81
294.372	302.81
294.603	319.81
294.833	324.81
295.064	327.81
295.295	329.81
295.525	319.81
295.756	337.81
295.987	327.81
296.217	356.81
296.448	354.81
296.679	334.81
296.909	342.81
297.14	332.81
297.37	312.81
297.601	348.81
297.831	322.81
298.062	329.81
298.292	348.81
298.523	329.81
298.753	322.81
298.984	321.81
299.214	344.81
299.445	334.81
299.675	352.81
299.905	352.81
300.136	329.81
300.366	338.81
300.597	358.81
300.827	328.81
301.057	341.81
301.288	352.81
301.518	372.81
301.748	363.81
301.979	355.81
302.209	355.81
302.439	354.81
302.669	366.81
302.9	350.81
303.13	360.81
303.36	369.81
303.59	384.81
303.82	373.81
304.051	374.81
304.281	355.81
304.511	360.81
304.741	361.81
304.971	369.81
305.201	350.81
305.431	368.81
305.661	385.81
305.891	368.81
306.121	369.81
306.352	356.81
306.582	373.81
306.812	373.81
307.042	363.81
307.272	347.81
307.502	362.81
307.731	370.81
307.961	363.81
308.191	355.81
308.421	361.81
308.651	364.81
308.881	358.81
309.111	386.81
309.341	371.81
309.571	375.81
309.8	380.81
310.03	406.81
310.26	412.81
310.49	385.81
310.72	399.81
310.949	426.81
311.179	423.81
311.409	405.81
311.639	378.81
311.868	392.81
312.098	395.81
312.328	416.81
312.557	416.81
312.787	422.81
313.017	449.81
313.246	409.81
313.476	399.81
313.706	424.81
313.935	412.81
314.165	435.81
314.394	422.81
314.624	434.81
314.853	402.81
315.083	414.81
315.312	431.81
315.542	416.81
315.771	387.81
316.001	385.81
316.23	391.81
316.46	393.81
316.689	408.81
316.919	413.81
317.148	415.81
317.377	419.81
317.607	410.81
317.836	383.81
318.065	414.81
318.295	420.81
318.524	387.81
318.753	404.81
318.983	396.81
319.212	432.81
319.441	412.81
319.67	426.81
319.9	427.81
320.129	405.81
320.358	404.81
320.587	408.81
320.816	421.81
321.046	422.81
321.275	433.81
321.504	419.81
321.733	426.81
321.962	432.81
322.191	424.81
322.42	445.81
322.649	454.81
322.878	467.81
323.108	486.81
323.337	496.81
323.566	512.81
323.795	529.81
324.024	564.81
324.253	674.81
324.482	891.81
324.71	1316.81
324.939	1872.81
325.168	1629.81
325.397	857.81
325.626	616.81
325.855	538.81
326.084	515.81
326.313	483.81
326.542	507.81
326.77	568.81
326.999	634.81
327.228	804.81
327.457	1211.81
327.686	1401.81
327.914	948.81
328.143	673.81
328.372	601.81
328.6	560.81
328.829	549.81
329.058	567.81
329.287	575.81
329.515	543.81
329.744	518.81
329.972	508.81
330.201	532.81
330.43	508.81
330.658	540.81
330.887	591.81
331.115	588.81
331.344	532.81
331.572	507.81
331.801	520.81
332.03	544.81
332.258	490.81
332.486	484.81
332.715	489.81
332.943	491.81
333.172	504.81
333.4	523.81
333.629	528.81
333.857	542.81
334.085	505.81
334.314	526.81
334.542	523.81
334.771	522.81
334.999	499.81
335.227	517.81
335.455	495.81
335.684	502.81
335.912	505.81
336.14	462.81
336.369	485.81
336.597	490.81
336.825	479.81
337.053	500.81
337.281	461.81
337.51	489.81
337.738	474.81
337.966	462.81
338.194	468.81
338.422	463.81
338.65	476.81
338.878	440.81
339.106	451.81
339.334	433.81
339.562	458.81
339.79	450.81
340.018	444.81
340.246	462.81
340.474	472.81
340.702	477.81
340.93	440.81
341.158	453.81
341.386	475.81
341.614	475.81
341.842	482.81
342.07	472.81
342.298	453.81
342.526	448.81
342.754	449.81
342.981	427.81
343.209	441.81
343.437	468.81
343.665	456.81
343.893	477.81
344.12	513.81
344.348	487.81
344.576	456.81
344.804	467.81
345.031	451.81
345.259	480.81
345.487	468.81
345.714	467.81
345.942	446.81
346.17	438.81
346.397	416.81
346.625	452.81
346.853	438.81
347.08	432.81
347.308	424.81
347.535	438.81
347.763	441.81
347.99	446.81
348.218	442.81
348.445	442.81
348.673	442.81
348.9	447.81
349.128	448.81
349.355	426.81
349.583	411.81
349.81	417.81
350.037	421.81
350.265	441.81
350.492	411.81
350.72	431.81
350.947	426.81
351.174	422.81
351.402	456.81
351.629	445.81
351.856	438.81
352.083	460.81
352.311	455.81
352.538	449.81
352.765	421.81
352.992	436.81
353.22	422.81
353.447	412.81
353.674	420.81
353.901	417.81
354.128	403.81
354.355	420.81
354.583	391.81
354.81	394.81
355.037	399.81
355.264	416.81
355.491	408.81
355.718	397.81
355.945	407.81
356.172	403.81
356.399	413.81
356.626	402.81
356.853	408.81
357.08	406.81
357.307	429.81
357.534	404.81
357.761	413.81
357.988	416.81
358.215	411.81
358.441	402.81
358.668	424.81
358.895	407.81
359.122	435.81
359.349	417.81
359.576	423.81
359.802	461.81
360.029	460.81
360.256	482.81
360.483	444.81
360.709	423.81
360.936	425.81
361.163	423.81
361.39	427.81
361.616	456.81
361.843	439.81
362.07	423.81
362.296	414.81
362.523	414.81
362.749	435.81
362.976	402.81
363.203	409.81
363.429	416.81
363.656	424.81
363.882	427.81
364.109	424.81
364.335	408.81
364.562	410.81
364.788	394.81
365.015	403.81
365.241	424.81
365.468	414.81
365.694	425.81
365.92	434.81
366.147	412.81
366.373	430.81
366.599	402.81
366.826	412.81
367.052	407.81
367.278	396.81
367.505	404.81
367.731	424.81
367.957	419.81
368.184	404.81
368.41	411.81
368.636	417.81
368.862	424.81
369.089	432.81
369.315	420.81
369.541	425.81
369.767	410.81
369.993	398.81
370.219	418.81
370.445	423.81
370.672	402.81
370.898	399.81
371.124	427.81
371.35	439.81
371.576	415.81
371.802	430.81
372.028	398.81
372.254	432.81
372.48	425.81
372.706	396.81
372.932	419.81
373.158	440.81
373.384	440.81
373.61	419.81
373.835	433.81
374.061	413.81
374.287	426.81
374.513	436.81
374.739	432.81
374.965	432.81
375.191	443.81
375.416	428.81
375.642	406.81
375.868	418.81
376.094	415.81
376.319	422.81
376.545	433.81
376.771	410.81
376.997	397.81
377.222	412.81
377.448	408.81
377.674	437.81
377.899	410.81
378.125	398.81
378.35	421.81
378.576	407.81
378.802	431.81
379.027	416.81
379.253	405.81
379.478	404.81
379.704	399.81
379.929	441.81
380.155	420.81
380.38	400.81
380.606	408.81
380.831	402.81
381.057	426.81
381.282	416.81
381.507	421.81
381.733	419.81
381.958	415.81
382.184	411.81
382.409	436.81
382.634	430.81
382.86	419.81
383.085	426.81
383.31	436.81
383.535	427.81
383.761	411.81
383.986	432.81
384.211	453.81
384.436	440.81
384.662	480.81
384.887	475.81
385.112	448.81
385.337	467.81
385.562	445.81
385.787	466.81
386.013	471.81
386.238	468.81
386.463	442.81
386.688	463.81
386.913	457.81
387.138	455.81
387.363	468.81
387.588	460.81
387.813	441.81
388.038	446.81
388.263	442.81
388.488	470.81
388.713	452.81
388.938	448.81
389.163	460.81
389.387	471.81
389.612	452.81
389.837	463.81
390.062	473.81
390.287	468.81
390.512	452.81
390.736	466.81
390.961	465.81
391.186	459.81
391.411	459.81
391.636	473.81
391.86	466.81
392.085	478.81
392.31	491.81
392.534	513.81
392.759	473.81
392.984	455.81
393.208	472.81
393.433	471.81
393.658	459.81
393.882	446.81
394.107	470.81
394.331	471.81
394.556	441.81
394.78	467.81
395.005	478.81
395.229	452.81
395.454	481.81
395.678	478.81
395.903	467.81
396.127	525.81
396.352	506.81
396.576	490.81
396.801	487.81
397.025	462.81
397.249	483.81
397.474	510.81
397.698	497.81
397.922	499.81
398.147	521.81
398.371	529.81
398.595	515.81
398.82	552.81
399.044	555.81
399.268	591.81
399.492	638.81
399.717	694.81
399.941	686.81
400.165	708.81
400.389	698.81
400.613	645.81
400.837	562.81
401.062	537.81
401.286	552.81
401.51	560.81
401.734	540.81
401.958	530.81
402.182	545.81
402.406	558.81
402.63	539.81
402.854	562.81
403.078	564.81
403.302	566.81
403.526	582.81
403.75	581.81
403.974	547.81
404.198	566.81
404.422	587.81
404.645	587.81
404.869	550.81
405.093	588.81
405.317	588.81
405.541	591.81
405.765	567.81
405.988	556.81
406.212	584.81
406.436	606.81
406.66	614.81
406.883	602.81
407.107	612.81
407.331	653.81
407.555	727.81
407.778	736.81
408.002	642.81
408.226	614.81
408.449	607.81
408.673	592.81
408.896	609.81
409.12	656.81
409.344	626.81
409.567	582.81
409.791	558.81
410.014	550.81
410.238	547.81
410.461	575.81
410.685	567.81
410.908	591.81
411.132	584.81
411.355	617.81
411.578	603.81
411.802	554.81
412.025	547.81
412.249	560.81
412.472	532.81
412.695	571.81
412.919	536.81
413.142	536.81
413.365	533.81
413.589	533.81
413.812	511.81
414.035	519.81
414.258	527.81
414.482	513.81
414.705	512.81
414.928	518.81
415.151	502.81
415.374	507.81
415.597	521.81
415.821	537.81
416.044	515.81
416.267	514.81
416.49	523.81
416.713	505.81
416.936	531.81
417.159	528.81
417.382	516.81
417.605	512.81
417.828	528.81
418.051	527.81
418.274	531.81
418.497	551.81
418.72	522.81
418.943	514.81
419.166	550.81
419.389	575.81
419.611	554.81
419.834	584.81
420.057	543.81
420.28	532.81
420.503	524.81
420.726	543.81
420.948	541.81
421.171	589.81
421.394	599.81
421.617	562.81
421.839	552.81
422.062	544.81
422.285	555.81
422.507	602.81
422.73	672.81
422.953	638.81
423.175	563.81
423.398	538.81
423.621	539.81
423.843	598.81
424.066	588.81
424.288	593.81
424.511	584.81
424.733	633.81
424.956	696.81
425.178	660.81
425.401	642.81
425.623	684.81
425.846	606.81
426.068	555.81
426.291	558.81
426.513	558.81
426.735	567.81
426.958	588.81
427.18	676.81
427.402	770.81
427.625	842.81
427.847	717.81
428.069	603.81
428.292	564.81
428.514	521.81
428.736	529.81
428.958	525.81
429.181	509.81
429.403	499.81
429.625	529.81
429.847	551.81
430.069	604.81
430.292	601.81
430.514	524.81
430.736	532.81
430.958	498.81
431.18	504.81
431.402	490.81
431.624	468.81
431.846	507.81
432.068	498.81
432.29	498.81
432.512	480.81
432.734	480.81
432.956	478.81
433.178	512.81
433.4	519.81
433.622	494.81
433.844	513.81
434.066	501.81
434.287	507.81
434.509	495.81
434.731	522.81
434.953	532.81
435.175	516.81
435.397	556.81
435.618	549.81
435.84	590.81
436.062	673.81
436.284	728.81
436.505	609.81
436.727	555.81
436.949	523.81
437.17	518.81
437.392	511.81
437.614	501.81
437.835	537.81
438.057	632.81
438.278	713.81
438.5	711.81
438.721	759.81
438.943	750.81
439.165	605.81
439.386	568.81
439.608	561.81
439.829	550.81
440.05	545.81
440.272	578.81
440.493	567.81
440.715	548.81
440.936	526.81
441.158	515.81
441.379	534.81
441.6	546.81
441.822	527.81
442.043	577.81
442.264	666.81
442.486	697.81
442.707	595.81
442.928	566.81
443.149	564.81
443.371	578.81
443.592	633.81
443.813	717.81
444.034	776.81
444.255	648.81
444.476	608.81
444.698	592.81
444.919	574.81
445.14	708.81
445.361	671.81
445.582	619.81
445.803	650.81
446.024	725.81
446.245	747.81
446.466	690.81
446.687	585.81
446.908	545.81
447.129	518.81
447.35	514.81
447.571	519.81
447.792	467.81
448.013	487.81
448.234	494.81
448.455	560.81
448.675	684.81
448.896	756.81
449.117	623.81
449.338	625.81
449.559	704.81
449.779	799.81
450	626.81
450.221	542.81
450.442	513.81
450.662	506.81
450.883	501.81
451.104	495.81
451.324	497.81
451.545	493.81
451.766	484.81
451.986	455.81
452.207	448.81
452.428	443.81
452.648	430.81
452.869	442.81
453.089	480.81
453.31	483.81
453.53	461.81
453.751	456.81
453.971	459.81
454.192	476.81
454.412	453.81
454.633	442.81
454.853	464.81
455.073	451.81
455.294	478.81
455.514	520.81
455.734	507.81
455.955	445.81
456.175	452.81
456.395	434.81
456.616	423.81
456.836	408.81
457.056	417.81
457.276	423.81
457.497	438.81
457.717	430.81
457.937	448.81
458.157	454.81
458.377	444.81
458.598	449.81
458.818	516.81
459.038	558.81
459.258	601.81
459.478	523.81
459.698	491.81
459.918	513.81
460.138	520.81
460.358	504.81
460.578	523.81
460.798	524.81
461.018	513.81
461.238	514.81
461.458	529.81
461.678	520.81
461.898	520.81
462.118	531.81
462.338	534.81
462.558	560.81
462.777	568.81
462.997	588.81
463.217	598.81
463.437	612.81
463.657	566.81
463.876	579.81
464.096	570.81
464.316	569.81
464.536	561.81
464.755	570.81
464.975	574.81
465.195	578.81
465.414	634.81
465.634	560.81
465.854	506.81
466.073	508.81
466.293	519.81
466.512	496.81
466.732	487.81
466.951	485.81
467.171	490.81
467.391	458.81
467.61	476.81
467.829	498.81
468.049	473.81
468.268	475.81
468.488	470.81
468.707	451.81
468.927	454.81
469.146	469.81
469.365	456.81
469.585	462.81
469.804	472.81
470.023	463.81
470.243	481.81
470.462	480.81
470.681	512.81
470.901	490.81
471.12	486.81
471.339	480.81
471.558	496.81
471.777	453.81
471.997	454.81
472.216	453.81
472.435	471.81
472.654	477.81
472.873	459.81
473.092	440.81
473.311	453.81
473.53	466.81
473.749	467.81
473.968	503.81
474.187	581.81
474.406	627.81
474.625	512.81
474.844	472.81
475.063	469.81
475.282	458.81
475.501	482.81
475.72	484.81
475.939	466.81
476.158	467.81
476.377	476.81
476.596	475.81
476.814	489.81
477.033	498.81
477.252	514.81
477.471	535.81
477.69	502.81
477.908	519.81
478.127	499.81
478.346	531.81
478.564	539.81
478.783	534.81
479.002	533.81
479.22	546.81
479.439	548.81
479.658	545.81
479.876	565.81
480.095	572.81
480.313	601.81
480.532	593.81
480.751	618.81
480.969	593.81
481.188	574.81
481.406	578.81
481.624	565.81
481.843	557.81
482.061	572.81
482.28	551.81
482.498	548.81
482.717	537.81
482.935	531.81
483.153	538.81
483.372	536.81
483.59	543.81
483.808	549.81
484.027	557.81
484.245	553.81
484.463	578.81
484.681	564.81
484.9	555.81
485.118	573.81
485.336	578.81
485.554	545.81
485.772	579.81
485.99	569.81
486.209	580.81
486.427	572.81
486.645	576.81
486.863	574.81
487.081	599.81
487.299	574.81
487.517	575.81
487.735	569.81
487.953	577.81
488.171	580.81
488.389	584.81
488.607	575.81
488.825	599.81
489.043	580.81
489.261	577.81
489.479	580.81
489.696	578.81
489.914	592.81
490.132	574.81
490.35	612.81
490.568	612.81
490.786	623.81
491.003	622.81
491.221	635.81
491.439	632.81
491.657	655.81
491.874	636.81
492.092	640.81
492.31	659.81
492.527	656.81
492.745	649.81
492.963	677.81
493.18	679.81
493.398	668.81
493.615	679.81
493.833	700.81
494.05	703.81
494.268	665.81
494.485	692.81
494.703	674.81
494.92	702.81
495.138	694.81
495.355	702.81
495.573	692.81
495.79	680.81
496.008	670.81
496.225	703.81
496.442	696.81
496.66	715.81
496.877	719.81
497.094	691.81
497.312	746.81
497.529	722.81
497.746	732.81
497.963	740.81
498.181	787.81
498.398	779.81
498.615	808.81
498.832	857.81
499.049	876.81
499.267	895.81
499.484	896.81
499.701	959.81
499.918	1019.81
500.135	1128.81
500.352	1179.81
500.569	1202.81
500.786	1214.81
501.003	1177.81
501.22	1090.81
501.437	1048.81
501.654	996.81
501.871	942.81
