Data from 1985.PennyLincolnUp.Lamp.En5.5.200Scan.071819.P1_HRD10591_17-04-16-971.txt Node
Date: Thu Jul 18 17:04:16 EDT 2019
User: cochatt
Spectrometer: HR+D1059
Trigger mode: 1
Integration Time (sec): 1.000000E-1
Scans to average: 1
Electric dark correction enabled: true
Nonlinearity correction enabled: false
Boxcar width: 0
XAxis mode: Wavelengths
Number of Pixels in Spectrum: 2048
>>>>>Begin Spectral Data<<<<<
223.165	-9.75
223.4	-9.75
223.635	-9.75
223.869	-22.75
224.104	-18.75
224.338	-9.75
224.573	-11.75
224.808	-12.75
225.042	-6.75
225.277	-8.75
225.511	-14.75
225.746	5.25
225.98	1.25
226.215	6.25
226.449	19.25
226.683	32.25
226.918	22.25
227.152	29.25
227.387	23.25
227.621	38.25
227.856	47.25
228.09	35.25
228.324	21.25
228.559	65.25
228.793	57.25
229.027	100.25
229.262	100.25
229.496	107.25
229.73	111.25
229.964	127.25
230.199	124.25
230.433	109.25
230.667	113.25
230.901	99.25
231.136	110.25
231.37	105.25
231.604	104.25
231.838	103.25
232.072	98.25
232.306	103.25
232.541	114.25
232.775	114.25
233.009	116.25
233.243	100.25
233.477	102.25
233.711	107.25
233.945	104.25
234.179	116.25
234.413	104.25
234.647	105.25
234.881	105.25
235.115	103.25
235.349	110.25
235.583	109.25
235.817	123.25
236.051	119.25
236.285	126.25
236.519	111.25
236.753	139.25
236.987	139.25
237.221	155.25
237.455	210.25
237.689	166.25
237.922	135.25
238.156	113.25
238.39	123.25
238.624	128.25
238.858	136.25
239.091	123.25
239.325	127.25
239.559	135.25
239.793	129.25
240.027	137.25
240.26	126.25
240.494	148.25
240.728	133.25
240.961	135.25
241.195	139.25
241.429	133.25
241.662	131.25
241.896	132.25
242.13	123.25
242.363	133.25
242.597	125.25
242.83	140.25
243.064	141.25
243.298	143.25
243.531	152.25
243.765	137.25
243.998	146.25
244.232	131.25
244.465	143.25
244.699	150.25
244.932	153.25
245.166	143.25
245.399	149.25
245.633	145.25
245.866	144.25
246.099	139.25
246.333	146.25
246.566	153.25
246.8	155.25
247.033	162.25
247.266	166.25
247.5	171.25
247.733	158.25
247.966	171.25
248.2	159.25
248.433	173.25
248.666	178.25
248.899	192.25
249.133	197.25
249.366	210.25
249.599	194.25
249.832	183.25
250.066	176.25
250.299	189.25
250.532	206.25
250.765	220.25
250.998	219.25
251.231	223.25
251.465	223.25
251.698	194.25
251.931	201.25
252.164	200.25
252.397	206.25
252.63	209.25
252.863	203.25
253.096	215.25
253.329	217.25
253.562	209.25
253.795	203.25
254.028	235.25
254.261	214.25
254.494	211.25
254.727	245.25
254.96	289.25
255.193	245.25
255.426	250.25
255.659	226.25
255.892	235.25
256.124	272.25
256.357	261.25
256.59	254.25
256.823	219.25
257.056	235.25
257.289	209.25
257.521	214.25
257.754	206.25
257.987	239.25
258.22	207.25
258.452	211.25
258.685	208.25
258.918	217.25
259.151	214.25
259.383	223.25
259.616	220.25
259.849	218.25
260.081	268.25
260.314	263.25
260.547	264.25
260.779	244.25
261.012	233.25
261.244	224.25
261.477	239.25
261.71	215.25
261.942	212.25
262.175	231.25
262.407	238.25
262.64	234.25
262.872	207.25
263.105	203.25
263.337	233.25
263.57	213.25
263.802	230.25
264.035	211.25
264.267	217.25
264.499	228.25
264.732	218.25
264.964	209.25
265.197	233.25
265.429	215.25
265.661	216.25
265.894	221.25
266.126	232.25
266.358	229.25
266.591	249.25
266.823	239.25
267.055	246.25
267.287	252.25
267.52	238.25
267.752	241.25
267.984	254.25
268.216	242.25
268.448	254.25
268.681	247.25
268.913	271.25
269.145	271.25
269.377	302.25
269.609	276.25
269.841	274.25
270.073	257.25
270.306	298.25
270.538	314.25
270.77	324.25
271.002	298.25
271.234	315.25
271.466	314.25
271.698	315.25
271.93	321.25
272.162	327.25
272.394	293.25
272.626	303.25
272.858	309.25
273.09	308.25
273.322	292.25
273.553	288.25
273.785	288.25
274.017	277.25
274.249	273.25
274.481	284.25
274.713	271.25
274.945	285.25
275.176	299.25
275.408	285.25
275.64	288.25
275.872	275.25
276.104	287.25
276.335	267.25
276.567	294.25
276.799	297.25
277.031	328.25
277.262	332.25
277.494	317.25
277.726	314.25
277.957	316.25
278.189	297.25
278.421	288.25
278.652	288.25
278.884	288.25
279.115	274.25
279.347	286.25
279.579	295.25
279.81	299.25
280.042	305.25
280.273	296.25
280.505	283.25
280.736	302.25
280.968	307.25
281.199	289.25
281.431	288.25
281.662	304.25
281.894	289.25
282.125	282.25
282.356	309.25
282.588	337.25
282.819	322.25
283.051	307.25
283.282	318.25
283.513	299.25
283.745	291.25
283.976	305.25
284.207	308.25
284.439	312.25
284.67	312.25
284.901	320.25
285.132	321.25
285.364	306.25
285.595	318.25
285.826	313.25
286.057	302.25
286.288	310.25
286.52	297.25
286.751	311.25
286.982	311.25
287.213	298.25
287.444	323.25
287.675	326.25
287.906	330.25
288.138	329.25
288.369	335.25
288.6	320.25
288.831	320.25
289.062	346.25
289.293	332.25
289.524	319.25
289.755	319.25
289.986	320.25
290.217	323.25
290.448	331.25
290.679	332.25
290.91	327.25
291.141	313.25
291.371	322.25
291.602	331.25
291.833	325.25
292.064	331.25
292.295	334.25
292.526	337.25
292.757	332.25
292.987	333.25
293.218	313.25
293.449	335.25
293.68	342.25
293.91	339.25
294.141	331.25
294.372	320.25
294.603	335.25
294.833	335.25
295.064	344.25
295.295	322.25
295.525	346.25
295.756	340.25
295.987	347.25
296.217	353.25
296.448	341.25
296.679	355.25
296.909	341.25
297.14	323.25
297.37	329.25
297.601	345.25
297.831	350.25
298.062	344.25
298.292	350.25
298.523	350.25
298.753	339.25
298.984	355.25
299.214	347.25
299.445	359.25
299.675	337.25
299.905	347.25
300.136	349.25
300.366	354.25
300.597	371.25
300.827	371.25
301.057	356.25
301.288	377.25
301.518	363.25
301.748	370.25
301.979	380.25
302.209	358.25
302.439	379.25
302.669	365.25
302.9	372.25
303.13	357.25
303.36	379.25
303.59	361.25
303.82	391.25
304.051	382.25
304.281	368.25
304.511	375.25
304.741	382.25
304.971	371.25
305.201	377.25
305.431	393.25
305.661	376.25
305.891	364.25
306.121	376.25
306.352	390.25
306.582	383.25
306.812	335.25
307.042	375.25
307.272	383.25
307.502	367.25
307.731	389.25
307.961	375.25
308.191	352.25
308.421	391.25
308.651	372.25
308.881	367.25
309.111	382.25
309.341	400.25
309.571	397.25
309.8	395.25
310.03	414.25
310.26	408.25
310.49	407.25
310.72	407.25
310.949	421.25
311.179	442.25
311.409	437.25
311.639	421.25
311.868	416.25
312.098	423.25
312.328	422.25
312.557	421.25
312.787	433.25
313.017	417.25
313.246	423.25
313.476	413.25
313.706	418.25
313.935	430.25
314.165	441.25
314.394	456.25
314.624	438.25
314.853	436.25
315.083	407.25
315.312	425.25
315.542	432.25
315.771	414.25
316.001	417.25
316.23	402.25
316.46	413.25
316.689	420.25
316.919	421.25
317.148	425.25
317.377	416.25
317.607	427.25
317.836	427.25
318.065	420.25
318.295	420.25
318.524	438.25
318.753	406.25
318.983	431.25
319.212	416.25
319.441	447.25
319.67	443.25
319.9	433.25
320.129	424.25
320.358	419.25
320.587	414.25
320.816	442.25
321.046	463.25
321.275	444.25
321.504	444.25
321.733	454.25
321.962	439.25
322.191	458.25
322.42	472.25
322.649	491.25
322.878	486.25
323.108	495.25
323.337	516.25
323.566	548.25
323.795	549.25
324.024	592.25
324.253	689.25
324.482	979.25
324.71	1407.25
324.939	2022.25
325.168	1714.25
325.397	919.25
325.626	672.25
325.855	590.25
326.084	565.25
326.313	545.25
326.542	538.25
326.77	581.25
326.999	672.25
327.228	888.25
327.457	1329.25
327.686	1555.25
327.914	1021.25
328.143	733.25
328.372	655.25
328.6	619.25
328.829	573.25
329.058	600.25
329.287	618.25
329.515	605.25
329.744	561.25
329.972	580.25
330.201	609.25
330.43	640.25
330.658	665.25
330.887	654.25
331.115	633.25
331.344	554.25
331.572	552.25
331.801	537.25
332.03	538.25
332.258	534.25
332.486	526.25
332.715	524.25
332.943	542.25
333.172	553.25
333.4	554.25
333.629	550.25
333.857	575.25
334.085	612.25
334.314	626.25
334.542	663.25
334.771	658.25
334.999	633.25
335.227	565.25
335.455	551.25
335.684	527.25
335.912	538.25
336.14	505.25
336.369	483.25
336.597	529.25
336.825	530.25
337.053	515.25
337.281	493.25
337.51	505.25
337.738	507.25
337.966	494.25
338.194	485.25
338.422	494.25
338.65	499.25
338.878	482.25
339.106	495.25
339.334	510.25
339.562	481.25
339.79	483.25
340.018	485.25
340.246	454.25
340.474	494.25
340.702	494.25
340.93	485.25
341.158	477.25
341.386	470.25
341.614	503.25
341.842	470.25
342.07	475.25
342.298	471.25
342.526	459.25
342.754	463.25
342.981	482.25
343.209	448.25
343.437	481.25
343.665	489.25
343.893	483.25
344.12	518.25
344.348	490.25
344.576	482.25
344.804	495.25
345.031	486.25
345.259	484.25
345.487	478.25
345.714	478.25
345.942	477.25
346.17	481.25
346.397	452.25
346.625	461.25
346.853	447.25
347.08	441.25
347.308	469.25
347.535	451.25
347.763	450.25
347.99	447.25
348.218	459.25
348.445	475.25
348.673	470.25
348.9	465.25
349.128	449.25
349.355	451.25
349.583	434.25
349.81	460.25
350.037	450.25
350.265	441.25
350.492	425.25
350.72	444.25
350.947	452.25
351.174	447.25
351.402	442.25
351.629	446.25
351.856	467.25
352.083	449.25
352.311	452.25
352.538	459.25
352.765	455.25
352.992	452.25
353.22	453.25
353.447	453.25
353.674	454.25
353.901	418.25
354.128	412.25
354.355	441.25
354.583	432.25
354.81	424.25
355.037	439.25
355.264	407.25
355.491	426.25
355.718	440.25
355.945	435.25
356.172	441.25
356.399	421.25
356.626	436.25
356.853	425.25
357.08	421.25
357.307	424.25
357.534	427.25
357.761	412.25
357.988	437.25
358.215	418.25
358.441	411.25
358.668	454.25
358.895	424.25
359.122	425.25
359.349	436.25
359.576	454.25
359.802	471.25
360.029	483.25
360.256	489.25
360.483	465.25
360.709	451.25
360.936	465.25
361.163	457.25
361.39	431.25
361.616	444.25
361.843	453.25
362.07	437.25
362.296	455.25
362.523	439.25
362.749	454.25
362.976	431.25
363.203	452.25
363.429	429.25
363.656	426.25
363.882	431.25
364.109	423.25
364.335	429.25
364.562	415.25
364.788	435.25
365.015	442.25
365.241	426.25
365.468	436.25
365.694	441.25
365.92	442.25
366.147	434.25
366.373	442.25
366.599	435.25
366.826	434.25
367.052	438.25
367.278	425.25
367.505	427.25
367.731	445.25
367.957	423.25
368.184	455.25
368.41	417.25
368.636	433.25
368.862	443.25
369.089	441.25
369.315	435.25
369.541	432.25
369.767	444.25
369.993	408.25
370.219	425.25
370.445	426.25
370.672	424.25
370.898	430.25
371.124	424.25
371.35	424.25
371.576	427.25
371.802	444.25
372.028	421.25
372.254	430.25
372.48	445.25
372.706	443.25
372.932	421.25
373.158	453.25
373.384	439.25
373.61	434.25
373.835	433.25
374.061	438.25
374.287	417.25
374.513	434.25
374.739	421.25
374.965	424.25
375.191	463.25
375.416	461.25
375.642	449.25
375.868	433.25
376.094	449.25
376.319	434.25
376.545	419.25
376.771	433.25
376.997	432.25
377.222	426.25
377.448	418.25
377.674	419.25
377.899	421.25
378.125	425.25
378.35	418.25
378.576	423.25
378.802	401.25
379.027	429.25
379.253	426.25
379.478	414.25
379.704	417.25
379.929	413.25
380.155	421.25
380.38	414.25
380.606	421.25
380.831	445.25
381.057	439.25
381.282	414.25
381.507	418.25
381.733	399.25
381.958	446.25
382.184	440.25
382.409	443.25
382.634	434.25
382.86	441.25
383.085	421.25
383.31	465.25
383.535	436.25
383.761	453.25
383.986	449.25
384.211	455.25
384.436	472.25
384.662	437.25
384.887	445.25
385.112	470.25
385.337	476.25
385.562	464.25
385.787	470.25
386.013	480.25
386.238	505.25
386.463	483.25
386.688	509.25
386.913	480.25
387.138	466.25
387.363	463.25
387.588	466.25
387.813	479.25
388.038	459.25
388.263	477.25
388.488	468.25
388.713	473.25
388.938	489.25
389.163	474.25
389.387	485.25
389.612	480.25
389.837	447.25
390.062	473.25
390.287	475.25
390.512	470.25
390.736	479.25
390.961	494.25
391.186	459.25
391.411	506.25
391.636	480.25
391.86	482.25
392.085	512.25
392.31	485.25
392.534	476.25
392.759	487.25
392.984	477.25
393.208	481.25
393.433	471.25
393.658	476.25
393.882	481.25
394.107	503.25
394.331	473.25
394.556	469.25
394.78	491.25
395.005	489.25
395.229	496.25
395.454	505.25
395.678	497.25
395.903	509.25
396.127	528.25
396.352	522.25
396.576	488.25
396.801	507.25
397.025	486.25
397.249	495.25
397.474	485.25
397.698	517.25
397.922	532.25
398.147	518.25
398.371	534.25
398.595	535.25
398.82	554.25
399.044	595.25
399.268	607.25
399.492	660.25
399.717	709.25
399.941	721.25
400.165	709.25
400.389	683.25
400.613	635.25
400.837	606.25
401.062	597.25
401.286	548.25
401.51	566.25
401.734	564.25
401.958	566.25
402.182	576.25
402.406	582.25
402.63	571.25
402.854	570.25
403.078	562.25
403.302	577.25
403.526	572.25
403.75	571.25
403.974	599.25
404.198	608.25
404.422	607.25
404.645	615.25
404.869	610.25
405.093	637.25
405.317	697.25
405.541	693.25
405.765	648.25
405.988	608.25
406.212	610.25
406.436	640.25
406.66	630.25
406.883	624.25
407.107	640.25
407.331	665.25
407.555	744.25
407.778	752.25
408.002	695.25
408.226	648.25
408.449	639.25
408.673	617.25
408.896	665.25
409.12	695.25
409.344	652.25
409.567	601.25
409.791	593.25
410.014	585.25
410.238	578.25
410.461	590.25
410.685	579.25
410.908	602.25
411.132	641.25
411.355	663.25
411.578	617.25
411.802	586.25
412.025	570.25
412.249	585.25
412.472	616.25
412.695	643.25
412.919	626.25
413.142	617.25
413.365	566.25
413.589	569.25
413.812	571.25
414.035	547.25
414.258	553.25
414.482	535.25
414.705	541.25
414.928	521.25
415.151	543.25
415.374	559.25
415.597	523.25
415.821	558.25
416.044	531.25
416.267	529.25
416.49	537.25
416.713	543.25
416.936	538.25
417.159	534.25
417.382	543.25
417.605	536.25
417.828	546.25
418.051	553.25
418.274	557.25
418.497	543.25
418.72	517.25
418.943	534.25
419.166	547.25
419.389	588.25
419.611	599.25
419.834	565.25
420.057	571.25
420.28	605.25
420.503	584.25
420.726	561.25
420.948	601.25
421.171	636.25
421.394	629.25
421.617	583.25
421.839	552.25
422.062	546.25
422.285	536.25
422.507	644.25
422.73	671.25
422.953	642.25
423.175	610.25
423.398	589.25
423.621	597.25
423.843	581.25
424.066	593.25
424.288	577.25
424.511	628.25
424.733	676.25
424.956	717.25
425.178	705.25
425.401	687.25
425.623	710.25
425.846	640.25
426.068	578.25
426.291	577.25
426.513	556.25
426.735	621.25
426.958	624.25
427.18	697.25
427.402	818.25
427.625	887.25
427.847	773.25
428.069	707.25
428.292	638.25
428.514	552.25
428.736	551.25
428.958	558.25
429.181	516.25
429.403	537.25
429.625	520.25
429.847	551.25
430.069	623.25
430.292	616.25
430.514	521.25
430.736	534.25
430.958	514.25
431.18	523.25
431.402	513.25
431.624	496.25
431.846	486.25
432.068	516.25
432.29	504.25
432.512	507.25
432.734	509.25
432.956	536.25
433.178	526.25
433.4	520.25
433.622	514.25
433.844	492.25
434.066	508.25
434.287	488.25
434.509	534.25
434.731	529.25
434.953	551.25
435.175	550.25
435.397	573.25
435.618	584.25
435.84	577.25
436.062	690.25
436.284	754.25
436.505	602.25
436.727	549.25
436.949	538.25
437.17	520.25
437.392	531.25
437.614	546.25
437.835	560.25
438.057	631.25
438.278	754.25
438.5	706.25
438.721	795.25
438.943	767.25
439.165	623.25
439.386	583.25
439.608	565.25
439.829	563.25
440.05	610.25
440.272	628.25
440.493	625.25
440.715	566.25
440.936	555.25
441.158	544.25
441.379	536.25
441.6	564.25
441.822	563.25
442.043	610.25
442.264	687.25
442.486	754.25
442.707	613.25
442.928	581.25
443.149	591.25
443.371	614.25
443.592	657.25
443.813	733.25
444.034	783.25
444.255	682.25
444.476	600.25
444.698	595.25
444.919	606.25
445.14	731.25
445.361	671.25
445.582	640.25
445.803	673.25
446.024	750.25
446.245	771.25
446.466	695.25
446.687	628.25
446.908	574.25
447.129	557.25
447.35	531.25
447.571	545.25
447.792	521.25
448.013	534.25
448.234	542.25
448.455	570.25
448.675	683.25
448.896	803.25
449.117	648.25
449.338	606.25
449.559	731.25
449.779	820.25
450	679.25
450.221	569.25
450.442	521.25
450.662	521.25
450.883	531.25
451.104	526.25
451.324	514.25
451.545	500.25
451.766	489.25
451.986	463.25
452.207	447.25
452.428	472.25
452.648	447.25
452.869	458.25
453.089	483.25
453.31	501.25
453.53	491.25
453.751	468.25
453.971	455.25
454.192	479.25
454.412	473.25
454.633	453.25
454.853	457.25
455.073	487.25
455.294	488.25
455.514	551.25
455.734	550.25
455.955	491.25
456.175	468.25
456.395	445.25
456.616	444.25
456.836	425.25
457.056	446.25
457.276	455.25
457.497	439.25
457.717	452.25
457.937	448.25
458.157	439.25
458.377	457.25
458.598	486.25
458.818	516.25
459.038	596.25
459.258	622.25
459.478	538.25
459.698	525.25
459.918	535.25
460.138	505.25
460.358	550.25
460.578	515.25
460.798	555.25
461.018	535.25
461.238	544.25
461.458	551.25
461.678	524.25
461.898	542.25
462.118	542.25
462.338	558.25
462.558	561.25
462.777	575.25
462.997	608.25
463.217	597.25
463.437	626.25
463.657	607.25
463.876	574.25
464.096	594.25
464.316	595.25
464.536	594.25
464.755	597.25
464.975	585.25
465.195	595.25
465.414	665.25
465.634	591.25
465.854	544.25
466.073	521.25
466.293	515.25
466.512	503.25
466.732	517.25
466.951	483.25
467.171	473.25
467.391	487.25
467.61	498.25
467.829	500.25
468.049	486.25
468.268	529.25
468.488	495.25
468.707	465.25
468.927	487.25
469.146	471.25
469.365	451.25
469.585	469.25
469.804	474.25
470.023	494.25
470.243	507.25
470.462	497.25
470.681	522.25
470.901	517.25
471.12	499.25
471.339	494.25
471.558	504.25
471.777	498.25
471.997	493.25
472.216	501.25
472.435	563.25
472.654	563.25
472.873	512.25
473.092	502.25
473.311	496.25
473.53	513.25
473.749	485.25
473.968	518.25
474.187	629.25
474.406	642.25
474.625	534.25
474.844	513.25
475.063	488.25
475.282	503.25
475.501	502.25
475.72	503.25
475.939	526.25
476.158	483.25
476.377	499.25
476.596	531.25
476.814	518.25
477.033	530.25
477.252	519.25
477.471	526.25
477.69	534.25
477.908	546.25
478.127	551.25
478.346	542.25
478.564	537.25
478.783	542.25
479.002	571.25
479.22	584.25
479.439	599.25
479.658	601.25
479.876	609.25
480.095	591.25
480.313	619.25
480.532	626.25
480.751	624.25
480.969	652.25
481.188	715.25
481.406	769.25
481.624	663.25
481.843	620.25
482.061	607.25
482.28	588.25
482.498	569.25
482.717	597.25
482.935	582.25
483.153	580.25
483.372	590.25
483.59	550.25
483.808	561.25
484.027	573.25
484.245	583.25
484.463	564.25
484.681	592.25
484.9	600.25
485.118	593.25
485.336	584.25
485.554	611.25
485.772	632.25
485.99	602.25
486.209	584.25
486.427	595.25
486.645	596.25
486.863	607.25
487.081	629.25
487.299	616.25
487.517	624.25
487.735	638.25
487.953	611.25
488.171	611.25
488.389	608.25
488.607	633.25
488.825	617.25
489.043	609.25
489.261	639.25
489.479	632.25
489.696	623.25
489.914	633.25
490.132	659.25
490.35	649.25
490.568	655.25
490.786	665.25
491.003	697.25
491.221	678.25
491.439	681.25
491.657	707.25
491.874	697.25
492.092	708.25
492.31	709.25
492.527	722.25
492.745	730.25
492.963	710.25
493.18	749.25
493.398	727.25
493.615	733.25
493.833	705.25
494.05	727.25
494.268	745.25
494.485	721.25
494.703	744.25
494.92	724.25
495.138	741.25
495.355	702.25
495.573	733.25
495.79	744.25
496.008	711.25
496.225	719.25
496.442	755.25
496.66	757.25
496.877	739.25
497.094	751.25
497.312	770.25
497.529	757.25
497.746	779.25
497.963	794.25
498.181	800.25
498.398	832.25
498.615	848.25
498.832	882.25
499.049	880.25
499.267	942.25
499.484	957.25
499.701	1048.25
499.918	1055.25
500.135	1131.25
500.352	1247.25
500.569	1245.25
500.786	1249.25
501.003	1230.25
501.22	1163.25
501.437	1076.25
501.654	1053.25
501.871	1033.25
