Data from 1985.PennyLincolnUp.Lamp.En5.5.200Scan.071819.P1_HRD10591_17-03-51-970.txt Node
Date: Thu Jul 18 17:03:51 EDT 2019
User: cochatt
Spectrometer: HR+D1059
Trigger mode: 1
Integration Time (sec): 1.000000E-1
Scans to average: 1
Electric dark correction enabled: true
Nonlinearity correction enabled: false
Boxcar width: 0
XAxis mode: Wavelengths
Number of Pixels in Spectrum: 2048
>>>>>Begin Spectral Data<<<<<
223.165	-10.38
223.4	-10.38
223.635	-10.38
223.869	-18.38
224.104	-9.38
224.338	-6.38
224.573	-11.38
224.808	-10.38
225.042	1.62
225.277	-19.38
225.511	-4.38
225.746	5.62
225.98	5.62
226.215	-4.38
226.449	12.62
226.683	16.62
226.918	24.62
227.152	27.62
227.387	18.62
227.621	39.62
227.856	31.62
228.09	33.62
228.324	55.62
228.559	59.62
228.793	55.62
229.027	90.62
229.262	101.62
229.496	91.62
229.73	115.62
229.964	141.62
230.199	123.62
230.433	130.62
230.667	115.62
230.901	116.62
231.136	109.62
231.37	121.62
231.604	104.62
231.838	116.62
232.072	108.62
232.306	126.62
232.541	117.62
232.775	108.62
233.009	112.62
233.243	115.62
233.477	112.62
233.711	118.62
233.945	126.62
234.179	114.62
234.413	118.62
234.647	116.62
234.881	117.62
235.115	116.62
235.349	124.62
235.583	136.62
235.817	122.62
236.051	116.62
236.285	134.62
236.519	116.62
236.753	132.62
236.987	140.62
237.221	187.62
237.455	227.62
237.689	185.62
237.922	142.62
238.156	118.62
238.39	119.62
238.624	131.62
238.858	131.62
239.091	116.62
239.325	125.62
239.559	117.62
239.793	120.62
240.027	125.62
240.26	136.62
240.494	160.62
240.728	158.62
240.961	154.62
241.195	135.62
241.429	131.62
241.662	135.62
241.896	123.62
242.13	130.62
242.363	129.62
242.597	137.62
242.83	135.62
243.064	145.62
243.298	156.62
243.531	152.62
243.765	142.62
243.998	137.62
244.232	142.62
244.465	151.62
244.699	151.62
244.932	157.62
245.166	138.62
245.399	135.62
245.633	143.62
245.866	146.62
246.099	160.62
246.333	170.62
246.566	152.62
246.8	158.62
247.033	153.62
247.266	140.62
247.5	157.62
247.733	185.62
247.966	185.62
248.2	159.62
248.433	181.62
248.666	157.62
248.899	193.62
249.133	211.62
249.366	200.62
249.599	183.62
249.832	184.62
250.066	188.62
250.299	183.62
250.532	187.62
250.765	199.62
250.998	218.62
251.231	246.62
251.465	218.62
251.698	226.62
251.931	198.62
252.164	191.62
252.397	196.62
252.63	221.62
252.863	207.62
253.096	210.62
253.329	211.62
253.562	209.62
253.795	216.62
254.028	208.62
254.261	219.62
254.494	246.62
254.727	249.62
254.96	291.62
255.193	258.62
255.426	228.62
255.659	224.62
255.892	219.62
256.124	239.62
256.357	277.62
256.59	240.62
256.823	222.62
257.056	219.62
257.289	217.62
257.521	211.62
257.754	211.62
257.987	214.62
258.22	212.62
258.452	217.62
258.685	215.62
258.918	212.62
259.151	219.62
259.383	239.62
259.616	219.62
259.849	230.62
260.081	225.62
260.314	267.62
260.547	251.62
260.779	247.62
261.012	237.62
261.244	226.62
261.477	233.62
261.71	251.62
261.942	223.62
262.175	242.62
262.407	236.62
262.64	225.62
262.872	212.62
263.105	225.62
263.337	241.62
263.57	230.62
263.802	216.62
264.035	240.62
264.267	223.62
264.499	215.62
264.732	212.62
264.964	239.62
265.197	222.62
265.429	229.62
265.661	234.62
265.894	218.62
266.126	235.62
266.358	222.62
266.591	234.62
266.823	228.62
267.055	241.62
267.287	239.62
267.52	249.62
267.752	246.62
267.984	246.62
268.216	234.62
268.448	249.62
268.681	241.62
268.913	267.62
269.145	278.62
269.377	290.62
269.609	281.62
269.841	291.62
270.073	310.62
270.306	311.62
270.538	332.62
270.77	319.62
271.002	312.62
271.234	305.62
271.466	289.62
271.698	343.62
271.93	332.62
272.162	327.62
272.394	317.62
272.626	311.62
272.858	298.62
273.09	309.62
273.322	285.62
273.553	283.62
273.785	269.62
274.017	271.62
274.249	259.62
274.481	264.62
274.713	295.62
274.945	292.62
275.176	283.62
275.408	284.62
275.64	264.62
275.872	290.62
276.104	269.62
276.335	281.62
276.567	285.62
276.799	323.62
277.031	340.62
277.262	322.62
277.494	328.62
277.726	333.62
277.957	299.62
278.189	300.62
278.421	297.62
278.652	296.62
278.884	314.62
279.115	282.62
279.347	293.62
279.579	294.62
279.81	296.62
280.042	275.62
280.273	286.62
280.505	290.62
280.736	308.62
280.968	313.62
281.199	291.62
281.431	299.62
281.662	295.62
281.894	308.62
282.125	299.62
282.356	322.62
282.588	340.62
282.819	320.62
283.051	320.62
283.282	311.62
283.513	288.62
283.745	306.62
283.976	311.62
284.207	331.62
284.439	305.62
284.67	323.62
284.901	301.62
285.132	325.62
285.364	320.62
285.595	313.62
285.826	305.62
286.057	334.62
286.288	302.62
286.52	327.62
286.751	311.62
286.982	333.62
287.213	310.62
287.444	315.62
287.675	334.62
287.906	333.62
288.138	334.62
288.369	353.62
288.6	336.62
288.831	343.62
289.062	333.62
289.293	325.62
289.524	305.62
289.755	328.62
289.986	336.62
290.217	315.62
290.448	329.62
290.679	340.62
290.91	328.62
291.141	313.62
291.371	320.62
291.602	341.62
291.833	325.62
292.064	329.62
292.295	312.62
292.526	315.62
292.757	327.62
292.987	329.62
293.218	333.62
293.449	336.62
293.68	315.62
293.91	331.62
294.141	330.62
294.372	336.62
294.603	307.62
294.833	313.62
295.064	341.62
295.295	343.62
295.525	330.62
295.756	343.62
295.987	344.62
296.217	359.62
296.448	372.62
296.679	337.62
296.909	330.62
297.14	329.62
297.37	340.62
297.601	333.62
297.831	347.62
298.062	341.62
298.292	346.62
298.523	346.62
298.753	358.62
298.984	335.62
299.214	350.62
299.445	355.62
299.675	345.62
299.905	336.62
300.136	369.62
300.366	346.62
300.597	365.62
300.827	383.62
301.057	375.62
301.288	371.62
301.518	356.62
301.748	387.62
301.979	383.62
302.209	368.62
302.439	377.62
302.669	377.62
302.9	357.62
303.13	369.62
303.36	379.62
303.59	377.62
303.82	377.62
304.051	357.62
304.281	383.62
304.511	362.62
304.741	377.62
304.971	369.62
305.201	391.62
305.431	368.62
305.661	379.62
305.891	375.62
306.121	364.62
306.352	378.62
306.582	377.62
306.812	365.62
307.042	372.62
307.272	355.62
307.502	375.62
307.731	380.62
307.961	382.62
308.191	359.62
308.421	378.62
308.651	367.62
308.881	393.62
309.111	381.62
309.341	380.62
309.571	407.62
309.8	423.62
310.03	433.62
310.26	405.62
310.49	403.62
310.72	425.62
310.949	434.62
311.179	442.62
311.409	427.62
311.639	407.62
311.868	406.62
312.098	429.62
312.328	405.62
312.557	452.62
312.787	460.62
313.017	424.62
313.246	425.62
313.476	444.62
313.706	428.62
313.935	439.62
314.165	471.62
314.394	428.62
314.624	439.62
314.853	419.62
315.083	427.62
315.312	428.62
315.542	432.62
315.771	419.62
316.001	419.62
316.23	430.62
316.46	423.62
316.689	409.62
316.919	443.62
317.148	431.62
317.377	428.62
317.607	410.62
317.836	425.62
318.065	419.62
318.295	426.62
318.524	417.62
318.753	431.62
318.983	399.62
319.212	415.62
319.441	431.62
319.67	440.62
319.9	415.62
320.129	422.62
320.358	448.62
320.587	438.62
320.816	435.62
321.046	457.62
321.275	444.62
321.504	448.62
321.733	458.62
321.962	451.62
322.191	468.62
322.42	458.62
322.649	467.62
322.878	477.62
323.108	495.62
323.337	508.62
323.566	521.62
323.795	571.62
324.024	599.62
324.253	681.62
324.482	961.62
324.71	1415.62
324.939	2057.62
325.168	1733.62
325.397	928.62
325.626	648.62
325.855	599.62
326.084	546.62
326.313	538.62
326.542	547.62
326.77	579.62
326.999	663.62
327.228	914.62
327.457	1310.62
327.686	1525.62
327.914	1043.62
328.143	724.62
328.372	656.62
328.6	607.62
328.829	595.62
329.058	593.62
329.287	605.62
329.515	577.62
329.744	560.62
329.972	554.62
330.201	556.62
330.43	610.62
330.658	627.62
330.887	639.62
331.115	628.62
331.344	567.62
331.572	543.62
331.801	545.62
332.03	554.62
332.258	529.62
332.486	540.62
332.715	544.62
332.943	508.62
333.172	556.62
333.4	578.62
333.629	543.62
333.857	565.62
334.085	585.62
334.314	623.62
334.542	627.62
334.771	644.62
334.999	590.62
335.227	549.62
335.455	539.62
335.684	525.62
335.912	534.62
336.14	512.62
336.369	519.62
336.597	516.62
336.825	511.62
337.053	520.62
337.281	500.62
337.51	482.62
337.738	515.62
337.966	489.62
338.194	476.62
338.422	504.62
338.65	503.62
338.878	499.62
339.106	489.62
339.334	479.62
339.562	476.62
339.79	482.62
340.018	476.62
340.246	480.62
340.474	480.62
340.702	486.62
340.93	490.62
341.158	469.62
341.386	489.62
341.614	476.62
341.842	467.62
342.07	470.62
342.298	456.62
342.526	461.62
342.754	449.62
342.981	490.62
343.209	480.62
343.437	484.62
343.665	481.62
343.893	528.62
344.12	497.62
344.348	508.62
344.576	501.62
344.804	492.62
345.031	495.62
345.259	501.62
345.487	496.62
345.714	475.62
345.942	445.62
346.17	454.62
346.397	459.62
346.625	440.62
346.853	467.62
347.08	462.62
347.308	447.62
347.535	460.62
347.763	455.62
347.99	469.62
348.218	476.62
348.445	443.62
348.673	464.62
348.9	462.62
349.128	449.62
349.355	444.62
349.583	427.62
349.81	461.62
350.037	457.62
350.265	428.62
350.492	429.62
350.72	448.62
350.947	451.62
351.174	448.62
351.402	460.62
351.629	451.62
351.856	436.62
352.083	468.62
352.311	476.62
352.538	452.62
352.765	467.62
352.992	452.62
353.22	437.62
353.447	426.62
353.674	454.62
353.901	435.62
354.128	418.62
354.355	416.62
354.583	436.62
354.81	439.62
355.037	439.62
355.264	441.62
355.491	447.62
355.718	415.62
355.945	424.62
356.172	419.62
356.399	413.62
356.626	417.62
356.853	412.62
357.08	424.62
357.307	431.62
357.534	447.62
357.761	418.62
357.988	427.62
358.215	432.62
358.441	431.62
358.668	419.62
358.895	427.62
359.122	433.62
359.349	450.62
359.576	455.62
359.802	457.62
360.029	477.62
360.256	485.62
360.483	491.62
360.709	440.62
360.936	455.62
361.163	441.62
361.39	462.62
361.616	439.62
361.843	454.62
362.07	468.62
362.296	456.62
362.523	460.62
362.749	443.62
362.976	441.62
363.203	437.62
363.429	437.62
363.656	449.62
363.882	450.62
364.109	458.62
364.335	442.62
364.562	437.62
364.788	425.62
365.015	428.62
365.241	434.62
365.468	443.62
365.694	438.62
365.92	435.62
366.147	437.62
366.373	433.62
366.599	427.62
366.826	410.62
367.052	422.62
367.278	428.62
367.505	441.62
367.731	443.62
367.957	434.62
368.184	398.62
368.41	422.62
368.636	444.62
368.862	454.62
369.089	440.62
369.315	424.62
369.541	447.62
369.767	447.62
369.993	436.62
370.219	430.62
370.445	421.62
370.672	435.62
370.898	459.62
371.124	441.62
371.35	435.62
371.576	429.62
371.802	436.62
372.028	422.62
372.254	417.62
372.48	454.62
372.706	414.62
372.932	454.62
373.158	463.62
373.384	424.62
373.61	450.62
373.835	447.62
374.061	421.62
374.287	438.62
374.513	453.62
374.739	453.62
374.965	463.62
375.191	466.62
375.416	449.62
375.642	455.62
375.868	461.62
376.094	453.62
376.319	437.62
376.545	444.62
376.771	448.62
376.997	443.62
377.222	431.62
377.448	419.62
377.674	435.62
377.899	429.62
378.125	435.62
378.35	424.62
378.576	415.62
378.802	406.62
379.027	411.62
379.253	426.62
379.478	423.62
379.704	429.62
379.929	409.62
380.155	430.62
380.38	413.62
380.606	442.62
380.831	419.62
381.057	442.62
381.282	415.62
381.507	433.62
381.733	439.62
381.958	433.62
382.184	434.62
382.409	421.62
382.634	451.62
382.86	454.62
383.085	442.62
383.31	453.62
383.535	444.62
383.761	455.62
383.986	471.62
384.211	441.62
384.436	461.62
384.662	471.62
384.887	485.62
385.112	473.62
385.337	489.62
385.562	450.62
385.787	460.62
386.013	483.62
386.238	487.62
386.463	474.62
386.688	482.62
386.913	485.62
387.138	469.62
387.363	463.62
387.588	459.62
387.813	463.62
388.038	464.62
388.263	458.62
388.488	463.62
388.713	487.62
388.938	465.62
389.163	452.62
389.387	451.62
389.612	450.62
389.837	458.62
390.062	461.62
390.287	471.62
390.512	476.62
390.736	455.62
390.961	477.62
391.186	469.62
391.411	491.62
391.636	495.62
391.86	519.62
392.085	497.62
392.31	507.62
392.534	478.62
392.759	499.62
392.984	480.62
393.208	495.62
393.433	465.62
393.658	479.62
393.882	477.62
394.107	471.62
394.331	496.62
394.556	473.62
394.78	485.62
395.005	493.62
395.229	483.62
395.454	506.62
395.678	511.62
395.903	512.62
396.127	523.62
396.352	507.62
396.576	517.62
396.801	481.62
397.025	497.62
397.249	520.62
397.474	512.62
397.698	516.62
397.922	536.62
398.147	531.62
398.371	541.62
398.595	543.62
398.82	575.62
399.044	581.62
399.268	587.62
399.492	652.62
399.717	682.62
399.941	737.62
400.165	690.62
400.389	688.62
400.613	614.62
400.837	599.62
401.062	566.62
401.286	569.62
401.51	572.62
401.734	530.62
401.958	551.62
402.182	567.62
402.406	555.62
402.63	567.62
402.854	579.62
403.078	579.62
403.302	605.62
403.526	616.62
403.75	593.62
403.974	587.62
404.198	584.62
404.422	592.62
404.645	623.62
404.869	589.62
405.093	646.62
405.317	663.62
405.541	694.62
405.765	636.62
405.988	611.62
406.212	615.62
406.436	647.62
406.66	647.62
406.883	614.62
407.107	670.62
407.331	699.62
407.555	763.62
407.778	760.62
408.002	702.62
408.226	652.62
408.449	657.62
408.673	627.62
408.896	648.62
409.12	681.62
409.344	672.62
409.567	613.62
409.791	609.62
410.014	596.62
410.238	580.62
410.461	576.62
410.685	571.62
410.908	596.62
411.132	618.62
411.355	627.62
411.578	624.62
411.802	585.62
412.025	597.62
412.249	584.62
412.472	623.62
412.695	645.62
412.919	627.62
413.142	593.62
413.365	565.62
413.589	559.62
413.812	552.62
414.035	548.62
414.258	539.62
414.482	533.62
414.705	570.62
414.928	553.62
415.151	549.62
415.374	535.62
415.597	531.62
415.821	542.62
416.044	545.62
416.267	537.62
416.49	538.62
416.713	550.62
416.936	533.62
417.159	529.62
417.382	521.62
417.605	549.62
417.828	554.62
418.051	577.62
418.274	564.62
418.497	531.62
418.72	547.62
418.943	541.62
419.166	583.62
419.389	604.62
419.611	600.62
419.834	578.62
420.057	592.62
420.28	580.62
420.503	570.62
420.726	563.62
420.948	577.62
421.171	617.62
421.394	635.62
421.617	571.62
421.839	546.62
422.062	578.62
422.285	547.62
422.507	622.62
422.73	696.62
422.953	665.62
423.175	607.62
423.398	595.62
423.621	581.62
423.843	595.62
424.066	578.62
424.288	599.62
424.511	620.62
424.733	652.62
424.956	738.62
425.178	711.62
425.401	681.62
425.623	715.62
425.846	642.62
426.068	593.62
426.291	587.62
426.513	577.62
426.735	576.62
426.958	615.62
427.18	699.62
427.402	821.62
427.625	892.62
427.847	800.62
428.069	687.62
428.292	621.62
428.514	556.62
428.736	534.62
428.958	529.62
429.181	514.62
429.403	543.62
429.625	532.62
429.847	565.62
430.069	643.62
430.292	628.62
430.514	536.62
430.736	521.62
430.958	510.62
431.18	507.62
431.402	519.62
431.624	498.62
431.846	527.62
432.068	537.62
432.29	524.62
432.512	522.62
432.734	541.62
432.956	521.62
433.178	497.62
433.4	529.62
433.622	503.62
433.844	497.62
434.066	522.62
434.287	530.62
434.509	511.62
434.731	515.62
434.953	551.62
435.175	569.62
435.397	575.62
435.618	556.62
435.84	616.62
436.062	692.62
436.284	759.62
436.505	637.62
436.727	573.62
436.949	557.62
437.17	539.62
437.392	553.62
437.614	530.62
437.835	579.62
438.057	666.62
438.278	745.62
438.5	758.62
438.721	847.62
438.943	793.62
439.165	643.62
439.386	583.62
439.608	571.62
439.829	600.62
440.05	582.62
440.272	632.62
440.493	583.62
440.715	563.62
440.936	551.62
441.158	540.62
441.379	540.62
441.6	564.62
441.822	595.62
442.043	603.62
442.264	693.62
442.486	740.62
442.707	617.62
442.928	585.62
443.149	599.62
443.371	613.62
443.592	638.62
443.813	748.62
444.034	785.62
444.255	664.62
444.476	609.62
444.698	618.62
444.919	625.62
445.14	746.62
445.361	661.62
445.582	612.62
445.803	684.62
446.024	779.62
446.245	781.62
446.466	695.62
446.687	599.62
446.908	569.62
447.129	531.62
447.35	520.62
447.571	536.62
447.792	526.62
448.013	504.62
448.234	532.62
448.455	570.62
448.675	686.62
448.896	800.62
449.117	675.62
449.338	636.62
449.559	764.62
449.779	851.62
450	674.62
450.221	565.62
450.442	541.62
450.662	500.62
450.883	513.62
451.104	513.62
451.324	523.62
451.545	492.62
451.766	484.62
451.986	487.62
452.207	460.62
452.428	469.62
452.648	473.62
452.869	461.62
453.089	488.62
453.31	487.62
453.53	479.62
453.751	474.62
453.971	483.62
454.192	488.62
454.412	470.62
454.633	462.62
454.853	471.62
455.073	474.62
455.294	485.62
455.514	537.62
455.734	533.62
455.955	468.62
456.175	444.62
456.395	440.62
456.616	455.62
456.836	443.62
457.056	432.62
457.276	443.62
457.497	447.62
457.717	445.62
457.937	434.62
458.157	482.62
458.377	491.62
458.598	467.62
458.818	573.62
459.038	613.62
459.258	627.62
459.478	571.62
459.698	526.62
459.918	538.62
460.138	536.62
460.358	541.62
460.578	520.62
460.798	531.62
461.018	554.62
461.238	540.62
461.458	558.62
461.678	536.62
461.898	571.62
462.118	553.62
462.338	574.62
462.558	571.62
462.777	582.62
462.997	589.62
463.217	619.62
463.437	653.62
463.657	598.62
463.876	580.62
464.096	616.62
464.316	611.62
464.536	594.62
464.755	601.62
464.975	586.62
465.195	602.62
465.414	666.62
465.634	594.62
465.854	535.62
466.073	518.62
466.293	507.62
466.512	527.62
466.732	489.62
466.951	494.62
467.171	489.62
467.391	511.62
467.61	515.62
467.829	528.62
468.049	499.62
468.268	531.62
468.488	486.62
468.707	490.62
468.927	479.62
469.146	462.62
469.365	475.62
469.585	473.62
469.804	496.62
470.023	513.62
470.243	511.62
470.462	499.62
470.681	536.62
470.901	544.62
471.12	504.62
471.339	503.62
471.558	489.62
471.777	499.62
471.997	486.62
472.216	504.62
472.435	525.62
472.654	548.62
472.873	497.62
473.092	499.62
473.311	514.62
473.53	489.62
473.749	510.62
473.968	538.62
474.187	614.62
474.406	645.62
474.625	548.62
474.844	494.62
475.063	501.62
475.282	493.62
475.501	489.62
475.72	488.62
475.939	514.62
476.158	509.62
476.377	516.62
476.596	513.62
476.814	506.62
477.033	516.62
477.252	520.62
477.471	531.62
477.69	530.62
477.908	547.62
478.127	535.62
478.346	565.62
478.564	566.62
478.783	571.62
479.002	586.62
479.22	568.62
479.439	583.62
479.658	602.62
479.876	601.62
480.095	608.62
480.313	620.62
480.532	629.62
480.751	605.62
480.969	642.62
481.188	682.62
481.406	705.62
481.624	639.62
481.843	599.62
482.061	596.62
482.28	560.62
482.498	575.62
482.717	595.62
482.935	572.62
483.153	560.62
483.372	583.62
483.59	575.62
483.808	590.62
484.027	581.62
484.245	563.62
484.463	589.62
484.681	582.62
484.9	596.62
485.118	591.62
485.336	595.62
485.554	579.62
485.772	601.62
485.99	587.62
486.209	609.62
486.427	609.62
486.645	592.62
486.863	627.62
487.081	634.62
487.299	608.62
487.517	626.62
487.735	621.62
487.953	624.62
488.171	632.62
488.389	627.62
488.607	623.62
488.825	605.62
489.043	633.62
489.261	593.62
489.479	607.62
489.696	633.62
489.914	612.62
490.132	614.62
490.35	634.62
490.568	661.62
490.786	640.62
491.003	672.62
491.221	696.62
491.439	710.62
491.657	716.62
491.874	724.62
492.092	726.62
492.31	739.62
492.527	712.62
492.745	739.62
492.963	742.62
493.18	740.62
493.398	734.62
493.615	750.62
493.833	719.62
494.05	754.62
494.268	711.62
494.485	759.62
494.703	726.62
494.92	735.62
495.138	712.62
495.355	695.62
495.573	731.62
495.79	749.62
496.008	726.62
496.225	719.62
496.442	749.62
496.66	716.62
496.877	705.62
497.094	740.62
497.312	730.62
497.529	803.62
497.746	782.62
497.963	791.62
498.181	810.62
498.398	817.62
498.615	860.62
498.832	857.62
499.049	889.62
499.267	899.62
499.484	981.62
499.701	997.62
499.918	1052.62
500.135	1122.62
500.352	1203.62
500.569	1252.62
500.786	1245.62
501.003	1217.62
501.22	1147.62
501.437	1117.62
501.654	1046.62
501.871	1014.62
