Data from 1985.PennyLincolnUp.Lamp.En5.5.200Scan.071819.P1_HRD10591_17-02-49-970.txt Node
Date: Thu Jul 18 17:02:49 EDT 2019
User: cochatt
Spectrometer: HR+D1059
Trigger mode: 1
Integration Time (sec): 1.000000E-1
Scans to average: 1
Electric dark correction enabled: true
Nonlinearity correction enabled: false
Boxcar width: 0
XAxis mode: Wavelengths
Number of Pixels in Spectrum: 2048
>>>>>Begin Spectral Data<<<<<
223.165	-19
223.4	-19
223.635	-19
223.869	-5
224.104	-14
224.338	-18
224.573	-4
224.808	2
225.042	-20
225.277	-13
225.511	-10
225.746	6
225.98	11
226.215	7
226.449	10
226.683	22
226.918	16
227.152	29
227.387	34
227.621	39
227.856	39
228.09	37
228.324	46
228.559	51
228.793	69
229.027	90
229.262	111
229.496	112
229.73	117
229.964	144
230.199	132
230.433	106
230.667	128
230.901	114
231.136	114
231.37	118
231.604	123
231.838	114
232.072	128
232.306	118
232.541	126
232.775	115
233.009	126
233.243	125
233.477	110
233.711	124
233.945	120
234.179	117
234.413	123
234.647	111
234.881	111
235.115	120
235.349	125
235.583	104
235.817	116
236.051	117
236.285	104
236.519	130
236.753	120
236.987	142
237.221	162
237.455	211
237.689	184
237.922	145
238.156	128
238.39	125
238.624	129
238.858	130
239.091	123
239.325	134
239.559	117
239.793	140
240.027	135
240.26	127
240.494	158
240.728	141
240.961	140
241.195	156
241.429	134
241.662	142
241.896	137
242.13	124
242.363	137
242.597	130
242.83	150
243.064	133
243.298	127
243.531	142
243.765	140
243.998	144
244.232	124
244.465	156
244.699	151
244.932	160
245.166	145
245.399	140
245.633	145
245.866	143
246.099	152
246.333	133
246.566	154
246.8	146
247.033	159
247.266	140
247.5	159
247.733	165
247.966	178
248.2	166
248.433	157
248.666	159
248.899	164
249.133	205
249.366	192
249.599	195
249.832	175
250.066	171
250.299	164
250.532	197
250.765	186
250.998	222
251.231	207
251.465	207
251.698	204
251.931	198
252.164	172
252.397	190
252.63	179
252.863	194
253.096	216
253.329	226
253.562	215
253.795	205
254.028	209
254.261	198
254.494	200
254.727	239
254.96	254
255.193	242
255.426	226
255.659	220
255.892	230
256.124	214
256.357	211
256.59	198
256.823	204
257.056	201
257.289	202
257.521	208
257.754	208
257.987	206
258.22	219
258.452	208
258.685	216
258.918	202
259.151	196
259.383	219
259.616	211
259.849	236
260.081	234
260.314	229
260.547	234
260.779	236
261.012	232
261.244	235
261.477	206
261.71	221
261.942	231
262.175	222
262.407	236
262.64	214
262.872	230
263.105	214
263.337	208
263.57	218
263.802	228
264.035	210
264.267	230
264.499	204
264.732	212
264.964	187
265.197	215
265.429	214
265.661	218
265.894	215
266.126	221
266.358	229
266.591	231
266.823	230
267.055	223
267.287	233
267.52	227
267.752	216
267.984	227
268.216	246
268.448	226
268.681	242
268.913	250
269.145	269
269.377	282
269.609	271
269.841	250
270.073	264
270.306	287
270.538	314
270.77	312
271.002	313
271.234	306
271.466	308
271.698	304
271.93	301
272.162	302
272.394	295
272.626	302
272.858	288
273.09	257
273.322	301
273.553	267
273.785	260
274.017	276
274.249	276
274.481	271
274.713	266
274.945	269
275.176	278
275.408	292
275.64	276
275.872	270
276.104	264
276.335	271
276.567	287
276.799	291
277.031	306
277.262	310
277.494	301
277.726	300
277.957	288
278.189	275
278.421	296
278.652	271
278.884	263
279.115	278
279.347	284
279.579	265
279.81	278
280.042	282
280.273	290
280.505	277
280.736	266
280.968	266
281.199	273
281.431	292
281.662	285
281.894	278
282.125	276
282.356	287
282.588	311
282.819	327
283.051	292
283.282	290
283.513	292
283.745	291
283.976	296
284.207	311
284.439	302
284.67	302
284.901	291
285.132	290
285.364	319
285.595	301
285.826	288
286.057	301
286.288	310
286.52	306
286.751	306
286.982	301
287.213	291
287.444	299
287.675	315
287.906	340
288.138	315
288.369	308
288.6	321
288.831	324
289.062	316
289.293	319
289.524	307
289.755	317
289.986	315
290.217	303
290.448	307
290.679	315
290.91	302
291.141	290
291.371	290
291.602	310
291.833	320
292.064	313
292.295	317
292.526	315
292.757	311
292.987	307
293.218	307
293.449	313
293.68	325
293.91	312
294.141	303
294.372	314
294.603	328
294.833	324
295.064	304
295.295	315
295.525	311
295.756	343
295.987	344
296.217	344
296.448	359
296.679	327
296.909	328
297.14	314
297.37	344
297.601	312
297.831	344
298.062	324
298.292	311
298.523	333
298.753	340
298.984	317
299.214	330
299.445	339
299.675	330
299.905	335
300.136	342
300.366	339
300.597	357
300.827	330
301.057	355
301.288	380
301.518	357
301.748	354
301.979	372
302.209	356
302.439	362
302.669	351
302.9	345
303.13	364
303.36	356
303.59	380
303.82	377
304.051	370
304.281	365
304.511	359
304.741	360
304.971	376
305.201	322
305.431	352
305.661	367
305.891	376
306.121	358
306.352	374
306.582	362
306.812	338
307.042	346
307.272	358
307.502	357
307.731	366
307.961	365
308.191	346
308.421	346
308.651	357
308.881	355
309.111	370
309.341	367
309.571	349
309.8	382
310.03	396
310.26	383
310.49	404
310.72	416
310.949	411
311.179	401
311.409	395
311.639	404
311.868	390
312.098	379
312.328	398
312.557	420
312.787	450
313.017	427
313.246	409
313.476	407
313.706	397
313.935	401
314.165	406
314.394	425
314.624	393
314.853	393
315.083	415
315.312	398
315.542	383
315.771	376
316.001	408
316.23	395
316.46	402
316.689	432
316.919	417
317.148	394
317.377	392
317.607	393
317.836	418
318.065	386
318.295	400
318.524	399
318.753	402
318.983	397
319.212	411
319.441	423
319.67	422
319.9	425
320.129	408
320.358	427
320.587	406
320.816	427
321.046	421
321.275	409
321.504	419
321.733	419
321.962	430
322.191	448
322.42	448
322.649	465
322.878	462
323.108	465
323.337	491
323.566	495
323.795	537
324.024	588
324.253	678
324.482	918
324.71	1346
324.939	1943
325.168	1664
325.397	860
325.626	615
325.855	544
326.084	508
326.313	504
326.542	520
326.77	537
326.999	623
327.228	849
327.457	1247
327.686	1464
327.914	985
328.143	680
328.372	610
328.6	575
328.829	558
329.058	560
329.287	565
329.515	563
329.744	499
329.972	507
330.201	518
330.43	524
330.658	575
330.887	613
331.115	605
331.344	541
331.572	513
331.801	520
332.03	518
332.258	494
332.486	509
332.715	482
332.943	486
333.172	479
333.4	505
333.629	494
333.857	509
334.085	516
334.314	543
334.542	518
334.771	541
334.999	517
335.227	505
335.455	508
335.684	514
335.912	498
336.14	470
336.369	484
336.597	460
336.825	499
337.053	477
337.281	454
337.51	452
337.738	464
337.966	464
338.194	495
338.422	463
338.65	458
338.878	453
339.106	465
339.334	469
339.562	469
339.79	439
340.018	453
340.246	445
340.474	430
340.702	448
340.93	455
341.158	463
341.386	466
341.614	460
341.842	431
342.07	430
342.298	453
342.526	436
342.754	428
342.981	446
343.209	434
343.437	446
343.665	451
343.893	453
344.12	504
344.348	474
344.576	465
344.804	454
345.031	490
345.259	479
345.487	456
345.714	442
345.942	443
346.17	442
346.397	429
346.625	435
346.853	442
347.08	416
347.308	454
347.535	439
347.763	435
347.99	442
348.218	447
348.445	455
348.673	445
348.9	429
349.128	418
349.355	426
349.583	407
349.81	427
350.037	413
350.265	424
350.492	440
350.72	419
350.947	432
351.174	419
351.402	438
351.629	422
351.856	420
352.083	450
352.311	425
352.538	450
352.765	464
352.992	423
353.22	418
353.447	428
353.674	424
353.901	416
354.128	381
354.355	431
354.583	405
354.81	409
355.037	411
355.264	410
355.491	399
355.718	391
355.945	402
356.172	404
356.399	411
356.626	397
356.853	404
357.08	386
357.307	415
357.534	392
357.761	404
357.988	407
358.215	407
358.441	406
358.668	400
358.895	410
359.122	412
359.349	422
359.576	415
359.802	447
360.029	477
360.256	463
360.483	457
360.709	438
360.936	420
361.163	416
361.39	437
361.616	439
361.843	432
362.07	414
362.296	423
362.523	418
362.749	408
362.976	413
363.203	400
363.429	412
363.656	409
363.882	395
364.109	409
364.335	418
364.562	393
364.788	401
365.015	403
365.241	403
365.468	414
365.694	411
365.92	422
366.147	404
366.373	410
366.599	410
366.826	410
367.052	396
367.278	404
367.505	403
367.731	420
367.957	408
368.184	420
368.41	414
368.636	406
368.862	434
369.089	411
369.315	406
369.541	404
369.767	412
369.993	433
370.219	423
370.445	406
370.672	408
370.898	410
371.124	415
371.35	407
371.576	400
371.802	409
372.028	405
372.254	407
372.48	424
372.706	423
372.932	408
373.158	417
373.384	403
373.61	377
373.835	415
374.061	404
374.287	419
374.513	402
374.739	436
374.965	420
375.191	429
375.416	437
375.642	403
375.868	438
376.094	413
376.319	421
376.545	406
376.771	386
376.997	425
377.222	396
377.448	400
377.674	423
377.899	399
378.125	388
378.35	416
378.576	403
378.802	393
379.027	405
379.253	426
379.478	411
379.704	393
379.929	386
380.155	394
380.38	395
380.606	401
380.831	399
381.057	430
381.282	419
381.507	406
381.733	416
381.958	405
382.184	410
382.409	418
382.634	416
382.86	390
383.085	415
383.31	433
383.535	404
383.761	426
383.986	435
384.211	423
384.436	426
384.662	444
384.887	430
385.112	440
385.337	453
385.562	451
385.787	456
386.013	456
386.238	434
386.463	443
386.688	462
386.913	457
387.138	442
387.363	450
387.588	455
387.813	459
388.038	452
388.263	467
388.488	456
388.713	451
388.938	447
389.163	435
389.387	424
389.612	448
389.837	453
390.062	422
390.287	441
390.512	456
390.736	459
390.961	472
391.186	459
391.411	476
391.636	454
391.86	471
392.085	460
392.31	483
392.534	482
392.759	462
392.984	451
393.208	466
393.433	448
393.658	455
393.882	449
394.107	466
394.331	460
394.556	459
394.78	472
395.005	479
395.229	481
395.454	474
395.678	484
395.903	485
396.127	508
396.352	493
396.576	478
396.801	452
397.025	454
397.249	476
397.474	481
397.698	508
397.922	520
398.147	495
398.371	499
398.595	501
398.82	508
399.044	534
399.268	583
399.492	624
399.717	666
399.941	668
400.165	664
400.389	652
400.613	592
400.837	549
401.062	546
401.286	533
401.51	530
401.734	516
401.958	540
402.182	538
402.406	535
402.63	553
402.854	555
403.078	544
403.302	580
403.526	576
403.75	583
403.974	540
404.198	554
404.422	569
404.645	554
404.869	542
405.093	581
405.317	608
405.541	623
405.765	598
405.988	591
406.212	566
406.436	576
406.66	603
406.883	577
407.107	619
407.331	643
407.555	702
407.778	692
408.002	658
408.226	611
408.449	578
408.673	608
408.896	620
409.12	627
409.344	607
409.567	586
409.791	545
410.014	532
410.238	558
410.461	541
410.685	568
410.908	547
411.132	589
411.355	596
411.578	594
411.802	561
412.025	540
412.249	545
412.472	554
412.695	570
412.919	559
413.142	526
413.365	523
413.589	507
413.812	517
414.035	502
414.258	513
414.482	512
414.705	525
414.928	520
415.151	487
415.374	511
415.597	501
415.821	505
416.044	510
416.267	505
416.49	498
416.713	510
416.936	516
417.159	495
417.382	506
417.605	514
417.828	529
418.051	506
418.274	514
418.497	498
418.72	515
418.943	496
419.166	538
419.389	559
419.611	557
419.834	562
420.057	521
420.28	511
420.503	514
420.726	531
420.948	522
421.171	561
421.394	566
421.617	554
421.839	525
422.062	538
422.285	541
422.507	588
422.73	619
422.953	624
423.175	574
423.398	550
423.621	524
423.843	558
424.066	570
424.288	556
424.511	588
424.733	637
424.956	703
425.178	661
425.401	653
425.623	670
425.846	603
426.068	560
426.291	542
426.513	526
426.735	547
426.958	577
427.18	644
427.402	752
427.625	833
427.847	719
428.069	619
428.292	578
428.514	518
428.736	513
428.958	499
429.181	485
429.403	502
429.625	504
429.847	554
430.069	604
430.292	553
430.514	497
430.736	512
430.958	487
431.18	475
431.402	474
431.624	464
431.846	475
432.068	462
432.29	485
432.512	475
432.734	483
432.956	492
433.178	480
433.4	515
433.622	461
433.844	468
434.066	498
434.287	474
434.509	487
434.731	505
434.953	512
435.175	510
435.397	534
435.618	556
435.84	584
436.062	649
436.284	709
436.505	576
436.727	540
436.949	517
437.17	514
437.392	496
437.614	520
437.835	549
438.057	616
438.278	702
438.5	674
438.721	754
438.943	727
439.165	576
439.386	569
439.608	540
439.829	555
440.05	550
440.272	602
440.493	575
440.715	542
440.936	518
441.158	500
441.379	505
441.6	518
441.822	557
442.043	590
442.264	648
442.486	693
442.707	601
442.928	554
443.149	574
443.371	595
443.592	616
443.813	712
444.034	747
444.255	621
444.476	573
444.698	595
444.919	588
445.14	710
445.361	638
445.582	605
445.803	640
446.024	730
446.245	709
446.466	671
446.687	562
446.908	545
447.129	503
447.35	491
447.571	508
447.792	472
448.013	489
448.234	511
448.455	549
448.675	645
448.896	749
449.117	634
449.338	598
449.559	686
449.779	754
450	616
450.221	535
450.442	495
450.662	482
450.883	492
451.104	515
451.324	488
451.545	466
451.766	452
451.986	455
452.207	446
452.428	441
452.648	443
452.869	460
453.089	465
453.31	461
453.53	454
453.751	443
453.971	447
454.192	462
454.412	443
454.633	461
454.853	467
455.073	456
455.294	465
455.514	522
455.734	500
455.955	445
456.175	428
456.395	406
456.616	420
456.836	415
457.056	406
457.276	412
457.497	418
457.717	431
457.937	426
458.157	434
458.377	447
458.598	460
458.818	496
459.038	600
459.258	599
459.478	527
459.698	495
459.918	481
460.138	486
460.358	505
460.578	505
460.798	508
461.018	524
461.238	529
461.458	508
461.678	507
461.898	500
462.118	518
462.338	544
462.558	571
462.777	548
462.997	589
463.217	608
463.437	613
463.657	570
463.876	537
464.096	554
464.316	552
464.536	554
464.755	575
464.975	576
465.195	581
465.414	648
465.634	565
465.854	516
466.073	487
466.293	483
466.512	484
466.732	483
466.951	450
467.171	450
467.391	474
467.61	456
467.829	463
468.049	474
468.268	460
468.488	424
468.707	455
468.927	452
469.146	463
469.365	462
469.585	447
469.804	463
470.023	486
470.243	470
470.462	496
470.681	503
470.901	484
471.12	491
471.339	485
471.558	474
471.777	462
471.997	461
472.216	475
472.435	452
472.654	475
472.873	461
473.092	454
473.311	447
473.53	476
473.749	485
473.968	498
474.187	556
474.406	611
474.625	490
474.844	468
475.063	475
475.282	474
475.501	468
475.72	463
475.939	484
476.158	464
476.377	471
476.596	479
476.814	471
477.033	497
477.252	500
477.471	486
477.69	502
477.908	512
478.127	525
478.346	529
478.564	538
478.783	540
479.002	515
479.22	544
479.439	568
479.658	557
479.876	572
480.095	596
480.313	599
480.532	585
480.751	572
480.969	590
481.188	596
481.406	597
481.624	577
481.843	559
482.061	544
482.28	522
482.498	539
482.717	532
482.935	543
483.153	537
483.372	520
483.59	528
483.808	547
484.027	548
484.245	540
484.463	539
484.681	545
484.9	549
485.118	553
485.336	542
485.554	558
485.772	543
485.99	547
486.209	552
486.427	590
486.645	569
486.863	588
487.081	593
487.299	580
487.517	584
487.735	568
487.953	575
488.171	554
488.389	570
488.607	578
488.825	584
489.043	573
489.261	591
489.479	589
489.696	590
489.914	575
490.132	583
490.35	591
490.568	614
490.786	610
491.003	619
491.221	602
491.439	644
491.657	648
491.874	633
492.092	626
492.31	641
492.527	642
492.745	644
492.963	679
493.18	670
493.398	658
493.615	661
493.833	672
494.05	686
494.268	683
494.485	672
494.703	642
494.92	657
495.138	653
495.355	661
495.573	693
495.79	711
496.008	689
496.225	680
496.442	686
496.66	675
496.877	688
497.094	696
497.312	683
497.529	688
497.746	714
497.963	735
498.181	767
498.398	798
498.615	791
498.832	784
499.049	832
499.267	853
499.484	915
499.701	962
499.918	1007
500.135	1047
500.352	1110
500.569	1144
500.786	1156
501.003	1100
501.22	1050
501.437	1043
501.654	973
501.871	938
502.088	904
502.305	856
502.522	822
502.739	782
502.956	784
503.172	757
503.389	731
503.606	743
503.823	695
504.04	707
504.256	704
504.473	706
504.69	708
504.907	720
505.123	663
505.34	688
505.557	662
505.773	639
505.99	657
506.207	640
506.423	648
506.64	617
506.856	624
507.073	622
507.289	629
507.506	614
507.722	640
507.939	646
508.155	638
508.372	618
508.588	586
508.805	604
509.021	603
509.238	608
509.454	606
509.67	599
509.887	589
510.103	604
510.319	604
510.536	694
510.752	1125
510.968	918
511.184	612
511.401	586
511.617	601
511.833	585
512.049	544
512.265	562
512.481	572
512.698	569
512.914	544
513.13	544
513.346	568
513.562	567
513.778	550
513.994	571
514.21	607
514.426	611
514.642	639
514.858	653
515.074	662
515.29	792
515.506	1204
515.721	1018
515.937	703
516.153	652
516.369	633
516.585	623
516.801	628
517.016	630
517.232	621
517.448	630
517.664	640
517.879	639
518.095	638
518.311	622
518.527	640
518.742	626
518.958	604
519.173	599
519.389	591
519.605	598
519.82	608
520.036	612
520.251	611
520.467	628
520.682	642
520.898	635
521.113	640
521.329	672
521.544	738
521.76	910
521.975	1558
522.19	1605
522.406	867
522.621	628
522.836	588
523.052	588
523.267	541
523.482	551
523.698	561
523.913	525
524.128	540
524.343	528
524.559	506
524.774	502
524.989	522
525.204	511
525.419	504
525.634	479
525.849	496
526.064	492
526.28	500
526.495	482
526.71	494
526.925	451
527.14	469
527.355	483
527.57	489
527.785	470
527.999	467
528.214	471
528.429	473
528.644	492
528.859	446
529.074	464
529.289	510
529.503	579
529.718	542
529.933	510
530.148	475
530.363	481
530.577	477
530.792	479
531.007	446
531.221	462
531.436	488
531.651	440
531.865	483
532.08	440
532.295	439
532.509	453
532.724	447
532.938	450
533.153	467
533.367	476
533.582	450
533.796	457
534.011	454
534.225	472
534.44	461
534.654	469
534.868	445
535.083	447
535.297	453
535.511	459
535.726	458
535.94	471
536.154	477
536.369	458
536.583	450
536.797	428
537.011	444
537.225	432
537.44	447
537.654	468
537.868	438
538.082	428
538.296	436
538.51	445
538.724	438
538.938	451
539.153	445
539.367	447
539.581	434
539.795	424
540.009	426
540.222	419
540.436	429
540.65	414
540.864	448
541.078	451
541.292	450
541.506	434
541.72	421
541.934	425
542.147	440
542.361	418
542.575	433
542.789	399
543.002	415
543.216	442
543.43	456
543.644	467
543.857	445
544.071	415
544.285	443
544.498	426
544.712	438
544.925	435
545.139	438
545.352	444
545.566	418
545.779	434
545.993	428
546.206	434
546.42	432
546.633	404
546.847	419
547.06	407
547.274	413
547.487	432
547.7	435
547.914	415
548.127	424
548.34	430
548.554	419
548.767	431
548.98	406
549.193	441
549.407	411
549.62	420
549.833	426
550.046	440
550.259	434
550.473	414
550.686	410
550.899	404
551.112	427
551.325	412
551.538	405
551.751	412
551.964	416
552.177	424
552.39	432
552.603	412
552.816	435
553.029	426
553.242	420
553.455	430
553.667	458
553.88	461
554.093	455
554.306	453
554.519	416
554.732	411
554.944	430
555.157	411
555.37	421
555.583	395
555.795	398
556.008	389
556.221	387
556.433	376
556.646	388
556.859	399
557.071	389
557.284	386
557.496	383
557.709	366
557.921	378
558.134	390
558.346	381
558.559	373
558.771	374
558.984	367
559.196	368
559.409	359
559.621	373
559.833	372
560.046	368
560.258	358
560.47	375
560.683	367
560.895	365
561.107	355
561.32	359
561.532	372
561.744	353
561.956	355
562.168	367
562.381	371
562.593	351
562.805	355
563.017	389
563.229	370
563.441	373
