Data from 1985.PennyLincolnUp.Lamp.En5.5.200Scan.071819.P1_HRD10591_17-04-01-972.txt Node
Date: Thu Jul 18 17:04:01 EDT 2019
User: cochatt
Spectrometer: HR+D1059
Trigger mode: 1
Integration Time (sec): 1.000000E-1
Scans to average: 1
Electric dark correction enabled: true
Nonlinearity correction enabled: false
Boxcar width: 0
XAxis mode: Wavelengths
Number of Pixels in Spectrum: 2048
>>>>>Begin Spectral Data<<<<<
223.165	-17
223.4	-17
223.635	-17
223.869	-22
224.104	-7
224.338	-23
224.573	-11
224.808	0
225.042	-17
225.277	-10
225.511	6
225.746	-8
225.98	5
226.215	4
226.449	11
226.683	28
226.918	27
227.152	34
227.387	44
227.621	36
227.856	26
228.09	32
228.324	27
228.559	56
228.793	56
229.027	95
229.262	108
229.496	109
229.73	115
229.964	142
230.199	125
230.433	138
230.667	118
230.901	114
231.136	118
231.37	113
231.604	108
231.838	114
232.072	120
232.306	114
232.541	107
232.775	125
233.009	116
233.243	132
233.477	122
233.711	113
233.945	100
234.179	126
234.413	121
234.647	118
234.881	126
235.115	123
235.349	104
235.583	121
235.817	122
236.051	117
236.285	132
236.519	128
236.753	130
236.987	142
237.221	183
237.455	219
237.689	190
237.922	127
238.156	134
238.39	134
238.624	130
238.858	130
239.091	131
239.325	135
239.559	120
239.793	120
240.027	141
240.26	127
240.494	167
240.728	152
240.961	142
241.195	152
241.429	125
241.662	128
241.896	121
242.13	142
242.363	150
242.597	135
242.83	139
243.064	165
243.298	145
243.531	136
243.765	137
243.998	134
244.232	137
244.465	150
244.699	147
244.932	155
245.166	148
245.399	150
245.633	165
245.866	146
246.099	152
246.333	143
246.566	179
246.8	146
247.033	167
247.266	144
247.5	169
247.733	180
247.966	178
248.2	170
248.433	169
248.666	178
248.899	169
249.133	197
249.366	206
249.599	204
249.832	188
250.066	193
250.299	202
250.532	214
250.765	208
250.998	227
251.231	245
251.465	204
251.698	208
251.931	201
252.164	202
252.397	225
252.63	201
252.863	203
253.096	218
253.329	225
253.562	235
253.795	224
254.028	225
254.261	220
254.494	224
254.727	233
254.96	268
255.193	285
255.426	241
255.659	238
255.892	262
256.124	279
256.357	270
256.59	225
256.823	219
257.056	204
257.289	216
257.521	223
257.754	224
257.987	243
258.22	204
258.452	208
258.685	223
258.918	217
259.151	227
259.383	230
259.616	224
259.849	238
260.081	240
260.314	258
260.547	242
260.779	247
261.012	244
261.244	233
261.477	222
261.71	244
261.942	252
262.175	227
262.407	219
262.64	244
262.872	235
263.105	223
263.337	227
263.57	224
263.802	225
264.035	226
264.267	230
264.499	231
264.732	243
264.964	226
265.197	238
265.429	233
265.661	242
265.894	241
266.126	220
266.358	242
266.591	232
266.823	262
267.055	233
267.287	242
267.52	246
267.752	246
267.984	231
268.216	263
268.448	247
268.681	260
268.913	271
269.145	282
269.377	278
269.609	277
269.841	293
270.073	286
270.306	322
270.538	328
270.77	325
271.002	316
271.234	317
271.466	308
271.698	336
271.93	330
272.162	339
272.394	329
272.626	328
272.858	300
273.09	287
273.322	275
273.553	296
273.785	281
274.017	282
274.249	287
274.481	290
274.713	293
274.945	297
275.176	299
275.408	306
275.64	289
275.872	280
276.104	282
276.335	298
276.567	295
276.799	306
277.031	319
277.262	336
277.494	343
277.726	311
277.957	317
278.189	298
278.421	271
278.652	296
278.884	309
279.115	283
279.347	308
279.579	294
279.81	308
280.042	303
280.273	317
280.505	291
280.736	314
280.968	289
281.199	292
281.431	289
281.662	309
281.894	308
282.125	296
282.356	319
282.588	320
282.819	321
283.051	313
283.282	290
283.513	306
283.745	308
283.976	310
284.207	328
284.439	314
284.67	316
284.901	302
285.132	322
285.364	294
285.595	310
285.826	309
286.057	307
286.288	326
286.52	340
286.751	311
286.982	308
287.213	311
287.444	320
287.675	327
287.906	340
288.138	343
288.369	353
288.6	352
288.831	314
289.062	320
289.293	308
289.524	328
289.755	342
289.986	337
290.217	328
290.448	326
290.679	317
290.91	329
291.141	335
291.371	343
291.602	331
291.833	316
292.064	332
292.295	339
292.526	328
292.757	345
292.987	322
293.218	311
293.449	349
293.68	331
293.91	342
294.141	335
294.372	319
294.603	324
294.833	332
295.064	332
295.295	349
295.525	342
295.756	347
295.987	348
296.217	371
296.448	378
296.679	357
296.909	330
297.14	359
297.37	335
297.601	349
297.831	357
298.062	340
298.292	350
298.523	360
298.753	344
298.984	347
299.214	348
299.445	368
299.675	370
299.905	354
300.136	349
300.366	356
300.597	365
300.827	355
301.057	383
301.288	362
301.518	373
301.748	388
301.979	391
302.209	366
302.439	386
302.669	367
302.9	366
303.13	371
303.36	362
303.59	373
303.82	397
304.051	390
304.281	386
304.511	368
304.741	378
304.971	382
305.201	374
305.431	391
305.661	375
305.891	371
306.121	383
306.352	384
306.582	378
306.812	374
307.042	361
307.272	403
307.502	376
307.731	372
307.961	384
308.191	384
308.421	391
308.651	389
308.881	407
309.111	386
309.341	395
309.571	390
309.8	394
310.03	404
310.26	409
310.49	402
310.72	432
310.949	432
311.179	434
311.409	416
311.639	413
311.868	430
312.098	419
312.328	430
312.557	438
312.787	446
313.017	447
313.246	443
313.476	429
313.706	415
313.935	413
314.165	460
314.394	456
314.624	438
314.853	437
315.083	439
315.312	444
315.542	425
315.771	424
316.001	404
316.23	409
316.46	407
316.689	425
316.919	440
317.148	432
317.377	436
317.607	429
317.836	436
318.065	452
318.295	462
318.524	429
318.753	430
318.983	425
319.212	441
319.441	443
319.67	420
319.9	444
320.129	435
320.358	430
320.587	436
320.816	466
321.046	452
321.275	440
321.504	470
321.733	446
321.962	469
322.191	475
322.42	461
322.649	491
322.878	498
323.108	502
323.337	531
323.566	537
323.795	548
324.024	595
324.253	709
324.482	953
324.71	1466
324.939	2055
325.168	1708
325.397	920
325.626	683
325.855	592
326.084	554
326.313	525
326.542	555
326.77	582
326.999	674
327.228	880
327.457	1327
327.686	1556
327.914	1058
328.143	741
328.372	667
328.6	610
328.829	612
329.058	631
329.287	593
329.515	606
329.744	560
329.972	575
330.201	610
330.43	634
330.658	642
330.887	651
331.115	615
331.344	571
331.572	543
331.801	556
332.03	560
332.258	549
332.486	537
332.715	536
332.943	508
333.172	554
333.4	566
333.629	548
333.857	592
334.085	608
334.314	614
334.542	648
334.771	673
334.999	604
335.227	576
335.455	556
335.684	537
335.912	534
336.14	505
336.369	519
336.597	514
336.825	516
337.053	499
337.281	507
337.51	496
337.738	516
337.966	492
338.194	523
338.422	501
338.65	503
338.878	491
339.106	476
339.334	493
339.562	500
339.79	498
340.018	488
340.246	496
340.474	491
340.702	482
340.93	490
341.158	491
341.386	479
341.614	488
341.842	491
342.07	470
342.298	488
342.526	463
342.754	477
342.981	485
343.209	473
343.437	493
343.665	486
343.893	488
344.12	530
344.348	504
344.576	499
344.804	486
345.031	479
345.259	480
345.487	492
345.714	468
345.942	464
346.17	467
346.397	463
346.625	450
346.853	488
347.08	480
347.308	475
347.535	469
347.763	469
347.99	439
348.218	480
348.445	490
348.673	442
348.9	457
349.128	455
349.355	460
349.583	437
349.81	438
350.037	453
350.265	452
350.492	453
350.72	435
350.947	448
351.174	461
351.402	445
351.629	478
351.856	461
352.083	485
352.311	466
352.538	472
352.765	457
352.992	465
353.22	445
353.447	444
353.674	458
353.901	438
354.128	439
354.355	419
354.583	434
354.81	431
355.037	447
355.264	435
355.491	423
355.718	430
355.945	435
356.172	441
356.399	431
356.626	428
356.853	406
357.08	434
357.307	423
357.534	450
357.761	414
357.988	434
358.215	416
358.441	432
358.668	448
358.895	419
359.122	438
359.349	466
359.576	442
359.802	459
360.029	496
360.256	516
360.483	457
360.709	460
360.936	467
361.163	452
361.39	436
361.616	439
361.843	464
362.07	450
362.296	458
362.523	442
362.749	449
362.976	464
363.203	464
363.429	445
363.656	435
363.882	439
364.109	436
364.335	429
364.562	438
364.788	408
365.015	438
365.241	444
365.468	459
365.694	444
365.92	464
366.147	451
366.373	436
366.599	418
366.826	415
367.052	420
367.278	436
367.505	446
367.731	450
367.957	428
368.184	438
368.41	440
368.636	454
368.862	469
369.089	465
369.315	424
369.541	444
369.767	430
369.993	423
370.219	425
370.445	437
370.672	442
370.898	425
371.124	434
371.35	442
371.576	441
371.802	442
372.028	437
372.254	435
372.48	436
372.706	443
372.932	452
373.158	459
373.384	436
373.61	425
373.835	427
374.061	425
374.287	445
374.513	444
374.739	447
374.965	437
375.191	472
375.416	440
375.642	452
375.868	436
376.094	424
376.319	433
376.545	425
376.771	438
376.997	436
377.222	431
377.448	459
377.674	435
377.899	417
378.125	424
378.35	425
378.576	449
378.802	423
379.027	419
379.253	422
379.478	394
379.704	427
379.929	434
380.155	432
380.38	423
380.606	437
380.831	433
381.057	446
381.282	440
381.507	429
381.733	443
381.958	455
382.184	444
382.409	436
382.634	446
382.86	442
383.085	444
383.31	441
383.535	445
383.761	454
383.986	457
384.211	450
384.436	446
384.662	479
384.887	477
385.112	484
385.337	467
385.562	493
385.787	455
386.013	485
386.238	483
386.463	487
386.688	495
386.913	474
387.138	485
387.363	471
387.588	478
387.813	482
388.038	477
388.263	481
388.488	483
388.713	478
388.938	486
389.163	486
389.387	480
389.612	462
389.837	459
390.062	467
390.287	484
390.512	465
390.736	489
390.961	504
391.186	495
391.411	491
391.636	491
391.86	507
392.085	507
392.31	495
392.534	502
392.759	500
392.984	483
393.208	478
393.433	491
393.658	487
393.882	510
394.107	489
394.331	498
394.556	495
394.78	487
395.005	492
395.229	500
395.454	513
395.678	534
395.903	520
396.127	529
396.352	548
396.576	515
396.801	498
397.025	491
397.249	517
397.474	535
397.698	498
397.922	526
398.147	538
398.371	539
398.595	555
398.82	565
399.044	591
399.268	592
399.492	660
399.717	664
399.941	734
400.165	713
400.389	709
400.613	652
400.837	597
401.062	603
401.286	585
401.51	565
401.734	568
401.958	571
402.182	588
402.406	586
402.63	564
402.854	584
403.078	582
403.302	579
403.526	611
403.75	622
403.974	586
404.198	602
404.422	594
404.645	596
404.869	610
405.093	616
405.317	699
405.541	721
405.765	654
405.988	621
406.212	632
406.436	656
406.66	665
406.883	660
407.107	645
407.331	716
407.555	767
407.778	764
408.002	718
408.226	644
408.449	636
408.673	649
408.896	653
409.12	660
409.344	672
409.567	600
409.791	599
410.014	575
410.238	560
410.461	597
410.685	581
410.908	616
411.132	637
411.355	658
411.578	643
411.802	590
412.025	586
412.249	615
412.472	630
412.695	676
412.919	639
413.142	594
413.365	558
413.589	558
413.812	563
414.035	560
414.258	579
414.482	543
414.705	559
414.928	563
415.151	566
415.374	550
415.597	533
415.821	507
416.044	547
416.267	543
416.49	529
416.713	537
416.936	549
417.159	536
417.382	544
417.605	533
417.828	561
418.051	558
418.274	557
418.497	547
418.72	569
418.943	559
419.166	580
419.389	600
419.611	591
419.834	580
420.057	599
420.28	586
420.503	585
420.726	597
420.948	573
421.171	627
421.394	656
421.617	604
421.839	554
422.062	584
422.285	542
422.507	614
422.73	706
422.953	693
423.175	600
423.398	592
423.621	609
423.843	607
424.066	615
424.288	617
424.511	632
424.733	678
424.956	716
425.178	701
425.401	710
425.623	738
425.846	640
426.068	595
426.291	574
426.513	577
426.735	596
426.958	632
427.18	700
427.402	806
427.625	908
427.847	779
428.069	708
428.292	629
428.514	560
428.736	536
428.958	554
429.181	556
429.403	540
429.625	555
429.847	584
430.069	623
430.292	614
430.514	538
430.736	519
430.958	514
431.18	497
431.402	499
431.624	502
431.846	522
432.068	507
432.29	524
432.512	511
432.734	537
432.956	529
433.178	538
433.4	538
433.622	525
433.844	521
434.066	516
434.287	525
434.509	518
434.731	555
434.953	562
435.175	547
435.397	563
435.618	595
435.84	623
436.062	700
436.284	742
436.505	639
436.727	568
436.949	557
437.17	542
437.392	519
437.614	540
437.835	562
438.057	649
438.278	763
438.5	738
438.721	810
438.943	791
439.165	650
439.386	582
439.608	577
439.829	578
440.05	591
440.272	644
440.493	596
440.715	581
440.936	540
441.158	543
441.379	547
441.6	571
441.822	592
442.043	622
442.264	683
442.486	762
442.707	640
442.928	604
443.149	617
443.371	632
443.592	670
443.813	764
444.034	799
444.255	687
444.476	630
444.698	631
444.919	626
445.14	745
445.361	668
445.582	646
445.803	683
446.024	779
446.245	787
446.466	702
446.687	591
446.908	573
447.129	577
447.35	532
447.571	518
447.792	514
448.013	522
448.234	547
448.455	583
448.675	710
448.896	810
449.117	642
449.338	630
449.559	728
449.779	867
450	651
450.221	568
450.442	520
450.662	493
450.883	504
451.104	533
451.324	514
451.545	519
451.766	508
451.986	480
452.207	471
452.428	473
452.648	467
452.869	459
453.089	499
453.31	472
453.53	492
453.751	485
453.971	472
454.192	498
454.412	496
454.633	486
454.853	456
455.073	479
455.294	495
455.514	548
455.734	556
455.955	464
456.175	464
456.395	449
456.616	451
456.836	446
457.056	468
457.276	443
457.497	459
457.717	463
457.937	452
458.157	468
458.377	480
458.598	491
458.818	562
459.038	617
459.258	640
459.478	572
459.698	521
459.918	511
460.138	532
460.358	522
460.578	548
460.798	541
461.018	548
461.238	550
461.458	569
461.678	538
461.898	558
462.118	552
462.338	567
462.558	577
462.777	579
462.997	614
463.217	626
463.437	644
463.657	612
463.876	588
464.096	597
464.316	582
464.536	588
464.755	584
464.975	591
465.195	636
465.414	680
465.634	596
465.854	539
466.073	533
466.293	511
466.512	494
466.732	499
466.951	490
467.171	514
467.391	500
467.61	500
467.829	501
468.049	498
468.268	518
468.488	498
468.707	492
468.927	508
469.146	470
469.365	490
469.585	463
469.804	485
470.023	517
470.243	502
470.462	501
470.681	523
470.901	526
471.12	494
471.339	540
471.558	500
471.777	490
471.997	514
472.216	528
472.435	564
472.654	540
472.873	496
473.092	503
473.311	492
473.53	504
473.749	484
473.968	538
474.187	614
474.406	634
474.625	547
474.844	482
475.063	476
475.282	498
475.501	489
475.72	525
475.939	520
476.158	532
476.377	540
476.596	513
476.814	525
477.033	522
477.252	522
477.471	540
477.69	555
477.908	539
478.127	540
478.346	540
478.564	574
478.783	568
479.002	593
479.22	596
479.439	592
479.658	590
479.876	630
480.095	626
480.313	659
480.532	643
480.751	616
480.969	639
481.188	701
481.406	752
481.624	669
481.843	618
482.061	612
482.28	590
482.498	592
482.717	590
482.935	556
483.153	567
483.372	584
483.59	564
483.808	570
484.027	552
484.245	578
484.463	580
484.681	589
484.9	570
485.118	614
485.336	617
485.554	579
485.772	591
485.99	610
486.209	621
486.427	604
486.645	615
486.863	647
487.081	620
487.299	640
487.517	609
487.735	627
487.953	617
488.171	598
488.389	619
488.607	626
488.825	606
489.043	619
489.261	642
489.479	631
489.696	642
489.914	634
490.132	662
490.35	645
490.568	656
490.786	676
491.003	657
491.221	678
491.439	690
491.657	680
491.874	710
492.092	731
492.31	710
492.527	685
492.745	739
492.963	738
493.18	747
493.398	733
493.615	743
493.833	728
494.05	725
494.268	730
494.485	744
494.703	722
494.92	734
495.138	732
495.355	736
495.573	749
495.79	716
496.008	756
496.225	719
496.442	751
496.66	757
496.877	737
497.094	743
497.312	775
497.529	761
497.746	779
497.963	777
498.181	828
498.398	835
498.615	851
498.832	893
499.049	896
499.267	947
499.484	977
499.701	1043
499.918	1088
500.135	1161
500.352	1243
500.569	1246
500.786	1247
501.003	1225
501.22	1174
501.437	1067
501.654	1032
501.871	973
502.088	964
502.305	927
502.522	902
502.739	844
502.956	801
503.172	757
503.389	779
503.606	748
503.823	785
504.04	761
504.256	758
504.473	774
504.69	763
504.907	796
505.123	732
505.34	717
505.557	698
505.773	700
505.99	693
506.207	699
506.423	691
506.64	696
506.856	670
507.073	676
507.289	675
507.506	680
507.722	698
507.939	700
508.155	679
508.372	651
508.588	615
508.805	635
509.021	637
509.238	633
509.454	669
509.67	664
509.887	646
510.103	623
510.319	680
510.536	714
510.752	1154
510.968	941
511.184	668
511.401	599
511.617	614
511.833	619
512.049	613
512.265	637
512.481	620
512.698	613
512.914	606
513.13	607
513.346	612
513.562	616
513.778	615
513.994	626
514.21	602
514.426	648
514.642	682
514.858	707
515.074	714
515.29	813
515.506	1165
515.721	1050
515.937	734
516.153	696
516.369	649
516.585	655
516.801	651
517.016	697
517.232	668
517.448	670
517.664	666
517.879	692
518.095	668
518.311	670
518.527	644
518.742	674
518.958	623
519.173	646
519.389	624
519.605	619
519.82	611
520.036	626
520.251	645
520.467	672
520.682	643
520.898	670
521.113	656
521.329	714
521.544	749
521.76	938
521.975	1507
522.19	1544
522.406	891
522.621	683
522.836	609
523.052	587
523.267	572
523.482	558
523.698	564
523.913	564
524.128	571
524.343	585
524.559	528
524.774	537
524.989	550
525.204	545
525.419	544
525.634	514
525.849	522
526.064	519
526.28	499
526.495	522
526.71	499
526.925	493
527.14	500
527.355	499
527.57	532
527.785	516
527.999	523
528.214	527
528.429	503
528.644	526
528.859	529
529.074	522
529.289	507
529.503	584
529.718	564
529.933	528
530.148	516
530.363	494
530.577	505
530.792	491
531.007	500
531.221	491
531.436	498
531.651	504
531.865	506
532.08	500
532.295	509
532.509	479
532.724	489
532.938	487
533.153	495
533.367	510
533.582	490
533.796	488
534.011	494
534.225	468
534.44	492
534.654	473
534.868	488
535.083	486
535.297	498
535.511	493
535.726	502
535.94	518
536.154	474
536.369	474
536.583	481
536.797	470
537.011	465
537.225	464
537.44	464
537.654	457
537.868	473
538.082	464
538.296	480
538.51	486
538.724	460
538.938	469
539.153	444
539.367	484
539.581	471
539.795	444
540.009	454
540.222	454
540.436	463
540.65	467
540.864	474
541.078	460
541.292	460
541.506	458
541.72	475
541.934	472
542.147	462
542.361	456
542.575	455
542.789	457
543.002	434
543.216	461
543.43	464
543.644	461
543.857	452
544.071	468
544.285	470
544.498	445
544.712	455
544.925	465
545.139	455
545.352	461
545.566	468
545.779	459
545.993	443
546.206	459
546.42	460
546.633	467
546.847	459
547.06	453
547.274	458
547.487	446
547.7	445
547.914	452
548.127	442
548.34	432
548.554	444
548.767	448
548.98	446
549.193	465
549.407	448
549.62	426
549.833	453
550.046	448
550.259	444
550.473	460
550.686	447
550.899	462
551.112	455
551.325	440
551.538	447
551.751	434
551.964	436
552.177	437
552.39	430
552.603	463
552.816	473
553.029	454
553.242	464
553.455	483
553.667	458
553.88	467
554.093	483
554.306	458
554.519	457
554.732	471
554.944	435
555.157	431
555.37	438
555.583	428
555.795	428
556.008	436
556.221	416
556.433	386
556.646	394
556.859	408
557.071	399
557.284	402
557.496	405
557.709	406
557.921	413
558.134	410
558.346	400
558.559	413
558.771	397
558.984	391
559.196	389
559.409	409
559.621	395
559.833	377
560.046	382
560.258	379
560.47	386
560.683	396
560.895	381
561.107	378
561.32	387
561.532	374
561.744	389
561.956	399
562.168	402
562.381	392
562.593	395
562.805	392
563.017	388
563.229	415
563.441	391
