Data from 1985.PennyLincolnUp.Lamp.En5.5.200Scan.071819.P1_HRD10591_17-01-11-970.txt Node
Date: Thu Jul 18 17:01:11 EDT 2019
User: cochatt
Spectrometer: HR+D1059
Trigger mode: 1
Integration Time (sec): 1.000000E-1
Scans to average: 1
Electric dark correction enabled: true
Nonlinearity correction enabled: false
Boxcar width: 0
XAxis mode: Wavelengths
Number of Pixels in Spectrum: 2048
>>>>>Begin Spectral Data<<<<<
223.165	-15.62
223.4	-15.62
223.635	-15.62
223.869	-27.62
224.104	-31.62
224.338	-4.62
224.573	-24.62
224.808	-7.62
225.042	-1.62
225.277	3.38
225.511	-0.62
225.746	11.38
225.98	-2.62
226.215	14.38
226.449	12.38
226.683	24.38
226.918	27.38
227.152	23.38
227.387	41.38
227.621	36.38
227.856	30.38
228.09	30.38
228.324	48.38
228.559	51.38
228.793	58.38
229.027	93.38
229.262	81.38
229.496	97.38
229.73	103.38
229.964	110.38
230.199	111.38
230.433	98.38
230.667	99.38
230.901	95.38
231.136	105.38
231.37	94.38
231.604	115.38
231.838	95.38
232.072	96.38
232.306	114.38
232.541	99.38
232.775	93.38
233.009	99.38
233.243	116.38
233.477	103.38
233.711	121.38
233.945	103.38
234.179	103.38
234.413	106.38
234.647	99.38
234.881	105.38
235.115	120.38
235.349	118.38
235.583	116.38
235.817	121.38
236.051	100.38
236.285	114.38
236.519	117.38
236.753	130.38
236.987	113.38
237.221	131.38
237.455	168.38
237.689	131.38
237.922	129.38
238.156	108.38
238.39	133.38
238.624	103.38
238.858	115.38
239.091	113.38
239.325	107.38
239.559	108.38
239.793	109.38
240.027	125.38
240.26	127.38
240.494	136.38
240.728	131.38
240.961	125.38
241.195	123.38
241.429	120.38
241.662	128.38
241.896	121.38
242.13	111.38
242.363	121.38
242.597	110.38
242.83	120.38
243.064	105.38
243.298	109.38
243.531	124.38
243.765	122.38
243.998	128.38
244.232	141.38
244.465	128.38
244.699	118.38
244.932	124.38
245.166	153.38
245.399	137.38
245.633	133.38
245.866	136.38
246.099	140.38
246.333	145.38
246.566	137.38
246.8	137.38
247.033	135.38
247.266	139.38
247.5	134.38
247.733	154.38
247.966	155.38
248.2	157.38
248.433	155.38
248.666	147.38
248.899	156.38
249.133	169.38
249.366	173.38
249.599	178.38
249.832	170.38
250.066	141.38
250.299	168.38
250.532	172.38
250.765	155.38
250.998	183.38
251.231	177.38
251.465	167.38
251.698	183.38
251.931	179.38
252.164	176.38
252.397	177.38
252.63	159.38
252.863	165.38
253.096	181.38
253.329	192.38
253.562	185.38
253.795	166.38
254.028	205.38
254.261	179.38
254.494	191.38
254.727	192.38
254.96	200.38
255.193	200.38
255.426	200.38
255.659	192.38
255.892	199.38
256.124	188.38
256.357	191.38
256.59	191.38
256.823	184.38
257.056	186.38
257.289	184.38
257.521	187.38
257.754	193.38
257.987	196.38
258.22	192.38
258.452	185.38
258.685	189.38
258.918	191.38
259.151	192.38
259.383	200.38
259.616	187.38
259.849	201.38
260.081	211.38
260.314	229.38
260.547	215.38
260.779	211.38
261.012	198.38
261.244	205.38
261.477	202.38
261.71	212.38
261.942	192.38
262.175	196.38
262.407	207.38
262.64	175.38
262.872	195.38
263.105	188.38
263.337	203.38
263.57	215.38
263.802	208.38
264.035	201.38
264.267	201.38
264.499	214.38
264.732	193.38
264.964	203.38
265.197	199.38
265.429	205.38
265.661	194.38
265.894	216.38
266.126	202.38
266.358	213.38
266.591	221.38
266.823	217.38
267.055	212.38
267.287	229.38
267.52	217.38
267.752	207.38
267.984	221.38
268.216	218.38
268.448	220.38
268.681	212.38
268.913	229.38
269.145	241.38
269.377	225.38
269.609	236.38
269.841	231.38
270.073	245.38
270.306	235.38
270.538	260.38
270.77	246.38
271.002	243.38
271.234	252.38
271.466	242.38
271.698	241.38
271.93	261.38
272.162	248.38
272.394	275.38
272.626	280.38
272.858	255.38
273.09	261.38
273.322	246.38
273.553	243.38
273.785	205.38
274.017	245.38
274.249	257.38
274.481	247.38
274.713	227.38
274.945	236.38
275.176	252.38
275.408	241.38
275.64	236.38
275.872	239.38
276.104	247.38
276.335	263.38
276.567	252.38
276.799	264.38
277.031	273.38
277.262	277.38
277.494	284.38
277.726	283.38
277.957	259.38
278.189	251.38
278.421	269.38
278.652	243.38
278.884	261.38
279.115	250.38
279.347	267.38
279.579	263.38
279.81	262.38
280.042	259.38
280.273	264.38
280.505	265.38
280.736	243.38
280.968	265.38
281.199	260.38
281.431	279.38
281.662	260.38
281.894	259.38
282.125	276.38
282.356	263.38
282.588	285.38
282.819	267.38
283.051	270.38
283.282	257.38
283.513	273.38
283.745	272.38
283.976	273.38
284.207	261.38
284.439	272.38
284.67	258.38
284.901	273.38
285.132	283.38
285.364	262.38
285.595	285.38
285.826	275.38
286.057	267.38
286.288	267.38
286.52	280.38
286.751	279.38
286.982	293.38
287.213	295.38
287.444	296.38
287.675	308.38
287.906	299.38
288.138	285.38
288.369	297.38
288.6	270.38
288.831	269.38
289.062	307.38
289.293	303.38
289.524	287.38
289.755	293.38
289.986	278.38
290.217	288.38
290.448	285.38
290.679	293.38
290.91	299.38
291.141	291.38
291.371	290.38
291.602	293.38
291.833	282.38
292.064	295.38
292.295	293.38
292.526	295.38
292.757	289.38
292.987	297.38
293.218	291.38
293.449	297.38
293.68	297.38
293.91	284.38
294.141	296.38
294.372	292.38
294.603	285.38
294.833	308.38
295.064	306.38
295.295	284.38
295.525	324.38
295.756	313.38
295.987	327.38
296.217	303.38
296.448	319.38
296.679	306.38
296.909	300.38
297.14	313.38
297.37	309.38
297.601	295.38
297.831	322.38
298.062	306.38
298.292	314.38
298.523	318.38
298.753	301.38
298.984	311.38
299.214	299.38
299.445	300.38
299.675	328.38
299.905	329.38
300.136	333.38
300.366	314.38
300.597	339.38
300.827	323.38
301.057	310.38
301.288	326.38
301.518	328.38
301.748	341.38
301.979	335.38
302.209	326.38
302.439	335.38
302.669	333.38
302.9	315.38
303.13	319.38
303.36	332.38
303.59	333.38
303.82	350.38
304.051	354.38
304.281	365.38
304.511	348.38
304.741	329.38
304.971	322.38
305.201	316.38
305.431	341.38
305.661	333.38
305.891	341.38
306.121	342.38
306.352	345.38
306.582	344.38
306.812	339.38
307.042	325.38
307.272	332.38
307.502	360.38
307.731	330.38
307.961	352.38
308.191	348.38
308.421	326.38
308.651	336.38
308.881	351.38
309.111	328.38
309.341	328.38
309.571	330.38
309.8	341.38
310.03	347.38
310.26	365.38
310.49	342.38
310.72	356.38
310.949	358.38
311.179	363.38
311.409	372.38
311.639	360.38
311.868	362.38
312.098	371.38
312.328	380.38
312.557	344.38
312.787	368.38
313.017	385.38
313.246	347.38
313.476	371.38
313.706	381.38
313.935	362.38
314.165	372.38
314.394	385.38
314.624	369.38
314.853	389.38
315.083	365.38
315.312	377.38
315.542	376.38
315.771	364.38
316.001	377.38
316.23	375.38
316.46	367.38
316.689	366.38
316.919	363.38
317.148	376.38
317.377	377.38
317.607	371.38
317.836	370.38
318.065	369.38
318.295	355.38
318.524	377.38
318.753	355.38
318.983	345.38
319.212	379.38
319.441	379.38
319.67	376.38
319.9	375.38
320.129	375.38
320.358	371.38
320.587	374.38
320.816	379.38
321.046	369.38
321.275	374.38
321.504	387.38
321.733	370.38
321.962	370.38
322.191	378.38
322.42	397.38
322.649	386.38
322.878	387.38
323.108	392.38
323.337	411.38
323.566	417.38
323.795	423.38
324.024	444.38
324.253	508.38
324.482	586.38
324.71	809.38
324.939	1116.38
325.168	950.38
325.397	565.38
325.626	456.38
325.855	419.38
326.084	413.38
326.313	413.38
326.542	408.38
326.77	441.38
326.999	466.38
327.228	584.38
327.457	771.38
327.686	905.38
327.914	634.38
328.143	498.38
328.372	457.38
328.6	438.38
328.829	442.38
329.058	459.38
329.287	458.38
329.515	429.38
329.744	435.38
329.972	423.38
330.201	435.38
330.43	444.38
330.658	463.38
330.887	481.38
331.115	496.38
331.344	453.38
331.572	450.38
331.801	433.38
332.03	441.38
332.258	443.38
332.486	440.38
332.715	445.38
332.943	439.38
333.172	443.38
333.4	472.38
333.629	459.38
333.857	447.38
334.085	484.38
334.314	475.38
334.542	464.38
334.771	452.38
334.999	454.38
335.227	472.38
335.455	460.38
335.684	441.38
335.912	465.38
336.14	454.38
336.369	447.38
336.597	421.38
336.825	463.38
337.053	445.38
337.281	444.38
337.51	426.38
337.738	427.38
337.966	444.38
338.194	433.38
338.422	426.38
338.65	423.38
338.878	404.38
339.106	431.38
339.334	415.38
339.562	436.38
339.79	405.38
340.018	407.38
340.246	391.38
340.474	413.38
340.702	412.38
340.93	416.38
341.158	403.38
341.386	408.38
341.614	420.38
341.842	404.38
342.07	406.38
342.298	403.38
342.526	404.38
342.754	397.38
342.981	413.38
343.209	425.38
343.437	429.38
343.665	433.38
343.893	437.38
344.12	453.38
344.348	448.38
344.576	450.38
344.804	431.38
345.031	422.38
345.259	424.38
345.487	432.38
345.714	409.38
345.942	405.38
346.17	408.38
346.397	409.38
346.625	400.38
346.853	402.38
347.08	406.38
347.308	405.38
347.535	405.38
347.763	409.38
347.99	388.38
348.218	389.38
348.445	390.38
348.673	397.38
348.9	401.38
349.128	406.38
349.355	394.38
349.583	401.38
349.81	395.38
350.037	379.38
350.265	406.38
350.492	380.38
350.72	377.38
350.947	375.38
351.174	376.38
351.402	382.38
351.629	400.38
351.856	391.38
352.083	389.38
352.311	412.38
352.538	396.38
352.765	382.38
352.992	398.38
353.22	396.38
353.447	385.38
353.674	395.38
353.901	392.38
354.128	367.38
354.355	375.38
354.583	386.38
354.81	376.38
355.037	398.38
355.264	393.38
355.491	373.38
355.718	358.38
355.945	389.38
356.172	370.38
356.399	384.38
356.626	397.38
356.853	380.38
357.08	392.38
357.307	388.38
357.534	396.38
357.761	362.38
357.988	379.38
358.215	387.38
358.441	371.38
358.668	387.38
358.895	380.38
359.122	380.38
359.349	395.38
359.576	396.38
359.802	387.38
360.029	404.38
360.256	413.38
360.483	392.38
360.709	387.38
360.936	397.38
361.163	397.38
361.39	417.38
361.616	385.38
361.843	387.38
362.07	402.38
362.296	396.38
362.523	388.38
362.749	396.38
362.976	380.38
363.203	384.38
363.429	401.38
363.656	393.38
363.882	385.38
364.109	374.38
364.335	379.38
364.562	375.38
364.788	395.38
365.015	392.38
365.241	381.38
365.468	385.38
365.694	391.38
365.92	388.38
366.147	384.38
366.373	384.38
366.599	385.38
366.826	380.38
367.052	384.38
367.278	372.38
367.505	378.38
367.731	400.38
367.957	373.38
368.184	385.38
368.41	380.38
368.636	401.38
368.862	387.38
369.089	394.38
369.315	359.38
369.541	373.38
369.767	411.38
369.993	396.38
370.219	386.38
370.445	396.38
370.672	371.38
370.898	390.38
371.124	407.38
371.35	401.38
371.576	381.38
371.802	394.38
372.028	395.38
372.254	386.38
372.48	404.38
372.706	405.38
372.932	404.38
373.158	397.38
373.384	384.38
373.61	410.38
373.835	375.38
374.061	392.38
374.287	397.38
374.513	411.38
374.739	425.38
374.965	413.38
375.191	393.38
375.416	395.38
375.642	404.38
375.868	416.38
376.094	390.38
376.319	405.38
376.545	398.38
376.771	390.38
376.997	375.38
377.222	381.38
377.448	406.38
377.674	391.38
377.899	395.38
378.125	386.38
378.35	388.38
378.576	402.38
378.802	371.38
379.027	384.38
379.253	379.38
379.478	388.38
379.704	389.38
379.929	382.38
380.155	400.38
380.38	412.38
380.606	405.38
380.831	385.38
381.057	402.38
381.282	417.38
381.507	398.38
381.733	399.38
381.958	411.38
382.184	418.38
382.409	402.38
382.634	415.38
382.86	417.38
383.085	411.38
383.31	436.38
383.535	425.38
383.761	422.38
383.986	443.38
384.211	449.38
384.436	437.38
384.662	412.38
384.887	449.38
385.112	437.38
385.337	447.38
385.562	438.38
385.787	459.38
386.013	435.38
386.238	448.38
386.463	457.38
386.688	450.38
386.913	427.38
387.138	451.38
387.363	463.38
387.588	451.38
387.813	450.38
388.038	451.38
388.263	444.38
388.488	459.38
388.713	450.38
388.938	444.38
389.163	441.38
389.387	435.38
389.612	445.38
389.837	453.38
390.062	447.38
390.287	419.38
390.512	448.38
390.736	451.38
390.961	452.38
391.186	465.38
391.411	445.38
391.636	455.38
391.86	476.38
392.085	460.38
392.31	476.38
392.534	458.38
392.759	470.38
392.984	463.38
393.208	467.38
393.433	440.38
393.658	459.38
393.882	455.38
394.107	456.38
394.331	443.38
394.556	449.38
394.78	456.38
395.005	460.38
395.229	449.38
395.454	472.38
395.678	477.38
395.903	474.38
396.127	496.38
396.352	492.38
396.576	476.38
396.801	466.38
397.025	458.38
397.249	469.38
397.474	481.38
397.698	489.38
397.922	509.38
398.147	495.38
398.371	509.38
398.595	497.38
398.82	518.38
399.044	525.38
399.268	551.38
399.492	596.38
399.717	619.38
399.941	666.38
400.165	645.38
400.389	618.38
400.613	565.38
400.837	533.38
401.062	534.38
401.286	507.38
401.51	509.38
401.734	520.38
401.958	521.38
402.182	533.38
402.406	536.38
402.63	519.38
402.854	514.38
403.078	535.38
403.302	524.38
403.526	545.38
403.75	552.38
403.974	524.38
404.198	565.38
404.422	557.38
404.645	539.38
404.869	553.38
405.093	560.38
405.317	556.38
405.541	561.38
405.765	545.38
405.988	560.38
406.212	544.38
406.436	565.38
406.66	565.38
406.883	551.38
407.107	591.38
407.331	628.38
407.555	667.38
407.778	665.38
408.002	624.38
408.226	572.38
408.449	589.38
408.673	576.38
408.896	579.38
409.12	597.38
409.344	596.38
409.567	544.38
409.791	544.38
410.014	532.38
410.238	544.38
410.461	528.38
410.685	525.38
410.908	521.38
411.132	552.38
411.355	557.38
411.578	537.38
411.802	517.38
412.025	503.38
412.249	518.38
412.472	514.38
412.695	499.38
412.919	511.38
413.142	500.38
413.365	514.38
413.589	495.38
413.812	498.38
414.035	504.38
414.258	488.38
414.482	502.38
414.705	504.38
414.928	514.38
415.151	492.38
415.374	476.38
415.597	483.38
415.821	479.38
416.044	501.38
416.267	515.38
416.49	492.38
416.713	503.38
416.936	490.38
417.159	489.38
417.382	497.38
417.605	495.38
417.828	517.38
418.051	477.38
418.274	488.38
418.497	474.38
418.72	516.38
418.943	503.38
419.166	517.38
419.389	533.38
419.611	545.38
419.834	503.38
420.057	510.38
420.28	507.38
420.503	470.38
420.726	472.38
420.948	503.38
421.171	531.38
421.394	551.38
421.617	500.38
421.839	507.38
422.062	497.38
422.285	507.38
422.507	564.38
422.73	602.38
422.953	571.38
423.175	531.38
423.398	518.38
423.621	517.38
423.843	531.38
424.066	539.38
424.288	520.38
424.511	528.38
424.733	573.38
424.956	610.38
425.178	589.38
425.401	604.38
425.623	597.38
425.846	546.38
426.068	515.38
426.291	498.38
426.513	504.38
426.735	519.38
426.958	538.38
427.18	604.38
427.402	673.38
427.625	721.38
427.847	600.38
428.069	555.38
428.292	498.38
428.514	478.38
428.736	475.38
428.958	489.38
429.181	474.38
429.403	465.38
429.625	478.38
429.847	491.38
430.069	521.38
430.292	532.38
430.514	476.38
430.736	452.38
430.958	456.38
431.18	447.38
431.402	474.38
431.624	454.38
431.846	463.38
432.068	449.38
432.29	463.38
432.512	466.38
432.734	465.38
432.956	451.38
433.178	460.38
433.4	479.38
433.622	463.38
433.844	461.38
434.066	481.38
434.287	464.38
434.509	462.38
434.731	500.38
434.953	474.38
435.175	492.38
435.397	499.38
435.618	513.38
435.84	517.38
436.062	579.38
436.284	644.38
436.505	537.38
436.727	497.38
436.949	468.38
437.17	475.38
437.392	456.38
437.614	450.38
437.835	485.38
438.057	534.38
438.278	595.38
438.5	600.38
438.721	654.38
438.943	659.38
439.165	533.38
439.386	482.38
439.608	505.38
439.829	497.38
440.05	501.38
440.272	513.38
440.493	525.38
440.715	479.38
440.936	499.38
441.158	471.38
441.379	474.38
441.6	482.38
441.822	525.38
442.043	536.38
442.264	579.38
442.486	628.38
442.707	556.38
442.928	531.38
443.149	517.38
443.371	530.38
443.592	570.38
443.813	626.38
444.034	647.38
444.255	588.38
444.476	554.38
444.698	564.38
444.919	569.38
445.14	667.38
445.361	595.38
445.582	540.38
445.803	567.38
446.024	604.38
446.245	619.38
446.466	585.38
446.687	528.38
446.908	495.38
447.129	483.38
447.35	463.38
447.571	462.38
447.792	448.38
448.013	445.38
448.234	472.38
448.455	466.38
448.675	584.38
448.896	645.38
449.117	565.38
449.338	534.38
449.559	629.38
449.779	671.38
450	542.38
450.221	489.38
450.442	460.38
450.662	439.38
450.883	431.38
451.104	429.38
451.324	422.38
451.545	416.38
451.766	420.38
451.986	420.38
452.207	422.38
452.428	411.38
452.648	418.38
452.869	426.38
453.089	412.38
453.31	434.38
453.53	425.38
453.751	409.38
453.971	424.38
454.192	418.38
454.412	399.38
454.633	412.38
454.853	421.38
455.073	410.38
455.294	433.38
455.514	484.38
455.734	445.38
455.955	415.38
456.175	415.38
456.395	412.38
456.616	409.38
456.836	409.38
457.056	396.38
457.276	396.38
457.497	389.38
457.717	417.38
457.937	405.38
458.157	410.38
458.377	433.38
458.598	431.38
458.818	454.38
459.038	521.38
459.258	515.38
459.478	482.38
459.698	455.38
459.918	472.38
460.138	473.38
460.358	491.38
460.578	485.38
460.798	501.38
461.018	497.38
461.238	512.38
461.458	497.38
461.678	508.38
461.898	511.38
462.118	505.38
462.338	516.38
462.558	515.38
462.777	548.38
462.997	563.38
463.217	590.38
463.437	588.38
463.657	563.38
463.876	555.38
464.096	553.38
464.316	533.38
464.536	549.38
464.755	540.38
464.975	532.38
465.195	549.38
465.414	532.38
465.634	516.38
465.854	472.38
466.073	480.38
466.293	456.38
466.512	437.38
466.732	443.38
466.951	440.38
467.171	464.38
467.391	439.38
467.61	438.38
467.829	445.38
468.049	440.38
468.268	427.38
468.488	435.38
468.707	427.38
468.927	436.38
469.146	435.38
469.365	421.38
469.585	437.38
469.804	452.38
470.023	454.38
470.243	443.38
470.462	451.38
470.681	456.38
470.901	475.38
471.12	450.38
471.339	450.38
471.558	440.38
471.777	448.38
471.997	443.38
472.216	453.38
472.435	437.38
472.654	435.38
472.873	450.38
473.092	450.38
473.311	456.38
473.53	466.38
473.749	451.38
473.968	465.38
474.187	529.38
474.406	543.38
474.625	465.38
474.844	471.38
475.063	424.38
475.282	440.38
475.501	447.38
475.72	470.38
475.939	443.38
476.158	458.38
476.377	461.38
476.596	467.38
476.814	468.38
477.033	479.38
477.252	452.38
477.471	453.38
477.69	475.38
477.908	483.38
478.127	482.38
478.346	506.38
478.564	498.38
478.783	523.38
479.002	530.38
479.22	531.38
479.439	524.38
479.658	531.38
479.876	533.38
480.095	552.38
480.313	555.38
480.532	568.38
480.751	583.38
480.969	562.38
481.188	559.38
481.406	546.38
481.624	521.38
481.843	535.38
482.061	515.38
482.28	508.38
482.498	523.38
482.717	525.38
482.935	528.38
483.153	518.38
483.372	517.38
483.59	508.38
483.808	523.38
484.027	532.38
484.245	515.38
484.463	529.38
484.681	556.38
484.9	555.38
485.118	513.38
485.336	554.38
485.554	534.38
485.772	543.38
485.99	549.38
486.209	530.38
486.427	534.38
486.645	537.38
486.863	531.38
487.081	573.38
487.299	563.38
487.517	525.38
487.735	557.38
487.953	552.38
488.171	549.38
488.389	563.38
488.607	553.38
488.825	540.38
489.043	530.38
489.261	560.38
489.479	549.38
489.696	551.38
489.914	533.38
490.132	545.38
490.35	568.38
490.568	550.38
490.786	566.38
491.003	554.38
491.221	570.38
491.439	579.38
491.657	584.38
491.874	599.38
492.092	600.38
492.31	608.38
492.527	583.38
492.745	598.38
492.963	579.38
493.18	592.38
493.398	587.38
493.615	614.38
493.833	613.38
494.05	596.38
494.268	589.38
494.485	636.38
494.703	641.38
494.92	603.38
495.138	618.38
495.355	617.38
495.573	631.38
495.79	620.38
496.008	639.38
496.225	616.38
496.442	663.38
496.66	647.38
496.877	633.38
497.094	644.38
497.312	661.38
497.529	658.38
497.746	683.38
497.963	672.38
498.181	721.38
498.398	739.38
498.615	777.38
498.832	772.38
499.049	798.38
499.267	861.38
499.484	899.38
499.701	931.38
499.918	982.38
500.135	1064.38
500.352	1144.38
500.569	1182.38
500.786	1145.38
501.003	1129.38
501.22	1042.38
501.437	997.38
501.654	922.38
501.871	895.38
502.088	849.38
