Data from 1985.PennyLincolnUp.Lamp.En5.5.200Scan.071819.P1_HRD10591_17-02-20-969.txt Node
Date: Thu Jul 18 17:02:20 EDT 2019
User: cochatt
Spectrometer: HR+D1059
Trigger mode: 1
Integration Time (sec): 1.000000E-1
Scans to average: 1
Electric dark correction enabled: true
Nonlinearity correction enabled: false
Boxcar width: 0
XAxis mode: Wavelengths
Number of Pixels in Spectrum: 2048
>>>>>Begin Spectral Data<<<<<
223.165	-18.44
223.4	-18.44
223.635	-18.44
223.869	-17.44
224.104	-13.44
224.338	-20.44
224.573	-10.44
224.808	-1.44
225.042	0.56
225.277	4.56
225.511	-24.44
225.746	9.56
225.98	-5.44
226.215	8.56
226.449	21.56
226.683	16.56
226.918	15.56
227.152	34.56
227.387	35.56
227.621	30.56
227.856	42.56
228.09	42.56
228.324	54.56
228.559	60.56
228.793	67.56
229.027	87.56
229.262	93.56
229.496	108.56
229.73	139.56
229.964	126.56
230.199	118.56
230.433	110.56
230.667	102.56
230.901	103.56
231.136	101.56
231.37	100.56
231.604	107.56
231.838	103.56
232.072	108.56
232.306	116.56
232.541	104.56
232.775	118.56
233.009	113.56
233.243	117.56
233.477	120.56
233.711	108.56
233.945	106.56
234.179	114.56
234.413	105.56
234.647	108.56
234.881	108.56
235.115	112.56
235.349	124.56
235.583	115.56
235.817	107.56
236.051	124.56
236.285	104.56
236.519	120.56
236.753	124.56
236.987	132.56
237.221	172.56
237.455	203.56
237.689	166.56
237.922	126.56
238.156	132.56
238.39	124.56
238.624	128.56
238.858	112.56
239.091	113.56
239.325	121.56
239.559	122.56
239.793	131.56
240.027	138.56
240.26	141.56
240.494	154.56
240.728	163.56
240.961	146.56
241.195	132.56
241.429	130.56
241.662	138.56
241.896	130.56
242.13	133.56
242.363	127.56
242.597	122.56
242.83	128.56
243.064	130.56
243.298	131.56
243.531	138.56
243.765	131.56
243.998	142.56
244.232	126.56
244.465	133.56
244.699	123.56
244.932	139.56
245.166	137.56
245.399	158.56
245.633	140.56
245.866	136.56
246.099	151.56
246.333	150.56
246.566	139.56
246.8	141.56
247.033	160.56
247.266	144.56
247.5	164.56
247.733	158.56
247.966	164.56
248.2	159.56
248.433	159.56
248.666	158.56
248.899	166.56
249.133	189.56
249.366	204.56
249.599	181.56
249.832	176.56
250.066	171.56
250.299	167.56
250.532	179.56
250.765	200.56
250.998	198.56
251.231	214.56
251.465	208.56
251.698	185.56
251.931	192.56
252.164	196.56
252.397	204.56
252.63	174.56
252.863	198.56
253.096	215.56
253.329	190.56
253.562	207.56
253.795	200.56
254.028	181.56
254.261	202.56
254.494	211.56
254.727	233.56
254.96	264.56
255.193	239.56
255.426	229.56
255.659	197.56
255.892	219.56
256.124	202.56
256.357	210.56
256.59	210.56
256.823	214.56
257.056	190.56
257.289	198.56
257.521	212.56
257.754	204.56
257.987	204.56
258.22	214.56
258.452	199.56
258.685	208.56
258.918	204.56
259.151	194.56
259.383	204.56
259.616	195.56
259.849	198.56
260.081	230.56
260.314	239.56
260.547	261.56
260.779	236.56
261.012	207.56
261.244	198.56
261.477	210.56
261.71	214.56
261.942	221.56
262.175	228.56
262.407	219.56
262.64	210.56
262.872	205.56
263.105	214.56
263.337	206.56
263.57	210.56
263.802	211.56
264.035	226.56
264.267	204.56
264.499	210.56
264.732	204.56
264.964	239.56
265.197	220.56
265.429	206.56
265.661	208.56
265.894	206.56
266.126	214.56
266.358	217.56
266.591	183.56
266.823	217.56
267.055	215.56
267.287	232.56
267.52	219.56
267.752	230.56
267.984	243.56
268.216	232.56
268.448	228.56
268.681	227.56
268.913	241.56
269.145	258.56
269.377	294.56
269.609	272.56
269.841	286.56
270.073	291.56
270.306	259.56
270.538	297.56
270.77	320.56
271.002	288.56
271.234	282.56
271.466	279.56
271.698	279.56
271.93	292.56
272.162	299.56
272.394	287.56
272.626	274.56
272.858	287.56
273.09	276.56
273.322	253.56
273.553	271.56
273.785	251.56
274.017	250.56
274.249	255.56
274.481	273.56
274.713	254.56
274.945	280.56
275.176	282.56
275.408	263.56
275.64	272.56
275.872	273.56
276.104	262.56
276.335	254.56
276.567	272.56
276.799	282.56
277.031	319.56
277.262	331.56
277.494	308.56
277.726	314.56
277.957	294.56
278.189	288.56
278.421	272.56
278.652	274.56
278.884	275.56
279.115	263.56
279.347	277.56
279.579	279.56
279.81	289.56
280.042	270.56
280.273	277.56
280.505	279.56
280.736	265.56
280.968	271.56
281.199	267.56
281.431	284.56
281.662	273.56
281.894	283.56
282.125	283.56
282.356	275.56
282.588	308.56
282.819	305.56
283.051	299.56
283.282	269.56
283.513	284.56
283.745	288.56
283.976	297.56
284.207	294.56
284.439	279.56
284.67	308.56
284.901	300.56
285.132	290.56
285.364	298.56
285.595	302.56
285.826	303.56
286.057	303.56
286.288	293.56
286.52	295.56
286.751	278.56
286.982	297.56
287.213	299.56
287.444	296.56
287.675	303.56
287.906	307.56
288.138	318.56
288.369	323.56
288.6	326.56
288.831	308.56
289.062	307.56
289.293	316.56
289.524	295.56
289.755	284.56
289.986	299.56
290.217	297.56
290.448	314.56
290.679	308.56
290.91	300.56
291.141	322.56
291.371	310.56
291.602	300.56
291.833	299.56
292.064	299.56
292.295	309.56
292.526	287.56
292.757	308.56
292.987	313.56
293.218	311.56
293.449	307.56
293.68	303.56
293.91	330.56
294.141	292.56
294.372	308.56
294.603	302.56
294.833	319.56
295.064	304.56
295.295	320.56
295.525	297.56
295.756	323.56
295.987	333.56
296.217	342.56
296.448	341.56
296.679	329.56
296.909	312.56
297.14	326.56
297.37	322.56
297.601	324.56
297.831	319.56
298.062	326.56
298.292	334.56
298.523	343.56
298.753	340.56
298.984	319.56
299.214	337.56
299.445	338.56
299.675	321.56
299.905	326.56
300.136	318.56
300.366	323.56
300.597	336.56
300.827	351.56
301.057	348.56
301.288	361.56
301.518	345.56
301.748	366.56
301.979	338.56
302.209	352.56
302.439	369.56
302.669	352.56
302.9	353.56
303.13	362.56
303.36	350.56
303.59	362.56
303.82	363.56
304.051	363.56
304.281	365.56
304.511	343.56
304.741	359.56
304.971	340.56
305.201	336.56
305.431	352.56
305.661	370.56
305.891	352.56
306.121	350.56
306.352	347.56
306.582	377.56
306.812	352.56
307.042	339.56
307.272	352.56
307.502	360.56
307.731	347.56
307.961	341.56
308.191	354.56
308.421	343.56
308.651	333.56
308.881	356.56
309.111	368.56
309.341	377.56
309.571	364.56
309.8	380.56
310.03	378.56
310.26	398.56
310.49	378.56
310.72	397.56
310.949	409.56
311.179	414.56
311.409	391.56
311.639	382.56
311.868	395.56
312.098	388.56
312.328	406.56
312.557	408.56
312.787	411.56
313.017	418.56
313.246	434.56
313.476	410.56
313.706	402.56
313.935	407.56
314.165	402.56
314.394	416.56
314.624	434.56
314.853	408.56
315.083	397.56
315.312	395.56
315.542	396.56
315.771	401.56
316.001	391.56
316.23	386.56
316.46	406.56
316.689	392.56
316.919	418.56
317.148	406.56
317.377	387.56
317.607	425.56
317.836	422.56
318.065	400.56
318.295	389.56
318.524	415.56
318.753	397.56
318.983	401.56
319.212	402.56
319.441	402.56
319.67	417.56
319.9	402.56
320.129	411.56
320.358	429.56
320.587	393.56
320.816	398.56
321.046	427.56
321.275	437.56
321.504	411.56
321.733	415.56
321.962	431.56
322.191	453.56
322.42	439.56
322.649	454.56
322.878	441.56
323.108	455.56
323.337	486.56
323.566	501.56
323.795	547.56
324.024	568.56
324.253	694.56
324.482	901.56
324.71	1343.56
324.939	1880.56
325.168	1618.56
325.397	882.56
325.626	619.56
325.855	536.56
326.084	523.56
326.313	511.56
326.542	518.56
326.77	531.56
326.999	629.56
327.228	807.56
327.457	1222.56
327.686	1462.56
327.914	944.56
328.143	659.56
328.372	589.56
328.6	553.56
328.829	564.56
329.058	558.56
329.287	576.56
329.515	537.56
329.744	520.56
329.972	490.56
330.201	512.56
330.43	525.56
330.658	547.56
330.887	604.56
331.115	562.56
331.344	538.56
331.572	512.56
331.801	519.56
332.03	502.56
332.258	499.56
332.486	469.56
332.715	475.56
332.943	468.56
333.172	501.56
333.4	513.56
333.629	503.56
333.857	522.56
334.085	520.56
334.314	499.56
334.542	518.56
334.771	516.56
334.999	514.56
335.227	489.56
335.455	490.56
335.684	481.56
335.912	475.56
336.14	487.56
336.369	500.56
336.597	512.56
336.825	481.56
337.053	466.56
337.281	483.56
337.51	465.56
337.738	484.56
337.966	467.56
338.194	465.56
338.422	466.56
338.65	457.56
338.878	468.56
339.106	452.56
339.334	467.56
339.562	443.56
339.79	443.56
340.018	451.56
340.246	461.56
340.474	458.56
340.702	457.56
340.93	438.56
341.158	443.56
341.386	450.56
341.614	452.56
341.842	433.56
342.07	445.56
342.298	455.56
342.526	451.56
342.754	437.56
342.981	426.56
343.209	414.56
343.437	457.56
343.665	494.56
343.893	479.56
344.12	475.56
344.348	484.56
344.576	460.56
344.804	483.56
345.031	475.56
345.259	479.56
345.487	463.56
345.714	456.56
345.942	428.56
346.17	434.56
346.397	431.56
346.625	436.56
346.853	407.56
347.08	432.56
347.308	450.56
347.535	437.56
347.763	458.56
347.99	445.56
348.218	428.56
348.445	445.56
348.673	456.56
348.9	432.56
349.128	438.56
349.355	408.56
349.583	406.56
349.81	411.56
350.037	417.56
350.265	420.56
350.492	420.56
350.72	418.56
350.947	424.56
351.174	420.56
351.402	444.56
351.629	438.56
351.856	451.56
352.083	430.56
352.311	448.56
352.538	444.56
352.765	436.56
352.992	439.56
353.22	443.56
353.447	412.56
353.674	415.56
353.901	422.56
354.128	395.56
354.355	429.56
354.583	410.56
354.81	404.56
355.037	418.56
355.264	413.56
355.491	422.56
355.718	406.56
355.945	415.56
356.172	391.56
356.399	411.56
356.626	408.56
356.853	397.56
357.08	413.56
357.307	391.56
357.534	392.56
357.761	405.56
357.988	394.56
358.215	417.56
358.441	402.56
358.668	402.56
358.895	414.56
359.122	400.56
359.349	401.56
359.576	434.56
359.802	442.56
360.029	447.56
360.256	470.56
360.483	460.56
360.709	405.56
360.936	426.56
361.163	419.56
361.39	430.56
361.616	434.56
361.843	422.56
362.07	409.56
362.296	418.56
362.523	423.56
362.749	411.56
362.976	416.56
363.203	412.56
363.429	402.56
363.656	405.56
363.882	399.56
364.109	411.56
364.335	394.56
364.562	410.56
364.788	395.56
365.015	402.56
365.241	412.56
365.468	418.56
365.694	392.56
365.92	404.56
366.147	414.56
366.373	403.56
366.599	405.56
366.826	397.56
367.052	403.56
367.278	435.56
367.505	387.56
367.731	412.56
367.957	411.56
368.184	395.56
368.41	404.56
368.636	404.56
368.862	431.56
369.089	425.56
369.315	404.56
369.541	390.56
369.767	388.56
369.993	399.56
370.219	409.56
370.445	396.56
370.672	412.56
370.898	382.56
371.124	409.56
371.35	416.56
371.576	404.56
371.802	407.56
372.028	422.56
372.254	424.56
372.48	399.56
372.706	419.56
372.932	400.56
373.158	399.56
373.384	417.56
373.61	413.56
373.835	418.56
374.061	414.56
374.287	393.56
374.513	428.56
374.739	418.56
374.965	432.56
375.191	428.56
375.416	415.56
375.642	402.56
375.868	430.56
376.094	407.56
376.319	405.56
376.545	413.56
376.771	412.56
376.997	397.56
377.222	427.56
377.448	398.56
377.674	408.56
377.899	419.56
378.125	406.56
378.35	392.56
378.576	388.56
378.802	386.56
379.027	426.56
379.253	428.56
379.478	430.56
379.704	425.56
379.929	387.56
380.155	393.56
380.38	411.56
380.606	404.56
380.831	408.56
381.057	422.56
381.282	407.56
381.507	437.56
381.733	382.56
381.958	400.56
382.184	393.56
382.409	422.56
382.634	424.56
382.86	403.56
383.085	432.56
383.31	423.56
383.535	426.56
383.761	423.56
383.986	424.56
384.211	421.56
384.436	433.56
384.662	432.56
384.887	420.56
385.112	440.56
385.337	462.56
385.562	436.56
385.787	432.56
386.013	431.56
386.238	466.56
386.463	475.56
386.688	448.56
386.913	448.56
387.138	437.56
387.363	443.56
387.588	458.56
387.813	460.56
388.038	445.56
388.263	444.56
388.488	459.56
388.713	454.56
388.938	440.56
389.163	435.56
389.387	447.56
389.612	463.56
389.837	456.56
390.062	436.56
390.287	438.56
390.512	432.56
390.736	442.56
390.961	454.56
391.186	448.56
391.411	449.56
391.636	467.56
391.86	480.56
392.085	481.56
392.31	497.56
392.534	484.56
392.759	470.56
392.984	451.56
393.208	465.56
393.433	469.56
393.658	463.56
393.882	472.56
394.107	458.56
394.331	475.56
394.556	445.56
394.78	455.56
395.005	466.56
395.229	452.56
395.454	463.56
395.678	485.56
395.903	482.56
396.127	517.56
396.352	490.56
396.576	484.56
396.801	463.56
397.025	478.56
397.249	515.56
397.474	492.56
397.698	480.56
397.922	486.56
398.147	510.56
398.371	542.56
398.595	513.56
398.82	525.56
399.044	561.56
399.268	586.56
399.492	616.56
399.717	690.56
399.941	691.56
400.165	644.56
400.389	638.56
400.613	596.56
400.837	579.56
401.062	559.56
401.286	523.56
401.51	522.56
401.734	537.56
401.958	529.56
402.182	547.56
402.406	552.56
402.63	540.56
402.854	538.56
403.078	547.56
403.302	570.56
403.526	582.56
403.75	549.56
403.974	551.56
404.198	531.56
404.422	570.56
404.645	568.56
404.869	567.56
405.093	603.56
405.317	595.56
405.541	600.56
405.765	584.56
405.988	546.56
406.212	574.56
406.436	608.56
406.66	599.56
406.883	580.56
407.107	612.56
407.331	658.56
407.555	742.56
407.778	727.56
408.002	651.56
408.226	642.56
408.449	599.56
408.673	607.56
408.896	612.56
409.12	657.56
409.344	611.56
409.567	548.56
409.791	556.56
410.014	571.56
410.238	546.56
410.461	550.56
410.685	556.56
410.908	565.56
411.132	595.56
411.355	614.56
411.578	576.56
411.802	566.56
412.025	548.56
412.249	542.56
412.472	553.56
412.695	546.56
412.919	504.56
413.142	515.56
413.365	522.56
413.589	534.56
413.812	498.56
414.035	512.56
414.258	504.56
414.482	533.56
414.705	554.56
414.928	502.56
415.151	515.56
415.374	502.56
415.597	475.56
415.821	522.56
416.044	540.56
416.267	510.56
416.49	506.56
416.713	515.56
416.936	484.56
417.159	512.56
417.382	530.56
417.605	512.56
417.828	544.56
418.051	545.56
418.274	543.56
418.497	490.56
418.72	513.56
418.943	498.56
419.166	520.56
419.389	554.56
419.611	537.56
419.834	549.56
420.057	533.56
420.28	524.56
420.503	501.56
420.726	542.56
420.948	538.56
421.171	576.56
421.394	593.56
421.617	538.56
421.839	526.56
422.062	504.56
422.285	527.56
422.507	579.56
422.73	649.56
422.953	636.56
423.175	588.56
423.398	553.56
423.621	563.56
423.843	551.56
424.066	568.56
424.288	535.56
424.511	572.56
424.733	634.56
424.956	707.56
425.178	656.56
425.401	658.56
425.623	698.56
425.846	603.56
426.068	564.56
426.291	537.56
426.513	542.56
426.735	553.56
426.958	585.56
427.18	664.56
427.402	798.56
427.625	839.56
427.847	724.56
428.069	619.56
428.292	575.56
428.514	521.56
428.736	516.56
428.958	491.56
429.181	510.56
429.403	483.56
429.625	503.56
429.847	544.56
430.069	601.56
430.292	586.56
430.514	511.56
430.736	503.56
430.958	476.56
431.18	491.56
431.402	477.56
431.624	478.56
431.846	481.56
432.068	464.56
432.29	496.56
432.512	483.56
432.734	490.56
432.956	456.56
433.178	500.56
433.4	500.56
433.622	491.56
433.844	482.56
434.066	478.56
434.287	474.56
434.509	476.56
434.731	514.56
434.953	529.56
435.175	534.56
435.397	535.56
435.618	530.56
435.84	587.56
436.062	643.56
436.284	715.56
436.505	592.56
436.727	562.56
436.949	504.56
437.17	512.56
437.392	514.56
437.614	520.56
437.835	541.56
438.057	603.56
438.278	713.56
438.5	705.56
438.721	768.56
438.943	753.56
439.165	604.56
439.386	542.56
439.608	528.56
439.829	537.56
440.05	574.56
440.272	620.56
440.493	592.56
440.715	532.56
440.936	544.56
441.158	522.56
441.379	517.56
441.6	529.56
441.822	536.56
442.043	585.56
442.264	675.56
442.486	693.56
442.707	575.56
442.928	562.56
443.149	553.56
443.371	593.56
443.592	627.56
443.813	720.56
444.034	752.56
444.255	646.56
444.476	589.56
444.698	585.56
444.919	584.56
445.14	676.56
445.361	632.56
445.582	598.56
445.803	659.56
446.024	726.56
446.245	706.56
446.466	662.56
446.687	568.56
446.908	528.56
447.129	517.56
447.35	501.56
447.571	485.56
447.792	488.56
448.013	506.56
448.234	522.56
448.455	571.56
448.675	666.56
448.896	786.56
449.117	633.56
449.338	595.56
449.559	697.56
449.779	798.56
450	640.56
450.221	529.56
450.442	508.56
450.662	459.56
450.883	486.56
451.104	494.56
451.324	500.56
451.545	491.56
451.766	460.56
451.986	452.56
452.207	442.56
452.428	443.56
452.648	462.56
452.869	438.56
453.089	451.56
453.31	475.56
453.53	464.56
453.751	434.56
453.971	434.56
454.192	461.56
454.412	462.56
454.633	450.56
454.853	434.56
455.073	439.56
455.294	471.56
455.514	508.56
455.734	524.56
455.955	463.56
456.175	422.56
456.395	422.56
456.616	432.56
456.836	426.56
457.056	438.56
457.276	418.56
457.497	453.56
457.717	436.56
457.937	426.56
458.157	430.56
458.377	448.56
458.598	481.56
458.818	516.56
459.038	585.56
459.258	606.56
459.478	512.56
459.698	492.56
459.918	513.56
460.138	499.56
460.358	513.56
460.578	513.56
460.798	513.56
461.018	516.56
461.238	522.56
461.458	529.56
461.678	520.56
461.898	487.56
462.118	519.56
462.338	529.56
462.558	543.56
462.777	545.56
462.997	558.56
463.217	590.56
463.437	596.56
463.657	569.56
463.876	558.56
464.096	570.56
464.316	552.56
464.536	566.56
464.755	546.56
464.975	572.56
465.195	584.56
465.414	634.56
465.634	547.56
465.854	516.56
466.073	499.56
466.293	463.56
466.512	491.56
466.732	481.56
466.951	444.56
467.171	465.56
467.391	489.56
467.61	466.56
467.829	505.56
468.049	478.56
468.268	454.56
468.488	458.56
468.707	457.56
468.927	442.56
469.146	438.56
469.365	461.56
469.585	461.56
469.804	467.56
470.023	479.56
470.243	491.56
470.462	499.56
470.681	503.56
470.901	510.56
471.12	483.56
471.339	475.56
471.558	478.56
471.777	474.56
471.997	472.56
472.216	457.56
472.435	453.56
472.654	450.56
472.873	470.56
473.092	455.56
473.311	437.56
473.53	458.56
473.749	469.56
473.968	510.56
474.187	588.56
474.406	611.56
474.625	504.56
474.844	481.56
475.063	469.56
475.282	484.56
475.501	471.56
475.72	455.56
475.939	494.56
476.158	485.56
476.377	492.56
476.596	477.56
476.814	476.56
477.033	499.56
477.252	496.56
477.471	511.56
477.69	489.56
477.908	529.56
478.127	532.56
478.346	544.56
478.564	496.56
478.783	514.56
479.002	535.56
479.22	553.56
479.439	562.56
479.658	564.56
479.876	571.56
480.095	569.56
480.313	596.56
480.532	593.56
480.751	577.56
480.969	583.56
481.188	587.56
481.406	565.56
481.624	584.56
481.843	579.56
482.061	542.56
482.28	537.56
482.498	521.56
482.717	531.56
482.935	558.56
483.153	540.56
483.372	532.56
483.59	536.56
483.808	529.56
484.027	508.56
484.245	532.56
484.463	548.56
484.681	562.56
484.9	533.56
485.118	541.56
485.336	550.56
485.554	545.56
485.772	574.56
485.99	580.56
486.209	575.56
486.427	527.56
486.645	557.56
486.863	560.56
487.081	579.56
487.299	578.56
487.517	571.56
487.735	576.56
487.953	594.56
488.171	581.56
488.389	565.56
488.607	572.56
488.825	566.56
489.043	595.56
489.261	587.56
489.479	596.56
489.696	590.56
489.914	596.56
490.132	605.56
490.35	598.56
490.568	606.56
490.786	607.56
491.003	626.56
491.221	623.56
491.439	611.56
491.657	634.56
491.874	646.56
492.092	650.56
492.31	660.56
492.527	654.56
492.745	640.56
492.963	640.56
493.18	669.56
493.398	666.56
493.615	656.56
493.833	683.56
494.05	671.56
494.268	659.56
494.485	658.56
494.703	665.56
494.92	670.56
495.138	652.56
495.355	665.56
495.573	667.56
495.79	679.56
496.008	684.56
496.225	678.56
496.442	687.56
496.66	688.56
496.877	678.56
497.094	694.56
497.312	707.56
497.529	681.56
497.746	705.56
497.963	720.56
498.181	771.56
498.398	745.56
498.615	804.56
498.832	827.56
499.049	829.56
499.267	887.56
499.484	906.56
499.701	948.56
499.918	1008.56
500.135	1070.56
500.352	1135.56
500.569	1178.56
500.786	1160.56
501.003	1148.56
501.22	1092.56
501.437	1004.56
501.654	985.56
501.871	956.56
