Data from 1985.PennyLincolnUp.Lamp.En5.5.200Scan.071819.P1_HRD10591_17-04-23-971.txt Node
Date: Thu Jul 18 17:04:23 EDT 2019
User: cochatt
Spectrometer: HR+D1059
Trigger mode: 1
Integration Time (sec): 1.000000E-1
Scans to average: 1
Electric dark correction enabled: true
Nonlinearity correction enabled: false
Boxcar width: 0
XAxis mode: Wavelengths
Number of Pixels in Spectrum: 2048
>>>>>Begin Spectral Data<<<<<
223.165	-10.25
223.4	-10.25
223.635	-10.25
223.869	-18.25
224.104	-28.25
224.338	-31.25
224.573	-12.25
224.808	-11.25
225.042	-15.25
225.277	7.75
225.511	-3.25
225.746	-0.25
225.98	13.75
226.215	10.75
226.449	8.75
226.683	17.75
226.918	29.75
227.152	41.75
227.387	29.75
227.621	36.75
227.856	58.75
228.09	46.75
228.324	53.75
228.559	80.75
228.793	66.75
229.027	109.75
229.262	103.75
229.496	105.75
229.73	124.75
229.964	137.75
230.199	111.75
230.433	115.75
230.667	120.75
230.901	131.75
231.136	116.75
231.37	112.75
231.604	111.75
231.838	104.75
232.072	115.75
232.306	113.75
232.541	112.75
232.775	111.75
233.009	124.75
233.243	121.75
233.477	121.75
233.711	119.75
233.945	119.75
234.179	125.75
234.413	133.75
234.647	119.75
234.881	116.75
235.115	119.75
235.349	111.75
235.583	107.75
235.817	131.75
236.051	119.75
236.285	112.75
236.519	117.75
236.753	140.75
236.987	151.75
237.221	178.75
237.455	206.75
237.689	176.75
237.922	139.75
238.156	141.75
238.39	132.75
238.624	130.75
238.858	144.75
239.091	129.75
239.325	107.75
239.559	120.75
239.793	135.75
240.027	142.75
240.26	140.75
240.494	146.75
240.728	147.75
240.961	134.75
241.195	141.75
241.429	132.75
241.662	136.75
241.896	121.75
242.13	140.75
242.363	132.75
242.597	134.75
242.83	145.75
243.064	132.75
243.298	140.75
243.531	135.75
243.765	126.75
243.998	136.75
244.232	157.75
244.465	139.75
244.699	141.75
244.932	133.75
245.166	146.75
245.399	137.75
245.633	151.75
245.866	151.75
246.099	152.75
246.333	149.75
246.566	148.75
246.8	159.75
247.033	158.75
247.266	168.75
247.5	165.75
247.733	170.75
247.966	176.75
248.2	157.75
248.433	181.75
248.666	176.75
248.899	186.75
249.133	200.75
249.366	226.75
249.599	199.75
249.832	193.75
250.066	199.75
250.299	191.75
250.532	228.75
250.765	211.75
250.998	237.75
251.231	220.75
251.465	225.75
251.698	188.75
251.931	216.75
252.164	193.75
252.397	197.75
252.63	189.75
252.863	205.75
253.096	238.75
253.329	219.75
253.562	217.75
253.795	227.75
254.028	208.75
254.261	205.75
254.494	230.75
254.727	256.75
254.96	263.75
255.193	239.75
255.426	246.75
255.659	230.75
255.892	262.75
256.124	256.75
256.357	265.75
256.59	249.75
256.823	210.75
257.056	219.75
257.289	203.75
257.521	235.75
257.754	212.75
257.987	220.75
258.22	216.75
258.452	217.75
258.685	212.75
258.918	207.75
259.151	216.75
259.383	227.75
259.616	224.75
259.849	238.75
260.081	255.75
260.314	244.75
260.547	251.75
260.779	233.75
261.012	220.75
261.244	236.75
261.477	223.75
261.71	219.75
261.942	231.75
262.175	237.75
262.407	238.75
262.64	200.75
262.872	200.75
263.105	217.75
263.337	225.75
263.57	224.75
263.802	218.75
264.035	222.75
264.267	219.75
264.499	222.75
264.732	214.75
264.964	207.75
265.197	236.75
265.429	219.75
265.661	229.75
265.894	210.75
266.126	221.75
266.358	229.75
266.591	236.75
266.823	246.75
267.055	249.75
267.287	223.75
267.52	243.75
267.752	253.75
267.984	244.75
268.216	245.75
268.448	256.75
268.681	254.75
268.913	283.75
269.145	272.75
269.377	285.75
269.609	265.75
269.841	285.75
270.073	273.75
270.306	292.75
270.538	327.75
270.77	323.75
271.002	316.75
271.234	302.75
271.466	306.75
271.698	308.75
271.93	315.75
272.162	315.75
272.394	318.75
272.626	283.75
272.858	289.75
273.09	287.75
273.322	277.75
273.553	275.75
273.785	285.75
274.017	297.75
274.249	279.75
274.481	253.75
274.713	267.75
274.945	288.75
275.176	273.75
275.408	277.75
275.64	287.75
275.872	292.75
276.104	285.75
276.335	289.75
276.567	293.75
276.799	301.75
277.031	306.75
277.262	333.75
277.494	321.75
277.726	319.75
277.957	305.75
278.189	293.75
278.421	294.75
278.652	309.75
278.884	269.75
279.115	298.75
279.347	283.75
279.579	277.75
279.81	282.75
280.042	283.75
280.273	296.75
280.505	291.75
280.736	280.75
280.968	288.75
281.199	281.75
281.431	302.75
281.662	304.75
281.894	297.75
282.125	317.75
282.356	318.75
282.588	336.75
282.819	319.75
283.051	291.75
283.282	288.75
283.513	299.75
283.745	291.75
283.976	301.75
284.207	320.75
284.439	320.75
284.67	314.75
284.901	309.75
285.132	294.75
285.364	300.75
285.595	296.75
285.826	290.75
286.057	317.75
286.288	311.75
286.52	303.75
286.751	313.75
286.982	305.75
287.213	315.75
287.444	326.75
287.675	315.75
287.906	321.75
288.138	324.75
288.369	341.75
288.6	317.75
288.831	341.75
289.062	335.75
289.293	321.75
289.524	321.75
289.755	328.75
289.986	326.75
290.217	320.75
290.448	322.75
290.679	330.75
290.91	326.75
291.141	315.75
291.371	336.75
291.602	307.75
291.833	339.75
292.064	320.75
292.295	328.75
292.526	336.75
292.757	320.75
292.987	313.75
293.218	328.75
293.449	322.75
293.68	324.75
293.91	323.75
294.141	333.75
294.372	332.75
294.603	325.75
294.833	344.75
295.064	353.75
295.295	329.75
295.525	332.75
295.756	351.75
295.987	337.75
296.217	338.75
296.448	352.75
296.679	343.75
296.909	329.75
297.14	344.75
297.37	337.75
297.601	340.75
297.831	363.75
298.062	338.75
298.292	341.75
298.523	336.75
298.753	347.75
298.984	359.75
299.214	344.75
299.445	335.75
299.675	357.75
299.905	376.75
300.136	367.75
300.366	362.75
300.597	356.75
300.827	357.75
301.057	359.75
301.288	365.75
301.518	372.75
301.748	358.75
301.979	348.75
302.209	366.75
302.439	365.75
302.669	386.75
302.9	380.75
303.13	374.75
303.36	367.75
303.59	367.75
303.82	371.75
304.051	385.75
304.281	367.75
304.511	371.75
304.741	367.75
304.971	359.75
305.201	373.75
305.431	377.75
305.661	378.75
305.891	378.75
306.121	362.75
306.352	382.75
306.582	371.75
306.812	377.75
307.042	366.75
307.272	368.75
307.502	381.75
307.731	383.75
307.961	384.75
308.191	381.75
308.421	379.75
308.651	379.75
308.881	376.75
309.111	379.75
309.341	380.75
309.571	394.75
309.8	411.75
310.03	400.75
310.26	413.75
310.49	436.75
310.72	424.75
310.949	420.75
311.179	429.75
311.409	412.75
311.639	409.75
311.868	426.75
312.098	423.75
312.328	405.75
312.557	424.75
312.787	417.75
313.017	420.75
313.246	427.75
313.476	419.75
313.706	431.75
313.935	414.75
314.165	411.75
314.394	424.75
314.624	439.75
314.853	425.75
315.083	420.75
315.312	416.75
315.542	422.75
315.771	412.75
316.001	404.75
316.23	406.75
316.46	408.75
316.689	429.75
316.919	419.75
317.148	429.75
317.377	430.75
317.607	426.75
317.836	427.75
318.065	414.75
318.295	410.75
318.524	414.75
318.753	412.75
318.983	413.75
319.212	420.75
319.441	429.75
319.67	441.75
319.9	445.75
320.129	426.75
320.358	435.75
320.587	420.75
320.816	431.75
321.046	447.75
321.275	439.75
321.504	424.75
321.733	440.75
321.962	456.75
322.191	449.75
322.42	451.75
322.649	479.75
322.878	476.75
323.108	485.75
323.337	499.75
323.566	527.75
323.795	548.75
324.024	579.75
324.253	672.75
324.482	933.75
324.71	1435.75
324.939	1977.75
325.168	1680.75
325.397	891.75
325.626	645.75
325.855	563.75
326.084	525.75
326.313	528.75
326.542	511.75
326.77	581.75
326.999	679.75
327.228	884.75
327.457	1288.75
327.686	1486.75
327.914	1035.75
328.143	735.75
328.372	667.75
328.6	623.75
328.829	582.75
329.058	603.75
329.287	599.75
329.515	563.75
329.744	557.75
329.972	555.75
330.201	594.75
330.43	643.75
330.658	627.75
330.887	632.75
331.115	611.75
331.344	562.75
331.572	535.75
331.801	539.75
332.03	552.75
332.258	537.75
332.486	528.75
332.715	527.75
332.943	524.75
333.172	513.75
333.4	535.75
333.629	571.75
333.857	563.75
334.085	589.75
334.314	609.75
334.542	648.75
334.771	687.75
334.999	612.75
335.227	575.75
335.455	553.75
335.684	525.75
335.912	494.75
336.14	494.75
336.369	500.75
336.597	527.75
336.825	515.75
337.053	503.75
337.281	491.75
337.51	508.75
337.738	507.75
337.966	489.75
338.194	499.75
338.422	483.75
338.65	485.75
338.878	489.75
339.106	476.75
339.334	475.75
339.562	479.75
339.79	487.75
340.018	483.75
340.246	465.75
340.474	496.75
340.702	472.75
340.93	487.75
341.158	473.75
341.386	471.75
341.614	465.75
341.842	480.75
342.07	462.75
342.298	479.75
342.526	476.75
342.754	429.75
342.981	458.75
343.209	447.75
343.437	462.75
343.665	496.75
343.893	496.75
344.12	499.75
344.348	493.75
344.576	479.75
344.804	456.75
345.031	497.75
345.259	486.75
345.487	478.75
345.714	476.75
345.942	456.75
346.17	476.75
346.397	438.75
346.625	467.75
346.853	455.75
347.08	446.75
347.308	444.75
347.535	438.75
347.763	452.75
347.99	468.75
348.218	461.75
348.445	483.75
348.673	460.75
348.9	461.75
349.128	424.75
349.355	430.75
349.583	447.75
349.81	433.75
350.037	428.75
350.265	430.75
350.492	465.75
350.72	460.75
350.947	437.75
351.174	459.75
351.402	459.75
351.629	444.75
351.856	438.75
352.083	438.75
352.311	446.75
352.538	464.75
352.765	453.75
352.992	455.75
353.22	441.75
353.447	445.75
353.674	432.75
353.901	435.75
354.128	415.75
354.355	425.75
354.583	435.75
354.81	432.75
355.037	419.75
355.264	419.75
355.491	396.75
355.718	420.75
355.945	389.75
356.172	423.75
356.399	415.75
356.626	422.75
356.853	399.75
357.08	415.75
357.307	424.75
357.534	412.75
357.761	409.75
357.988	408.75
358.215	420.75
358.441	438.75
358.668	423.75
358.895	420.75
359.122	443.75
359.349	430.75
359.576	447.75
359.802	457.75
360.029	468.75
360.256	485.75
360.483	471.75
360.709	425.75
360.936	405.75
361.163	439.75
361.39	430.75
361.616	452.75
361.843	443.75
362.07	455.75
362.296	440.75
362.523	426.75
362.749	443.75
362.976	443.75
363.203	422.75
363.429	411.75
363.656	426.75
363.882	423.75
364.109	424.75
364.335	416.75
364.562	435.75
364.788	409.75
365.015	437.75
365.241	427.75
365.468	435.75
365.694	444.75
365.92	431.75
366.147	420.75
366.373	444.75
366.599	439.75
366.826	412.75
367.052	435.75
367.278	420.75
367.505	387.75
367.731	411.75
367.957	404.75
368.184	428.75
368.41	432.75
368.636	448.75
368.862	452.75
369.089	436.75
369.315	435.75
369.541	439.75
369.767	436.75
369.993	425.75
370.219	436.75
370.445	423.75
370.672	432.75
370.898	440.75
371.124	428.75
371.35	422.75
371.576	431.75
371.802	420.75
372.028	419.75
372.254	424.75
372.48	423.75
372.706	447.75
372.932	426.75
373.158	426.75
373.384	453.75
373.61	432.75
373.835	427.75
374.061	419.75
374.287	441.75
374.513	437.75
374.739	444.75
374.965	440.75
375.191	439.75
375.416	453.75
375.642	438.75
375.868	460.75
376.094	417.75
376.319	434.75
376.545	411.75
376.771	415.75
376.997	421.75
377.222	428.75
377.448	419.75
377.674	420.75
377.899	433.75
378.125	425.75
378.35	451.75
378.576	410.75
378.802	418.75
379.027	408.75
379.253	410.75
379.478	413.75
379.704	414.75
379.929	431.75
380.155	445.75
380.38	420.75
380.606	440.75
380.831	433.75
381.057	423.75
381.282	419.75
381.507	425.75
381.733	421.75
381.958	435.75
382.184	417.75
382.409	423.75
382.634	438.75
382.86	446.75
383.085	448.75
383.31	437.75
383.535	429.75
383.761	438.75
383.986	461.75
384.211	451.75
384.436	465.75
384.662	461.75
384.887	459.75
385.112	461.75
385.337	470.75
385.562	476.75
385.787	479.75
386.013	494.75
386.238	466.75
386.463	465.75
386.688	465.75
386.913	459.75
387.138	462.75
387.363	472.75
387.588	480.75
387.813	473.75
388.038	470.75
388.263	439.75
388.488	459.75
388.713	467.75
388.938	483.75
389.163	469.75
389.387	449.75
389.612	473.75
389.837	464.75
390.062	478.75
390.287	497.75
390.512	459.75
390.736	462.75
390.961	470.75
391.186	460.75
391.411	484.75
391.636	475.75
391.86	484.75
392.085	496.75
392.31	492.75
392.534	466.75
392.759	476.75
392.984	481.75
393.208	451.75
393.433	480.75
393.658	459.75
393.882	455.75
394.107	508.75
394.331	477.75
394.556	500.75
394.78	483.75
395.005	498.75
395.229	484.75
395.454	487.75
395.678	492.75
395.903	507.75
396.127	503.75
396.352	534.75
396.576	500.75
396.801	496.75
397.025	496.75
397.249	464.75
397.474	531.75
397.698	527.75
397.922	523.75
398.147	552.75
398.371	540.75
398.595	541.75
398.82	549.75
399.044	586.75
399.268	621.75
399.492	628.75
399.717	695.75
399.941	693.75
400.165	697.75
400.389	664.75
400.613	617.75
400.837	582.75
401.062	565.75
401.286	533.75
401.51	563.75
401.734	549.75
401.958	563.75
402.182	561.75
402.406	541.75
402.63	560.75
402.854	579.75
403.078	559.75
403.302	559.75
403.526	585.75
403.75	573.75
403.974	587.75
404.198	572.75
404.422	599.75
404.645	588.75
404.869	620.75
405.093	624.75
405.317	678.75
405.541	686.75
405.765	648.75
405.988	629.75
406.212	620.75
406.436	627.75
406.66	625.75
406.883	647.75
407.107	645.75
407.331	683.75
407.555	729.75
407.778	737.75
408.002	682.75
408.226	657.75
408.449	629.75
408.673	611.75
408.896	640.75
409.12	657.75
409.344	649.75
409.567	613.75
409.791	580.75
410.014	584.75
410.238	566.75
410.461	570.75
410.685	578.75
410.908	586.75
411.132	632.75
411.355	656.75
411.578	609.75
411.802	588.75
412.025	551.75
412.249	565.75
412.472	613.75
412.695	649.75
412.919	645.75
413.142	589.75
413.365	565.75
413.589	585.75
413.812	555.75
414.035	521.75
414.258	533.75
414.482	539.75
414.705	521.75
414.928	531.75
415.151	533.75
415.374	560.75
415.597	545.75
415.821	526.75
416.044	528.75
416.267	515.75
416.49	538.75
416.713	529.75
416.936	555.75
417.159	529.75
417.382	530.75
417.605	532.75
417.828	546.75
418.051	543.75
418.274	523.75
418.497	538.75
418.72	518.75
418.943	524.75
419.166	549.75
419.389	573.75
419.611	584.75
419.834	565.75
420.057	589.75
420.28	549.75
420.503	574.75
420.726	574.75
420.948	572.75
421.171	590.75
421.394	631.75
421.617	576.75
421.839	555.75
422.062	548.75
422.285	564.75
422.507	606.75
422.73	661.75
422.953	636.75
423.175	563.75
423.398	571.75
423.621	565.75
423.843	586.75
424.066	581.75
424.288	575.75
424.511	608.75
424.733	645.75
424.956	721.75
425.178	683.75
425.401	702.75
425.623	694.75
425.846	605.75
426.068	556.75
426.291	568.75
426.513	579.75
426.735	587.75
426.958	634.75
427.18	677.75
427.402	779.75
427.625	876.75
427.847	756.75
428.069	673.75
428.292	624.75
428.514	587.75
428.736	543.75
428.958	548.75
429.181	525.75
429.403	509.75
429.625	533.75
429.847	550.75
430.069	612.75
430.292	609.75
430.514	539.75
430.736	531.75
430.958	518.75
431.18	520.75
431.402	501.75
431.624	477.75
431.846	485.75
432.068	458.75
432.29	495.75
432.512	496.75
432.734	500.75
432.956	509.75
433.178	518.75
433.4	497.75
433.622	490.75
433.844	497.75
434.066	491.75
434.287	469.75
434.509	523.75
434.731	539.75
434.953	524.75
435.175	549.75
435.397	565.75
435.618	538.75
435.84	605.75
436.062	686.75
436.284	743.75
436.505	617.75
436.727	575.75
436.949	525.75
437.17	516.75
437.392	510.75
437.614	529.75
437.835	576.75
438.057	655.75
438.278	717.75
438.5	744.75
438.721	774.75
438.943	751.75
439.165	609.75
439.386	548.75
439.608	566.75
439.829	558.75
440.05	572.75
440.272	623.75
440.493	581.75
440.715	563.75
440.936	545.75
441.158	545.75
441.379	544.75
441.6	544.75
441.822	570.75
442.043	608.75
442.264	684.75
442.486	711.75
442.707	620.75
442.928	584.75
443.149	589.75
443.371	590.75
443.592	639.75
443.813	741.75
444.034	803.75
444.255	661.75
444.476	608.75
444.698	610.75
444.919	619.75
445.14	717.75
445.361	662.75
445.582	625.75
445.803	662.75
446.024	742.75
446.245	730.75
446.466	689.75
446.687	577.75
446.908	559.75
447.129	515.75
447.35	509.75
447.571	503.75
447.792	515.75
448.013	527.75
448.234	527.75
448.455	563.75
448.675	661.75
448.896	773.75
449.117	639.75
449.338	639.75
449.559	694.75
449.779	788.75
450	640.75
450.221	553.75
450.442	511.75
450.662	485.75
450.883	484.75
451.104	524.75
451.324	500.75
451.545	485.75
451.766	480.75
451.986	479.75
452.207	471.75
452.428	450.75
452.648	462.75
452.869	462.75
453.089	496.75
453.31	492.75
453.53	484.75
453.751	472.75
453.971	480.75
454.192	491.75
454.412	458.75
454.633	455.75
454.853	448.75
455.073	468.75
455.294	499.75
455.514	534.75
455.734	525.75
455.955	467.75
456.175	451.75
456.395	453.75
456.616	439.75
456.836	429.75
457.056	414.75
457.276	443.75
457.497	453.75
457.717	453.75
457.937	459.75
458.157	448.75
458.377	457.75
458.598	485.75
458.818	537.75
459.038	611.75
459.258	601.75
459.478	549.75
459.698	514.75
459.918	503.75
460.138	503.75
460.358	506.75
460.578	549.75
460.798	526.75
461.018	542.75
461.238	532.75
461.458	554.75
461.678	518.75
461.898	560.75
462.118	524.75
462.338	563.75
462.558	572.75
462.777	565.75
462.997	600.75
463.217	623.75
463.437	621.75
463.657	594.75
463.876	592.75
464.096	575.75
464.316	569.75
464.536	600.75
464.755	577.75
464.975	585.75
465.195	586.75
465.414	635.75
465.634	568.75
465.854	529.75
466.073	525.75
466.293	511.75
466.512	473.75
466.732	456.75
466.951	502.75
467.171	472.75
467.391	477.75
467.61	487.75
467.829	501.75
468.049	501.75
468.268	497.75
468.488	478.75
468.707	481.75
468.927	477.75
469.146	474.75
469.365	464.75
469.585	474.75
469.804	488.75
470.023	481.75
470.243	500.75
470.462	511.75
470.681	510.75
470.901	531.75
471.12	473.75
471.339	500.75
471.558	496.75
471.777	475.75
471.997	485.75
472.216	513.75
472.435	544.75
472.654	539.75
472.873	524.75
473.092	504.75
473.311	468.75
473.53	507.75
473.749	504.75
473.968	519.75
474.187	597.75
474.406	629.75
474.625	527.75
474.844	501.75
475.063	497.75
475.282	485.75
475.501	491.75
475.72	505.75
475.939	499.75
476.158	458.75
476.377	503.75
476.596	485.75
476.814	513.75
477.033	515.75
477.252	514.75
477.471	522.75
477.69	538.75
477.908	537.75
478.127	554.75
478.346	546.75
478.564	551.75
478.783	564.75
479.002	550.75
479.22	568.75
479.439	578.75
479.658	591.75
479.876	589.75
480.095	611.75
480.313	648.75
480.532	619.75
480.751	609.75
480.969	639.75
481.188	686.75
481.406	768.75
481.624	659.75
481.843	618.75
482.061	583.75
482.28	597.75
482.498	567.75
482.717	598.75
482.935	578.75
483.153	569.75
483.372	581.75
483.59	558.75
483.808	572.75
484.027	572.75
484.245	557.75
484.463	553.75
484.681	579.75
484.9	575.75
485.118	592.75
485.336	581.75
485.554	592.75
485.772	576.75
485.99	578.75
486.209	565.75
486.427	575.75
486.645	581.75
486.863	611.75
487.081	603.75
487.299	594.75
487.517	597.75
487.735	596.75
487.953	606.75
488.171	596.75
488.389	597.75
488.607	587.75
488.825	601.75
489.043	638.75
489.261	631.75
489.479	635.75
489.696	628.75
489.914	612.75
490.132	637.75
490.35	655.75
490.568	633.75
490.786	633.75
491.003	653.75
491.221	669.75
491.439	663.75
491.657	693.75
491.874	708.75
492.092	713.75
492.31	693.75
492.527	724.75
492.745	715.75
492.963	719.75
493.18	726.75
493.398	698.75
493.615	737.75
493.833	736.75
494.05	736.75
494.268	716.75
494.485	705.75
494.703	701.75
494.92	708.75
495.138	696.75
495.355	750.75
495.573	726.75
495.79	733.75
496.008	725.75
496.225	713.75
496.442	714.75
496.66	731.75
496.877	731.75
497.094	718.75
497.312	715.75
497.529	727.75
497.746	758.75
497.963	781.75
498.181	796.75
498.398	825.75
498.615	845.75
498.832	872.75
499.049	896.75
499.267	872.75
499.484	938.75
499.701	997.75
499.918	1041.75
500.135	1132.75
500.352	1213.75
500.569	1212.75
500.786	1220.75
501.003	1196.75
501.22	1129.75
501.437	1054.75
501.654	1019.75
501.871	963.75
