Data from 1985.PennyLincolnUp.Lamp.En5.5.200Scan.071819.P1_HRD10591_17-02-02-970.txt Node
Date: Thu Jul 18 17:02:02 EDT 2019
User: cochatt
Spectrometer: HR+D1059
Trigger mode: 1
Integration Time (sec): 1.000000E-1
Scans to average: 1
Electric dark correction enabled: true
Nonlinearity correction enabled: false
Boxcar width: 0
XAxis mode: Wavelengths
Number of Pixels in Spectrum: 2048
>>>>>Begin Spectral Data<<<<<
223.165	-25.75
223.4	-25.75
223.635	-25.75
223.869	-5.75
224.104	-14.75
224.338	-19.75
224.573	-6.75
224.808	-15.75
225.042	-11.75
225.277	4.25
225.511	-6.75
225.746	-0.75
225.98	5.25
226.215	6.25
226.449	9.25
226.683	23.25
226.918	22.25
227.152	37.25
227.387	32.25
227.621	36.25
227.856	63.25
228.09	47.25
228.324	62.25
228.559	50.25
228.793	82.25
229.027	91.25
229.262	105.25
229.496	116.25
229.73	130.25
229.964	154.25
230.199	130.25
230.433	108.25
230.667	117.25
230.901	124.25
231.136	117.25
231.37	111.25
231.604	113.25
231.838	121.25
232.072	132.25
232.306	117.25
232.541	100.25
232.775	113.25
233.009	120.25
233.243	107.25
233.477	136.25
233.711	116.25
233.945	138.25
234.179	114.25
234.413	127.25
234.647	130.25
234.881	121.25
235.115	112.25
235.349	124.25
235.583	133.25
235.817	126.25
236.051	112.25
236.285	120.25
236.519	128.25
236.753	128.25
236.987	146.25
237.221	169.25
237.455	224.25
237.689	174.25
237.922	150.25
238.156	129.25
238.39	139.25
238.624	126.25
238.858	121.25
239.091	119.25
239.325	121.25
239.559	123.25
239.793	136.25
240.027	140.25
240.26	140.25
240.494	152.25
240.728	124.25
240.961	147.25
241.195	151.25
241.429	148.25
241.662	135.25
241.896	145.25
242.13	140.25
242.363	135.25
242.597	140.25
242.83	133.25
243.064	138.25
243.298	125.25
243.531	136.25
243.765	132.25
243.998	149.25
244.232	153.25
244.465	153.25
244.699	146.25
244.932	149.25
245.166	149.25
245.399	152.25
245.633	128.25
245.866	157.25
246.099	147.25
246.333	146.25
246.566	150.25
246.8	149.25
247.033	160.25
247.266	153.25
247.5	158.25
247.733	169.25
247.966	160.25
248.2	145.25
248.433	167.25
248.666	157.25
248.899	177.25
249.133	175.25
249.366	206.25
249.599	204.25
249.832	187.25
250.066	182.25
250.299	190.25
250.532	168.25
250.765	198.25
250.998	210.25
251.231	218.25
251.465	206.25
251.698	215.25
251.931	200.25
252.164	185.25
252.397	216.25
252.63	208.25
252.863	216.25
253.096	212.25
253.329	219.25
253.562	216.25
253.795	206.25
254.028	224.25
254.261	215.25
254.494	204.25
254.727	236.25
254.96	280.25
255.193	270.25
255.426	244.25
255.659	209.25
255.892	226.25
256.124	210.25
256.357	214.25
256.59	218.25
256.823	214.25
257.056	207.25
257.289	196.25
257.521	200.25
257.754	197.25
257.987	207.25
258.22	214.25
258.452	205.25
258.685	220.25
258.918	199.25
259.151	219.25
259.383	214.25
259.616	218.25
259.849	208.25
260.081	244.25
260.314	266.25
260.547	261.25
260.779	225.25
261.012	224.25
261.244	236.25
261.477	231.25
261.71	224.25
261.942	231.25
262.175	222.25
262.407	225.25
262.64	221.25
262.872	221.25
263.105	221.25
263.337	210.25
263.57	211.25
263.802	222.25
264.035	223.25
264.267	182.25
264.499	220.25
264.732	216.25
264.964	229.25
265.197	225.25
265.429	221.25
265.661	225.25
265.894	218.25
266.126	221.25
266.358	227.25
266.591	223.25
266.823	238.25
267.055	236.25
267.287	245.25
267.52	233.25
267.752	236.25
267.984	257.25
268.216	241.25
268.448	240.25
268.681	263.25
268.913	257.25
269.145	247.25
269.377	313.25
269.609	279.25
269.841	289.25
270.073	260.25
270.306	291.25
270.538	309.25
270.77	304.25
271.002	299.25
271.234	284.25
271.466	302.25
271.698	313.25
271.93	319.25
272.162	317.25
272.394	308.25
272.626	295.25
272.858	303.25
273.09	284.25
273.322	294.25
273.553	254.25
273.785	273.25
274.017	277.25
274.249	276.25
274.481	293.25
274.713	261.25
274.945	292.25
275.176	258.25
275.408	278.25
275.64	287.25
275.872	295.25
276.104	272.25
276.335	273.25
276.567	303.25
276.799	304.25
277.031	318.25
277.262	331.25
277.494	317.25
277.726	321.25
277.957	291.25
278.189	278.25
278.421	277.25
278.652	293.25
278.884	284.25
279.115	266.25
279.347	289.25
279.579	296.25
279.81	288.25
280.042	272.25
280.273	288.25
280.505	287.25
280.736	295.25
280.968	287.25
281.199	293.25
281.431	304.25
281.662	300.25
281.894	296.25
282.125	294.25
282.356	312.25
282.588	313.25
282.819	319.25
283.051	292.25
283.282	292.25
283.513	303.25
283.745	297.25
283.976	290.25
284.207	300.25
284.439	299.25
284.67	302.25
284.901	293.25
285.132	316.25
285.364	310.25
285.595	295.25
285.826	330.25
286.057	315.25
286.288	324.25
286.52	323.25
286.751	296.25
286.982	316.25
287.213	325.25
287.444	326.25
287.675	315.25
287.906	327.25
288.138	335.25
288.369	336.25
288.6	319.25
288.831	303.25
289.062	321.25
289.293	316.25
289.524	332.25
289.755	315.25
289.986	350.25
290.217	305.25
290.448	304.25
290.679	311.25
290.91	316.25
291.141	339.25
291.371	323.25
291.602	321.25
291.833	333.25
292.064	326.25
292.295	326.25
292.526	320.25
292.757	321.25
292.987	307.25
293.218	297.25
293.449	328.25
293.68	329.25
293.91	331.25
294.141	336.25
294.372	315.25
294.603	317.25
294.833	341.25
295.064	309.25
295.295	325.25
295.525	338.25
295.756	353.25
295.987	354.25
296.217	361.25
296.448	339.25
296.679	335.25
296.909	334.25
297.14	334.25
297.37	356.25
297.601	333.25
297.831	344.25
298.062	321.25
298.292	304.25
298.523	332.25
298.753	343.25
298.984	335.25
299.214	333.25
299.445	339.25
299.675	351.25
299.905	345.25
300.136	357.25
300.366	342.25
300.597	354.25
300.827	351.25
301.057	361.25
301.288	354.25
301.518	351.25
301.748	351.25
301.979	343.25
302.209	377.25
302.439	386.25
302.669	358.25
302.9	367.25
303.13	379.25
303.36	359.25
303.59	367.25
303.82	360.25
304.051	385.25
304.281	375.25
304.511	375.25
304.741	372.25
304.971	353.25
305.201	362.25
305.431	357.25
305.661	360.25
305.891	365.25
306.121	354.25
306.352	388.25
306.582	374.25
306.812	369.25
307.042	374.25
307.272	363.25
307.502	398.25
307.731	356.25
307.961	368.25
308.191	380.25
308.421	373.25
308.651	361.25
308.881	384.25
309.111	379.25
309.341	374.25
309.571	385.25
309.8	398.25
310.03	382.25
310.26	399.25
310.49	398.25
310.72	402.25
310.949	417.25
311.179	413.25
311.409	400.25
311.639	419.25
311.868	396.25
312.098	390.25
312.328	403.25
312.557	424.25
312.787	436.25
313.017	453.25
313.246	424.25
313.476	409.25
313.706	403.25
313.935	431.25
314.165	430.25
314.394	432.25
314.624	421.25
314.853	417.25
315.083	418.25
315.312	396.25
315.542	417.25
315.771	399.25
316.001	400.25
316.23	420.25
316.46	404.25
316.689	409.25
316.919	417.25
317.148	406.25
317.377	412.25
317.607	448.25
317.836	401.25
318.065	408.25
318.295	408.25
318.524	413.25
318.753	407.25
318.983	430.25
319.212	403.25
319.441	438.25
319.67	422.25
319.9	406.25
320.129	412.25
320.358	420.25
320.587	419.25
320.816	421.25
321.046	434.25
321.275	424.25
321.504	420.25
321.733	419.25
321.962	441.25
322.191	418.25
322.42	462.25
322.649	465.25
322.878	473.25
323.108	478.25
323.337	485.25
323.566	507.25
323.795	526.25
324.024	584.25
324.253	663.25
324.482	922.25
324.71	1343.25
324.939	1878.25
325.168	1608.25
325.397	880.25
325.626	646.25
325.855	540.25
326.084	540.25
326.313	511.25
326.542	520.25
326.77	548.25
326.999	629.25
327.228	830.25
327.457	1196.25
327.686	1421.25
327.914	980.25
328.143	688.25
328.372	617.25
328.6	580.25
328.829	555.25
329.058	555.25
329.287	579.25
329.515	544.25
329.744	525.25
329.972	545.25
330.201	506.25
330.43	528.25
330.658	545.25
330.887	596.25
331.115	595.25
331.344	543.25
331.572	503.25
331.801	510.25
332.03	523.25
332.258	496.25
332.486	491.25
332.715	482.25
332.943	511.25
333.172	495.25
333.4	529.25
333.629	528.25
333.857	552.25
334.085	545.25
334.314	495.25
334.542	549.25
334.771	528.25
334.999	516.25
335.227	542.25
335.455	528.25
335.684	492.25
335.912	511.25
336.14	502.25
336.369	483.25
336.597	502.25
336.825	506.25
337.053	488.25
337.281	472.25
337.51	481.25
337.738	475.25
337.966	482.25
338.194	477.25
338.422	493.25
338.65	491.25
338.878	484.25
339.106	444.25
339.334	469.25
339.562	470.25
339.79	452.25
340.018	473.25
340.246	464.25
340.474	462.25
340.702	474.25
340.93	464.25
341.158	472.25
341.386	480.25
341.614	474.25
341.842	473.25
342.07	475.25
342.298	449.25
342.526	452.25
342.754	454.25
342.981	478.25
343.209	454.25
343.437	465.25
343.665	470.25
343.893	491.25
344.12	507.25
344.348	486.25
344.576	480.25
344.804	484.25
345.031	474.25
345.259	481.25
345.487	480.25
345.714	457.25
345.942	443.25
346.17	438.25
346.397	446.25
346.625	454.25
346.853	438.25
347.08	447.25
347.308	454.25
347.535	449.25
347.763	460.25
347.99	433.25
348.218	451.25
348.445	465.25
348.673	449.25
348.9	437.25
349.128	428.25
349.355	428.25
349.583	430.25
349.81	433.25
350.037	417.25
350.265	431.25
350.492	432.25
350.72	452.25
350.947	448.25
351.174	440.25
351.402	438.25
351.629	441.25
351.856	452.25
352.083	424.25
352.311	450.25
352.538	437.25
352.765	474.25
352.992	442.25
353.22	422.25
353.447	426.25
353.674	431.25
353.901	426.25
354.128	423.25
354.355	409.25
354.583	414.25
354.81	407.25
355.037	420.25
355.264	413.25
355.491	422.25
355.718	409.25
355.945	418.25
356.172	405.25
356.399	416.25
356.626	412.25
356.853	397.25
357.08	409.25
357.307	401.25
357.534	396.25
357.761	428.25
357.988	421.25
358.215	436.25
358.441	425.25
358.668	412.25
358.895	422.25
359.122	445.25
359.349	444.25
359.576	446.25
359.802	441.25
360.029	472.25
360.256	500.25
360.483	479.25
360.709	438.25
360.936	414.25
361.163	432.25
361.39	442.25
361.616	438.25
361.843	437.25
362.07	437.25
362.296	436.25
362.523	438.25
362.749	433.25
362.976	430.25
363.203	420.25
363.429	442.25
363.656	412.25
363.882	446.25
364.109	440.25
364.335	421.25
364.562	414.25
364.788	419.25
365.015	422.25
365.241	445.25
365.468	426.25
365.694	446.25
365.92	470.25
366.147	401.25
366.373	414.25
366.599	424.25
366.826	420.25
367.052	422.25
367.278	397.25
367.505	410.25
367.731	416.25
367.957	421.25
368.184	433.25
368.41	433.25
368.636	421.25
368.862	419.25
369.089	426.25
369.315	410.25
369.541	439.25
369.767	426.25
369.993	424.25
370.219	421.25
370.445	424.25
370.672	407.25
370.898	413.25
371.124	397.25
371.35	420.25
371.576	408.25
371.802	422.25
372.028	418.25
372.254	412.25
372.48	425.25
372.706	429.25
372.932	432.25
373.158	412.25
373.384	423.25
373.61	425.25
373.835	418.25
374.061	429.25
374.287	405.25
374.513	429.25
374.739	430.25
374.965	433.25
375.191	433.25
375.416	436.25
375.642	441.25
375.868	424.25
376.094	417.25
376.319	428.25
376.545	416.25
376.771	410.25
376.997	426.25
377.222	405.25
377.448	412.25
377.674	447.25
377.899	429.25
378.125	430.25
378.35	441.25
378.576	408.25
378.802	409.25
379.027	430.25
379.253	426.25
379.478	398.25
379.704	406.25
379.929	417.25
380.155	412.25
380.38	410.25
380.606	421.25
380.831	423.25
381.057	430.25
381.282	424.25
381.507	421.25
381.733	424.25
381.958	431.25
382.184	422.25
382.409	421.25
382.634	425.25
382.86	432.25
383.085	445.25
383.31	420.25
383.535	446.25
383.761	451.25
383.986	458.25
384.211	454.25
384.436	458.25
384.662	464.25
384.887	466.25
385.112	474.25
385.337	472.25
385.562	449.25
385.787	463.25
386.013	471.25
386.238	482.25
386.463	491.25
386.688	459.25
386.913	467.25
387.138	457.25
387.363	457.25
387.588	441.25
387.813	464.25
388.038	455.25
388.263	469.25
388.488	477.25
388.713	475.25
388.938	475.25
389.163	481.25
389.387	454.25
389.612	480.25
389.837	471.25
390.062	477.25
390.287	484.25
390.512	472.25
390.736	481.25
390.961	445.25
391.186	456.25
391.411	465.25
391.636	495.25
391.86	495.25
392.085	500.25
392.31	484.25
392.534	479.25
392.759	501.25
392.984	507.25
393.208	479.25
393.433	474.25
393.658	490.25
393.882	469.25
394.107	484.25
394.331	466.25
394.556	456.25
394.78	463.25
395.005	467.25
395.229	463.25
395.454	485.25
395.678	500.25
395.903	516.25
396.127	526.25
396.352	513.25
396.576	501.25
396.801	500.25
397.025	486.25
397.249	495.25
397.474	495.25
397.698	487.25
397.922	503.25
398.147	529.25
398.371	500.25
398.595	516.25
398.82	539.25
399.044	564.25
399.268	587.25
399.492	636.25
399.717	684.25
399.941	725.25
400.165	700.25
400.389	656.25
400.613	617.25
400.837	565.25
401.062	574.25
401.286	554.25
401.51	544.25
401.734	530.25
401.958	550.25
402.182	568.25
402.406	575.25
402.63	591.25
402.854	582.25
403.078	570.25
403.302	568.25
403.526	585.25
403.75	584.25
403.974	582.25
404.198	551.25
404.422	562.25
404.645	593.25
404.869	578.25
405.093	609.25
405.317	618.25
405.541	625.25
405.765	557.25
405.988	581.25
406.212	596.25
406.436	633.25
406.66	641.25
406.883	617.25
407.107	660.25
407.331	689.25
407.555	722.25
407.778	733.25
408.002	685.25
408.226	636.25
408.449	645.25
408.673	624.25
408.896	636.25
409.12	666.25
409.344	634.25
409.567	570.25
409.791	568.25
410.014	551.25
410.238	584.25
410.461	574.25
410.685	589.25
410.908	573.25
411.132	619.25
411.355	615.25
411.578	594.25
411.802	589.25
412.025	550.25
412.249	574.25
412.472	564.25
412.695	553.25
412.919	548.25
413.142	550.25
413.365	523.25
413.589	507.25
413.812	501.25
414.035	527.25
414.258	535.25
414.482	548.25
414.705	540.25
414.928	530.25
415.151	541.25
415.374	538.25
415.597	518.25
415.821	517.25
416.044	524.25
416.267	539.25
416.49	534.25
416.713	513.25
416.936	522.25
417.159	505.25
417.382	521.25
417.605	514.25
417.828	540.25
418.051	574.25
418.274	544.25
418.497	535.25
418.72	554.25
418.943	543.25
419.166	548.25
419.389	572.25
419.611	553.25
419.834	553.25
420.057	573.25
420.28	545.25
420.503	522.25
420.726	543.25
420.948	556.25
421.171	588.25
421.394	625.25
421.617	593.25
421.839	548.25
422.062	537.25
422.285	563.25
422.507	591.25
422.73	663.25
422.953	644.25
423.175	576.25
423.398	567.25
423.621	575.25
423.843	579.25
424.066	592.25
424.288	595.25
424.511	600.25
424.733	652.25
424.956	725.25
425.178	682.25
425.401	676.25
425.623	715.25
425.846	589.25
426.068	573.25
426.291	572.25
426.513	549.25
426.735	556.25
426.958	602.25
427.18	687.25
427.402	799.25
427.625	834.25
427.847	731.25
428.069	616.25
428.292	574.25
428.514	546.25
428.736	515.25
428.958	540.25
429.181	533.25
429.403	514.25
429.625	525.25
429.847	574.25
430.069	626.25
430.292	613.25
430.514	548.25
430.736	514.25
430.958	510.25
431.18	488.25
431.402	510.25
431.624	510.25
431.846	477.25
432.068	510.25
432.29	485.25
432.512	487.25
432.734	512.25
432.956	488.25
433.178	485.25
433.4	517.25
433.622	520.25
433.844	495.25
434.066	529.25
434.287	488.25
434.509	506.25
434.731	516.25
434.953	520.25
435.175	531.25
435.397	555.25
435.618	567.25
435.84	601.25
436.062	697.25
436.284	745.25
436.505	614.25
436.727	564.25
436.949	532.25
437.17	522.25
437.392	531.25
437.614	540.25
437.835	550.25
438.057	641.25
438.278	738.25
438.5	732.25
438.721	821.25
438.943	725.25
439.165	613.25
439.386	553.25
439.608	554.25
439.829	565.25
440.05	610.25
440.272	613.25
440.493	600.25
440.715	545.25
440.936	522.25
441.158	540.25
441.379	517.25
441.6	544.25
441.822	561.25
442.043	605.25
442.264	672.25
442.486	722.25
442.707	621.25
442.928	586.25
443.149	593.25
443.371	612.25
443.592	648.25
443.813	720.25
444.034	769.25
444.255	673.25
444.476	608.25
444.698	596.25
444.919	596.25
445.14	723.25
445.361	626.25
445.582	604.25
445.803	640.25
446.024	737.25
446.245	746.25
446.466	664.25
446.687	603.25
446.908	542.25
447.129	529.25
447.35	526.25
447.571	519.25
447.792	492.25
448.013	500.25
448.234	560.25
448.455	572.25
448.675	687.25
448.896	774.25
449.117	664.25
449.338	628.25
449.559	711.25
449.779	834.25
450	640.25
450.221	525.25
450.442	512.25
450.662	480.25
450.883	506.25
451.104	514.25
451.324	521.25
451.545	498.25
451.766	480.25
451.986	485.25
452.207	465.25
452.428	460.25
452.648	467.25
452.869	444.25
453.089	472.25
453.31	478.25
453.53	481.25
453.751	470.25
453.971	476.25
454.192	473.25
454.412	479.25
454.633	461.25
454.853	455.25
455.073	455.25
455.294	511.25
455.514	528.25
455.734	536.25
455.955	464.25
456.175	441.25
456.395	448.25
456.616	428.25
456.836	442.25
457.056	425.25
457.276	427.25
457.497	460.25
457.717	443.25
457.937	419.25
458.157	462.25
458.377	449.25
458.598	490.25
458.818	535.25
459.038	600.25
459.258	602.25
459.478	540.25
459.698	516.25
459.918	498.25
460.138	529.25
460.358	536.25
460.578	530.25
460.798	560.25
461.018	572.25
461.238	518.25
461.458	534.25
461.678	515.25
461.898	558.25
462.118	551.25
462.338	568.25
462.558	560.25
462.777	583.25
462.997	606.25
463.217	630.25
463.437	628.25
463.657	594.25
463.876	595.25
464.096	591.25
464.316	561.25
464.536	589.25
464.755	578.25
464.975	579.25
465.195	601.25
465.414	639.25
465.634	580.25
465.854	528.25
466.073	516.25
466.293	501.25
466.512	482.25
466.732	480.25
466.951	497.25
467.171	487.25
467.391	476.25
467.61	505.25
467.829	500.25
468.049	496.25
468.268	479.25
468.488	467.25
468.707	466.25
468.927	470.25
469.146	470.25
469.365	463.25
469.585	484.25
469.804	480.25
470.023	507.25
470.243	496.25
470.462	470.25
470.681	503.25
470.901	521.25
471.12	498.25
471.339	492.25
471.558	481.25
471.777	469.25
471.997	471.25
472.216	487.25
472.435	485.25
472.654	479.25
472.873	475.25
473.092	465.25
473.311	459.25
473.53	478.25
473.749	493.25
473.968	536.25
474.187	613.25
474.406	620.25
474.625	513.25
474.844	481.25
475.063	492.25
475.282	483.25
475.501	490.25
475.72	473.25
475.939	494.25
476.158	487.25
476.377	466.25
476.596	498.25
476.814	517.25
477.033	512.25
477.252	516.25
477.471	511.25
477.69	528.25
477.908	511.25
478.127	536.25
478.346	538.25
478.564	546.25
478.783	558.25
479.002	555.25
479.22	573.25
479.439	585.25
479.658	568.25
479.876	595.25
480.095	589.25
480.313	603.25
480.532	618.25
480.751	621.25
480.969	598.25
481.188	594.25
481.406	608.25
481.624	563.25
481.843	570.25
482.061	572.25
482.28	553.25
482.498	548.25
482.717	544.25
482.935	564.25
483.153	554.25
483.372	550.25
483.59	545.25
483.808	559.25
484.027	543.25
484.245	542.25
484.463	566.25
484.681	588.25
484.9	583.25
485.118	556.25
485.336	566.25
485.554	568.25
485.772	593.25
485.99	583.25
486.209	584.25
486.427	599.25
486.645	576.25
486.863	611.25
487.081	593.25
487.299	601.25
487.517	594.25
487.735	591.25
487.953	587.25
488.171	593.25
488.389	628.25
488.607	608.25
488.825	606.25
489.043	611.25
489.261	626.25
489.479	592.25
489.696	598.25
489.914	604.25
490.132	612.25
490.35	614.25
490.568	615.25
490.786	641.25
491.003	628.25
491.221	652.25
491.439	653.25
491.657	648.25
491.874	677.25
492.092	623.25
492.31	657.25
492.527	657.25
492.745	673.25
492.963	671.25
493.18	658.25
493.398	678.25
493.615	696.25
493.833	670.25
494.05	664.25
494.268	673.25
494.485	679.25
494.703	692.25
494.92	687.25
495.138	696.25
495.355	693.25
495.573	678.25
495.79	700.25
496.008	692.25
496.225	684.25
496.442	707.25
496.66	710.25
496.877	716.25
497.094	698.25
497.312	719.25
497.529	741.25
497.746	757.25
497.963	774.25
498.181	763.25
498.398	796.25
498.615	801.25
498.832	841.25
499.049	877.25
499.267	903.25
499.484	960.25
499.701	1006.25
499.918	1037.25
500.135	1106.25
500.352	1158.25
500.569	1208.25
500.786	1231.25
501.003	1199.25
501.22	1111.25
501.437	1067.25
501.654	1005.25
501.871	958.25
