Data from 1985.PennyLincolnUp.Lamp.En5.5.200Scan.071819.P1_HRD10591_17-03-17-970.txt Node
Date: Thu Jul 18 17:03:17 EDT 2019
User: cochatt
Spectrometer: HR+D1059
Trigger mode: 1
Integration Time (sec): 1.000000E-1
Scans to average: 1
Electric dark correction enabled: true
Nonlinearity correction enabled: false
Boxcar width: 0
XAxis mode: Wavelengths
Number of Pixels in Spectrum: 2048
>>>>>Begin Spectral Data<<<<<
223.165	-0.56
223.4	-0.56
223.635	-0.56
223.869	-13.56
224.104	-15.56
224.338	-27.56
224.573	-0.56
224.808	-11.56
225.042	-21.56
225.277	-15.56
225.511	-5.56
225.746	-12.56
225.98	7.44
226.215	15.44
226.449	21.44
226.683	21.44
226.918	30.44
227.152	28.44
227.387	39.44
227.621	40.44
227.856	52.44
228.09	47.44
228.324	38.44
228.559	51.44
228.793	76.44
229.027	96.44
229.262	89.44
229.496	117.44
229.73	124.44
229.964	149.44
230.199	130.44
230.433	97.44
230.667	101.44
230.901	120.44
231.136	119.44
231.37	118.44
231.604	112.44
231.838	108.44
232.072	112.44
232.306	131.44
232.541	109.44
232.775	123.44
233.009	103.44
233.243	113.44
233.477	117.44
233.711	127.44
233.945	105.44
234.179	121.44
234.413	124.44
234.647	107.44
234.881	106.44
235.115	133.44
235.349	131.44
235.583	121.44
235.817	118.44
236.051	122.44
236.285	139.44
236.519	123.44
236.753	113.44
236.987	145.44
237.221	182.44
237.455	209.44
237.689	166.44
237.922	143.44
238.156	129.44
238.39	126.44
238.624	126.44
238.858	108.44
239.091	127.44
239.325	113.44
239.559	131.44
239.793	133.44
240.027	125.44
240.26	137.44
240.494	144.44
240.728	146.44
240.961	154.44
241.195	127.44
241.429	135.44
241.662	133.44
241.896	133.44
242.13	131.44
242.363	136.44
242.597	140.44
242.83	131.44
243.064	130.44
243.298	133.44
243.531	133.44
243.765	145.44
243.998	151.44
244.232	136.44
244.465	150.44
244.699	147.44
244.932	162.44
245.166	140.44
245.399	145.44
245.633	158.44
245.866	157.44
246.099	157.44
246.333	151.44
246.566	159.44
246.8	161.44
247.033	170.44
247.266	152.44
247.5	178.44
247.733	188.44
247.966	195.44
248.2	183.44
248.433	166.44
248.666	184.44
248.899	162.44
249.133	210.44
249.366	211.44
249.599	199.44
249.832	173.44
250.066	188.44
250.299	188.44
250.532	168.44
250.765	202.44
250.998	230.44
251.231	222.44
251.465	218.44
251.698	189.44
251.931	207.44
252.164	202.44
252.397	191.44
252.63	205.44
252.863	193.44
253.096	214.44
253.329	220.44
253.562	219.44
253.795	223.44
254.028	229.44
254.261	216.44
254.494	221.44
254.727	260.44
254.96	288.44
255.193	270.44
255.426	258.44
255.659	232.44
255.892	235.44
256.124	245.44
256.357	223.44
256.59	223.44
256.823	224.44
257.056	206.44
257.289	209.44
257.521	226.44
257.754	213.44
257.987	203.44
258.22	204.44
258.452	213.44
258.685	198.44
258.918	214.44
259.151	210.44
259.383	209.44
259.616	224.44
259.849	225.44
260.081	252.44
260.314	271.44
260.547	264.44
260.779	254.44
261.012	245.44
261.244	236.44
261.477	241.44
261.71	233.44
261.942	237.44
262.175	228.44
262.407	248.44
262.64	226.44
262.872	223.44
263.105	216.44
263.337	225.44
263.57	211.44
263.802	209.44
264.035	231.44
264.267	233.44
264.499	218.44
264.732	229.44
264.964	233.44
265.197	212.44
265.429	208.44
265.661	232.44
265.894	228.44
266.126	235.44
266.358	239.44
266.591	217.44
266.823	245.44
267.055	235.44
267.287	236.44
267.52	240.44
267.752	243.44
267.984	230.44
268.216	251.44
268.448	251.44
268.681	241.44
268.913	289.44
269.145	268.44
269.377	294.44
269.609	294.44
269.841	280.44
270.073	292.44
270.306	308.44
270.538	332.44
270.77	321.44
271.002	340.44
271.234	312.44
271.466	315.44
271.698	332.44
271.93	328.44
272.162	316.44
272.394	319.44
272.626	319.44
272.858	304.44
273.09	279.44
273.322	296.44
273.553	280.44
273.785	283.44
274.017	280.44
274.249	279.44
274.481	280.44
274.713	280.44
274.945	299.44
275.176	294.44
275.408	299.44
275.64	281.44
275.872	270.44
276.104	278.44
276.335	296.44
276.567	287.44
276.799	311.44
277.031	306.44
277.262	336.44
277.494	347.44
277.726	327.44
277.957	300.44
278.189	298.44
278.421	303.44
278.652	289.44
278.884	308.44
279.115	307.44
279.347	304.44
279.579	303.44
279.81	274.44
280.042	282.44
280.273	309.44
280.505	280.44
280.736	293.44
280.968	293.44
281.199	298.44
281.431	290.44
281.662	307.44
281.894	295.44
282.125	295.44
282.356	309.44
282.588	320.44
282.819	344.44
283.051	316.44
283.282	293.44
283.513	317.44
283.745	315.44
283.976	316.44
284.207	336.44
284.439	314.44
284.67	317.44
284.901	302.44
285.132	300.44
285.364	307.44
285.595	324.44
285.826	322.44
286.057	340.44
286.288	319.44
286.52	315.44
286.751	319.44
286.982	322.44
287.213	309.44
287.444	313.44
287.675	326.44
287.906	329.44
288.138	329.44
288.369	343.44
288.6	340.44
288.831	342.44
289.062	334.44
289.293	322.44
289.524	328.44
289.755	329.44
289.986	320.44
290.217	345.44
290.448	305.44
290.679	319.44
290.91	321.44
291.141	315.44
291.371	331.44
291.602	334.44
291.833	319.44
292.064	317.44
292.295	328.44
292.526	331.44
292.757	338.44
292.987	340.44
293.218	322.44
293.449	344.44
293.68	320.44
293.91	329.44
294.141	331.44
294.372	318.44
294.603	343.44
294.833	358.44
295.064	333.44
295.295	349.44
295.525	327.44
295.756	346.44
295.987	340.44
296.217	378.44
296.448	373.44
296.679	360.44
296.909	324.44
297.14	359.44
297.37	349.44
297.601	341.44
297.831	338.44
298.062	342.44
298.292	355.44
298.523	331.44
298.753	358.44
298.984	338.44
299.214	363.44
299.445	362.44
299.675	359.44
299.905	369.44
300.136	373.44
300.366	369.44
300.597	389.44
300.827	373.44
301.057	388.44
301.288	376.44
301.518	368.44
301.748	382.44
301.979	362.44
302.209	377.44
302.439	369.44
302.669	385.44
302.9	358.44
303.13	355.44
303.36	395.44
303.59	379.44
303.82	400.44
304.051	390.44
304.281	372.44
304.511	385.44
304.741	375.44
304.971	383.44
305.201	380.44
305.431	375.44
305.661	371.44
305.891	357.44
306.121	369.44
306.352	383.44
306.582	405.44
306.812	377.44
307.042	376.44
307.272	381.44
307.502	367.44
307.731	371.44
307.961	375.44
308.191	387.44
308.421	387.44
308.651	400.44
308.881	379.44
309.111	386.44
309.341	402.44
309.571	395.44
309.8	416.44
310.03	427.44
310.26	415.44
310.49	433.44
310.72	442.44
310.949	441.44
311.179	439.44
311.409	430.44
311.639	423.44
311.868	417.44
312.098	432.44
312.328	429.44
312.557	455.44
312.787	459.44
313.017	471.44
313.246	446.44
313.476	433.44
313.706	446.44
313.935	424.44
314.165	418.44
314.394	469.44
314.624	447.44
314.853	454.44
315.083	430.44
315.312	445.44
315.542	416.44
315.771	417.44
316.001	430.44
316.23	420.44
316.46	452.44
316.689	427.44
316.919	428.44
317.148	446.44
317.377	457.44
317.607	444.44
317.836	436.44
318.065	450.44
318.295	420.44
318.524	423.44
318.753	415.44
318.983	424.44
319.212	408.44
319.441	415.44
319.67	425.44
319.9	438.44
320.129	427.44
320.358	437.44
320.587	443.44
320.816	441.44
321.046	457.44
321.275	460.44
321.504	452.44
321.733	452.44
321.962	443.44
322.191	469.44
322.42	471.44
322.649	480.44
322.878	502.44
323.108	507.44
323.337	521.44
323.566	519.44
323.795	581.44
324.024	594.44
324.253	699.44
324.482	977.44
324.71	1499.44
324.939	2108.44
325.168	1796.44
325.397	956.44
325.626	699.44
325.855	582.44
326.084	562.44
326.313	539.44
326.542	545.44
326.77	607.44
326.999	664.44
327.228	900.44
327.457	1338.44
327.686	1594.44
327.914	1064.44
328.143	717.44
328.372	653.44
328.6	619.44
328.829	576.44
329.058	619.44
329.287	615.44
329.515	586.44
329.744	551.44
329.972	540.44
330.201	559.44
330.43	585.44
330.658	610.44
330.887	649.44
331.115	637.44
331.344	564.44
331.572	548.44
331.801	549.44
332.03	572.44
332.258	543.44
332.486	514.44
332.715	514.44
332.943	531.44
333.172	550.44
333.4	544.44
333.629	579.44
333.857	600.44
334.085	579.44
334.314	577.44
334.542	601.44
334.771	600.44
334.999	555.44
335.227	548.44
335.455	543.44
335.684	521.44
335.912	508.44
336.14	508.44
336.369	512.44
336.597	512.44
336.825	531.44
337.053	518.44
337.281	509.44
337.51	482.44
337.738	490.44
337.966	505.44
338.194	506.44
338.422	509.44
338.65	499.44
338.878	489.44
339.106	479.44
339.334	476.44
339.562	479.44
339.79	490.44
340.018	504.44
340.246	497.44
340.474	490.44
340.702	495.44
340.93	496.44
341.158	477.44
341.386	479.44
341.614	489.44
341.842	498.44
342.07	492.44
342.298	459.44
342.526	490.44
342.754	494.44
342.981	466.44
343.209	471.44
343.437	491.44
343.665	488.44
343.893	517.44
344.12	536.44
344.348	523.44
344.576	500.44
344.804	504.44
345.031	502.44
345.259	517.44
345.487	499.44
345.714	477.44
345.942	455.44
346.17	505.44
346.397	469.44
346.625	476.44
346.853	454.44
347.08	480.44
347.308	475.44
347.535	489.44
347.763	475.44
347.99	460.44
348.218	472.44
348.445	487.44
348.673	486.44
348.9	474.44
349.128	460.44
349.355	458.44
349.583	467.44
349.81	445.44
350.037	439.44
350.265	444.44
350.492	457.44
350.72	476.44
350.947	453.44
351.174	449.44
351.402	470.44
351.629	469.44
351.856	452.44
352.083	470.44
352.311	443.44
352.538	491.44
352.765	476.44
352.992	478.44
353.22	441.44
353.447	451.44
353.674	477.44
353.901	441.44
354.128	438.44
354.355	422.44
354.583	439.44
354.81	439.44
355.037	416.44
355.264	435.44
355.491	431.44
355.718	422.44
355.945	438.44
356.172	439.44
356.399	434.44
356.626	431.44
356.853	436.44
357.08	445.44
357.307	436.44
357.534	415.44
357.761	441.44
357.988	427.44
358.215	434.44
358.441	449.44
358.668	435.44
358.895	454.44
359.122	450.44
359.349	434.44
359.576	452.44
359.802	475.44
360.029	504.44
360.256	489.44
360.483	508.44
360.709	471.44
360.936	462.44
361.163	460.44
361.39	449.44
361.616	456.44
361.843	470.44
362.07	442.44
362.296	457.44
362.523	469.44
362.749	455.44
362.976	435.44
363.203	455.44
363.429	442.44
363.656	438.44
363.882	434.44
364.109	450.44
364.335	427.44
364.562	420.44
364.788	411.44
365.015	439.44
365.241	447.44
365.468	445.44
365.694	439.44
365.92	439.44
366.147	436.44
366.373	440.44
366.599	425.44
366.826	443.44
367.052	437.44
367.278	450.44
367.505	447.44
367.731	450.44
367.957	432.44
368.184	435.44
368.41	437.44
368.636	451.44
368.862	446.44
369.089	447.44
369.315	438.44
369.541	457.44
369.767	449.44
369.993	439.44
370.219	445.44
370.445	457.44
370.672	429.44
370.898	435.44
371.124	452.44
371.35	452.44
371.576	448.44
371.802	440.44
372.028	449.44
372.254	439.44
372.48	446.44
372.706	425.44
372.932	472.44
373.158	459.44
373.384	459.44
373.61	441.44
373.835	453.44
374.061	450.44
374.287	450.44
374.513	445.44
374.739	464.44
374.965	452.44
375.191	446.44
375.416	458.44
375.642	434.44
375.868	442.44
376.094	439.44
376.319	423.44
376.545	454.44
376.771	442.44
376.997	435.44
377.222	421.44
377.448	443.44
377.674	446.44
377.899	425.44
378.125	424.44
378.35	411.44
378.576	402.44
378.802	426.44
379.027	408.44
379.253	423.44
379.478	445.44
379.704	428.44
379.929	424.44
380.155	438.44
380.38	446.44
380.606	448.44
380.831	428.44
381.057	441.44
381.282	437.44
381.507	438.44
381.733	434.44
381.958	460.44
382.184	433.44
382.409	439.44
382.634	440.44
382.86	459.44
383.085	436.44
383.31	463.44
383.535	435.44
383.761	460.44
383.986	461.44
384.211	465.44
384.436	461.44
384.662	478.44
384.887	477.44
385.112	463.44
385.337	489.44
385.562	474.44
385.787	479.44
386.013	509.44
386.238	481.44
386.463	470.44
386.688	476.44
386.913	484.44
387.138	486.44
387.363	465.44
387.588	462.44
387.813	466.44
388.038	497.44
388.263	491.44
388.488	487.44
388.713	486.44
388.938	464.44
389.163	479.44
389.387	478.44
389.612	482.44
389.837	492.44
390.062	473.44
390.287	482.44
390.512	479.44
390.736	471.44
390.961	496.44
391.186	501.44
391.411	504.44
391.636	503.44
391.86	525.44
392.085	529.44
392.31	511.44
392.534	493.44
392.759	504.44
392.984	479.44
393.208	471.44
393.433	504.44
393.658	483.44
393.882	494.44
394.107	484.44
394.331	507.44
394.556	473.44
394.78	482.44
395.005	502.44
395.229	477.44
395.454	495.44
395.678	515.44
395.903	528.44
396.127	527.44
396.352	545.44
396.576	512.44
396.801	492.44
397.025	513.44
397.249	520.44
397.474	527.44
397.698	513.44
397.922	529.44
398.147	550.44
398.371	566.44
398.595	557.44
398.82	568.44
399.044	594.44
399.268	602.44
399.492	674.44
399.717	701.44
399.941	720.44
400.165	725.44
400.389	718.44
400.613	631.44
400.837	622.44
401.062	593.44
401.286	577.44
401.51	594.44
401.734	555.44
401.958	582.44
402.182	550.44
402.406	582.44
402.63	585.44
402.854	588.44
403.078	577.44
403.302	587.44
403.526	609.44
403.75	604.44
403.974	607.44
404.198	607.44
404.422	610.44
404.645	619.44
404.869	610.44
405.093	616.44
405.317	674.44
405.541	681.44
405.765	665.44
405.988	624.44
406.212	636.44
406.436	665.44
406.66	679.44
406.883	655.44
407.107	704.44
407.331	727.44
407.555	795.44
407.778	771.44
408.002	703.44
408.226	653.44
408.449	657.44
408.673	651.44
408.896	679.44
409.12	704.44
409.344	672.44
409.567	600.44
409.791	598.44
410.014	603.44
410.238	576.44
410.461	575.44
410.685	574.44
410.908	593.44
411.132	633.44
411.355	658.44
411.578	634.44
411.802	585.44
412.025	597.44
412.249	608.44
412.472	628.44
412.695	623.44
412.919	618.44
413.142	567.44
413.365	569.44
413.589	546.44
413.812	567.44
414.035	565.44
414.258	554.44
414.482	531.44
414.705	556.44
414.928	549.44
415.151	541.44
415.374	541.44
415.597	532.44
415.821	524.44
416.044	540.44
416.267	537.44
416.49	514.44
416.713	543.44
416.936	547.44
417.159	530.44
417.382	546.44
417.605	552.44
417.828	555.44
418.051	586.44
418.274	581.44
418.497	547.44
418.72	571.44
418.943	531.44
419.166	566.44
419.389	605.44
419.611	614.44
419.834	570.44
420.057	563.44
420.28	584.44
420.503	577.44
420.726	568.44
420.948	596.44
421.171	629.44
421.394	650.44
421.617	587.44
421.839	559.44
422.062	559.44
422.285	561.44
422.507	634.44
422.73	692.44
422.953	698.44
423.175	588.44
423.398	563.44
423.621	597.44
423.843	609.44
424.066	592.44
424.288	627.44
424.511	614.44
424.733	665.44
424.956	743.44
425.178	713.44
425.401	706.44
425.623	740.44
425.846	632.44
426.068	602.44
426.291	597.44
426.513	577.44
426.735	596.44
426.958	642.44
427.18	687.44
427.402	836.44
427.625	897.44
427.847	797.44
428.069	682.44
428.292	607.44
428.514	569.44
428.736	551.44
428.958	555.44
429.181	538.44
429.403	554.44
429.625	569.44
429.847	575.44
430.069	629.44
430.292	631.44
430.514	541.44
430.736	538.44
430.958	525.44
431.18	535.44
431.402	523.44
431.624	509.44
431.846	537.44
432.068	516.44
432.29	527.44
432.512	498.44
432.734	521.44
432.956	532.44
433.178	522.44
433.4	544.44
433.622	531.44
433.844	523.44
434.066	538.44
434.287	511.44
434.509	517.44
434.731	554.44
434.953	565.44
435.175	588.44
435.397	582.44
435.618	585.44
435.84	621.44
436.062	703.44
436.284	769.44
436.505	662.44
436.727	587.44
436.949	551.44
437.17	533.44
437.392	549.44
437.614	553.44
437.835	587.44
438.057	658.44
438.278	753.44
438.5	754.44
438.721	821.44
438.943	772.44
439.165	631.44
439.386	600.44
439.608	567.44
439.829	588.44
440.05	614.44
440.272	652.44
440.493	597.44
440.715	576.44
440.936	548.44
441.158	569.44
441.379	555.44
441.6	563.44
441.822	585.44
442.043	645.44
442.264	697.44
442.486	775.44
442.707	626.44
442.928	587.44
443.149	609.44
443.371	618.44
443.592	667.44
443.813	754.44
444.034	811.44
444.255	687.44
444.476	619.44
444.698	618.44
444.919	621.44
445.14	767.44
445.361	674.44
445.582	635.44
445.803	688.44
446.024	784.44
446.245	801.44
446.466	737.44
446.687	601.44
446.908	588.44
447.129	540.44
447.35	524.44
447.571	515.44
447.792	517.44
448.013	529.44
448.234	550.44
448.455	588.44
448.675	716.44
448.896	809.44
449.117	689.44
449.338	657.44
449.559	757.44
449.779	854.44
450	684.44
450.221	571.44
450.442	559.44
450.662	509.44
450.883	532.44
451.104	546.44
451.324	514.44
451.545	493.44
451.766	474.44
451.986	484.44
452.207	461.44
452.428	485.44
452.648	480.44
452.869	491.44
453.089	498.44
453.31	489.44
453.53	481.44
453.751	504.44
453.971	470.44
454.192	496.44
454.412	490.44
454.633	457.44
454.853	475.44
455.073	476.44
455.294	502.44
455.514	558.44
455.734	545.44
455.955	491.44
456.175	455.44
456.395	442.44
456.616	455.44
456.836	442.44
457.056	434.44
457.276	470.44
457.497	451.44
457.717	464.44
457.937	471.44
458.157	471.44
458.377	480.44
458.598	506.44
458.818	549.44
459.038	618.44
459.258	651.44
459.478	562.44
459.698	530.44
459.918	554.44
460.138	541.44
460.358	521.44
460.578	547.44
460.798	566.44
461.018	523.44
461.238	568.44
461.458	557.44
461.678	545.44
461.898	550.44
462.118	559.44
462.338	557.44
462.558	579.44
462.777	603.44
462.997	604.44
463.217	629.44
463.437	643.44
463.657	624.44
463.876	587.44
464.096	607.44
464.316	581.44
464.536	583.44
464.755	587.44
464.975	598.44
465.195	605.44
465.414	677.44
465.634	616.44
465.854	555.44
466.073	540.44
466.293	523.44
466.512	515.44
466.732	516.44
466.951	507.44
467.171	495.44
467.391	482.44
467.61	502.44
467.829	511.44
468.049	489.44
468.268	513.44
468.488	473.44
468.707	460.44
468.927	492.44
469.146	485.44
469.365	471.44
469.585	505.44
469.804	492.44
470.023	500.44
470.243	499.44
470.462	508.44
470.681	519.44
470.901	513.44
471.12	520.44
471.339	483.44
471.558	518.44
471.777	512.44
471.997	503.44
472.216	484.44
472.435	524.44
472.654	493.44
472.873	470.44
473.092	474.44
473.311	488.44
473.53	483.44
473.749	482.44
473.968	559.44
474.187	626.44
474.406	659.44
474.625	553.44
474.844	515.44
475.063	496.44
475.282	495.44
475.501	506.44
475.72	483.44
475.939	505.44
476.158	529.44
476.377	504.44
476.596	509.44
476.814	521.44
477.033	539.44
477.252	541.44
477.471	543.44
477.69	543.44
477.908	552.44
478.127	564.44
478.346	572.44
478.564	586.44
478.783	569.44
479.002	565.44
479.22	572.44
479.439	607.44
479.658	623.44
479.876	611.44
480.095	609.44
480.313	630.44
480.532	641.44
480.751	618.44
480.969	644.44
481.188	675.44
481.406	675.44
481.624	649.44
481.843	603.44
482.061	582.44
482.28	583.44
482.498	569.44
482.717	565.44
482.935	563.44
483.153	578.44
483.372	563.44
483.59	583.44
483.808	555.44
484.027	579.44
484.245	588.44
484.463	559.44
484.681	587.44
484.9	570.44
485.118	621.44
485.336	565.44
485.554	592.44
485.772	585.44
485.99	601.44
486.209	612.44
486.427	616.44
486.645	616.44
486.863	650.44
487.081	606.44
487.299	638.44
487.517	614.44
487.735	609.44
487.953	630.44
488.171	601.44
488.389	612.44
488.607	618.44
488.825	620.44
489.043	648.44
489.261	615.44
489.479	619.44
489.696	637.44
489.914	631.44
490.132	641.44
490.35	660.44
490.568	637.44
490.786	677.44
491.003	680.44
491.221	679.44
491.439	700.44
491.657	710.44
491.874	696.44
492.092	683.44
492.31	704.44
492.527	687.44
492.745	698.44
492.963	717.44
493.18	708.44
493.398	728.44
493.615	723.44
493.833	689.44
494.05	739.44
494.268	737.44
494.485	737.44
494.703	715.44
494.92	728.44
495.138	710.44
495.355	725.44
495.573	718.44
495.79	727.44
496.008	753.44
496.225	726.44
496.442	739.44
496.66	743.44
496.877	751.44
497.094	766.44
497.312	767.44
497.529	775.44
497.746	779.44
497.963	775.44
498.181	830.44
498.398	840.44
498.615	845.44
498.832	883.44
499.049	892.44
499.267	940.44
499.484	972.44
499.701	1028.44
499.918	1070.44
500.135	1127.44
500.352	1244.44
500.569	1244.44
500.786	1266.44
501.003	1243.44
501.22	1169.44
501.437	1153.44
501.654	1059.44
501.871	1029.44
