Data from 1985.PennyLincolnUp.Lamp.En5.5.200Scan.071819.P1_HRD10591_17-03-38-972.txt Node
Date: Thu Jul 18 17:03:38 EDT 2019
User: cochatt
Spectrometer: HR+D1059
Trigger mode: 1
Integration Time (sec): 1.000000E-1
Scans to average: 1
Electric dark correction enabled: true
Nonlinearity correction enabled: false
Boxcar width: 0
XAxis mode: Wavelengths
Number of Pixels in Spectrum: 2048
>>>>>Begin Spectral Data<<<<<
223.165	-3.81
223.4	-3.81
223.635	-3.81
223.869	-14.81
224.104	-23.81
224.338	-19.81
224.573	-15.81
224.808	-23.81
225.042	-10.81
225.277	-10.81
225.511	-5.81
225.746	10.19
225.98	13.19
226.215	5.19
226.449	24.19
226.683	8.19
226.918	23.19
227.152	45.19
227.387	33.19
227.621	36.19
227.856	28.19
228.09	33.19
228.324	42.19
228.559	50.19
228.793	62.19
229.027	73.19
229.262	80.19
229.496	104.19
229.73	121.19
229.964	144.19
230.199	126.19
230.433	107.19
230.667	102.19
230.901	105.19
231.136	101.19
231.37	118.19
231.604	103.19
231.838	106.19
232.072	122.19
232.306	119.19
232.541	99.19
232.775	111.19
233.009	111.19
233.243	98.19
233.477	120.19
233.711	96.19
233.945	118.19
234.179	123.19
234.413	112.19
234.647	111.19
234.881	107.19
235.115	105.19
235.349	119.19
235.583	118.19
235.817	106.19
236.051	123.19
236.285	122.19
236.519	124.19
236.753	116.19
236.987	143.19
237.221	170.19
237.455	197.19
237.689	174.19
237.922	140.19
238.156	134.19
238.39	114.19
238.624	126.19
238.858	131.19
239.091	114.19
239.325	107.19
239.559	128.19
239.793	118.19
240.027	135.19
240.26	140.19
240.494	151.19
240.728	138.19
240.961	150.19
241.195	140.19
241.429	135.19
241.662	138.19
241.896	141.19
242.13	137.19
242.363	133.19
242.597	136.19
242.83	143.19
243.064	138.19
243.298	162.19
243.531	131.19
243.765	146.19
243.998	142.19
244.232	126.19
244.465	140.19
244.699	146.19
244.932	142.19
245.166	128.19
245.399	153.19
245.633	146.19
245.866	148.19
246.099	150.19
246.333	149.19
246.566	158.19
246.8	146.19
247.033	153.19
247.266	146.19
247.5	163.19
247.733	165.19
247.966	169.19
248.2	179.19
248.433	161.19
248.666	150.19
248.899	184.19
249.133	196.19
249.366	193.19
249.599	189.19
249.832	175.19
250.066	180.19
250.299	188.19
250.532	198.19
250.765	214.19
250.998	220.19
251.231	234.19
251.465	203.19
251.698	200.19
251.931	191.19
252.164	195.19
252.397	181.19
252.63	206.19
252.863	199.19
253.096	213.19
253.329	214.19
253.562	214.19
253.795	217.19
254.028	213.19
254.261	198.19
254.494	230.19
254.727	248.19
254.96	284.19
255.193	263.19
255.426	244.19
255.659	235.19
255.892	242.19
256.124	234.19
256.357	252.19
256.59	224.19
256.823	232.19
257.056	226.19
257.289	214.19
257.521	215.19
257.754	211.19
257.987	200.19
258.22	214.19
258.452	204.19
258.685	200.19
258.918	222.19
259.151	225.19
259.383	217.19
259.616	206.19
259.849	222.19
260.081	240.19
260.314	260.19
260.547	258.19
260.779	239.19
261.012	222.19
261.244	217.19
261.477	242.19
261.71	221.19
261.942	234.19
262.175	226.19
262.407	246.19
262.64	211.19
262.872	231.19
263.105	206.19
263.337	226.19
263.57	211.19
263.802	196.19
264.035	218.19
264.267	221.19
264.499	220.19
264.732	200.19
264.964	216.19
265.197	209.19
265.429	213.19
265.661	230.19
265.894	212.19
266.126	237.19
266.358	223.19
266.591	242.19
266.823	225.19
267.055	226.19
267.287	248.19
267.52	231.19
267.752	230.19
267.984	255.19
268.216	250.19
268.448	244.19
268.681	248.19
268.913	234.19
269.145	265.19
269.377	290.19
269.609	279.19
269.841	285.19
270.073	285.19
270.306	291.19
270.538	326.19
270.77	316.19
271.002	319.19
271.234	289.19
271.466	306.19
271.698	320.19
271.93	313.19
272.162	312.19
272.394	326.19
272.626	304.19
272.858	290.19
273.09	287.19
273.322	282.19
273.553	276.19
273.785	287.19
274.017	273.19
274.249	278.19
274.481	266.19
274.713	291.19
274.945	291.19
275.176	290.19
275.408	271.19
275.64	277.19
275.872	274.19
276.104	283.19
276.335	271.19
276.567	277.19
276.799	297.19
277.031	320.19
277.262	337.19
277.494	333.19
277.726	302.19
277.957	304.19
278.189	293.19
278.421	292.19
278.652	280.19
278.884	285.19
279.115	277.19
279.347	288.19
279.579	296.19
279.81	287.19
280.042	285.19
280.273	284.19
280.505	302.19
280.736	291.19
280.968	291.19
281.199	280.19
281.431	292.19
281.662	290.19
281.894	281.19
282.125	298.19
282.356	318.19
282.588	307.19
282.819	324.19
283.051	305.19
283.282	307.19
283.513	304.19
283.745	292.19
283.976	307.19
284.207	310.19
284.439	306.19
284.67	316.19
284.901	297.19
285.132	309.19
285.364	306.19
285.595	286.19
285.826	307.19
286.057	311.19
286.288	306.19
286.52	304.19
286.751	294.19
286.982	308.19
287.213	315.19
287.444	320.19
287.675	333.19
287.906	341.19
288.138	331.19
288.369	356.19
288.6	328.19
288.831	330.19
289.062	320.19
289.293	324.19
289.524	322.19
289.755	323.19
289.986	311.19
290.217	322.19
290.448	322.19
290.679	318.19
290.91	305.19
291.141	340.19
291.371	337.19
291.602	328.19
291.833	315.19
292.064	339.19
292.295	316.19
292.526	334.19
292.757	325.19
292.987	328.19
293.218	331.19
293.449	335.19
293.68	332.19
293.91	302.19
294.141	322.19
294.372	329.19
294.603	339.19
294.833	326.19
295.064	322.19
295.295	321.19
295.525	319.19
295.756	342.19
295.987	345.19
296.217	368.19
296.448	361.19
296.679	350.19
296.909	337.19
297.14	325.19
297.37	345.19
297.601	350.19
297.831	335.19
298.062	332.19
298.292	338.19
298.523	355.19
298.753	346.19
298.984	341.19
299.214	358.19
299.445	354.19
299.675	347.19
299.905	350.19
300.136	352.19
300.366	356.19
300.597	347.19
300.827	346.19
301.057	370.19
301.288	373.19
301.518	369.19
301.748	367.19
301.979	362.19
302.209	371.19
302.439	377.19
302.669	387.19
302.9	376.19
303.13	372.19
303.36	376.19
303.59	385.19
303.82	390.19
304.051	371.19
304.281	371.19
304.511	351.19
304.741	378.19
304.971	374.19
305.201	355.19
305.431	362.19
305.661	375.19
305.891	351.19
306.121	373.19
306.352	373.19
306.582	379.19
306.812	373.19
307.042	369.19
307.272	384.19
307.502	363.19
307.731	376.19
307.961	382.19
308.191	367.19
308.421	379.19
308.651	401.19
308.881	395.19
309.111	374.19
309.341	388.19
309.571	386.19
309.8	390.19
310.03	383.19
310.26	411.19
310.49	414.19
310.72	400.19
310.949	437.19
311.179	438.19
311.409	418.19
311.639	408.19
311.868	397.19
312.098	411.19
312.328	409.19
312.557	433.19
312.787	449.19
313.017	442.19
313.246	420.19
313.476	413.19
313.706	406.19
313.935	427.19
314.165	443.19
314.394	440.19
314.624	439.19
314.853	423.19
315.083	425.19
315.312	415.19
315.542	428.19
315.771	411.19
316.001	416.19
316.23	423.19
316.46	430.19
316.689	418.19
316.919	424.19
317.148	427.19
317.377	443.19
317.607	430.19
317.836	437.19
318.065	433.19
318.295	406.19
318.524	426.19
318.753	405.19
318.983	427.19
319.212	434.19
319.441	441.19
319.67	430.19
319.9	434.19
320.129	419.19
320.358	415.19
320.587	443.19
320.816	447.19
321.046	429.19
321.275	426.19
321.504	435.19
321.733	458.19
321.962	451.19
322.191	457.19
322.42	457.19
322.649	479.19
322.878	473.19
323.108	505.19
323.337	508.19
323.566	513.19
323.795	562.19
324.024	585.19
324.253	702.19
324.482	960.19
324.71	1459.19
324.939	2046.19
325.168	1756.19
325.397	922.19
325.626	667.19
325.855	584.19
326.084	542.19
326.313	532.19
326.542	532.19
326.77	569.19
326.999	643.19
327.228	892.19
327.457	1317.19
327.686	1538.19
327.914	1028.19
328.143	730.19
328.372	642.19
328.6	613.19
328.829	588.19
329.058	600.19
329.287	600.19
329.515	589.19
329.744	544.19
329.972	553.19
330.201	559.19
330.43	609.19
330.658	631.19
330.887	656.19
331.115	638.19
331.344	563.19
331.572	545.19
331.801	523.19
332.03	532.19
332.258	550.19
332.486	510.19
332.715	513.19
332.943	522.19
333.172	538.19
333.4	554.19
333.629	548.19
333.857	579.19
334.085	569.19
334.314	563.19
334.542	577.19
334.771	603.19
334.999	573.19
335.227	547.19
335.455	526.19
335.684	544.19
335.912	518.19
336.14	496.19
336.369	497.19
336.597	505.19
336.825	509.19
337.053	515.19
337.281	485.19
337.51	466.19
337.738	484.19
337.966	493.19
338.194	496.19
338.422	485.19
338.65	483.19
338.878	482.19
339.106	496.19
339.334	488.19
339.562	460.19
339.79	479.19
340.018	472.19
340.246	482.19
340.474	471.19
340.702	481.19
340.93	476.19
341.158	485.19
341.386	466.19
341.614	471.19
341.842	455.19
342.07	490.19
342.298	446.19
342.526	453.19
342.754	455.19
342.981	450.19
343.209	456.19
343.437	491.19
343.665	490.19
343.893	491.19
344.12	496.19
344.348	481.19
344.576	497.19
344.804	494.19
345.031	510.19
345.259	480.19
345.487	495.19
345.714	482.19
345.942	458.19
346.17	439.19
346.397	443.19
346.625	433.19
346.853	447.19
347.08	458.19
347.308	454.19
347.535	462.19
347.763	472.19
347.99	454.19
348.218	465.19
348.445	462.19
348.673	458.19
348.9	444.19
349.128	448.19
349.355	445.19
349.583	449.19
349.81	462.19
350.037	440.19
350.265	424.19
350.492	436.19
350.72	450.19
350.947	440.19
351.174	459.19
351.402	478.19
351.629	470.19
351.856	463.19
352.083	446.19
352.311	450.19
352.538	449.19
352.765	471.19
352.992	444.19
353.22	446.19
353.447	464.19
353.674	436.19
353.901	454.19
354.128	447.19
354.355	416.19
354.583	421.19
354.81	412.19
355.037	424.19
355.264	435.19
355.491	434.19
355.718	410.19
355.945	431.19
356.172	410.19
356.399	418.19
356.626	398.19
356.853	441.19
357.08	436.19
357.307	420.19
357.534	420.19
357.761	415.19
357.988	427.19
358.215	439.19
358.441	440.19
358.668	435.19
358.895	425.19
359.122	415.19
359.349	416.19
359.576	452.19
359.802	462.19
360.029	490.19
360.256	513.19
360.483	471.19
360.709	443.19
360.936	436.19
361.163	456.19
361.39	444.19
361.616	439.19
361.843	451.19
362.07	439.19
362.296	420.19
362.523	450.19
362.749	440.19
362.976	450.19
363.203	466.19
363.429	440.19
363.656	454.19
363.882	423.19
364.109	432.19
364.335	438.19
364.562	427.19
364.788	420.19
365.015	451.19
365.241	450.19
365.468	420.19
365.694	430.19
365.92	429.19
366.147	422.19
366.373	452.19
366.599	422.19
366.826	423.19
367.052	402.19
367.278	419.19
367.505	426.19
367.731	418.19
367.957	431.19
368.184	427.19
368.41	440.19
368.636	461.19
368.862	438.19
369.089	459.19
369.315	425.19
369.541	442.19
369.767	434.19
369.993	403.19
370.219	411.19
370.445	427.19
370.672	424.19
370.898	427.19
371.124	418.19
371.35	417.19
371.576	409.19
371.802	423.19
372.028	409.19
372.254	427.19
372.48	416.19
372.706	435.19
372.932	420.19
373.158	426.19
373.384	450.19
373.61	435.19
373.835	440.19
374.061	425.19
374.287	446.19
374.513	445.19
374.739	440.19
374.965	466.19
375.191	448.19
375.416	467.19
375.642	433.19
375.868	454.19
376.094	427.19
376.319	422.19
376.545	413.19
376.771	403.19
376.997	426.19
377.222	452.19
377.448	442.19
377.674	426.19
377.899	422.19
378.125	403.19
378.35	407.19
378.576	419.19
378.802	435.19
379.027	409.19
379.253	418.19
379.478	431.19
379.704	416.19
379.929	428.19
380.155	422.19
380.38	432.19
380.606	427.19
380.831	433.19
381.057	448.19
381.282	435.19
381.507	405.19
381.733	422.19
381.958	437.19
382.184	422.19
382.409	423.19
382.634	452.19
382.86	455.19
383.085	428.19
383.31	435.19
383.535	438.19
383.761	417.19
383.986	450.19
384.211	450.19
384.436	468.19
384.662	467.19
384.887	481.19
385.112	458.19
385.337	481.19
385.562	464.19
385.787	470.19
386.013	481.19
386.238	489.19
386.463	476.19
386.688	473.19
386.913	460.19
387.138	454.19
387.363	457.19
387.588	458.19
387.813	472.19
388.038	453.19
388.263	478.19
388.488	472.19
388.713	478.19
388.938	494.19
389.163	495.19
389.387	469.19
389.612	482.19
389.837	471.19
390.062	468.19
390.287	464.19
390.512	452.19
390.736	445.19
390.961	472.19
391.186	474.19
391.411	460.19
391.636	481.19
391.86	484.19
392.085	510.19
392.31	487.19
392.534	486.19
392.759	496.19
392.984	471.19
393.208	474.19
393.433	473.19
393.658	464.19
393.882	474.19
394.107	476.19
394.331	493.19
394.556	476.19
394.78	484.19
395.005	495.19
395.229	476.19
395.454	490.19
395.678	512.19
395.903	493.19
396.127	532.19
396.352	522.19
396.576	494.19
396.801	494.19
397.025	485.19
397.249	488.19
397.474	528.19
397.698	488.19
397.922	551.19
398.147	538.19
398.371	548.19
398.595	529.19
398.82	534.19
399.044	571.19
399.268	599.19
399.492	651.19
399.717	714.19
399.941	682.19
400.165	699.19
400.389	700.19
400.613	648.19
400.837	595.19
401.062	554.19
401.286	561.19
401.51	534.19
401.734	558.19
401.958	554.19
402.182	574.19
402.406	564.19
402.63	577.19
402.854	578.19
403.078	556.19
403.302	536.19
403.526	586.19
403.75	596.19
403.974	589.19
404.198	595.19
404.422	590.19
404.645	606.19
404.869	603.19
405.093	632.19
405.317	678.19
405.541	686.19
405.765	636.19
405.988	599.19
406.212	617.19
406.436	632.19
406.66	640.19
406.883	627.19
407.107	672.19
407.331	662.19
407.555	745.19
407.778	731.19
408.002	673.19
408.226	657.19
408.449	651.19
408.673	633.19
408.896	675.19
409.12	674.19
409.344	669.19
409.567	611.19
409.791	562.19
410.014	584.19
410.238	555.19
410.461	584.19
410.685	587.19
410.908	566.19
411.132	632.19
411.355	641.19
411.578	632.19
411.802	564.19
412.025	558.19
412.249	591.19
412.472	595.19
412.695	635.19
412.919	626.19
413.142	588.19
413.365	565.19
413.589	567.19
413.812	543.19
414.035	523.19
414.258	539.19
414.482	547.19
414.705	547.19
414.928	537.19
415.151	553.19
415.374	550.19
415.597	539.19
415.821	539.19
416.044	534.19
416.267	521.19
416.49	534.19
416.713	542.19
416.936	532.19
417.159	522.19
417.382	519.19
417.605	538.19
417.828	539.19
418.051	543.19
418.274	563.19
418.497	540.19
418.72	534.19
418.943	538.19
419.166	550.19
419.389	595.19
419.611	574.19
419.834	556.19
420.057	573.19
420.28	574.19
420.503	570.19
420.726	565.19
420.948	584.19
421.171	606.19
421.394	646.19
421.617	573.19
421.839	537.19
422.062	554.19
422.285	557.19
422.507	633.19
422.73	672.19
422.953	654.19
423.175	604.19
423.398	587.19
423.621	580.19
423.843	594.19
424.066	592.19
424.288	585.19
424.511	615.19
424.733	680.19
424.956	746.19
425.178	706.19
425.401	679.19
425.623	711.19
425.846	606.19
426.068	583.19
426.291	555.19
426.513	574.19
426.735	585.19
426.958	640.19
427.18	668.19
427.402	819.19
427.625	903.19
427.847	783.19
428.069	679.19
428.292	611.19
428.514	561.19
428.736	530.19
428.958	529.19
429.181	541.19
429.403	521.19
429.625	546.19
429.847	574.19
430.069	629.19
430.292	624.19
430.514	537.19
430.736	526.19
430.958	521.19
431.18	506.19
431.402	508.19
431.624	482.19
431.846	496.19
432.068	524.19
432.29	503.19
432.512	511.19
432.734	536.19
432.956	514.19
433.178	516.19
433.4	521.19
433.622	495.19
433.844	506.19
434.066	477.19
434.287	503.19
434.509	499.19
434.731	525.19
434.953	545.19
435.175	561.19
435.397	569.19
435.618	601.19
435.84	599.19
436.062	703.19
436.284	772.19
436.505	642.19
436.727	568.19
436.949	503.19
437.17	512.19
437.392	538.19
437.614	562.19
437.835	553.19
438.057	668.19
438.278	755.19
438.5	725.19
438.721	833.19
438.943	793.19
439.165	635.19
439.386	571.19
439.608	558.19
439.829	576.19
440.05	582.19
440.272	661.19
440.493	574.19
440.715	546.19
440.936	537.19
441.158	533.19
441.379	523.19
441.6	580.19
441.822	579.19
442.043	604.19
442.264	689.19
442.486	740.19
442.707	624.19
442.928	573.19
443.149	606.19
443.371	634.19
443.592	660.19
443.813	750.19
444.034	804.19
444.255	692.19
444.476	630.19
444.698	591.19
444.919	627.19
445.14	739.19
445.361	668.19
445.582	611.19
445.803	677.19
446.024	789.19
446.245	761.19
446.466	704.19
446.687	598.19
446.908	574.19
447.129	535.19
447.35	522.19
447.571	522.19
447.792	508.19
448.013	514.19
448.234	550.19
448.455	593.19
448.675	682.19
448.896	775.19
449.117	683.19
449.338	634.19
449.559	741.19
449.779	847.19
450	656.19
450.221	565.19
450.442	536.19
450.662	516.19
450.883	516.19
451.104	516.19
451.324	517.19
451.545	481.19
451.766	486.19
451.986	470.19
452.207	452.19
452.428	459.19
452.648	450.19
452.869	473.19
453.089	490.19
453.31	490.19
453.53	466.19
453.751	466.19
453.971	471.19
454.192	473.19
454.412	489.19
454.633	460.19
454.853	468.19
455.073	456.19
455.294	473.19
455.514	540.19
455.734	544.19
455.955	471.19
456.175	447.19
456.395	437.19
456.616	452.19
456.836	459.19
457.056	462.19
457.276	450.19
457.497	458.19
457.717	456.19
457.937	434.19
458.157	467.19
458.377	457.19
458.598	486.19
458.818	542.19
459.038	606.19
459.258	614.19
459.478	567.19
459.698	506.19
459.918	522.19
460.138	523.19
460.358	531.19
460.578	534.19
460.798	528.19
461.018	553.19
461.238	538.19
461.458	551.19
461.678	522.19
461.898	539.19
462.118	540.19
462.338	560.19
462.558	553.19
462.777	555.19
462.997	589.19
463.217	614.19
463.437	633.19
463.657	588.19
463.876	594.19
464.096	586.19
464.316	587.19
464.536	591.19
464.755	576.19
464.975	595.19
465.195	598.19
465.414	651.19
465.634	596.19
465.854	541.19
466.073	527.19
466.293	492.19
466.512	476.19
466.732	508.19
466.951	500.19
467.171	470.19
467.391	494.19
467.61	513.19
467.829	484.19
468.049	512.19
468.268	500.19
468.488	484.19
468.707	465.19
468.927	478.19
469.146	465.19
469.365	479.19
469.585	473.19
469.804	490.19
470.023	519.19
470.243	497.19
470.462	494.19
470.681	479.19
470.901	510.19
471.12	500.19
471.339	517.19
471.558	510.19
471.777	486.19
471.997	495.19
472.216	499.19
472.435	534.19
472.654	503.19
472.873	507.19
473.092	503.19
473.311	495.19
473.53	471.19
473.749	489.19
473.968	525.19
474.187	651.19
474.406	631.19
474.625	543.19
474.844	486.19
475.063	498.19
475.282	497.19
475.501	489.19
475.72	500.19
475.939	483.19
476.158	486.19
476.377	483.19
476.596	502.19
476.814	500.19
477.033	517.19
477.252	526.19
477.471	538.19
477.69	503.19
477.908	550.19
478.127	554.19
478.346	551.19
478.564	550.19
478.783	570.19
479.002	552.19
479.22	566.19
479.439	567.19
479.658	595.19
479.876	606.19
480.095	587.19
480.313	640.19
480.532	631.19
480.751	612.19
480.969	607.19
481.188	669.19
481.406	693.19
481.624	625.19
481.843	606.19
482.061	589.19
482.28	587.19
482.498	551.19
482.717	564.19
482.935	558.19
483.153	556.19
483.372	571.19
483.59	567.19
483.808	577.19
484.027	570.19
484.245	589.19
484.463	613.19
484.681	601.19
484.9	574.19
485.118	579.19
485.336	576.19
485.554	570.19
485.772	596.19
485.99	590.19
486.209	586.19
486.427	575.19
486.645	580.19
486.863	611.19
487.081	609.19
487.299	641.19
487.517	614.19
487.735	591.19
487.953	612.19
488.171	602.19
488.389	590.19
488.607	589.19
488.825	604.19
489.043	613.19
489.261	606.19
489.479	624.19
489.696	616.19
489.914	624.19
490.132	611.19
490.35	640.19
490.568	621.19
490.786	656.19
491.003	648.19
491.221	645.19
491.439	683.19
491.657	670.19
491.874	699.19
492.092	711.19
492.31	712.19
492.527	692.19
492.745	702.19
492.963	711.19
493.18	729.19
493.398	696.19
493.615	727.19
493.833	726.19
494.05	723.19
494.268	720.19
494.485	695.19
494.703	710.19
494.92	713.19
495.138	715.19
495.355	715.19
495.573	732.19
495.79	754.19
496.008	722.19
496.225	713.19
496.442	722.19
496.66	729.19
496.877	723.19
497.094	727.19
497.312	756.19
497.529	751.19
497.746	783.19
497.963	779.19
498.181	791.19
498.398	826.19
498.615	825.19
498.832	862.19
499.049	878.19
499.267	919.19
499.484	976.19
499.701	1016.19
499.918	1048.19
500.135	1123.19
500.352	1170.19
500.569	1216.19
500.786	1243.19
501.003	1181.19
501.22	1140.19
501.437	1075.19
501.654	1032.19
501.871	968.19
