Data from 1985.PennyLincolnUp.Lamp.En5.5.200Scan.071819.P1_HRD10591_17-02-03-970.txt Node
Date: Thu Jul 18 17:02:03 EDT 2019
User: cochatt
Spectrometer: HR+D1059
Trigger mode: 1
Integration Time (sec): 1.000000E-1
Scans to average: 1
Electric dark correction enabled: true
Nonlinearity correction enabled: false
Boxcar width: 0
XAxis mode: Wavelengths
Number of Pixels in Spectrum: 2048
>>>>>Begin Spectral Data<<<<<
223.165	-3.81
223.4	-3.81
223.635	-3.81
223.869	-21.81
224.104	-20.81
224.338	-9.81
224.573	-4.81
224.808	-18.81
225.042	-12.81
225.277	-1.81
225.511	-2.81
225.746	14.19
225.98	2.19
226.215	0.19
226.449	21.19
226.683	7.19
226.918	19.19
227.152	33.19
227.387	29.19
227.621	50.19
227.856	49.19
228.09	40.19
228.324	62.19
228.559	65.19
228.793	64.19
229.027	93.19
229.262	87.19
229.496	105.19
229.73	137.19
229.964	125.19
230.199	114.19
230.433	106.19
230.667	111.19
230.901	104.19
231.136	98.19
231.37	99.19
231.604	103.19
231.838	123.19
232.072	110.19
232.306	115.19
232.541	107.19
232.775	105.19
233.009	107.19
233.243	107.19
233.477	109.19
233.711	102.19
233.945	98.19
234.179	126.19
234.413	115.19
234.647	117.19
234.881	125.19
235.115	109.19
235.349	104.19
235.583	119.19
235.817	109.19
236.051	117.19
236.285	115.19
236.519	109.19
236.753	115.19
236.987	149.19
237.221	160.19
237.455	209.19
237.689	170.19
237.922	144.19
238.156	132.19
238.39	136.19
238.624	119.19
238.858	143.19
239.091	118.19
239.325	122.19
239.559	121.19
239.793	134.19
240.027	124.19
240.26	126.19
240.494	139.19
240.728	157.19
240.961	142.19
241.195	129.19
241.429	137.19
241.662	128.19
241.896	125.19
242.13	134.19
242.363	134.19
242.597	163.19
242.83	145.19
243.064	127.19
243.298	121.19
243.531	125.19
243.765	123.19
243.998	138.19
244.232	113.19
244.465	139.19
244.699	131.19
244.932	138.19
245.166	142.19
245.399	130.19
245.633	128.19
245.866	151.19
246.099	131.19
246.333	155.19
246.566	154.19
246.8	146.19
247.033	148.19
247.266	155.19
247.5	153.19
247.733	162.19
247.966	166.19
248.2	150.19
248.433	173.19
248.666	170.19
248.899	165.19
249.133	186.19
249.366	185.19
249.599	187.19
249.832	162.19
250.066	177.19
250.299	172.19
250.532	184.19
250.765	185.19
250.998	198.19
251.231	218.19
251.465	196.19
251.698	179.19
251.931	177.19
252.164	170.19
252.397	177.19
252.63	177.19
252.863	182.19
253.096	205.19
253.329	216.19
253.562	213.19
253.795	204.19
254.028	202.19
254.261	203.19
254.494	219.19
254.727	225.19
254.96	240.19
255.193	231.19
255.426	222.19
255.659	204.19
255.892	216.19
256.124	185.19
256.357	167.19
256.59	206.19
256.823	192.19
257.056	202.19
257.289	188.19
257.521	206.19
257.754	199.19
257.987	206.19
258.22	197.19
258.452	214.19
258.685	191.19
258.918	201.19
259.151	200.19
259.383	206.19
259.616	208.19
259.849	214.19
260.081	224.19
260.314	239.19
260.547	249.19
260.779	233.19
261.012	209.19
261.244	222.19
261.477	206.19
261.71	219.19
261.942	221.19
262.175	233.19
262.407	226.19
262.64	214.19
262.872	212.19
263.105	225.19
263.337	215.19
263.57	209.19
263.802	229.19
264.035	213.19
264.267	210.19
264.499	206.19
264.732	213.19
264.964	211.19
265.197	210.19
265.429	222.19
265.661	211.19
265.894	217.19
266.126	206.19
266.358	230.19
266.591	226.19
266.823	225.19
267.055	215.19
267.287	227.19
267.52	225.19
267.752	220.19
267.984	229.19
268.216	222.19
268.448	245.19
268.681	249.19
268.913	244.19
269.145	263.19
269.377	286.19
269.609	261.19
269.841	268.19
270.073	265.19
270.306	272.19
270.538	289.19
270.77	293.19
271.002	292.19
271.234	273.19
271.466	271.19
271.698	299.19
271.93	308.19
272.162	316.19
272.394	306.19
272.626	300.19
272.858	277.19
273.09	269.19
273.322	277.19
273.553	269.19
273.785	268.19
274.017	263.19
274.249	265.19
274.481	260.19
274.713	260.19
274.945	281.19
275.176	266.19
275.408	253.19
275.64	283.19
275.872	266.19
276.104	258.19
276.335	249.19
276.567	261.19
276.799	278.19
277.031	300.19
277.262	311.19
277.494	307.19
277.726	296.19
277.957	291.19
278.189	273.19
278.421	283.19
278.652	277.19
278.884	273.19
279.115	290.19
279.347	294.19
279.579	267.19
279.81	282.19
280.042	264.19
280.273	266.19
280.505	272.19
280.736	285.19
280.968	265.19
281.199	272.19
281.431	270.19
281.662	287.19
281.894	288.19
282.125	270.19
282.356	303.19
282.588	322.19
282.819	307.19
283.051	288.19
283.282	285.19
283.513	299.19
283.745	306.19
283.976	285.19
284.207	288.19
284.439	297.19
284.67	306.19
284.901	301.19
285.132	293.19
285.364	298.19
285.595	287.19
285.826	290.19
286.057	292.19
286.288	276.19
286.52	309.19
286.751	274.19
286.982	287.19
287.213	305.19
287.444	309.19
287.675	309.19
287.906	305.19
288.138	297.19
288.369	321.19
288.6	320.19
288.831	312.19
289.062	299.19
289.293	321.19
289.524	311.19
289.755	319.19
289.986	321.19
290.217	303.19
290.448	305.19
290.679	311.19
290.91	302.19
291.141	302.19
291.371	314.19
291.602	303.19
291.833	290.19
292.064	303.19
292.295	301.19
292.526	328.19
292.757	310.19
292.987	301.19
293.218	317.19
293.449	301.19
293.68	308.19
293.91	316.19
294.141	309.19
294.372	333.19
294.603	325.19
294.833	316.19
295.064	308.19
295.295	312.19
295.525	338.19
295.756	313.19
295.987	338.19
296.217	347.19
296.448	354.19
296.679	338.19
296.909	328.19
297.14	326.19
297.37	307.19
297.601	310.19
297.831	329.19
298.062	327.19
298.292	321.19
298.523	314.19
298.753	328.19
298.984	333.19
299.214	344.19
299.445	339.19
299.675	335.19
299.905	347.19
300.136	348.19
300.366	344.19
300.597	330.19
300.827	338.19
301.057	347.19
301.288	361.19
301.518	344.19
301.748	359.19
301.979	342.19
302.209	363.19
302.439	348.19
302.669	357.19
302.9	364.19
303.13	351.19
303.36	369.19
303.59	343.19
303.82	343.19
304.051	348.19
304.281	356.19
304.511	346.19
304.741	345.19
304.971	330.19
305.201	365.19
305.431	355.19
305.661	352.19
305.891	344.19
306.121	357.19
306.352	360.19
306.582	347.19
306.812	350.19
307.042	359.19
307.272	345.19
307.502	350.19
307.731	337.19
307.961	362.19
308.191	336.19
308.421	369.19
308.651	350.19
308.881	361.19
309.111	365.19
309.341	341.19
309.571	357.19
309.8	377.19
310.03	382.19
310.26	399.19
310.49	394.19
310.72	406.19
310.949	409.19
311.179	398.19
311.409	387.19
311.639	387.19
311.868	396.19
312.098	381.19
312.328	399.19
312.557	420.19
312.787	437.19
313.017	414.19
313.246	397.19
313.476	395.19
313.706	401.19
313.935	391.19
314.165	402.19
314.394	416.19
314.624	419.19
314.853	387.19
315.083	392.19
315.312	381.19
315.542	402.19
315.771	388.19
316.001	409.19
316.23	405.19
316.46	400.19
316.689	406.19
316.919	389.19
317.148	428.19
317.377	421.19
317.607	408.19
317.836	401.19
318.065	390.19
318.295	394.19
318.524	403.19
318.753	408.19
318.983	387.19
319.212	398.19
319.441	405.19
319.67	411.19
319.9	402.19
320.129	389.19
320.358	396.19
320.587	385.19
320.816	427.19
321.046	420.19
321.275	417.19
321.504	411.19
321.733	418.19
321.962	431.19
322.191	444.19
322.42	434.19
322.649	455.19
322.878	463.19
323.108	455.19
323.337	484.19
323.566	489.19
323.795	501.19
324.024	569.19
324.253	647.19
324.482	882.19
324.71	1331.19
324.939	1868.19
325.168	1539.19
325.397	855.19
325.626	606.19
325.855	561.19
326.084	513.19
326.313	519.19
326.542	494.19
326.77	532.19
326.999	634.19
327.228	817.19
327.457	1173.19
327.686	1405.19
327.914	957.19
328.143	662.19
328.372	582.19
328.6	542.19
328.829	550.19
329.058	555.19
329.287	566.19
329.515	545.19
329.744	497.19
329.972	479.19
330.201	492.19
330.43	522.19
330.658	535.19
330.887	570.19
331.115	585.19
331.344	526.19
331.572	498.19
331.801	527.19
332.03	518.19
332.258	483.19
332.486	483.19
332.715	505.19
332.943	473.19
333.172	502.19
333.4	486.19
333.629	523.19
333.857	522.19
334.085	521.19
334.314	501.19
334.542	494.19
334.771	508.19
334.999	510.19
335.227	501.19
335.455	485.19
335.684	516.19
335.912	473.19
336.14	470.19
336.369	451.19
336.597	496.19
336.825	507.19
337.053	499.19
337.281	484.19
337.51	451.19
337.738	452.19
337.966	467.19
338.194	482.19
338.422	484.19
338.65	440.19
338.878	448.19
339.106	453.19
339.334	448.19
339.562	453.19
339.79	437.19
340.018	480.19
340.246	460.19
340.474	460.19
340.702	439.19
340.93	439.19
341.158	463.19
341.386	453.19
341.614	437.19
341.842	449.19
342.07	437.19
342.298	447.19
342.526	451.19
342.754	435.19
342.981	458.19
343.209	447.19
343.437	435.19
343.665	460.19
343.893	468.19
344.12	469.19
344.348	484.19
344.576	487.19
344.804	454.19
345.031	445.19
345.259	461.19
345.487	442.19
345.714	456.19
345.942	417.19
346.17	446.19
346.397	437.19
346.625	427.19
346.853	446.19
347.08	425.19
347.308	435.19
347.535	413.19
347.763	443.19
347.99	435.19
348.218	446.19
348.445	457.19
348.673	440.19
348.9	430.19
349.128	443.19
349.355	427.19
349.583	420.19
349.81	397.19
350.037	397.19
350.265	413.19
350.492	407.19
350.72	426.19
350.947	414.19
351.174	455.19
351.402	442.19
351.629	431.19
351.856	407.19
352.083	439.19
352.311	438.19
352.538	431.19
352.765	434.19
352.992	425.19
353.22	442.19
353.447	448.19
353.674	406.19
353.901	413.19
354.128	383.19
354.355	419.19
354.583	421.19
354.81	390.19
355.037	414.19
355.264	418.19
355.491	388.19
355.718	392.19
355.945	413.19
356.172	413.19
356.399	415.19
356.626	414.19
356.853	401.19
357.08	405.19
357.307	407.19
357.534	411.19
357.761	382.19
357.988	409.19
358.215	396.19
358.441	397.19
358.668	393.19
358.895	416.19
359.122	421.19
359.349	409.19
359.576	427.19
359.802	453.19
360.029	483.19
360.256	471.19
360.483	467.19
360.709	434.19
360.936	437.19
361.163	425.19
361.39	426.19
361.616	430.19
361.843	433.19
362.07	416.19
362.296	423.19
362.523	424.19
362.749	430.19
362.976	409.19
363.203	400.19
363.429	395.19
363.656	408.19
363.882	429.19
364.109	408.19
364.335	387.19
364.562	409.19
364.788	425.19
365.015	424.19
365.241	405.19
365.468	407.19
365.694	399.19
365.92	425.19
366.147	408.19
366.373	423.19
366.599	412.19
366.826	409.19
367.052	395.19
367.278	417.19
367.505	410.19
367.731	403.19
367.957	398.19
368.184	425.19
368.41	399.19
368.636	390.19
368.862	413.19
369.089	405.19
369.315	390.19
369.541	404.19
369.767	414.19
369.993	400.19
370.219	426.19
370.445	405.19
370.672	407.19
370.898	423.19
371.124	402.19
371.35	393.19
371.576	426.19
371.802	421.19
372.028	390.19
372.254	405.19
372.48	402.19
372.706	421.19
372.932	402.19
373.158	396.19
373.384	420.19
373.61	401.19
373.835	417.19
374.061	417.19
374.287	399.19
374.513	420.19
374.739	423.19
374.965	411.19
375.191	438.19
375.416	431.19
375.642	419.19
375.868	412.19
376.094	424.19
376.319	388.19
376.545	394.19
376.771	403.19
376.997	429.19
377.222	421.19
377.448	400.19
377.674	403.19
377.899	411.19
378.125	385.19
378.35	409.19
378.576	409.19
378.802	387.19
379.027	409.19
379.253	390.19
379.478	404.19
379.704	407.19
379.929	405.19
380.155	396.19
380.38	406.19
380.606	401.19
380.831	388.19
381.057	413.19
381.282	410.19
381.507	393.19
381.733	411.19
381.958	403.19
382.184	399.19
382.409	414.19
382.634	430.19
382.86	441.19
383.085	401.19
383.31	400.19
383.535	431.19
383.761	446.19
383.986	435.19
384.211	420.19
384.436	440.19
384.662	431.19
384.887	446.19
385.112	443.19
385.337	453.19
385.562	442.19
385.787	442.19
386.013	462.19
386.238	464.19
386.463	465.19
386.688	438.19
386.913	455.19
387.138	461.19
387.363	477.19
387.588	459.19
387.813	438.19
388.038	425.19
388.263	441.19
388.488	451.19
388.713	477.19
388.938	431.19
389.163	472.19
389.387	459.19
389.612	462.19
389.837	438.19
390.062	434.19
390.287	431.19
390.512	448.19
390.736	451.19
390.961	460.19
391.186	452.19
391.411	439.19
391.636	460.19
391.86	482.19
392.085	484.19
392.31	463.19
392.534	469.19
392.759	485.19
392.984	466.19
393.208	480.19
393.433	463.19
393.658	451.19
393.882	458.19
394.107	444.19
394.331	471.19
394.556	452.19
394.78	458.19
395.005	475.19
395.229	476.19
395.454	464.19
395.678	475.19
395.903	485.19
396.127	511.19
396.352	501.19
396.576	453.19
396.801	446.19
397.025	467.19
397.249	477.19
397.474	471.19
397.698	486.19
397.922	504.19
398.147	500.19
398.371	522.19
398.595	511.19
398.82	518.19
399.044	527.19
399.268	573.19
399.492	614.19
399.717	630.19
399.941	643.19
400.165	662.19
400.389	667.19
400.613	592.19
400.837	555.19
401.062	548.19
401.286	537.19
401.51	533.19
401.734	533.19
401.958	540.19
402.182	538.19
402.406	533.19
402.63	539.19
402.854	535.19
403.078	540.19
403.302	574.19
403.526	561.19
403.75	574.19
403.974	550.19
404.198	558.19
404.422	543.19
404.645	582.19
404.869	566.19
405.093	581.19
405.317	585.19
405.541	611.19
405.765	585.19
405.988	537.19
406.212	576.19
406.436	600.19
406.66	619.19
406.883	592.19
407.107	624.19
407.331	684.19
407.555	708.19
407.778	727.19
408.002	682.19
408.226	606.19
408.449	587.19
408.673	606.19
408.896	617.19
409.12	648.19
409.344	607.19
409.567	567.19
409.791	536.19
410.014	550.19
410.238	542.19
410.461	533.19
410.685	558.19
410.908	567.19
411.132	583.19
411.355	604.19
411.578	596.19
411.802	555.19
412.025	531.19
412.249	538.19
412.472	549.19
412.695	533.19
412.919	536.19
413.142	510.19
413.365	500.19
413.589	498.19
413.812	502.19
414.035	515.19
414.258	517.19
414.482	508.19
414.705	512.19
414.928	514.19
415.151	504.19
415.374	507.19
415.597	504.19
415.821	509.19
416.044	486.19
416.267	530.19
416.49	499.19
416.713	491.19
416.936	493.19
417.159	515.19
417.382	527.19
417.605	492.19
417.828	517.19
418.051	523.19
418.274	549.19
418.497	505.19
418.72	515.19
418.943	506.19
419.166	533.19
419.389	549.19
419.611	556.19
419.834	536.19
420.057	546.19
420.28	540.19
420.503	517.19
420.726	503.19
420.948	521.19
421.171	549.19
421.394	565.19
421.617	547.19
421.839	531.19
422.062	520.19
422.285	513.19
422.507	604.19
422.73	647.19
422.953	626.19
423.175	565.19
423.398	549.19
423.621	543.19
423.843	581.19
424.066	575.19
424.288	580.19
424.511	581.19
424.733	617.19
424.956	689.19
425.178	635.19
425.401	644.19
425.623	691.19
425.846	591.19
426.068	550.19
426.291	541.19
426.513	559.19
426.735	556.19
426.958	604.19
427.18	655.19
427.402	792.19
427.625	829.19
427.847	753.19
428.069	618.19
428.292	553.19
428.514	537.19
428.736	511.19
428.958	502.19
429.181	486.19
429.403	500.19
429.625	509.19
429.847	539.19
430.069	592.19
430.292	589.19
430.514	533.19
430.736	490.19
430.958	504.19
431.18	468.19
431.402	488.19
431.624	477.19
431.846	490.19
432.068	490.19
432.29	490.19
432.512	495.19
432.734	488.19
432.956	514.19
433.178	504.19
433.4	475.19
433.622	489.19
433.844	479.19
434.066	479.19
434.287	467.19
434.509	481.19
434.731	504.19
434.953	501.19
435.175	541.19
435.397	545.19
435.618	571.19
435.84	562.19
436.062	649.19
436.284	702.19
436.505	583.19
436.727	526.19
436.949	514.19
437.17	521.19
437.392	522.19
437.614	541.19
437.835	543.19
438.057	617.19
438.278	714.19
438.5	698.19
438.721	760.19
438.943	727.19
439.165	601.19
439.386	561.19
439.608	557.19
439.829	544.19
440.05	546.19
440.272	597.19
440.493	577.19
440.715	534.19
440.936	535.19
441.158	496.19
441.379	499.19
441.6	537.19
441.822	549.19
442.043	597.19
442.264	652.19
442.486	707.19
442.707	621.19
442.928	573.19
443.149	569.19
443.371	593.19
443.592	615.19
443.813	695.19
444.034	761.19
444.255	626.19
444.476	585.19
444.698	579.19
444.919	587.19
445.14	701.19
445.361	620.19
445.582	604.19
445.803	637.19
446.024	722.19
446.245	738.19
446.466	645.19
446.687	549.19
446.908	535.19
447.129	509.19
447.35	490.19
447.571	506.19
447.792	482.19
448.013	500.19
448.234	530.19
448.455	550.19
448.675	656.19
448.896	763.19
449.117	629.19
449.338	559.19
449.559	673.19
449.779	779.19
450	636.19
450.221	535.19
450.442	471.19
450.662	500.19
450.883	499.19
451.104	504.19
451.324	491.19
451.545	474.19
451.766	475.19
451.986	442.19
452.207	430.19
452.428	457.19
452.648	433.19
452.869	437.19
453.089	450.19
453.31	459.19
453.53	446.19
453.751	465.19
453.971	475.19
454.192	468.19
454.412	472.19
454.633	427.19
454.853	431.19
455.073	430.19
455.294	467.19
455.514	488.19
455.734	494.19
455.955	434.19
456.175	407.19
456.395	423.19
456.616	428.19
456.836	420.19
457.056	409.19
457.276	411.19
457.497	434.19
457.717	424.19
457.937	435.19
458.157	431.19
458.377	451.19
458.598	446.19
458.818	515.19
459.038	590.19
459.258	583.19
459.478	531.19
459.698	519.19
459.918	502.19
460.138	497.19
460.358	517.19
460.578	514.19
460.798	527.19
461.018	518.19
461.238	520.19
461.458	518.19
461.678	528.19
461.898	524.19
462.118	531.19
462.338	539.19
462.558	541.19
462.777	546.19
462.997	550.19
463.217	579.19
463.437	576.19
463.657	577.19
463.876	550.19
464.096	573.19
464.316	572.19
464.536	567.19
464.755	549.19
464.975	555.19
465.195	583.19
465.414	670.19
465.634	555.19
465.854	528.19
466.073	487.19
466.293	482.19
466.512	473.19
466.732	473.19
466.951	476.19
467.171	475.19
467.391	486.19
467.61	459.19
467.829	460.19
468.049	467.19
468.268	449.19
468.488	444.19
468.707	441.19
468.927	437.19
469.146	451.19
469.365	451.19
469.585	478.19
469.804	460.19
470.023	475.19
470.243	478.19
470.462	466.19
470.681	501.19
470.901	490.19
471.12	480.19
471.339	446.19
471.558	457.19
471.777	454.19
471.997	467.19
472.216	467.19
472.435	466.19
472.654	465.19
472.873	441.19
473.092	474.19
473.311	449.19
473.53	458.19
473.749	475.19
473.968	493.19
474.187	610.19
474.406	582.19
474.625	492.19
474.844	460.19
475.063	471.19
475.282	455.19
475.501	454.19
475.72	473.19
475.939	497.19
476.158	479.19
476.377	484.19
476.596	460.19
476.814	472.19
477.033	497.19
477.252	501.19
477.471	498.19
477.69	492.19
477.908	503.19
478.127	513.19
478.346	527.19
478.564	515.19
478.783	527.19
479.002	528.19
479.22	546.19
479.439	531.19
479.658	563.19
479.876	567.19
480.095	558.19
480.313	593.19
480.532	573.19
480.751	569.19
480.969	562.19
481.188	589.19
481.406	589.19
481.624	549.19
481.843	533.19
482.061	513.19
482.28	523.19
482.498	548.19
482.717	546.19
482.935	525.19
483.153	550.19
483.372	550.19
483.59	543.19
483.808	527.19
484.027	531.19
484.245	541.19
484.463	520.19
484.681	550.19
484.9	569.19
485.118	563.19
485.336	576.19
485.554	573.19
485.772	555.19
485.99	570.19
486.209	562.19
486.427	541.19
486.645	558.19
486.863	572.19
487.081	579.19
487.299	576.19
487.517	575.19
487.735	575.19
487.953	583.19
488.171	585.19
488.389	584.19
488.607	558.19
488.825	563.19
489.043	613.19
489.261	567.19
489.479	590.19
489.696	563.19
489.914	580.19
490.132	585.19
490.35	625.19
490.568	585.19
490.786	585.19
491.003	600.19
491.221	628.19
491.439	612.19
491.657	634.19
491.874	635.19
492.092	644.19
492.31	676.19
492.527	644.19
492.745	647.19
492.963	639.19
493.18	655.19
493.398	649.19
493.615	667.19
493.833	646.19
494.05	682.19
494.268	678.19
494.485	661.19
494.703	654.19
494.92	671.19
495.138	651.19
495.355	665.19
495.573	680.19
495.79	643.19
496.008	649.19
496.225	659.19
496.442	667.19
496.66	673.19
496.877	681.19
497.094	668.19
497.312	716.19
497.529	694.19
497.746	742.19
497.963	726.19
498.181	765.19
498.398	757.19
498.615	799.19
498.832	825.19
499.049	831.19
499.267	868.19
499.484	926.19
499.701	975.19
499.918	1003.19
500.135	1070.19
500.352	1151.19
500.569	1181.19
500.786	1143.19
501.003	1114.19
501.22	1059.19
501.437	1017.19
501.654	953.19
501.871	933.19
