Data from 1985.PennyLincolnUp.Lamp.En5.5.200Scan.071819.P1_HRD10591_17-03-48-970.txt Node
Date: Thu Jul 18 17:03:48 EDT 2019
User: cochatt
Spectrometer: HR+D1059
Trigger mode: 1
Integration Time (sec): 1.000000E-1
Scans to average: 1
Electric dark correction enabled: true
Nonlinearity correction enabled: false
Boxcar width: 0
XAxis mode: Wavelengths
Number of Pixels in Spectrum: 2048
>>>>>Begin Spectral Data<<<<<
223.165	-30.31
223.4	-30.31
223.635	-30.31
223.869	-13.31
224.104	-2.31
224.338	-13.31
224.573	-20.31
224.808	-5.31
225.042	-13.31
225.277	-6.31
225.511	-3.31
225.746	2.69
225.98	-3.31
226.215	16.69
226.449	16.69
226.683	20.69
226.918	29.69
227.152	24.69
227.387	36.69
227.621	27.69
227.856	37.69
228.09	46.69
228.324	60.69
228.559	51.69
228.793	68.69
229.027	77.69
229.262	93.69
229.496	105.69
229.73	128.69
229.964	140.69
230.199	136.69
230.433	100.69
230.667	117.69
230.901	108.69
231.136	115.69
231.37	115.69
231.604	105.69
231.838	119.69
232.072	103.69
232.306	106.69
232.541	127.69
232.775	120.69
233.009	108.69
233.243	116.69
233.477	114.69
233.711	118.69
233.945	108.69
234.179	122.69
234.413	107.69
234.647	113.69
234.881	120.69
235.115	121.69
235.349	108.69
235.583	134.69
235.817	124.69
236.051	139.69
236.285	135.69
236.519	138.69
236.753	118.69
236.987	147.69
237.221	179.69
237.455	232.69
237.689	178.69
237.922	143.69
238.156	140.69
238.39	146.69
238.624	109.69
238.858	120.69
239.091	132.69
239.325	130.69
239.559	132.69
239.793	106.69
240.027	146.69
240.26	146.69
240.494	145.69
240.728	139.69
240.961	146.69
241.195	154.69
241.429	140.69
241.662	124.69
241.896	133.69
242.13	138.69
242.363	135.69
242.597	121.69
242.83	131.69
243.064	132.69
243.298	135.69
243.531	142.69
243.765	135.69
243.998	128.69
244.232	141.69
244.465	139.69
244.699	164.69
244.932	152.69
245.166	148.69
245.399	136.69
245.633	142.69
245.866	158.69
246.099	145.69
246.333	152.69
246.566	130.69
246.8	160.69
247.033	164.69
247.266	173.69
247.5	166.69
247.733	168.69
247.966	172.69
248.2	169.69
248.433	168.69
248.666	166.69
248.899	172.69
249.133	189.69
249.366	212.69
249.599	188.69
249.832	173.69
250.066	166.69
250.299	186.69
250.532	201.69
250.765	202.69
250.998	226.69
251.231	222.69
251.465	192.69
251.698	211.69
251.931	202.69
252.164	196.69
252.397	194.69
252.63	215.69
252.863	205.69
253.096	209.69
253.329	225.69
253.562	232.69
253.795	201.69
254.028	213.69
254.261	208.69
254.494	200.69
254.727	232.69
254.96	283.69
255.193	274.69
255.426	245.69
255.659	240.69
255.892	222.69
256.124	246.69
256.357	245.69
256.59	232.69
256.823	227.69
257.056	211.69
257.289	222.69
257.521	206.69
257.754	229.69
257.987	214.69
258.22	237.69
258.452	204.69
258.685	215.69
258.918	203.69
259.151	222.69
259.383	229.69
259.616	210.69
259.849	228.69
260.081	254.69
260.314	241.69
260.547	268.69
260.779	260.69
261.012	254.69
261.244	219.69
261.477	225.69
261.71	214.69
261.942	237.69
262.175	235.69
262.407	232.69
262.64	212.69
262.872	221.69
263.105	215.69
263.337	217.69
263.57	227.69
263.802	232.69
264.035	222.69
264.267	216.69
264.499	211.69
264.732	224.69
264.964	227.69
265.197	217.69
265.429	244.69
265.661	227.69
265.894	231.69
266.126	247.69
266.358	246.69
266.591	234.69
266.823	229.69
267.055	226.69
267.287	236.69
267.52	223.69
267.752	228.69
267.984	252.69
268.216	233.69
268.448	256.69
268.681	247.69
268.913	260.69
269.145	280.69
269.377	268.69
269.609	273.69
269.841	283.69
270.073	283.69
270.306	294.69
270.538	307.69
270.77	325.69
271.002	294.69
271.234	295.69
271.466	312.69
271.698	318.69
271.93	311.69
272.162	326.69
272.394	306.69
272.626	318.69
272.858	321.69
273.09	293.69
273.322	280.69
273.553	280.69
273.785	276.69
274.017	279.69
274.249	280.69
274.481	268.69
274.713	273.69
274.945	279.69
275.176	297.69
275.408	294.69
275.64	288.69
275.872	273.69
276.104	277.69
276.335	282.69
276.567	285.69
276.799	286.69
277.031	301.69
277.262	331.69
277.494	333.69
277.726	309.69
277.957	310.69
278.189	308.69
278.421	277.69
278.652	296.69
278.884	279.69
279.115	290.69
279.347	294.69
279.579	297.69
279.81	279.69
280.042	289.69
280.273	293.69
280.505	301.69
280.736	288.69
280.968	282.69
281.199	292.69
281.431	289.69
281.662	288.69
281.894	293.69
282.125	283.69
282.356	304.69
282.588	320.69
282.819	328.69
283.051	305.69
283.282	294.69
283.513	302.69
283.745	313.69
283.976	311.69
284.207	315.69
284.439	313.69
284.67	316.69
284.901	314.69
285.132	304.69
285.364	305.69
285.595	294.69
285.826	310.69
286.057	323.69
286.288	294.69
286.52	331.69
286.751	319.69
286.982	330.69
287.213	315.69
287.444	306.69
287.675	326.69
287.906	331.69
288.138	328.69
288.369	325.69
288.6	327.69
288.831	325.69
289.062	324.69
289.293	326.69
289.524	320.69
289.755	326.69
289.986	321.69
290.217	312.69
290.448	320.69
290.679	307.69
290.91	336.69
291.141	333.69
291.371	327.69
291.602	322.69
291.833	324.69
292.064	332.69
292.295	315.69
292.526	326.69
292.757	331.69
292.987	317.69
293.218	321.69
293.449	334.69
293.68	326.69
293.91	334.69
294.141	310.69
294.372	330.69
294.603	313.69
294.833	330.69
295.064	314.69
295.295	332.69
295.525	316.69
295.756	332.69
295.987	338.69
296.217	370.69
296.448	369.69
296.679	347.69
296.909	328.69
297.14	332.69
297.37	331.69
297.601	334.69
297.831	330.69
298.062	339.69
298.292	335.69
298.523	354.69
298.753	336.69
298.984	333.69
299.214	359.69
299.445	347.69
299.675	333.69
299.905	362.69
300.136	371.69
300.366	359.69
300.597	342.69
300.827	369.69
301.057	381.69
301.288	372.69
301.518	372.69
301.748	365.69
301.979	372.69
302.209	374.69
302.439	374.69
302.669	387.69
302.9	372.69
303.13	365.69
303.36	371.69
303.59	372.69
303.82	392.69
304.051	377.69
304.281	376.69
304.511	378.69
304.741	375.69
304.971	372.69
305.201	371.69
305.431	372.69
305.661	375.69
305.891	357.69
306.121	354.69
306.352	354.69
306.582	370.69
306.812	359.69
307.042	400.69
307.272	374.69
307.502	389.69
307.731	374.69
307.961	378.69
308.191	391.69
308.421	375.69
308.651	383.69
308.881	377.69
309.111	389.69
309.341	370.69
309.571	406.69
309.8	400.69
310.03	409.69
310.26	401.69
310.49	414.69
310.72	416.69
310.949	422.69
311.179	446.69
311.409	414.69
311.639	404.69
311.868	398.69
312.098	423.69
312.328	424.69
312.557	428.69
312.787	444.69
313.017	425.69
313.246	426.69
313.476	398.69
313.706	427.69
313.935	421.69
314.165	448.69
314.394	448.69
314.624	436.69
314.853	434.69
315.083	427.69
315.312	424.69
315.542	406.69
315.771	412.69
316.001	429.69
316.23	434.69
316.46	414.69
316.689	412.69
316.919	409.69
317.148	433.69
317.377	422.69
317.607	416.69
317.836	419.69
318.065	413.69
318.295	429.69
318.524	429.69
318.753	445.69
318.983	427.69
319.212	414.69
319.441	430.69
319.67	429.69
319.9	429.69
320.129	424.69
320.358	413.69
320.587	419.69
320.816	440.69
321.046	424.69
321.275	454.69
321.504	436.69
321.733	440.69
321.962	465.69
322.191	453.69
322.42	477.69
322.649	468.69
322.878	489.69
323.108	501.69
323.337	509.69
323.566	505.69
323.795	561.69
324.024	603.69
324.253	697.69
324.482	959.69
324.71	1406.69
324.939	2081.69
325.168	1744.69
325.397	935.69
325.626	652.69
325.855	562.69
326.084	538.69
326.313	520.69
326.542	544.69
326.77	578.69
326.999	662.69
327.228	898.69
327.457	1295.69
327.686	1527.69
327.914	1042.69
328.143	730.69
328.372	651.69
328.6	618.69
328.829	576.69
329.058	584.69
329.287	616.69
329.515	575.69
329.744	544.69
329.972	538.69
330.201	578.69
330.43	615.69
330.658	637.69
330.887	652.69
331.115	624.69
331.344	564.69
331.572	553.69
331.801	541.69
332.03	552.69
332.258	528.69
332.486	519.69
332.715	524.69
332.943	539.69
333.172	542.69
333.4	534.69
333.629	551.69
333.857	580.69
334.085	586.69
334.314	580.69
334.542	638.69
334.771	646.69
334.999	581.69
335.227	534.69
335.455	532.69
335.684	522.69
335.912	506.69
336.14	496.69
336.369	527.69
336.597	517.69
336.825	542.69
337.053	508.69
337.281	506.69
337.51	487.69
337.738	510.69
337.966	475.69
338.194	471.69
338.422	497.69
338.65	486.69
338.878	481.69
339.106	485.69
339.334	490.69
339.562	486.69
339.79	476.69
340.018	467.69
340.246	467.69
340.474	482.69
340.702	474.69
340.93	459.69
341.158	457.69
341.386	467.69
341.614	490.69
341.842	471.69
342.07	453.69
342.298	460.69
342.526	458.69
342.754	456.69
342.981	458.69
343.209	457.69
343.437	483.69
343.665	499.69
343.893	500.69
344.12	518.69
344.348	508.69
344.576	480.69
344.804	506.69
345.031	502.69
345.259	481.69
345.487	451.69
345.714	460.69
345.942	433.69
346.17	450.69
346.397	446.69
346.625	443.69
346.853	443.69
347.08	456.69
347.308	461.69
347.535	470.69
347.763	456.69
347.99	468.69
348.218	458.69
348.445	461.69
348.673	466.69
348.9	465.69
349.128	445.69
349.355	441.69
349.583	439.69
349.81	439.69
350.037	430.69
350.265	452.69
350.492	448.69
350.72	437.69
350.947	443.69
351.174	443.69
351.402	456.69
351.629	458.69
351.856	470.69
352.083	460.69
352.311	440.69
352.538	448.69
352.765	457.69
352.992	441.69
353.22	455.69
353.447	423.69
353.674	425.69
353.901	433.69
354.128	419.69
354.355	424.69
354.583	420.69
354.81	441.69
355.037	422.69
355.264	436.69
355.491	416.69
355.718	414.69
355.945	412.69
356.172	402.69
356.399	410.69
356.626	408.69
356.853	434.69
357.08	406.69
357.307	399.69
357.534	408.69
357.761	401.69
357.988	410.69
358.215	414.69
358.441	443.69
358.668	406.69
358.895	444.69
359.122	428.69
359.349	447.69
359.576	450.69
359.802	457.69
360.029	468.69
360.256	474.69
360.483	478.69
360.709	445.69
360.936	442.69
361.163	435.69
361.39	450.69
361.616	442.69
361.843	442.69
362.07	445.69
362.296	435.69
362.523	428.69
362.749	435.69
362.976	424.69
363.203	450.69
363.429	427.69
363.656	448.69
363.882	433.69
364.109	412.69
364.335	438.69
364.562	422.69
364.788	429.69
365.015	421.69
365.241	424.69
365.468	427.69
365.694	438.69
365.92	438.69
366.147	439.69
366.373	437.69
366.599	416.69
366.826	413.69
367.052	430.69
367.278	422.69
367.505	412.69
367.731	406.69
367.957	411.69
368.184	431.69
368.41	435.69
368.636	438.69
368.862	439.69
369.089	442.69
369.315	414.69
369.541	445.69
369.767	413.69
369.993	397.69
370.219	420.69
370.445	435.69
370.672	423.69
370.898	420.69
371.124	436.69
371.35	432.69
371.576	437.69
371.802	432.69
372.028	419.69
372.254	438.69
372.48	425.69
372.706	452.69
372.932	447.69
373.158	444.69
373.384	435.69
373.61	438.69
373.835	452.69
374.061	444.69
374.287	454.69
374.513	436.69
374.739	445.69
374.965	466.69
375.191	444.69
375.416	468.69
375.642	433.69
375.868	438.69
376.094	423.69
376.319	426.69
376.545	439.69
376.771	441.69
376.997	422.69
377.222	436.69
377.448	424.69
377.674	414.69
377.899	451.69
378.125	429.69
378.35	411.69
378.576	428.69
378.802	419.69
379.027	427.69
379.253	429.69
379.478	402.69
379.704	411.69
379.929	427.69
380.155	434.69
380.38	434.69
380.606	433.69
380.831	426.69
381.057	423.69
381.282	423.69
381.507	435.69
381.733	425.69
381.958	442.69
382.184	439.69
382.409	427.69
382.634	434.69
382.86	443.69
383.085	449.69
383.31	448.69
383.535	420.69
383.761	448.69
383.986	443.69
384.211	458.69
384.436	443.69
384.662	458.69
384.887	491.69
385.112	462.69
385.337	468.69
385.562	483.69
385.787	467.69
386.013	477.69
386.238	482.69
386.463	478.69
386.688	462.69
386.913	434.69
387.138	477.69
387.363	489.69
387.588	452.69
387.813	472.69
388.038	465.69
388.263	484.69
388.488	467.69
388.713	466.69
388.938	475.69
389.163	459.69
389.387	492.69
389.612	465.69
389.837	471.69
390.062	463.69
390.287	471.69
390.512	469.69
390.736	464.69
390.961	475.69
391.186	476.69
391.411	463.69
391.636	486.69
391.86	481.69
392.085	498.69
392.31	507.69
392.534	474.69
392.759	490.69
392.984	483.69
393.208	482.69
393.433	505.69
393.658	485.69
393.882	480.69
394.107	476.69
394.331	495.69
394.556	499.69
394.78	503.69
395.005	492.69
395.229	494.69
395.454	493.69
395.678	497.69
395.903	523.69
396.127	504.69
396.352	518.69
396.576	510.69
396.801	512.69
397.025	498.69
397.249	502.69
397.474	534.69
397.698	508.69
397.922	521.69
398.147	518.69
398.371	540.69
398.595	541.69
398.82	534.69
399.044	567.69
399.268	616.69
399.492	636.69
399.717	707.69
399.941	715.69
400.165	697.69
400.389	698.69
400.613	593.69
400.837	572.69
401.062	554.69
401.286	568.69
401.51	564.69
401.734	546.69
401.958	585.69
402.182	552.69
402.406	558.69
402.63	595.69
402.854	580.69
403.078	569.69
403.302	602.69
403.526	596.69
403.75	573.69
403.974	597.69
404.198	562.69
404.422	585.69
404.645	612.69
404.869	612.69
405.093	626.69
405.317	662.69
405.541	714.69
405.765	614.69
405.988	604.69
406.212	614.69
406.436	610.69
406.66	632.69
406.883	625.69
407.107	642.69
407.331	688.69
407.555	750.69
407.778	733.69
408.002	686.69
408.226	648.69
408.449	632.69
408.673	628.69
408.896	638.69
409.12	673.69
409.344	646.69
409.567	620.69
409.791	582.69
410.014	605.69
410.238	573.69
410.461	562.69
410.685	578.69
410.908	582.69
411.132	601.69
411.355	650.69
411.578	630.69
411.802	566.69
412.025	553.69
412.249	590.69
412.472	597.69
412.695	652.69
412.919	630.69
413.142	579.69
413.365	560.69
413.589	548.69
413.812	533.69
414.035	556.69
414.258	526.69
414.482	529.69
414.705	546.69
414.928	532.69
415.151	547.69
415.374	524.69
415.597	532.69
415.821	534.69
416.044	540.69
416.267	533.69
416.49	529.69
416.713	526.69
416.936	539.69
417.159	535.69
417.382	533.69
417.605	546.69
417.828	530.69
418.051	573.69
418.274	543.69
418.497	539.69
418.72	533.69
418.943	534.69
419.166	544.69
419.389	599.69
419.611	576.69
419.834	562.69
420.057	571.69
420.28	581.69
420.503	564.69
420.726	557.69
420.948	579.69
421.171	605.69
421.394	619.69
421.617	559.69
421.839	540.69
422.062	544.69
422.285	557.69
422.507	610.69
422.73	674.69
422.953	651.69
423.175	617.69
423.398	569.69
423.621	582.69
423.843	602.69
424.066	569.69
424.288	588.69
424.511	576.69
424.733	648.69
424.956	742.69
425.178	708.69
425.401	669.69
425.623	706.69
425.846	604.69
426.068	593.69
426.291	595.69
426.513	565.69
426.735	555.69
426.958	630.69
427.18	699.69
427.402	845.69
427.625	881.69
427.847	750.69
428.069	678.69
428.292	609.69
428.514	558.69
428.736	546.69
428.958	530.69
429.181	531.69
429.403	537.69
429.625	551.69
429.847	565.69
430.069	626.69
430.292	645.69
430.514	549.69
430.736	532.69
430.958	521.69
431.18	503.69
431.402	522.69
431.624	492.69
431.846	500.69
432.068	520.69
432.29	502.69
432.512	498.69
432.734	514.69
432.956	505.69
433.178	498.69
433.4	525.69
433.622	497.69
433.844	514.69
434.066	509.69
434.287	499.69
434.509	500.69
434.731	531.69
434.953	563.69
435.175	553.69
435.397	570.69
435.618	572.69
435.84	607.69
436.062	688.69
436.284	740.69
436.505	629.69
436.727	556.69
436.949	538.69
437.17	540.69
437.392	527.69
437.614	540.69
437.835	560.69
438.057	670.69
438.278	740.69
438.5	712.69
438.721	812.69
438.943	773.69
439.165	622.69
439.386	581.69
439.608	576.69
439.829	566.69
440.05	597.69
440.272	635.69
440.493	595.69
440.715	568.69
440.936	544.69
441.158	550.69
441.379	548.69
441.6	577.69
441.822	564.69
442.043	578.69
442.264	712.69
442.486	700.69
442.707	605.69
442.928	601.69
443.149	609.69
443.371	608.69
443.592	640.69
443.813	756.69
444.034	804.69
444.255	652.69
444.476	641.69
444.698	619.69
444.919	592.69
445.14	728.69
445.361	654.69
445.582	640.69
445.803	664.69
446.024	768.69
446.245	762.69
446.466	679.69
446.687	594.69
446.908	556.69
447.129	529.69
447.35	528.69
447.571	507.69
447.792	512.69
448.013	529.69
448.234	547.69
448.455	591.69
448.675	659.69
448.896	804.69
449.117	663.69
449.338	632.69
449.559	748.69
449.779	831.69
450	652.69
450.221	553.69
450.442	526.69
450.662	497.69
450.883	526.69
451.104	533.69
451.324	523.69
451.545	490.69
451.766	488.69
451.986	469.69
452.207	463.69
452.428	439.69
452.648	458.69
452.869	466.69
453.089	474.69
453.31	486.69
453.53	504.69
453.751	465.69
453.971	460.69
454.192	468.69
454.412	490.69
454.633	457.69
454.853	470.69
455.073	462.69
455.294	480.69
455.514	539.69
455.734	518.69
455.955	475.69
456.175	458.69
456.395	457.69
456.616	458.69
456.836	461.69
457.056	447.69
457.276	427.69
457.497	476.69
457.717	435.69
457.937	489.69
458.157	435.69
458.377	472.69
458.598	489.69
458.818	547.69
459.038	579.69
459.258	628.69
459.478	546.69
459.698	507.69
459.918	545.69
460.138	544.69
460.358	542.69
460.578	533.69
460.798	540.69
461.018	522.69
461.238	542.69
461.458	543.69
461.678	514.69
461.898	529.69
462.118	534.69
462.338	566.69
462.558	559.69
462.777	576.69
462.997	577.69
463.217	616.69
463.437	615.69
463.657	612.69
463.876	578.69
464.096	585.69
464.316	598.69
464.536	610.69
464.755	602.69
464.975	601.69
465.195	617.69
465.414	669.69
465.634	583.69
465.854	548.69
466.073	534.69
466.293	509.69
466.512	505.69
466.732	469.69
466.951	474.69
467.171	479.69
467.391	483.69
467.61	516.69
467.829	517.69
468.049	512.69
468.268	497.69
468.488	483.69
468.707	460.69
468.927	483.69
469.146	469.69
469.365	499.69
469.585	472.69
469.804	489.69
470.023	500.69
470.243	502.69
470.462	500.69
470.681	523.69
470.901	522.69
471.12	492.69
471.339	484.69
471.558	505.69
471.777	508.69
471.997	467.69
472.216	499.69
472.435	530.69
472.654	506.69
472.873	489.69
473.092	464.69
473.311	470.69
473.53	492.69
473.749	514.69
473.968	527.69
474.187	621.69
474.406	634.69
474.625	512.69
474.844	502.69
475.063	494.69
475.282	485.69
475.501	480.69
475.72	521.69
475.939	522.69
476.158	491.69
476.377	514.69
476.596	512.69
476.814	520.69
477.033	514.69
477.252	501.69
477.471	497.69
477.69	540.69
477.908	522.69
478.127	550.69
478.346	549.69
478.564	563.69
478.783	578.69
479.002	554.69
479.22	573.69
479.439	572.69
479.658	589.69
479.876	594.69
480.095	590.69
480.313	635.69
480.532	626.69
480.751	611.69
480.969	601.69
481.188	651.69
481.406	718.69
481.624	655.69
481.843	612.69
482.061	581.69
482.28	550.69
482.498	564.69
482.717	590.69
482.935	588.69
483.153	580.69
483.372	571.69
483.59	565.69
483.808	556.69
484.027	550.69
484.245	574.69
484.463	566.69
484.681	587.69
484.9	612.69
485.118	584.69
485.336	601.69
485.554	580.69
485.772	588.69
485.99	576.69
486.209	598.69
486.427	618.69
486.645	601.69
486.863	610.69
487.081	611.69
487.299	610.69
487.517	598.69
487.735	600.69
487.953	605.69
488.171	596.69
488.389	600.69
488.607	618.69
488.825	635.69
489.043	610.69
489.261	632.69
489.479	590.69
489.696	626.69
489.914	624.69
490.132	632.69
490.35	644.69
490.568	628.69
490.786	666.69
491.003	640.69
491.221	681.69
491.439	672.69
491.657	692.69
491.874	686.69
492.092	697.69
492.31	703.69
492.527	715.69
492.745	698.69
492.963	712.69
493.18	708.69
493.398	740.69
493.615	753.69
493.833	700.69
494.05	721.69
494.268	713.69
494.485	708.69
494.703	733.69
494.92	692.69
495.138	710.69
495.355	706.69
495.573	712.69
495.79	737.69
496.008	729.69
496.225	716.69
496.442	714.69
496.66	716.69
496.877	706.69
497.094	756.69
497.312	738.69
497.529	730.69
497.746	779.69
497.963	790.69
498.181	794.69
498.398	832.69
498.615	822.69
498.832	857.69
499.049	907.69
499.267	898.69
499.484	936.69
499.701	987.69
499.918	1043.69
500.135	1133.69
500.352	1175.69
500.569	1216.69
500.786	1224.69
501.003	1180.69
501.22	1106.69
501.437	1068.69
501.654	1029.69
501.871	987.69
