Data from 1985.PennyLincolnUp.Lamp.En5.5.200Scan.071819.P1_HRD10591_17-02-00-969.txt Node
Date: Thu Jul 18 17:02:00 EDT 2019
User: cochatt
Spectrometer: HR+D1059
Trigger mode: 1
Integration Time (sec): 1.000000E-1
Scans to average: 1
Electric dark correction enabled: true
Nonlinearity correction enabled: false
Boxcar width: 0
XAxis mode: Wavelengths
Number of Pixels in Spectrum: 2048
>>>>>Begin Spectral Data<<<<<
223.165	3.44
223.4	3.44
223.635	3.44
223.869	-7.56
224.104	-21.56
224.338	-12.56
224.573	-16.56
224.808	-29.56
225.042	-14.56
225.277	11.44
225.511	-10.56
225.746	-8.56
225.98	3.44
226.215	12.44
226.449	3.44
226.683	31.44
226.918	26.44
227.152	29.44
227.387	32.44
227.621	36.44
227.856	52.44
228.09	41.44
228.324	54.44
228.559	55.44
228.793	71.44
229.027	86.44
229.262	88.44
229.496	101.44
229.73	119.44
229.964	127.44
230.199	118.44
230.433	104.44
230.667	95.44
230.901	105.44
231.136	101.44
231.37	99.44
231.604	109.44
231.838	116.44
232.072	109.44
232.306	116.44
232.541	117.44
232.775	116.44
233.009	115.44
233.243	109.44
233.477	100.44
233.711	126.44
233.945	100.44
234.179	117.44
234.413	104.44
234.647	122.44
234.881	119.44
235.115	131.44
235.349	109.44
235.583	121.44
235.817	112.44
236.051	128.44
236.285	123.44
236.519	127.44
236.753	123.44
236.987	148.44
237.221	175.44
237.455	209.44
237.689	157.44
237.922	127.44
238.156	121.44
238.39	140.44
238.624	128.44
238.858	116.44
239.091	111.44
239.325	121.44
239.559	129.44
239.793	127.44
240.027	135.44
240.26	155.44
240.494	142.44
240.728	133.44
240.961	140.44
241.195	153.44
241.429	140.44
241.662	123.44
241.896	141.44
242.13	119.44
242.363	141.44
242.597	140.44
242.83	128.44
243.064	148.44
243.298	129.44
243.531	145.44
243.765	141.44
243.998	143.44
244.232	137.44
244.465	128.44
244.699	147.44
244.932	149.44
245.166	137.44
245.399	154.44
245.633	147.44
245.866	136.44
246.099	142.44
246.333	155.44
246.566	145.44
246.8	141.44
247.033	152.44
247.266	149.44
247.5	162.44
247.733	169.44
247.966	172.44
248.2	157.44
248.433	166.44
248.666	175.44
248.899	163.44
249.133	172.44
249.366	204.44
249.599	188.44
249.832	181.44
250.066	194.44
250.299	179.44
250.532	187.44
250.765	192.44
250.998	201.44
251.231	196.44
251.465	201.44
251.698	199.44
251.931	183.44
252.164	188.44
252.397	185.44
252.63	196.44
252.863	186.44
253.096	200.44
253.329	218.44
253.562	205.44
253.795	211.44
254.028	205.44
254.261	205.44
254.494	210.44
254.727	245.44
254.96	256.44
255.193	249.44
255.426	216.44
255.659	188.44
255.892	209.44
256.124	213.44
256.357	222.44
256.59	202.44
256.823	213.44
257.056	200.44
257.289	197.44
257.521	194.44
257.754	188.44
257.987	196.44
258.22	194.44
258.452	210.44
258.685	203.44
258.918	187.44
259.151	205.44
259.383	219.44
259.616	219.44
259.849	219.44
260.081	236.44
260.314	264.44
260.547	243.44
260.779	211.44
261.012	227.44
261.244	214.44
261.477	225.44
261.71	226.44
261.942	225.44
262.175	220.44
262.407	232.44
262.64	227.44
262.872	218.44
263.105	205.44
263.337	209.44
263.57	232.44
263.802	219.44
264.035	214.44
264.267	202.44
264.499	215.44
264.732	224.44
264.964	226.44
265.197	213.44
265.429	216.44
265.661	205.44
265.894	208.44
266.126	219.44
266.358	218.44
266.591	212.44
266.823	237.44
267.055	236.44
267.287	232.44
267.52	236.44
267.752	231.44
267.984	241.44
268.216	233.44
268.448	228.44
268.681	218.44
268.913	245.44
269.145	272.44
269.377	267.44
269.609	265.44
269.841	272.44
270.073	269.44
270.306	287.44
270.538	308.44
270.77	310.44
271.002	300.44
271.234	297.44
271.466	295.44
271.698	315.44
271.93	303.44
272.162	312.44
272.394	304.44
272.626	299.44
272.858	283.44
273.09	289.44
273.322	281.44
273.553	287.44
273.785	269.44
274.017	249.44
274.249	270.44
274.481	285.44
274.713	259.44
274.945	265.44
275.176	264.44
275.408	261.44
275.64	275.44
275.872	267.44
276.104	273.44
276.335	267.44
276.567	249.44
276.799	293.44
277.031	309.44
277.262	307.44
277.494	309.44
277.726	313.44
277.957	299.44
278.189	285.44
278.421	299.44
278.652	265.44
278.884	280.44
279.115	249.44
279.347	264.44
279.579	288.44
279.81	287.44
280.042	277.44
280.273	288.44
280.505	279.44
280.736	245.44
280.968	296.44
281.199	263.44
281.431	282.44
281.662	268.44
281.894	272.44
282.125	295.44
282.356	295.44
282.588	332.44
282.819	299.44
283.051	297.44
283.282	298.44
283.513	288.44
283.745	286.44
283.976	289.44
284.207	293.44
284.439	293.44
284.67	288.44
284.901	294.44
285.132	300.44
285.364	287.44
285.595	291.44
285.826	301.44
286.057	293.44
286.288	309.44
286.52	285.44
286.751	296.44
286.982	304.44
287.213	283.44
287.444	303.44
287.675	312.44
287.906	321.44
288.138	297.44
288.369	317.44
288.6	323.44
288.831	324.44
289.062	314.44
289.293	315.44
289.524	319.44
289.755	329.44
289.986	310.44
290.217	306.44
290.448	328.44
290.679	306.44
290.91	301.44
291.141	307.44
291.371	305.44
291.602	319.44
291.833	299.44
292.064	328.44
292.295	325.44
292.526	307.44
292.757	317.44
292.987	317.44
293.218	320.44
293.449	312.44
293.68	326.44
293.91	312.44
294.141	304.44
294.372	324.44
294.603	337.44
294.833	329.44
295.064	333.44
295.295	315.44
295.525	314.44
295.756	310.44
295.987	328.44
296.217	344.44
296.448	347.44
296.679	340.44
296.909	309.44
297.14	337.44
297.37	313.44
297.601	314.44
297.831	294.44
298.062	330.44
298.292	322.44
298.523	329.44
298.753	326.44
298.984	343.44
299.214	331.44
299.445	343.44
299.675	339.44
299.905	324.44
300.136	331.44
300.366	333.44
300.597	331.44
300.827	349.44
301.057	340.44
301.288	342.44
301.518	349.44
301.748	354.44
301.979	351.44
302.209	352.44
302.439	365.44
302.669	361.44
302.9	347.44
303.13	357.44
303.36	364.44
303.59	361.44
303.82	371.44
304.051	354.44
304.281	364.44
304.511	325.44
304.741	360.44
304.971	351.44
305.201	369.44
305.431	353.44
305.661	369.44
305.891	346.44
306.121	361.44
306.352	354.44
306.582	353.44
306.812	362.44
307.042	356.44
307.272	357.44
307.502	324.44
307.731	358.44
307.961	363.44
308.191	355.44
308.421	372.44
308.651	364.44
308.881	368.44
309.111	383.44
309.341	356.44
309.571	371.44
309.8	377.44
310.03	413.44
310.26	380.44
310.49	385.44
310.72	404.44
310.949	397.44
311.179	417.44
311.409	411.44
311.639	398.44
311.868	378.44
312.098	411.44
312.328	396.44
312.557	420.44
312.787	409.44
313.017	438.44
313.246	404.44
313.476	410.44
313.706	379.44
313.935	423.44
314.165	409.44
314.394	414.44
314.624	421.44
314.853	409.44
315.083	402.44
315.312	415.44
315.542	399.44
315.771	392.44
316.001	401.44
316.23	401.44
316.46	397.44
316.689	395.44
316.919	435.44
317.148	425.44
317.377	433.44
317.607	419.44
317.836	405.44
318.065	412.44
318.295	402.44
318.524	396.44
318.753	391.44
318.983	420.44
319.212	405.44
319.441	412.44
319.67	414.44
319.9	411.44
320.129	406.44
320.358	411.44
320.587	413.44
320.816	401.44
321.046	415.44
321.275	404.44
321.504	409.44
321.733	406.44
321.962	429.44
322.191	429.44
322.42	427.44
322.649	445.44
322.878	480.44
323.108	477.44
323.337	483.44
323.566	500.44
323.795	519.44
324.024	563.44
324.253	635.44
324.482	894.44
324.71	1277.44
324.939	1855.44
325.168	1568.44
325.397	849.44
325.626	614.44
325.855	541.44
326.084	526.44
326.313	499.44
326.542	495.44
326.77	521.44
326.999	624.44
327.228	787.44
327.457	1185.44
327.686	1365.44
327.914	967.44
328.143	657.44
328.372	591.44
328.6	572.44
328.829	527.44
329.058	552.44
329.287	553.44
329.515	519.44
329.744	483.44
329.972	478.44
330.201	492.44
330.43	513.44
330.658	561.44
330.887	586.44
331.115	604.44
331.344	524.44
331.572	521.44
331.801	503.44
332.03	480.44
332.258	492.44
332.486	472.44
332.715	477.44
332.943	488.44
333.172	502.44
333.4	487.44
333.629	507.44
333.857	526.44
334.085	524.44
334.314	521.44
334.542	507.44
334.771	498.44
334.999	506.44
335.227	522.44
335.455	513.44
335.684	482.44
335.912	483.44
336.14	482.44
336.369	463.44
336.597	487.44
336.825	482.44
337.053	477.44
337.281	479.44
337.51	453.44
337.738	484.44
337.966	460.44
338.194	481.44
338.422	464.44
338.65	481.44
338.878	456.44
339.106	460.44
339.334	456.44
339.562	456.44
339.79	459.44
340.018	471.44
340.246	444.44
340.474	455.44
340.702	452.44
340.93	457.44
341.158	459.44
341.386	447.44
341.614	458.44
341.842	457.44
342.07	478.44
342.298	458.44
342.526	453.44
342.754	451.44
342.981	425.44
343.209	433.44
343.437	447.44
343.665	450.44
343.893	471.44
344.12	517.44
344.348	462.44
344.576	476.44
344.804	475.44
345.031	479.44
345.259	506.44
345.487	477.44
345.714	445.44
345.942	427.44
346.17	435.44
346.397	422.44
346.625	437.44
346.853	441.44
347.08	436.44
347.308	421.44
347.535	439.44
347.763	440.44
347.99	420.44
348.218	437.44
348.445	439.44
348.673	433.44
348.9	436.44
349.128	447.44
349.355	429.44
349.583	425.44
349.81	421.44
350.037	433.44
350.265	424.44
350.492	426.44
350.72	415.44
350.947	412.44
351.174	418.44
351.402	437.44
351.629	426.44
351.856	426.44
352.083	421.44
352.311	419.44
352.538	451.44
352.765	444.44
352.992	433.44
353.22	456.44
353.447	448.44
353.674	437.44
353.901	402.44
354.128	409.44
354.355	398.44
354.583	419.44
354.81	415.44
355.037	423.44
355.264	398.44
355.491	406.44
355.718	412.44
355.945	418.44
356.172	402.44
356.399	386.44
356.626	404.44
356.853	403.44
357.08	387.44
357.307	424.44
357.534	387.44
357.761	413.44
357.988	416.44
358.215	409.44
358.441	409.44
358.668	417.44
358.895	407.44
359.122	424.44
359.349	431.44
359.576	427.44
359.802	425.44
360.029	457.44
360.256	469.44
360.483	466.44
360.709	437.44
360.936	421.44
361.163	425.44
361.39	420.44
361.616	428.44
361.843	413.44
362.07	417.44
362.296	406.44
362.523	421.44
362.749	413.44
362.976	402.44
363.203	432.44
363.429	381.44
363.656	410.44
363.882	421.44
364.109	424.44
364.335	409.44
364.562	417.44
364.788	432.44
365.015	433.44
365.241	408.44
365.468	407.44
365.694	419.44
365.92	424.44
366.147	411.44
366.373	417.44
366.599	402.44
366.826	407.44
367.052	417.44
367.278	409.44
367.505	383.44
367.731	412.44
367.957	421.44
368.184	411.44
368.41	417.44
368.636	422.44
368.862	440.44
369.089	417.44
369.315	426.44
369.541	425.44
369.767	416.44
369.993	404.44
370.219	408.44
370.445	414.44
370.672	407.44
370.898	399.44
371.124	401.44
371.35	402.44
371.576	409.44
371.802	420.44
372.028	401.44
372.254	411.44
372.48	415.44
372.706	429.44
372.932	419.44
373.158	419.44
373.384	424.44
373.61	428.44
373.835	435.44
374.061	443.44
374.287	404.44
374.513	413.44
374.739	426.44
374.965	442.44
375.191	412.44
375.416	423.44
375.642	423.44
375.868	416.44
376.094	418.44
376.319	412.44
376.545	408.44
376.771	415.44
376.997	415.44
377.222	418.44
377.448	414.44
377.674	407.44
377.899	387.44
378.125	432.44
378.35	415.44
378.576	391.44
378.802	408.44
379.027	397.44
379.253	407.44
379.478	406.44
379.704	402.44
379.929	409.44
380.155	426.44
380.38	412.44
380.606	412.44
380.831	410.44
381.057	407.44
381.282	415.44
381.507	402.44
381.733	406.44
381.958	414.44
382.184	425.44
382.409	411.44
382.634	422.44
382.86	429.44
383.085	416.44
383.31	443.44
383.535	441.44
383.761	452.44
383.986	428.44
384.211	438.44
384.436	444.44
384.662	451.44
384.887	468.44
385.112	444.44
385.337	449.44
385.562	428.44
385.787	450.44
386.013	486.44
386.238	471.44
386.463	464.44
386.688	463.44
386.913	450.44
387.138	452.44
387.363	440.44
387.588	448.44
387.813	460.44
388.038	455.44
388.263	444.44
388.488	452.44
388.713	472.44
388.938	455.44
389.163	476.44
389.387	483.44
389.612	465.44
389.837	467.44
390.062	432.44
390.287	466.44
390.512	441.44
390.736	452.44
390.961	470.44
391.186	482.44
391.411	461.44
391.636	469.44
391.86	489.44
392.085	473.44
392.31	484.44
392.534	475.44
392.759	458.44
392.984	456.44
393.208	471.44
393.433	473.44
393.658	437.44
393.882	455.44
394.107	481.44
394.331	479.44
394.556	457.44
394.78	455.44
395.005	462.44
395.229	467.44
395.454	471.44
395.678	498.44
395.903	476.44
396.127	503.44
396.352	489.44
396.576	476.44
396.801	491.44
397.025	482.44
397.249	473.44
397.474	495.44
397.698	491.44
397.922	511.44
398.147	525.44
398.371	509.44
398.595	532.44
398.82	541.44
399.044	552.44
399.268	587.44
399.492	631.44
399.717	668.44
399.941	665.44
400.165	658.44
400.389	679.44
400.613	609.44
400.837	578.44
401.062	560.44
401.286	563.44
401.51	553.44
401.734	539.44
401.958	526.44
402.182	537.44
402.406	553.44
402.63	551.44
402.854	553.44
403.078	577.44
403.302	563.44
403.526	585.44
403.75	551.44
403.974	560.44
404.198	563.44
404.422	563.44
404.645	555.44
404.869	559.44
405.093	593.44
405.317	605.44
405.541	592.44
405.765	588.44
405.988	570.44
406.212	586.44
406.436	608.44
406.66	619.44
406.883	618.44
407.107	643.44
407.331	657.44
407.555	722.44
407.778	695.44
408.002	649.44
408.226	623.44
408.449	625.44
408.673	587.44
408.896	611.44
409.12	675.44
409.344	632.44
409.567	573.44
409.791	580.44
410.014	578.44
410.238	537.44
410.461	541.44
410.685	557.44
410.908	561.44
411.132	549.44
411.355	575.44
411.578	590.44
411.802	580.44
412.025	547.44
412.249	529.44
412.472	552.44
412.695	537.44
412.919	544.44
413.142	508.44
413.365	542.44
413.589	523.44
413.812	508.44
414.035	526.44
414.258	511.44
414.482	514.44
414.705	505.44
414.928	526.44
415.151	531.44
415.374	530.44
415.597	499.44
415.821	509.44
416.044	530.44
416.267	519.44
416.49	504.44
416.713	505.44
416.936	531.44
417.159	502.44
417.382	530.44
417.605	510.44
417.828	515.44
418.051	532.44
418.274	514.44
418.497	542.44
418.72	503.44
418.943	490.44
419.166	524.44
419.389	551.44
419.611	564.44
419.834	549.44
420.057	540.44
420.28	528.44
420.503	490.44
420.726	527.44
420.948	533.44
421.171	573.44
421.394	588.44
421.617	527.44
421.839	536.44
422.062	546.44
422.285	546.44
422.507	602.44
422.73	649.44
422.953	603.44
423.175	568.44
423.398	563.44
423.621	553.44
423.843	572.44
424.066	565.44
424.288	571.44
424.511	586.44
424.733	634.44
424.956	691.44
425.178	666.44
425.401	649.44
425.623	667.44
425.846	589.44
426.068	561.44
426.291	557.44
426.513	540.44
426.735	559.44
426.958	586.44
427.18	644.44
427.402	774.44
427.625	856.44
427.847	713.44
428.069	624.44
428.292	535.44
428.514	532.44
428.736	545.44
428.958	536.44
429.181	495.44
429.403	496.44
429.625	505.44
429.847	533.44
430.069	609.44
430.292	591.44
430.514	511.44
430.736	520.44
430.958	519.44
431.18	476.44
431.402	473.44
431.624	469.44
431.846	485.44
432.068	489.44
432.29	487.44
432.512	503.44
432.734	521.44
432.956	499.44
433.178	483.44
433.4	507.44
433.622	507.44
433.844	509.44
434.066	495.44
434.287	517.44
434.509	515.44
434.731	505.44
434.953	519.44
435.175	516.44
435.397	546.44
435.618	544.44
435.84	595.44
436.062	659.44
436.284	711.44
436.505	593.44
436.727	555.44
436.949	539.44
437.17	516.44
437.392	508.44
437.614	504.44
437.835	553.44
438.057	630.44
438.278	676.44
438.5	690.44
438.721	759.44
438.943	728.44
439.165	601.44
439.386	553.44
439.608	537.44
439.829	532.44
440.05	562.44
440.272	605.44
440.493	547.44
440.715	531.44
440.936	522.44
441.158	516.44
441.379	532.44
441.6	544.44
441.822	557.44
442.043	593.44
442.264	669.44
442.486	699.44
442.707	597.44
442.928	546.44
443.149	551.44
443.371	606.44
443.592	618.44
443.813	711.44
444.034	740.44
444.255	645.44
444.476	592.44
444.698	581.44
444.919	586.44
445.14	697.44
445.361	624.44
445.582	589.44
445.803	621.44
446.024	705.44
446.245	701.44
446.466	639.44
446.687	583.44
446.908	551.44
447.129	521.44
447.35	490.44
447.571	500.44
447.792	514.44
448.013	529.44
448.234	505.44
448.455	558.44
448.675	651.44
448.896	727.44
449.117	608.44
449.338	601.44
449.559	671.44
449.779	812.44
450	630.44
450.221	530.44
450.442	506.44
450.662	488.44
450.883	505.44
451.104	505.44
451.324	481.44
451.545	465.44
451.766	460.44
451.986	437.44
452.207	445.44
452.428	471.44
452.648	458.44
452.869	437.44
453.089	472.44
453.31	470.44
453.53	449.44
453.751	479.44
453.971	462.44
454.192	477.44
454.412	452.44
454.633	447.44
454.853	450.44
455.073	441.44
455.294	466.44
455.514	536.44
455.734	501.44
455.955	464.44
456.175	422.44
456.395	436.44
456.616	415.44
456.836	436.44
457.056	411.44
457.276	419.44
457.497	441.44
457.717	426.44
457.937	443.44
458.157	442.44
458.377	454.44
458.598	460.44
458.818	513.44
459.038	594.44
459.258	593.44
459.478	521.44
459.698	517.44
459.918	492.44
460.138	499.44
460.358	519.44
460.578	529.44
460.798	527.44
461.018	505.44
461.238	528.44
461.458	522.44
461.678	504.44
461.898	544.44
462.118	521.44
462.338	544.44
462.558	562.44
462.777	543.44
462.997	571.44
463.217	618.44
463.437	611.44
463.657	576.44
463.876	559.44
464.096	571.44
464.316	565.44
464.536	584.44
464.755	582.44
464.975	566.44
465.195	589.44
465.414	647.44
465.634	552.44
465.854	509.44
466.073	497.44
466.293	506.44
466.512	467.44
466.732	480.44
466.951	493.44
467.171	464.44
467.391	453.44
467.61	470.44
467.829	484.44
468.049	472.44
468.268	468.44
468.488	441.44
468.707	459.44
468.927	450.44
469.146	461.44
469.365	453.44
469.585	460.44
469.804	472.44
470.023	483.44
470.243	464.44
470.462	476.44
470.681	493.44
470.901	490.44
471.12	490.44
471.339	481.44
471.558	492.44
471.777	474.44
471.997	467.44
472.216	461.44
472.435	461.44
472.654	455.44
472.873	452.44
473.092	459.44
473.311	454.44
473.53	466.44
473.749	460.44
473.968	501.44
474.187	603.44
474.406	595.44
474.625	506.44
474.844	480.44
475.063	502.44
475.282	446.44
475.501	464.44
475.72	487.44
475.939	479.44
476.158	467.44
476.377	468.44
476.596	490.44
476.814	501.44
477.033	498.44
477.252	497.44
477.471	514.44
477.69	495.44
477.908	504.44
478.127	522.44
478.346	544.44
478.564	539.44
478.783	540.44
479.002	552.44
479.22	552.44
479.439	556.44
479.658	553.44
479.876	581.44
480.095	570.44
480.313	578.44
480.532	583.44
480.751	596.44
480.969	585.44
481.188	589.44
481.406	589.44
481.624	569.44
481.843	573.44
482.061	574.44
482.28	532.44
482.498	533.44
482.717	535.44
482.935	547.44
483.153	551.44
483.372	533.44
483.59	541.44
483.808	546.44
484.027	559.44
484.245	553.44
484.463	552.44
484.681	552.44
484.9	562.44
485.118	541.44
485.336	551.44
485.554	559.44
485.772	552.44
485.99	549.44
486.209	558.44
486.427	559.44
486.645	568.44
486.863	569.44
487.081	580.44
487.299	603.44
487.517	588.44
487.735	563.44
487.953	578.44
488.171	589.44
488.389	564.44
488.607	565.44
488.825	580.44
489.043	587.44
489.261	600.44
489.479	580.44
489.696	606.44
489.914	576.44
490.132	596.44
490.35	591.44
490.568	587.44
490.786	586.44
491.003	611.44
491.221	616.44
491.439	629.44
491.657	618.44
491.874	647.44
492.092	648.44
492.31	653.44
492.527	650.44
492.745	649.44
492.963	650.44
493.18	681.44
493.398	663.44
493.615	676.44
493.833	673.44
494.05	657.44
494.268	675.44
494.485	693.44
494.703	652.44
494.92	663.44
495.138	682.44
495.355	679.44
495.573	672.44
495.79	671.44
496.008	659.44
496.225	676.44
496.442	685.44
496.66	657.44
496.877	715.44
497.094	701.44
497.312	689.44
497.529	701.44
497.746	752.44
497.963	758.44
498.181	791.44
498.398	791.44
498.615	793.44
498.832	838.44
499.049	851.44
499.267	876.44
499.484	898.44
499.701	979.44
499.918	1033.44
500.135	1100.44
500.352	1152.44
500.569	1196.44
500.786	1179.44
501.003	1162.44
501.22	1100.44
501.437	1015.44
501.654	994.44
501.871	950.44
