Data from 1985.PennyLincolnUp.Lamp.En5.5.200Scan.071819.P1_HRD10591_17-01-26-969.txt Node
Date: Thu Jul 18 17:01:26 EDT 2019
User: cochatt
Spectrometer: HR+D1059
Trigger mode: 1
Integration Time (sec): 1.000000E-1
Scans to average: 1
Electric dark correction enabled: true
Nonlinearity correction enabled: false
Boxcar width: 0
XAxis mode: Wavelengths
Number of Pixels in Spectrum: 2048
>>>>>Begin Spectral Data<<<<<
223.165	-12.69
223.4	-12.69
223.635	-12.69
223.869	-3.69
224.104	-8.69
224.338	-10.69
224.573	-27.69
224.808	-17.69
225.042	-8.69
225.277	-7.69
225.511	6.31
225.746	-6.69
225.98	-7.69
226.215	12.31
226.449	14.31
226.683	20.31
226.918	29.31
227.152	29.31
227.387	42.31
227.621	21.31
227.856	46.31
228.09	51.31
228.324	74.31
228.559	59.31
228.793	70.31
229.027	77.31
229.262	97.31
229.496	107.31
229.73	127.31
229.964	129.31
230.199	125.31
230.433	115.31
230.667	88.31
230.901	91.31
231.136	98.31
231.37	106.31
231.604	106.31
231.838	107.31
232.072	103.31
232.306	107.31
232.541	105.31
232.775	110.31
233.009	115.31
233.243	125.31
233.477	106.31
233.711	123.31
233.945	105.31
234.179	115.31
234.413	115.31
234.647	119.31
234.881	116.31
235.115	119.31
235.349	119.31
235.583	97.31
235.817	101.31
236.051	117.31
236.285	122.31
236.519	121.31
236.753	113.31
236.987	129.31
237.221	158.31
237.455	201.31
237.689	157.31
237.922	122.31
238.156	123.31
238.39	130.31
238.624	120.31
238.858	117.31
239.091	110.31
239.325	115.31
239.559	113.31
239.793	115.31
240.027	132.31
240.26	134.31
240.494	149.31
240.728	153.31
240.961	143.31
241.195	123.31
241.429	120.31
241.662	138.31
241.896	131.31
242.13	136.31
242.363	123.31
242.597	134.31
242.83	147.31
243.064	133.31
243.298	137.31
243.531	135.31
243.765	141.31
243.998	120.31
244.232	142.31
244.465	139.31
244.699	127.31
244.932	136.31
245.166	145.31
245.399	133.31
245.633	142.31
245.866	125.31
246.099	142.31
246.333	141.31
246.566	155.31
246.8	129.31
247.033	145.31
247.266	137.31
247.5	144.31
247.733	169.31
247.966	149.31
248.2	172.31
248.433	162.31
248.666	155.31
248.899	172.31
249.133	167.31
249.366	188.31
249.599	177.31
249.832	166.31
250.066	167.31
250.299	162.31
250.532	166.31
250.765	189.31
250.998	207.31
251.231	221.31
251.465	191.31
251.698	176.31
251.931	192.31
252.164	196.31
252.397	199.31
252.63	187.31
252.863	184.31
253.096	200.31
253.329	193.31
253.562	206.31
253.795	222.31
254.028	199.31
254.261	180.31
254.494	205.31
254.727	234.31
254.96	229.31
255.193	236.31
255.426	228.31
255.659	200.31
255.892	201.31
256.124	193.31
256.357	194.31
256.59	185.31
256.823	185.31
257.056	207.31
257.289	215.31
257.521	189.31
257.754	205.31
257.987	200.31
258.22	206.31
258.452	192.31
258.685	189.31
258.918	198.31
259.151	210.31
259.383	207.31
259.616	215.31
259.849	227.31
260.081	202.31
260.314	219.31
260.547	234.31
260.779	225.31
261.012	231.31
261.244	219.31
261.477	205.31
261.71	207.31
261.942	215.31
262.175	218.31
262.407	216.31
262.64	194.31
262.872	197.31
263.105	200.31
263.337	209.31
263.57	222.31
263.802	217.31
264.035	215.31
264.267	220.31
264.499	203.31
264.732	193.31
264.964	210.31
265.197	211.31
265.429	221.31
265.661	209.31
265.894	222.31
266.126	223.31
266.358	220.31
266.591	220.31
266.823	240.31
267.055	237.31
267.287	225.31
267.52	197.31
267.752	199.31
267.984	232.31
268.216	227.31
268.448	233.31
268.681	227.31
268.913	229.31
269.145	245.31
269.377	270.31
269.609	236.31
269.841	265.31
270.073	265.31
270.306	281.31
270.538	291.31
270.77	291.31
271.002	279.31
271.234	266.31
271.466	272.31
271.698	281.31
271.93	292.31
272.162	300.31
272.394	285.31
272.626	268.31
272.858	266.31
273.09	289.31
273.322	262.31
273.553	257.31
273.785	270.31
274.017	245.31
274.249	261.31
274.481	259.31
274.713	265.31
274.945	270.31
275.176	275.31
275.408	261.31
275.64	263.31
275.872	264.31
276.104	243.31
276.335	271.31
276.567	274.31
276.799	295.31
277.031	301.31
277.262	311.31
277.494	298.31
277.726	284.31
277.957	275.31
278.189	287.31
278.421	274.31
278.652	261.31
278.884	267.31
279.115	271.31
279.347	280.31
279.579	268.31
279.81	269.31
280.042	283.31
280.273	246.31
280.505	268.31
280.736	273.31
280.968	263.31
281.199	272.31
281.431	277.31
281.662	267.31
281.894	289.31
282.125	271.31
282.356	303.31
282.588	289.31
282.819	289.31
283.051	285.31
283.282	290.31
283.513	278.31
283.745	302.31
283.976	290.31
284.207	279.31
284.439	285.31
284.67	281.31
284.901	290.31
285.132	287.31
285.364	309.31
285.595	283.31
285.826	300.31
286.057	269.31
286.288	269.31
286.52	285.31
286.751	293.31
286.982	292.31
287.213	282.31
287.444	296.31
287.675	299.31
287.906	297.31
288.138	302.31
288.369	282.31
288.6	293.31
288.831	306.31
289.062	293.31
289.293	318.31
289.524	288.31
289.755	317.31
289.986	284.31
290.217	290.31
290.448	285.31
290.679	321.31
290.91	302.31
291.141	308.31
291.371	302.31
291.602	279.31
291.833	301.31
292.064	315.31
292.295	309.31
292.526	284.31
292.757	290.31
292.987	313.31
293.218	318.31
293.449	310.31
293.68	329.31
293.91	311.31
294.141	314.31
294.372	293.31
294.603	307.31
294.833	317.31
295.064	305.31
295.295	306.31
295.525	287.31
295.756	316.31
295.987	335.31
296.217	345.31
296.448	335.31
296.679	328.31
296.909	329.31
297.14	325.31
297.37	325.31
297.601	313.31
297.831	313.31
298.062	319.31
298.292	321.31
298.523	327.31
298.753	324.31
298.984	329.31
299.214	312.31
299.445	340.31
299.675	340.31
299.905	336.31
300.136	306.31
300.366	328.31
300.597	317.31
300.827	335.31
301.057	353.31
301.288	348.31
301.518	346.31
301.748	350.31
301.979	345.31
302.209	356.31
302.439	345.31
302.669	340.31
302.9	348.31
303.13	333.31
303.36	339.31
303.59	346.31
303.82	351.31
304.051	350.31
304.281	357.31
304.511	353.31
304.741	344.31
304.971	340.31
305.201	342.31
305.431	355.31
305.661	358.31
305.891	334.31
306.121	344.31
306.352	361.31
306.582	372.31
306.812	357.31
307.042	349.31
307.272	352.31
307.502	333.31
307.731	352.31
307.961	366.31
308.191	350.31
308.421	346.31
308.651	350.31
308.881	355.31
309.111	358.31
309.341	351.31
309.571	355.31
309.8	369.31
310.03	363.31
310.26	385.31
310.49	363.31
310.72	391.31
310.949	394.31
311.179	385.31
311.409	372.31
311.639	384.31
311.868	369.31
312.098	386.31
312.328	377.31
312.557	399.31
312.787	426.31
313.017	394.31
313.246	386.31
313.476	360.31
313.706	366.31
313.935	394.31
314.165	406.31
314.394	424.31
314.624	395.31
314.853	397.31
315.083	385.31
315.312	375.31
315.542	403.31
315.771	383.31
316.001	386.31
316.23	407.31
316.46	384.31
316.689	371.31
316.919	385.31
317.148	383.31
317.377	385.31
317.607	383.31
317.836	408.31
318.065	382.31
318.295	366.31
318.524	381.31
318.753	381.31
318.983	381.31
319.212	381.31
319.441	395.31
319.67	391.31
319.9	412.31
320.129	383.31
320.358	379.31
320.587	392.31
320.816	401.31
321.046	393.31
321.275	399.31
321.504	406.31
321.733	404.31
321.962	426.31
322.191	400.31
322.42	445.31
322.649	423.31
322.878	427.31
323.108	422.31
323.337	453.31
323.566	460.31
323.795	472.31
324.024	513.31
324.253	581.31
324.482	767.31
324.71	1111.31
324.939	1511.31
325.168	1321.31
325.397	718.31
325.626	533.31
325.855	490.31
326.084	457.31
326.313	449.31
326.542	472.31
326.77	482.31
326.999	551.31
327.228	686.31
327.457	981.31
327.686	1177.31
327.914	832.31
328.143	584.31
328.372	500.31
328.6	510.31
328.829	506.31
329.058	506.31
329.287	519.31
329.515	498.31
329.744	467.31
329.972	461.31
330.201	462.31
330.43	462.31
330.658	473.31
330.887	522.31
331.115	554.31
331.344	489.31
331.572	468.31
331.801	472.31
332.03	480.31
332.258	459.31
332.486	453.31
332.715	477.31
332.943	476.31
333.172	466.31
333.4	484.31
333.629	481.31
333.857	510.31
334.085	483.31
334.314	481.31
334.542	504.31
334.771	494.31
334.999	464.31
335.227	510.31
335.455	481.31
335.684	463.31
335.912	462.31
336.14	476.31
336.369	469.31
336.597	466.31
336.825	481.31
337.053	463.31
337.281	463.31
337.51	445.31
337.738	438.31
337.966	440.31
338.194	463.31
338.422	446.31
338.65	442.31
338.878	440.31
339.106	437.31
339.334	427.31
339.562	460.31
339.79	433.31
340.018	446.31
340.246	436.31
340.474	427.31
340.702	433.31
340.93	443.31
341.158	450.31
341.386	423.31
341.614	441.31
341.842	435.31
342.07	415.31
342.298	431.31
342.526	415.31
342.754	434.31
342.981	419.31
343.209	419.31
343.437	452.31
343.665	452.31
343.893	466.31
344.12	469.31
344.348	474.31
344.576	464.31
344.804	450.31
345.031	458.31
345.259	466.31
345.487	441.31
345.714	437.31
345.942	431.31
346.17	429.31
346.397	396.31
346.625	409.31
346.853	422.31
347.08	411.31
347.308	425.31
347.535	423.31
347.763	421.31
347.99	422.31
348.218	409.31
348.445	434.31
348.673	437.31
348.9	434.31
349.128	413.31
349.355	417.31
349.583	411.31
349.81	397.31
350.037	398.31
350.265	411.31
350.492	399.31
350.72	397.31
350.947	389.31
351.174	417.31
351.402	411.31
351.629	423.31
351.856	397.31
352.083	421.31
352.311	418.31
352.538	419.31
352.765	426.31
352.992	422.31
353.22	422.31
353.447	397.31
353.674	398.31
353.901	406.31
354.128	406.31
354.355	390.31
354.583	411.31
354.81	408.31
355.037	407.31
355.264	398.31
355.491	392.31
355.718	391.31
355.945	386.31
356.172	405.31
356.399	384.31
356.626	387.31
356.853	395.31
357.08	377.31
357.307	396.31
357.534	388.31
357.761	404.31
357.988	400.31
358.215	405.31
358.441	385.31
358.668	380.31
358.895	403.31
359.122	419.31
359.349	399.31
359.576	414.31
359.802	405.31
360.029	420.31
360.256	446.31
360.483	429.31
360.709	427.31
360.936	418.31
361.163	409.31
361.39	406.31
361.616	424.31
361.843	414.31
362.07	395.31
362.296	413.31
362.523	407.31
362.749	403.31
362.976	384.31
363.203	416.31
363.429	406.31
363.656	407.31
363.882	384.31
364.109	402.31
364.335	398.31
364.562	403.31
364.788	395.31
365.015	390.31
365.241	389.31
365.468	386.31
365.694	389.31
365.92	376.31
366.147	389.31
366.373	382.31
366.599	371.31
366.826	392.31
367.052	404.31
367.278	365.31
367.505	406.31
367.731	399.31
367.957	408.31
368.184	397.31
368.41	395.31
368.636	414.31
368.862	405.31
369.089	403.31
369.315	415.31
369.541	398.31
369.767	396.31
369.993	391.31
370.219	386.31
370.445	380.31
370.672	395.31
370.898	395.31
371.124	393.31
371.35	390.31
371.576	393.31
371.802	408.31
372.028	402.31
372.254	399.31
372.48	399.31
372.706	411.31
372.932	420.31
373.158	397.31
373.384	413.31
373.61	394.31
373.835	382.31
374.061	405.31
374.287	419.31
374.513	410.31
374.739	416.31
374.965	435.31
375.191	410.31
375.416	437.31
375.642	425.31
375.868	435.31
376.094	409.31
376.319	408.31
376.545	405.31
376.771	401.31
376.997	395.31
377.222	386.31
377.448	399.31
377.674	389.31
377.899	389.31
378.125	405.31
378.35	393.31
378.576	390.31
378.802	398.31
379.027	410.31
379.253	397.31
379.478	389.31
379.704	397.31
379.929	396.31
380.155	421.31
380.38	407.31
380.606	405.31
380.831	398.31
381.057	413.31
381.282	418.31
381.507	413.31
381.733	402.31
381.958	391.31
382.184	397.31
382.409	406.31
382.634	406.31
382.86	420.31
383.085	410.31
383.31	401.31
383.535	437.31
383.761	409.31
383.986	427.31
384.211	412.31
384.436	423.31
384.662	423.31
384.887	433.31
385.112	432.31
385.337	437.31
385.562	430.31
385.787	437.31
386.013	441.31
386.238	443.31
386.463	436.31
386.688	462.31
386.913	468.31
387.138	433.31
387.363	438.31
387.588	437.31
387.813	436.31
388.038	447.31
388.263	439.31
388.488	447.31
388.713	446.31
388.938	464.31
389.163	438.31
389.387	445.31
389.612	438.31
389.837	433.31
390.062	426.31
390.287	445.31
390.512	451.31
390.736	440.31
390.961	439.31
391.186	440.31
391.411	478.31
391.636	469.31
391.86	449.31
392.085	477.31
392.31	465.31
392.534	465.31
392.759	484.31
392.984	456.31
393.208	457.31
393.433	448.31
393.658	458.31
393.882	450.31
394.107	427.31
394.331	433.31
394.556	454.31
394.78	452.31
395.005	483.31
395.229	448.31
395.454	462.31
395.678	471.31
395.903	463.31
396.127	478.31
396.352	514.31
396.576	482.31
396.801	446.31
397.025	457.31
397.249	469.31
397.474	496.31
397.698	487.31
397.922	499.31
398.147	513.31
398.371	504.31
398.595	519.31
398.82	515.31
399.044	550.31
399.268	565.31
399.492	607.31
399.717	649.31
399.941	655.31
400.165	655.31
400.389	639.31
400.613	587.31
400.837	547.31
401.062	542.31
401.286	533.31
401.51	493.31
401.734	503.31
401.958	526.31
402.182	520.31
402.406	517.31
402.63	526.31
402.854	546.31
403.078	556.31
403.302	533.31
403.526	533.31
403.75	550.31
403.974	553.31
404.198	531.31
404.422	528.31
404.645	536.31
404.869	550.31
405.093	583.31
405.317	569.31
405.541	565.31
405.765	567.31
405.988	536.31
406.212	563.31
406.436	593.31
406.66	575.31
406.883	603.31
407.107	605.31
407.331	627.31
407.555	677.31
407.778	669.31
408.002	638.31
408.226	596.31
408.449	601.31
408.673	604.31
408.896	598.31
409.12	638.31
409.344	605.31
409.567	542.31
409.791	534.31
410.014	554.31
410.238	530.31
410.461	528.31
410.685	544.31
410.908	530.31
411.132	567.31
411.355	600.31
411.578	595.31
411.802	516.31
412.025	511.31
412.249	520.31
412.472	522.31
412.695	534.31
412.919	519.31
413.142	505.31
413.365	504.31
413.589	519.31
413.812	499.31
414.035	497.31
414.258	506.31
414.482	514.31
414.705	512.31
414.928	495.31
415.151	491.31
415.374	488.31
415.597	500.31
415.821	512.31
416.044	504.31
416.267	493.31
416.49	499.31
416.713	494.31
416.936	501.31
417.159	489.31
417.382	501.31
417.605	488.31
417.828	487.31
418.051	532.31
418.274	527.31
418.497	490.31
418.72	484.31
418.943	492.31
419.166	546.31
419.389	533.31
419.611	529.31
419.834	523.31
420.057	502.31
420.28	522.31
420.503	522.31
420.726	517.31
420.948	525.31
421.171	541.31
421.394	594.31
421.617	542.31
421.839	501.31
422.062	530.31
422.285	514.31
422.507	561.31
422.73	619.31
422.953	631.31
423.175	549.31
423.398	529.31
423.621	513.31
423.843	570.31
424.066	554.31
424.288	554.31
424.511	576.31
424.733	595.31
424.956	684.31
425.178	641.31
425.401	620.31
425.623	625.31
425.846	569.31
426.068	533.31
426.291	532.31
426.513	537.31
426.735	533.31
426.958	560.31
427.18	636.31
427.402	741.31
427.625	805.31
427.847	683.31
428.069	571.31
428.292	537.31
428.514	526.31
428.736	485.31
428.958	495.31
429.181	471.31
429.403	451.31
429.625	488.31
429.847	516.31
430.069	585.31
430.292	554.31
430.514	508.31
430.736	487.31
430.958	484.31
431.18	457.31
431.402	479.31
431.624	467.31
431.846	462.31
432.068	462.31
432.29	483.31
432.512	475.31
432.734	478.31
432.956	473.31
433.178	478.31
433.4	485.31
433.622	478.31
433.844	463.31
434.066	446.31
434.287	467.31
434.509	524.31
434.731	490.31
434.953	499.31
435.175	494.31
435.397	540.31
435.618	542.31
435.84	558.31
436.062	632.31
436.284	675.31
436.505	582.31
436.727	516.31
436.949	506.31
437.17	493.31
437.392	483.31
437.614	497.31
437.835	537.31
438.057	598.31
438.278	663.31
438.5	686.31
438.721	734.31
438.943	698.31
439.165	581.31
439.386	533.31
439.608	511.31
439.829	520.31
440.05	546.31
440.272	596.31
440.493	549.31
440.715	501.31
440.936	478.31
441.158	507.31
441.379	515.31
441.6	520.31
441.822	536.31
442.043	572.31
442.264	629.31
442.486	645.31
442.707	581.31
442.928	564.31
443.149	547.31
443.371	567.31
443.592	591.31
443.813	697.31
444.034	708.31
444.255	599.31
444.476	578.31
444.698	567.31
444.919	588.31
445.14	703.31
445.361	618.31
445.582	587.31
445.803	608.31
446.024	682.31
446.245	662.31
446.466	634.31
446.687	555.31
446.908	522.31
447.129	502.31
447.35	495.31
447.571	485.31
447.792	487.31
448.013	485.31
448.234	493.31
448.455	504.31
448.675	613.31
448.896	720.31
449.117	631.31
449.338	588.31
449.559	667.31
449.779	753.31
450	606.31
450.221	499.31
450.442	471.31
450.662	449.31
450.883	461.31
451.104	474.31
451.324	459.31
451.545	435.31
451.766	465.31
451.986	442.31
452.207	441.31
452.428	448.31
452.648	446.31
452.869	435.31
453.089	433.31
453.31	455.31
453.53	449.31
453.751	454.31
453.971	426.31
454.192	455.31
454.412	423.31
454.633	424.31
454.853	419.31
455.073	429.31
455.294	465.31
455.514	511.31
455.734	475.31
455.955	443.31
456.175	411.31
456.395	411.31
456.616	408.31
456.836	393.31
457.056	408.31
457.276	407.31
457.497	426.31
457.717	421.31
457.937	426.31
458.157	431.31
458.377	431.31
458.598	450.31
458.818	493.31
459.038	539.31
459.258	566.31
459.478	484.31
459.698	468.31
459.918	468.31
460.138	495.31
460.358	508.31
460.578	510.31
460.798	500.31
461.018	496.31
461.238	498.31
461.458	511.31
461.678	515.31
461.898	492.31
462.118	490.31
462.338	534.31
462.558	525.31
462.777	540.31
462.997	561.31
463.217	603.31
463.437	589.31
463.657	542.31
463.876	565.31
464.096	543.31
464.316	555.31
464.536	529.31
464.755	561.31
464.975	536.31
465.195	553.31
465.414	581.31
465.634	530.31
465.854	491.31
466.073	482.31
466.293	450.31
466.512	462.31
466.732	466.31
466.951	471.31
467.171	468.31
467.391	461.31
467.61	476.31
467.829	479.31
468.049	433.31
468.268	425.31
468.488	429.31
468.707	425.31
468.927	461.31
469.146	451.31
469.365	458.31
469.585	455.31
469.804	457.31
470.023	473.31
470.243	457.31
470.462	470.31
470.681	445.31
470.901	475.31
471.12	484.31
471.339	471.31
471.558	471.31
471.777	460.31
471.997	447.31
472.216	445.31
472.435	434.31
472.654	445.31
472.873	431.31
473.092	451.31
473.311	411.31
473.53	459.31
473.749	474.31
473.968	499.31
474.187	582.31
474.406	581.31
474.625	477.31
474.844	448.31
475.063	452.31
475.282	447.31
475.501	473.31
475.72	483.31
475.939	481.31
476.158	469.31
476.377	458.31
476.596	470.31
476.814	468.31
477.033	486.31
477.252	490.31
477.471	471.31
477.69	498.31
477.908	482.31
478.127	501.31
478.346	501.31
478.564	505.31
478.783	523.31
479.002	528.31
479.22	519.31
479.439	544.31
479.658	508.31
479.876	547.31
480.095	553.31
480.313	596.31
480.532	583.31
480.751	572.31
480.969	569.31
481.188	573.31
481.406	562.31
481.624	535.31
481.843	536.31
482.061	531.31
482.28	532.31
482.498	523.31
482.717	499.31
482.935	511.31
483.153	517.31
483.372	515.31
483.59	528.31
483.808	524.31
484.027	534.31
484.245	549.31
484.463	550.31
484.681	565.31
484.9	538.31
485.118	561.31
485.336	547.31
485.554	538.31
485.772	557.31
485.99	564.31
486.209	548.31
486.427	555.31
486.645	546.31
486.863	556.31
487.081	559.31
487.299	562.31
487.517	562.31
487.735	554.31
487.953	535.31
488.171	572.31
488.389	569.31
488.607	570.31
488.825	565.31
489.043	583.31
489.261	567.31
489.479	563.31
489.696	563.31
489.914	577.31
490.132	588.31
490.35	592.31
490.568	589.31
490.786	601.31
491.003	590.31
491.221	603.31
491.439	612.31
491.657	597.31
491.874	617.31
492.092	613.31
492.31	608.31
492.527	621.31
492.745	622.31
492.963	625.31
493.18	631.31
493.398	645.31
493.615	649.31
493.833	634.31
494.05	644.31
494.268	623.31
494.485	635.31
494.703	622.31
494.92	639.31
495.138	645.31
495.355	657.31
495.573	657.31
495.79	659.31
496.008	646.31
496.225	633.31
496.442	649.31
496.66	666.31
496.877	663.31
497.094	664.31
497.312	679.31
497.529	694.31
497.746	711.31
497.963	695.31
498.181	732.31
498.398	741.31
498.615	760.31
498.832	803.31
499.049	817.31
499.267	846.31
499.484	901.31
499.701	941.31
499.918	983.31
500.135	1057.31
500.352	1129.31
500.569	1142.31
500.786	1166.31
501.003	1106.31
501.22	1061.31
501.437	1016.31
501.654	956.31
501.871	939.31
