Data from 1985.PennyLincolnUp.Lamp.En5.5.200Scan.071819.P1_HRD10591_17-01-16-969.txt Node
Date: Thu Jul 18 17:01:16 EDT 2019
User: cochatt
Spectrometer: HR+D1059
Trigger mode: 1
Integration Time (sec): 1.000000E-1
Scans to average: 1
Electric dark correction enabled: true
Nonlinearity correction enabled: false
Boxcar width: 0
XAxis mode: Wavelengths
Number of Pixels in Spectrum: 2048
>>>>>Begin Spectral Data<<<<<
223.165	-10.69
223.4	-10.69
223.635	-10.69
223.869	-8.69
224.104	-8.69
224.338	-14.69
224.573	-11.69
224.808	-7.69
225.042	-9.69
225.277	-14.69
225.511	-13.69
225.746	10.31
225.98	15.31
226.215	1.31
226.449	18.31
226.683	8.31
226.918	16.31
227.152	30.31
227.387	40.31
227.621	44.31
227.856	33.31
228.09	52.31
228.324	56.31
228.559	60.31
228.793	63.31
229.027	93.31
229.262	100.31
229.496	110.31
229.73	125.31
229.964	141.31
230.199	121.31
230.433	111.31
230.667	107.31
230.901	106.31
231.136	104.31
231.37	94.31
231.604	97.31
231.838	109.31
232.072	118.31
232.306	116.31
232.541	96.31
232.775	109.31
233.009	108.31
233.243	102.31
233.477	106.31
233.711	112.31
233.945	120.31
234.179	115.31
234.413	105.31
234.647	120.31
234.881	117.31
235.115	129.31
235.349	112.31
235.583	108.31
235.817	124.31
236.051	126.31
236.285	116.31
236.519	110.31
236.753	125.31
236.987	126.31
237.221	140.31
237.455	202.31
237.689	149.31
237.922	124.31
238.156	126.31
238.39	126.31
238.624	130.31
238.858	106.31
239.091	123.31
239.325	112.31
239.559	110.31
239.793	129.31
240.027	129.31
240.26	135.31
240.494	138.31
240.728	139.31
240.961	135.31
241.195	129.31
241.429	140.31
241.662	126.31
241.896	134.31
242.13	125.31
242.363	139.31
242.597	132.31
242.83	143.31
243.064	126.31
243.298	132.31
243.531	137.31
243.765	136.31
243.998	125.31
244.232	137.31
244.465	154.31
244.699	140.31
244.932	138.31
245.166	141.31
245.399	130.31
245.633	150.31
245.866	147.31
246.099	134.31
246.333	142.31
246.566	156.31
246.8	151.31
247.033	139.31
247.266	133.31
247.5	158.31
247.733	157.31
247.966	159.31
248.2	155.31
248.433	161.31
248.666	153.31
248.899	184.31
249.133	190.31
249.366	184.31
249.599	164.31
249.832	155.31
250.066	169.31
250.299	174.31
250.532	182.31
250.765	174.31
250.998	188.31
251.231	205.31
251.465	205.31
251.698	192.31
251.931	186.31
252.164	178.31
252.397	173.31
252.63	196.31
252.863	187.31
253.096	199.31
253.329	198.31
253.562	183.31
253.795	218.31
254.028	203.31
254.261	203.31
254.494	201.31
254.727	237.31
254.96	237.31
255.193	248.31
255.426	237.31
255.659	204.31
255.892	194.31
256.124	189.31
256.357	200.31
256.59	193.31
256.823	187.31
257.056	198.31
257.289	196.31
257.521	192.31
257.754	210.31
257.987	187.31
258.22	205.31
258.452	201.31
258.685	199.31
258.918	192.31
259.151	186.31
259.383	201.31
259.616	208.31
259.849	202.31
260.081	207.31
260.314	228.31
260.547	228.31
260.779	216.31
261.012	214.31
261.244	205.31
261.477	230.31
261.71	207.31
261.942	211.31
262.175	217.31
262.407	239.31
262.64	205.31
262.872	184.31
263.105	223.31
263.337	198.31
263.57	205.31
263.802	206.31
264.035	222.31
264.267	215.31
264.499	226.31
264.732	201.31
264.964	210.31
265.197	217.31
265.429	199.31
265.661	210.31
265.894	223.31
266.126	213.31
266.358	205.31
266.591	216.31
266.823	213.31
267.055	226.31
267.287	225.31
267.52	214.31
267.752	216.31
267.984	211.31
268.216	225.31
268.448	248.31
268.681	225.31
268.913	242.31
269.145	245.31
269.377	271.31
269.609	248.31
269.841	247.31
270.073	246.31
270.306	258.31
270.538	272.31
270.77	285.31
271.002	263.31
271.234	270.31
271.466	268.31
271.698	270.31
271.93	290.31
272.162	290.31
272.394	273.31
272.626	257.31
272.858	247.31
273.09	258.31
273.322	257.31
273.553	258.31
273.785	253.31
274.017	241.31
274.249	248.31
274.481	257.31
274.713	256.31
274.945	239.31
275.176	245.31
275.408	254.31
275.64	261.31
275.872	257.31
276.104	252.31
276.335	263.31
276.567	253.31
276.799	269.31
277.031	291.31
277.262	289.31
277.494	290.31
277.726	282.31
277.957	280.31
278.189	261.31
278.421	255.31
278.652	276.31
278.884	270.31
279.115	269.31
279.347	279.31
279.579	282.31
279.81	277.31
280.042	285.31
280.273	288.31
280.505	266.31
280.736	276.31
280.968	283.31
281.199	292.31
281.431	285.31
281.662	268.31
281.894	271.31
282.125	271.31
282.356	265.31
282.588	295.31
282.819	275.31
283.051	300.31
283.282	280.31
283.513	288.31
283.745	277.31
283.976	284.31
284.207	298.31
284.439	287.31
284.67	282.31
284.901	295.31
285.132	299.31
285.364	294.31
285.595	296.31
285.826	290.31
286.057	316.31
286.288	296.31
286.52	277.31
286.751	285.31
286.982	293.31
287.213	300.31
287.444	291.31
287.675	308.31
287.906	297.31
288.138	317.31
288.369	318.31
288.6	281.31
288.831	318.31
289.062	295.31
289.293	284.31
289.524	299.31
289.755	289.31
289.986	300.31
290.217	313.31
290.448	318.31
290.679	312.31
290.91	291.31
291.141	311.31
291.371	313.31
291.602	304.31
291.833	308.31
292.064	307.31
292.295	310.31
292.526	288.31
292.757	313.31
292.987	297.31
293.218	309.31
293.449	302.31
293.68	295.31
293.91	301.31
294.141	305.31
294.372	293.31
294.603	321.31
294.833	305.31
295.064	299.31
295.295	326.31
295.525	326.31
295.756	313.31
295.987	297.31
296.217	318.31
296.448	342.31
296.679	305.31
296.909	306.31
297.14	324.31
297.37	323.31
297.601	316.31
297.831	319.31
298.062	327.31
298.292	346.31
298.523	327.31
298.753	320.31
298.984	321.31
299.214	320.31
299.445	318.31
299.675	315.31
299.905	319.31
300.136	313.31
300.366	323.31
300.597	318.31
300.827	298.31
301.057	340.31
301.288	359.31
301.518	336.31
301.748	354.31
301.979	369.31
302.209	349.31
302.439	339.31
302.669	361.31
302.9	356.31
303.13	355.31
303.36	359.31
303.59	357.31
303.82	353.31
304.051	380.31
304.281	343.31
304.511	341.31
304.741	339.31
304.971	364.31
305.201	341.31
305.431	352.31
305.661	350.31
305.891	345.31
306.121	358.31
306.352	347.31
306.582	346.31
306.812	335.31
307.042	334.31
307.272	340.31
307.502	363.31
307.731	355.31
307.961	350.31
308.191	361.31
308.421	356.31
308.651	357.31
308.881	353.31
309.111	356.31
309.341	354.31
309.571	354.31
309.8	378.31
310.03	382.31
310.26	346.31
310.49	368.31
310.72	383.31
310.949	386.31
311.179	387.31
311.409	377.31
311.639	372.31
311.868	364.31
312.098	368.31
312.328	362.31
312.557	386.31
312.787	389.31
313.017	373.31
313.246	397.31
313.476	386.31
313.706	373.31
313.935	376.31
314.165	382.31
314.394	395.31
314.624	386.31
314.853	390.31
315.083	394.31
315.312	415.31
315.542	374.31
315.771	376.31
316.001	398.31
316.23	380.31
316.46	362.31
316.689	376.31
316.919	378.31
317.148	400.31
317.377	388.31
317.607	413.31
317.836	391.31
318.065	401.31
318.295	373.31
318.524	396.31
318.753	378.31
318.983	379.31
319.212	394.31
319.441	409.31
319.67	394.31
319.9	408.31
320.129	367.31
320.358	407.31
320.587	398.31
320.816	414.31
321.046	414.31
321.275	416.31
321.504	392.31
321.733	381.31
321.962	379.31
322.191	406.31
322.42	422.31
322.649	397.31
322.878	424.31
323.108	435.31
323.337	443.31
323.566	424.31
323.795	470.31
324.024	465.31
324.253	535.31
324.482	694.31
324.71	944.31
324.939	1355.31
325.168	1160.31
325.397	641.31
325.626	513.31
325.855	465.31
326.084	455.31
326.313	452.31
326.542	467.31
326.77	466.31
326.999	534.31
327.228	642.31
327.457	892.31
327.686	1029.31
327.914	718.31
328.143	523.31
328.372	510.31
328.6	491.31
328.829	461.31
329.058	484.31
329.287	504.31
329.515	467.31
329.744	464.31
329.972	433.31
330.201	458.31
330.43	464.31
330.658	481.31
330.887	504.31
331.115	497.31
331.344	451.31
331.572	477.31
331.801	452.31
332.03	464.31
332.258	461.31
332.486	448.31
332.715	457.31
332.943	448.31
333.172	459.31
333.4	484.31
333.629	484.31
333.857	478.31
334.085	470.31
334.314	481.31
334.542	485.31
334.771	459.31
334.999	468.31
335.227	493.31
335.455	502.31
335.684	469.31
335.912	466.31
336.14	464.31
336.369	469.31
336.597	468.31
336.825	456.31
337.053	479.31
337.281	464.31
337.51	446.31
337.738	456.31
337.966	440.31
338.194	439.31
338.422	434.31
338.65	437.31
338.878	442.31
339.106	447.31
339.334	431.31
339.562	446.31
339.79	421.31
340.018	425.31
340.246	420.31
340.474	450.31
340.702	465.31
340.93	421.31
341.158	458.31
341.386	441.31
341.614	436.31
341.842	446.31
342.07	433.31
342.298	421.31
342.526	432.31
342.754	426.31
342.981	445.31
343.209	429.31
343.437	443.31
343.665	444.31
343.893	473.31
344.12	484.31
344.348	446.31
344.576	476.31
344.804	446.31
345.031	448.31
345.259	437.31
345.487	428.31
345.714	409.31
345.942	410.31
346.17	423.31
346.397	408.31
346.625	415.31
346.853	423.31
347.08	402.31
347.308	402.31
347.535	428.31
347.763	406.31
347.99	418.31
348.218	422.31
348.445	424.31
348.673	413.31
348.9	412.31
349.128	416.31
349.355	411.31
349.583	415.31
349.81	422.31
350.037	407.31
350.265	395.31
350.492	380.31
350.72	400.31
350.947	409.31
351.174	433.31
351.402	406.31
351.629	424.31
351.856	402.31
352.083	412.31
352.311	436.31
352.538	411.31
352.765	407.31
352.992	418.31
353.22	409.31
353.447	412.31
353.674	390.31
353.901	396.31
354.128	407.31
354.355	394.31
354.583	414.31
354.81	410.31
355.037	381.31
355.264	402.31
355.491	383.31
355.718	380.31
355.945	400.31
356.172	409.31
356.399	386.31
356.626	410.31
356.853	397.31
357.08	378.31
357.307	380.31
357.534	386.31
357.761	416.31
357.988	392.31
358.215	396.31
358.441	405.31
358.668	403.31
358.895	413.31
359.122	400.31
359.349	396.31
359.576	407.31
359.802	409.31
360.029	424.31
360.256	426.31
360.483	418.31
360.709	407.31
360.936	416.31
361.163	397.31
361.39	406.31
361.616	410.31
361.843	416.31
362.07	411.31
362.296	410.31
362.523	412.31
362.749	396.31
362.976	399.31
363.203	397.31
363.429	384.31
363.656	401.31
363.882	396.31
364.109	390.31
364.335	380.31
364.562	402.31
364.788	395.31
365.015	408.31
365.241	396.31
365.468	396.31
365.694	407.31
365.92	397.31
366.147	383.31
366.373	390.31
366.599	400.31
366.826	402.31
367.052	390.31
367.278	399.31
367.505	402.31
367.731	403.31
367.957	382.31
368.184	398.31
368.41	394.31
368.636	397.31
368.862	396.31
369.089	398.31
369.315	409.31
369.541	406.31
369.767	408.31
369.993	397.31
370.219	388.31
370.445	394.31
370.672	394.31
370.898	397.31
371.124	402.31
371.35	408.31
371.576	403.31
371.802	425.31
372.028	390.31
372.254	395.31
372.48	408.31
372.706	422.31
372.932	410.31
373.158	412.31
373.384	446.31
373.61	413.31
373.835	407.31
374.061	420.31
374.287	418.31
374.513	421.31
374.739	418.31
374.965	421.31
375.191	433.31
375.416	424.31
375.642	413.31
375.868	424.31
376.094	433.31
376.319	414.31
376.545	410.31
376.771	412.31
376.997	409.31
377.222	391.31
377.448	390.31
377.674	392.31
377.899	394.31
378.125	410.31
378.35	379.31
378.576	426.31
378.802	406.31
379.027	374.31
379.253	386.31
379.478	404.31
379.704	412.31
379.929	430.31
380.155	402.31
380.38	405.31
380.606	423.31
380.831	403.31
381.057	398.31
381.282	400.31
381.507	385.31
381.733	408.31
381.958	420.31
382.184	398.31
382.409	413.31
382.634	424.31
382.86	424.31
383.085	411.31
383.31	422.31
383.535	429.31
383.761	442.31
383.986	436.31
384.211	421.31
384.436	445.31
384.662	442.31
384.887	471.31
385.112	468.31
385.337	448.31
385.562	469.31
385.787	468.31
386.013	440.31
386.238	478.31
386.463	469.31
386.688	457.31
386.913	454.31
387.138	469.31
387.363	462.31
387.588	443.31
387.813	461.31
388.038	456.31
388.263	445.31
388.488	454.31
388.713	455.31
388.938	447.31
389.163	433.31
389.387	455.31
389.612	440.31
389.837	443.31
390.062	445.31
390.287	458.31
390.512	438.31
390.736	440.31
390.961	455.31
391.186	453.31
391.411	462.31
391.636	478.31
391.86	476.31
392.085	475.31
392.31	488.31
392.534	471.31
392.759	450.31
392.984	505.31
393.208	465.31
393.433	465.31
393.658	459.31
393.882	465.31
394.107	473.31
394.331	486.31
394.556	431.31
394.78	456.31
395.005	467.31
395.229	463.31
395.454	478.31
395.678	479.31
395.903	475.31
396.127	491.31
396.352	507.31
396.576	462.31
396.801	469.31
397.025	483.31
397.249	472.31
397.474	496.31
397.698	476.31
397.922	525.31
398.147	532.31
398.371	505.31
398.595	513.31
398.82	513.31
399.044	552.31
399.268	600.31
399.492	621.31
399.717	657.31
399.941	670.31
400.165	664.31
400.389	628.31
400.613	597.31
400.837	576.31
401.062	542.31
401.286	532.31
401.51	529.31
401.734	525.31
401.958	537.31
402.182	520.31
402.406	540.31
402.63	538.31
402.854	530.31
403.078	557.31
403.302	548.31
403.526	570.31
403.75	545.31
403.974	542.31
404.198	556.31
404.422	536.31
404.645	542.31
404.869	557.31
405.093	564.31
405.317	561.31
405.541	598.31
405.765	575.31
405.988	546.31
406.212	576.31
406.436	566.31
406.66	583.31
406.883	590.31
407.107	613.31
407.331	637.31
407.555	660.31
407.778	694.31
408.002	652.31
408.226	606.31
408.449	578.31
408.673	588.31
408.896	625.31
409.12	626.31
409.344	609.31
409.567	559.31
409.791	544.31
410.014	548.31
410.238	520.31
410.461	567.31
410.685	544.31
410.908	546.31
411.132	570.31
411.355	575.31
411.578	576.31
411.802	535.31
412.025	526.31
412.249	521.31
412.472	527.31
412.695	524.31
412.919	493.31
413.142	529.31
413.365	516.31
413.589	519.31
413.812	518.31
414.035	517.31
414.258	502.31
414.482	497.31
414.705	520.31
414.928	512.31
415.151	518.31
415.374	520.31
415.597	507.31
415.821	512.31
416.044	534.31
416.267	533.31
416.49	484.31
416.713	495.31
416.936	500.31
417.159	492.31
417.382	489.31
417.605	500.31
417.828	525.31
418.051	533.31
418.274	504.31
418.497	494.31
418.72	493.31
418.943	516.31
419.166	558.31
419.389	560.31
419.611	554.31
419.834	548.31
420.057	541.31
420.28	511.31
420.503	516.31
420.726	489.31
420.948	518.31
421.171	555.31
421.394	568.31
421.617	536.31
421.839	520.31
422.062	536.31
422.285	519.31
422.507	580.31
422.73	643.31
422.953	602.31
423.175	552.31
423.398	540.31
423.621	523.31
423.843	536.31
424.066	553.31
424.288	552.31
424.511	564.31
424.733	616.31
424.956	644.31
425.178	634.31
425.401	618.31
425.623	614.31
425.846	566.31
426.068	543.31
426.291	527.31
426.513	514.31
426.735	525.31
426.958	564.31
427.18	613.31
427.402	728.31
427.625	756.31
427.847	668.31
428.069	574.31
428.292	548.31
428.514	495.31
428.736	506.31
428.958	497.31
429.181	471.31
429.403	490.31
429.625	515.31
429.847	533.31
430.069	582.31
430.292	554.31
430.514	496.31
430.736	477.31
430.958	461.31
431.18	486.31
431.402	479.31
431.624	441.31
431.846	468.31
432.068	464.31
432.29	501.31
432.512	504.31
432.734	497.31
432.956	491.31
433.178	481.31
433.4	479.31
433.622	470.31
433.844	458.31
434.066	497.31
434.287	473.31
434.509	476.31
434.731	505.31
434.953	513.31
435.175	513.31
435.397	537.31
435.618	518.31
435.84	527.31
436.062	616.31
436.284	672.31
436.505	576.31
436.727	510.31
436.949	490.31
437.17	506.31
437.392	501.31
437.614	504.31
437.835	508.31
438.057	572.31
438.278	664.31
438.5	633.31
438.721	682.31
438.943	674.31
439.165	567.31
439.386	536.31
439.608	524.31
439.829	514.31
440.05	526.31
440.272	565.31
440.493	518.31
440.715	495.31
440.936	489.31
441.158	493.31
441.379	506.31
441.6	542.31
441.822	529.31
442.043	554.31
442.264	612.31
442.486	646.31
442.707	576.31
442.928	536.31
443.149	532.31
443.371	557.31
443.592	591.31
443.813	664.31
444.034	700.31
444.255	586.31
444.476	557.31
444.698	548.31
444.919	596.31
445.14	689.31
445.361	622.31
445.582	555.31
445.803	589.31
446.024	647.31
446.245	676.31
446.466	616.31
446.687	559.31
446.908	545.31
447.129	473.31
447.35	492.31
447.571	470.31
447.792	485.31
448.013	486.31
448.234	500.31
448.455	540.31
448.675	600.31
448.896	685.31
449.117	594.31
449.338	570.31
449.559	636.31
449.779	702.31
450	602.31
450.221	494.31
450.442	444.31
450.662	473.31
450.883	472.31
451.104	476.31
451.324	469.31
451.545	449.31
451.766	438.31
451.986	434.31
452.207	426.31
452.428	432.31
452.648	435.31
452.869	453.31
453.089	460.31
453.31	448.31
453.53	429.31
453.751	413.31
453.971	438.31
454.192	442.31
454.412	443.31
454.633	451.31
454.853	418.31
455.073	446.31
455.294	472.31
455.514	475.31
455.734	466.31
455.955	435.31
456.175	442.31
456.395	414.31
456.616	398.31
456.836	418.31
457.056	414.31
457.276	420.31
457.497	418.31
457.717	426.31
457.937	421.31
458.157	444.31
458.377	418.31
458.598	440.31
458.818	496.31
459.038	551.31
459.258	553.31
459.478	479.31
459.698	480.31
459.918	463.31
460.138	471.31
460.358	522.31
460.578	513.31
460.798	498.31
461.018	481.31
461.238	530.31
461.458	513.31
461.678	507.31
461.898	536.31
462.118	512.31
462.338	535.31
462.558	532.31
462.777	544.31
462.997	578.31
463.217	617.31
463.437	586.31
463.657	594.31
463.876	573.31
464.096	580.31
464.316	571.31
464.536	584.31
464.755	564.31
464.975	520.31
465.195	573.31
465.414	550.31
465.634	531.31
465.854	497.31
466.073	479.31
466.293	481.31
466.512	455.31
466.732	440.31
466.951	463.31
467.171	458.31
467.391	445.31
467.61	452.31
467.829	475.31
468.049	472.31
468.268	456.31
468.488	431.31
468.707	432.31
468.927	448.31
469.146	454.31
469.365	441.31
469.585	440.31
469.804	443.31
470.023	469.31
470.243	485.31
470.462	469.31
470.681	489.31
470.901	477.31
471.12	474.31
471.339	488.31
471.558	465.31
471.777	455.31
471.997	451.31
472.216	437.31
472.435	456.31
472.654	460.31
472.873	437.31
473.092	462.31
473.311	448.31
473.53	452.31
473.749	446.31
473.968	456.31
474.187	546.31
474.406	557.31
474.625	492.31
474.844	460.31
475.063	447.31
475.282	458.31
475.501	473.31
475.72	465.31
475.939	469.31
476.158	455.31
476.377	461.31
476.596	485.31
476.814	485.31
477.033	460.31
477.252	470.31
477.471	508.31
477.69	497.31
477.908	518.31
478.127	522.31
478.346	526.31
478.564	533.31
478.783	521.31
479.002	543.31
479.22	525.31
479.439	558.31
479.658	558.31
479.876	561.31
480.095	549.31
480.313	584.31
480.532	590.31
480.751	568.31
480.969	551.31
481.188	552.31
481.406	541.31
481.624	542.31
481.843	545.31
482.061	539.31
482.28	522.31
482.498	522.31
482.717	527.31
482.935	538.31
483.153	526.31
483.372	526.31
483.59	536.31
483.808	543.31
484.027	517.31
484.245	536.31
484.463	520.31
484.681	543.31
484.9	531.31
485.118	536.31
485.336	546.31
485.554	560.31
485.772	576.31
485.99	569.31
486.209	574.31
486.427	557.31
486.645	572.31
486.863	559.31
487.081	558.31
487.299	542.31
487.517	561.31
487.735	568.31
487.953	563.31
488.171	559.31
488.389	575.31
488.607	539.31
488.825	579.31
489.043	558.31
489.261	560.31
489.479	547.31
489.696	565.31
489.914	549.31
490.132	587.31
490.35	591.31
490.568	595.31
490.786	599.31
491.003	605.31
491.221	608.31
491.439	613.31
491.657	599.31
491.874	632.31
492.092	625.31
492.31	613.31
492.527	614.31
492.745	620.31
492.963	618.31
493.18	628.31
493.398	634.31
493.615	615.31
493.833	634.31
494.05	645.31
494.268	616.31
494.485	642.31
494.703	636.31
494.92	628.31
495.138	626.31
495.355	645.31
495.573	654.31
495.79	647.31
496.008	649.31
496.225	657.31
496.442	678.31
496.66	651.31
496.877	656.31
497.094	688.31
497.312	649.31
497.529	680.31
497.746	708.31
497.963	731.31
498.181	746.31
498.398	757.31
498.615	748.31
498.832	787.31
499.049	849.31
499.267	840.31
499.484	918.31
499.701	948.31
499.918	1009.31
500.135	1093.31
500.352	1137.31
500.569	1162.31
500.786	1188.31
501.003	1152.31
501.22	1062.31
501.437	1015.31
501.654	965.31
501.871	960.31
