Data from 1985.PennyLincolnUp.Lamp.En5.5.200Scan.071819.P1_HRD10591_17-03-36-971.txt Node
Date: Thu Jul 18 17:03:36 EDT 2019
User: cochatt
Spectrometer: HR+D1059
Trigger mode: 1
Integration Time (sec): 1.000000E-1
Scans to average: 1
Electric dark correction enabled: true
Nonlinearity correction enabled: false
Boxcar width: 0
XAxis mode: Wavelengths
Number of Pixels in Spectrum: 2048
>>>>>Begin Spectral Data<<<<<
223.165	-18.56
223.4	-18.56
223.635	-18.56
223.869	-3.56
224.104	-20.56
224.338	-10.56
224.573	0.44
224.808	-15.56
225.042	-16.56
225.277	-1.56
225.511	-10.56
225.746	4.44
225.98	-2.56
226.215	4.44
226.449	12.44
226.683	4.44
226.918	36.44
227.152	37.44
227.387	31.44
227.621	39.44
227.856	47.44
228.09	50.44
228.324	45.44
228.559	57.44
228.793	66.44
229.027	86.44
229.262	119.44
229.496	119.44
229.73	130.44
229.964	141.44
230.199	126.44
230.433	122.44
230.667	131.44
230.901	127.44
231.136	115.44
231.37	112.44
231.604	104.44
231.838	100.44
232.072	116.44
232.306	116.44
232.541	125.44
232.775	123.44
233.009	115.44
233.243	121.44
233.477	116.44
233.711	123.44
233.945	121.44
234.179	145.44
234.413	117.44
234.647	114.44
234.881	104.44
235.115	121.44
235.349	115.44
235.583	116.44
235.817	112.44
236.051	112.44
236.285	132.44
236.519	126.44
236.753	126.44
236.987	139.44
237.221	163.44
237.455	209.44
237.689	204.44
237.922	136.44
238.156	131.44
238.39	151.44
238.624	131.44
238.858	133.44
239.091	117.44
239.325	129.44
239.559	129.44
239.793	133.44
240.027	139.44
240.26	135.44
240.494	155.44
240.728	150.44
240.961	163.44
241.195	137.44
241.429	151.44
241.662	134.44
241.896	128.44
242.13	127.44
242.363	148.44
242.597	144.44
242.83	149.44
243.064	143.44
243.298	142.44
243.531	132.44
243.765	142.44
243.998	140.44
244.232	141.44
244.465	158.44
244.699	167.44
244.932	163.44
245.166	145.44
245.399	171.44
245.633	131.44
245.866	152.44
246.099	161.44
246.333	156.44
246.566	143.44
246.8	159.44
247.033	144.44
247.266	160.44
247.5	157.44
247.733	174.44
247.966	163.44
248.2	190.44
248.433	177.44
248.666	169.44
248.899	188.44
249.133	203.44
249.366	199.44
249.599	199.44
249.832	179.44
250.066	172.44
250.299	184.44
250.532	200.44
250.765	220.44
250.998	233.44
251.231	226.44
251.465	202.44
251.698	194.44
251.931	209.44
252.164	187.44
252.397	204.44
252.63	199.44
252.863	204.44
253.096	212.44
253.329	219.44
253.562	226.44
253.795	224.44
254.028	217.44
254.261	213.44
254.494	238.44
254.727	237.44
254.96	280.44
255.193	278.44
255.426	242.44
255.659	232.44
255.892	247.44
256.124	234.44
256.357	253.44
256.59	238.44
256.823	221.44
257.056	220.44
257.289	220.44
257.521	209.44
257.754	229.44
257.987	206.44
258.22	211.44
258.452	224.44
258.685	214.44
258.918	214.44
259.151	216.44
259.383	221.44
259.616	224.44
259.849	237.44
260.081	240.44
260.314	255.44
260.547	264.44
260.779	240.44
261.012	230.44
261.244	221.44
261.477	236.44
261.71	238.44
261.942	239.44
262.175	242.44
262.407	232.44
262.64	224.44
262.872	209.44
263.105	239.44
263.337	215.44
263.57	201.44
263.802	216.44
264.035	236.44
264.267	204.44
264.499	232.44
264.732	212.44
264.964	229.44
265.197	243.44
265.429	210.44
265.661	222.44
265.894	237.44
266.126	247.44
266.358	237.44
266.591	237.44
266.823	231.44
267.055	248.44
267.287	247.44
267.52	254.44
267.752	240.44
267.984	228.44
268.216	248.44
268.448	254.44
268.681	251.44
268.913	259.44
269.145	274.44
269.377	301.44
269.609	283.44
269.841	285.44
270.073	275.44
270.306	297.44
270.538	333.44
270.77	319.44
271.002	303.44
271.234	304.44
271.466	287.44
271.698	325.44
271.93	328.44
272.162	313.44
272.394	318.44
272.626	310.44
272.858	306.44
273.09	280.44
273.322	303.44
273.553	291.44
273.785	282.44
274.017	275.44
274.249	284.44
274.481	251.44
274.713	259.44
274.945	283.44
275.176	276.44
275.408	279.44
275.64	275.44
275.872	272.44
276.104	276.44
276.335	295.44
276.567	292.44
276.799	287.44
277.031	315.44
277.262	338.44
277.494	335.44
277.726	326.44
277.957	302.44
278.189	297.44
278.421	311.44
278.652	271.44
278.884	299.44
279.115	295.44
279.347	297.44
279.579	291.44
279.81	284.44
280.042	304.44
280.273	303.44
280.505	288.44
280.736	299.44
280.968	309.44
281.199	299.44
281.431	313.44
281.662	307.44
281.894	299.44
282.125	296.44
282.356	330.44
282.588	326.44
282.819	335.44
283.051	314.44
283.282	309.44
283.513	301.44
283.745	314.44
283.976	311.44
284.207	320.44
284.439	297.44
284.67	307.44
284.901	313.44
285.132	339.44
285.364	323.44
285.595	301.44
285.826	310.44
286.057	304.44
286.288	313.44
286.52	312.44
286.751	316.44
286.982	317.44
287.213	337.44
287.444	323.44
287.675	318.44
287.906	337.44
288.138	339.44
288.369	321.44
288.6	335.44
288.831	335.44
289.062	333.44
289.293	337.44
289.524	317.44
289.755	315.44
289.986	304.44
290.217	318.44
290.448	310.44
290.679	327.44
290.91	335.44
291.141	314.44
291.371	318.44
291.602	309.44
291.833	325.44
292.064	319.44
292.295	324.44
292.526	327.44
292.757	327.44
292.987	328.44
293.218	324.44
293.449	343.44
293.68	319.44
293.91	325.44
294.141	344.44
294.372	327.44
294.603	336.44
294.833	318.44
295.064	328.44
295.295	324.44
295.525	340.44
295.756	350.44
295.987	349.44
296.217	367.44
296.448	391.44
296.679	332.44
296.909	349.44
297.14	333.44
297.37	347.44
297.601	349.44
297.831	333.44
298.062	347.44
298.292	340.44
298.523	361.44
298.753	342.44
298.984	357.44
299.214	339.44
299.445	331.44
299.675	340.44
299.905	368.44
300.136	341.44
300.366	367.44
300.597	369.44
300.827	351.44
301.057	368.44
301.288	383.44
301.518	355.44
301.748	337.44
301.979	371.44
302.209	371.44
302.439	380.44
302.669	377.44
302.9	384.44
303.13	371.44
303.36	363.44
303.59	361.44
303.82	391.44
304.051	390.44
304.281	382.44
304.511	366.44
304.741	374.44
304.971	379.44
305.201	373.44
305.431	357.44
305.661	368.44
305.891	371.44
306.121	388.44
306.352	366.44
306.582	400.44
306.812	361.44
307.042	376.44
307.272	377.44
307.502	372.44
307.731	381.44
307.961	381.44
308.191	365.44
308.421	374.44
308.651	379.44
308.881	379.44
309.111	393.44
309.341	372.44
309.571	399.44
309.8	392.44
310.03	391.44
310.26	396.44
310.49	391.44
310.72	432.44
310.949	424.44
311.179	432.44
311.409	430.44
311.639	409.44
311.868	414.44
312.098	425.44
312.328	420.44
312.557	448.44
312.787	451.44
313.017	440.44
313.246	428.44
313.476	406.44
313.706	421.44
313.935	422.44
314.165	430.44
314.394	428.44
314.624	472.44
314.853	435.44
315.083	420.44
315.312	437.44
315.542	421.44
315.771	420.44
316.001	415.44
316.23	415.44
316.46	403.44
316.689	412.44
316.919	420.44
317.148	430.44
317.377	439.44
317.607	441.44
317.836	413.44
318.065	411.44
318.295	417.44
318.524	419.44
318.753	411.44
318.983	405.44
319.212	400.44
319.441	430.44
319.67	423.44
319.9	430.44
320.129	425.44
320.358	419.44
320.587	431.44
320.816	439.44
321.046	443.44
321.275	454.44
321.504	440.44
321.733	414.44
321.962	430.44
322.191	451.44
322.42	481.44
322.649	463.44
322.878	488.44
323.108	480.44
323.337	486.44
323.566	517.44
323.795	575.44
324.024	608.44
324.253	702.44
324.482	977.44
324.71	1459.44
324.939	2102.44
325.168	1780.44
325.397	925.44
325.626	675.44
325.855	567.44
326.084	536.44
326.313	544.44
326.542	536.44
326.77	573.44
326.999	646.44
327.228	871.44
327.457	1292.44
327.686	1541.44
327.914	1045.44
328.143	738.44
328.372	631.44
328.6	623.44
328.829	604.44
329.058	590.44
329.287	636.44
329.515	570.44
329.744	560.44
329.972	549.44
330.201	579.44
330.43	602.44
330.658	635.44
330.887	638.44
331.115	632.44
331.344	562.44
331.572	551.44
331.801	546.44
332.03	563.44
332.258	529.44
332.486	497.44
332.715	524.44
332.943	516.44
333.172	532.44
333.4	545.44
333.629	541.44
333.857	564.44
334.085	553.44
334.314	579.44
334.542	607.44
334.771	602.44
334.999	554.44
335.227	538.44
335.455	518.44
335.684	515.44
335.912	488.44
336.14	511.44
336.369	493.44
336.597	515.44
336.825	495.44
337.053	503.44
337.281	496.44
337.51	501.44
337.738	490.44
337.966	509.44
338.194	477.44
338.422	490.44
338.65	472.44
338.878	482.44
339.106	495.44
339.334	481.44
339.562	489.44
339.79	461.44
340.018	469.44
340.246	478.44
340.474	477.44
340.702	471.44
340.93	481.44
341.158	446.44
341.386	459.44
341.614	463.44
341.842	467.44
342.07	478.44
342.298	475.44
342.526	468.44
342.754	460.44
342.981	453.44
343.209	468.44
343.437	486.44
343.665	487.44
343.893	508.44
344.12	497.44
344.348	477.44
344.576	485.44
344.804	513.44
345.031	484.44
345.259	475.44
345.487	476.44
345.714	456.44
345.942	455.44
346.17	459.44
346.397	463.44
346.625	445.44
346.853	461.44
347.08	452.44
347.308	462.44
347.535	467.44
347.763	486.44
347.99	470.44
348.218	460.44
348.445	455.44
348.673	446.44
348.9	448.44
349.128	468.44
349.355	426.44
349.583	430.44
349.81	435.44
350.037	449.44
350.265	420.44
350.492	451.44
350.72	439.44
350.947	455.44
351.174	453.44
351.402	442.44
351.629	447.44
351.856	459.44
352.083	489.44
352.311	480.44
352.538	447.44
352.765	476.44
352.992	458.44
353.22	446.44
353.447	458.44
353.674	443.44
353.901	455.44
354.128	412.44
354.355	435.44
354.583	426.44
354.81	407.44
355.037	427.44
355.264	427.44
355.491	421.44
355.718	428.44
355.945	432.44
356.172	412.44
356.399	431.44
356.626	406.44
356.853	419.44
357.08	411.44
357.307	402.44
357.534	418.44
357.761	426.44
357.988	420.44
358.215	417.44
358.441	420.44
358.668	418.44
358.895	442.44
359.122	427.44
359.349	430.44
359.576	456.44
359.802	451.44
360.029	471.44
360.256	494.44
360.483	492.44
360.709	454.44
360.936	454.44
361.163	466.44
361.39	425.44
361.616	455.44
361.843	452.44
362.07	457.44
362.296	466.44
362.523	441.44
362.749	436.44
362.976	441.44
363.203	420.44
363.429	443.44
363.656	439.44
363.882	443.44
364.109	409.44
364.335	414.44
364.562	415.44
364.788	431.44
365.015	432.44
365.241	428.44
365.468	415.44
365.694	435.44
365.92	406.44
366.147	428.44
366.373	411.44
366.599	425.44
366.826	415.44
367.052	425.44
367.278	425.44
367.505	412.44
367.731	432.44
367.957	420.44
368.184	409.44
368.41	446.44
368.636	439.44
368.862	446.44
369.089	427.44
369.315	427.44
369.541	428.44
369.767	445.44
369.993	428.44
370.219	432.44
370.445	421.44
370.672	418.44
370.898	413.44
371.124	416.44
371.35	428.44
371.576	433.44
371.802	445.44
372.028	420.44
372.254	426.44
372.48	424.44
372.706	433.44
372.932	440.44
373.158	429.44
373.384	450.44
373.61	419.44
373.835	445.44
374.061	413.44
374.287	417.44
374.513	454.44
374.739	437.44
374.965	440.44
375.191	453.44
375.416	438.44
375.642	438.44
375.868	443.44
376.094	452.44
376.319	422.44
376.545	409.44
376.771	411.44
376.997	423.44
377.222	442.44
377.448	426.44
377.674	441.44
377.899	413.44
378.125	428.44
378.35	407.44
378.576	424.44
378.802	412.44
379.027	432.44
379.253	430.44
379.478	431.44
379.704	421.44
379.929	423.44
380.155	426.44
380.38	418.44
380.606	411.44
380.831	419.44
381.057	433.44
381.282	418.44
381.507	439.44
381.733	446.44
381.958	424.44
382.184	426.44
382.409	427.44
382.634	418.44
382.86	434.44
383.085	406.44
383.31	442.44
383.535	439.44
383.761	432.44
383.986	455.44
384.211	453.44
384.436	452.44
384.662	463.44
384.887	473.44
385.112	454.44
385.337	469.44
385.562	465.44
385.787	450.44
386.013	480.44
386.238	495.44
386.463	469.44
386.688	493.44
386.913	467.44
387.138	480.44
387.363	469.44
387.588	480.44
387.813	469.44
388.038	468.44
388.263	460.44
388.488	472.44
388.713	461.44
388.938	493.44
389.163	486.44
389.387	463.44
389.612	451.44
389.837	464.44
390.062	458.44
390.287	459.44
390.512	453.44
390.736	459.44
390.961	459.44
391.186	478.44
391.411	466.44
391.636	472.44
391.86	494.44
392.085	502.44
392.31	523.44
392.534	475.44
392.759	482.44
392.984	474.44
393.208	472.44
393.433	473.44
393.658	459.44
393.882	470.44
394.107	486.44
394.331	489.44
394.556	492.44
394.78	476.44
395.005	477.44
395.229	482.44
395.454	486.44
395.678	490.44
395.903	529.44
396.127	531.44
396.352	522.44
396.576	527.44
396.801	501.44
397.025	495.44
397.249	525.44
397.474	513.44
397.698	516.44
397.922	531.44
398.147	534.44
398.371	538.44
398.595	535.44
398.82	557.44
399.044	566.44
399.268	617.44
399.492	656.44
399.717	686.44
399.941	707.44
400.165	727.44
400.389	684.44
400.613	627.44
400.837	574.44
401.062	575.44
401.286	572.44
401.51	554.44
401.734	544.44
401.958	551.44
402.182	536.44
402.406	545.44
402.63	573.44
402.854	547.44
403.078	584.44
403.302	590.44
403.526	586.44
403.75	604.44
403.974	593.44
404.198	565.44
404.422	569.44
404.645	553.44
404.869	604.44
405.093	616.44
405.317	643.44
405.541	691.44
405.765	635.44
405.988	609.44
406.212	616.44
406.436	635.44
406.66	627.44
406.883	653.44
407.107	649.44
407.331	696.44
407.555	759.44
407.778	761.44
408.002	684.44
408.226	627.44
408.449	614.44
408.673	618.44
408.896	639.44
409.12	665.44
409.344	631.44
409.567	595.44
409.791	573.44
410.014	583.44
410.238	567.44
410.461	573.44
410.685	583.44
410.908	601.44
411.132	621.44
411.355	632.44
411.578	618.44
411.802	573.44
412.025	569.44
412.249	591.44
412.472	600.44
412.695	633.44
412.919	635.44
413.142	589.44
413.365	567.44
413.589	575.44
413.812	553.44
414.035	520.44
414.258	531.44
414.482	536.44
414.705	548.44
414.928	544.44
415.151	535.44
415.374	526.44
415.597	545.44
415.821	520.44
416.044	519.44
416.267	529.44
416.49	530.44
416.713	488.44
416.936	531.44
417.159	525.44
417.382	536.44
417.605	540.44
417.828	529.44
418.051	567.44
418.274	566.44
418.497	533.44
418.72	553.44
418.943	531.44
419.166	558.44
419.389	601.44
419.611	571.44
419.834	568.44
420.057	571.44
420.28	589.44
420.503	583.44
420.726	569.44
420.948	572.44
421.171	622.44
421.394	619.44
421.617	564.44
421.839	564.44
422.062	569.44
422.285	534.44
422.507	610.44
422.73	682.44
422.953	629.44
423.175	595.44
423.398	570.44
423.621	591.44
423.843	588.44
424.066	594.44
424.288	588.44
424.511	599.44
424.733	679.44
424.956	730.44
425.178	701.44
425.401	681.44
425.623	707.44
425.846	617.44
426.068	577.44
426.291	576.44
426.513	566.44
426.735	580.44
426.958	621.44
427.18	713.44
427.402	817.44
427.625	885.44
427.847	771.44
428.069	664.44
428.292	614.44
428.514	575.44
428.736	542.44
428.958	550.44
429.181	520.44
429.403	509.44
429.625	551.44
429.847	566.44
430.069	614.44
430.292	628.44
430.514	544.44
430.736	526.44
430.958	549.44
431.18	494.44
431.402	512.44
431.624	483.44
431.846	507.44
432.068	496.44
432.29	503.44
432.512	515.44
432.734	521.44
432.956	508.44
433.178	511.44
433.4	534.44
433.622	518.44
433.844	508.44
434.066	509.44
434.287	525.44
434.509	523.44
434.731	540.44
434.953	528.44
435.175	561.44
435.397	565.44
435.618	544.44
435.84	591.44
436.062	687.44
436.284	755.44
436.505	632.44
436.727	584.44
436.949	537.44
437.17	534.44
437.392	518.44
437.614	535.44
437.835	572.44
438.057	660.44
438.278	720.44
438.5	767.44
438.721	831.44
438.943	755.44
439.165	617.44
439.386	568.44
439.608	556.44
439.829	587.44
440.05	599.44
440.272	633.44
440.493	592.44
440.715	551.44
440.936	558.44
441.158	543.44
441.379	540.44
441.6	534.44
441.822	587.44
442.043	597.44
442.264	682.44
442.486	743.44
442.707	624.44
442.928	589.44
443.149	602.44
443.371	604.44
443.592	677.44
443.813	728.44
444.034	777.44
444.255	697.44
444.476	612.44
444.698	624.44
444.919	603.44
445.14	714.44
445.361	676.44
445.582	607.44
445.803	663.44
446.024	779.44
446.245	785.44
446.466	693.44
446.687	581.44
446.908	574.44
447.129	534.44
447.35	543.44
447.571	519.44
447.792	514.44
448.013	518.44
448.234	534.44
448.455	579.44
448.675	686.44
448.896	767.44
449.117	662.44
449.338	645.44
449.559	748.44
449.779	848.44
450	671.44
450.221	555.44
450.442	525.44
450.662	497.44
450.883	518.44
451.104	547.44
451.324	524.44
451.545	505.44
451.766	486.44
451.986	483.44
452.207	461.44
452.428	473.44
452.648	474.44
452.869	480.44
453.089	475.44
453.31	473.44
453.53	467.44
453.751	454.44
453.971	472.44
454.192	482.44
454.412	457.44
454.633	475.44
454.853	467.44
455.073	448.44
455.294	504.44
455.514	544.44
455.734	535.44
455.955	453.44
456.175	452.44
456.395	453.44
456.616	455.44
456.836	464.44
457.056	449.44
457.276	452.44
457.497	438.44
457.717	440.44
457.937	459.44
458.157	462.44
458.377	470.44
458.598	484.44
458.818	529.44
459.038	623.44
459.258	635.44
459.478	532.44
459.698	541.44
459.918	536.44
460.138	500.44
460.358	526.44
460.578	545.44
460.798	528.44
461.018	542.44
461.238	549.44
461.458	543.44
461.678	518.44
461.898	538.44
462.118	522.44
462.338	521.44
462.558	576.44
462.777	568.44
462.997	598.44
463.217	628.44
463.437	618.44
463.657	579.44
463.876	571.44
464.096	598.44
464.316	575.44
464.536	581.44
464.755	592.44
464.975	565.44
465.195	623.44
465.414	644.44
465.634	597.44
465.854	555.44
466.073	526.44
466.293	511.44
466.512	499.44
466.732	480.44
466.951	485.44
467.171	465.44
467.391	496.44
467.61	525.44
467.829	490.44
468.049	503.44
468.268	516.44
468.488	477.44
468.707	462.44
468.927	468.44
469.146	454.44
469.365	467.44
469.585	479.44
469.804	462.44
470.023	487.44
470.243	509.44
470.462	500.44
470.681	521.44
470.901	503.44
471.12	501.44
471.339	497.44
471.558	503.44
471.777	507.44
471.997	464.44
472.216	513.44
472.435	508.44
472.654	499.44
472.873	481.44
473.092	479.44
473.311	479.44
473.53	470.44
473.749	513.44
473.968	537.44
474.187	650.44
474.406	641.44
474.625	538.44
474.844	491.44
475.063	481.44
475.282	465.44
475.501	476.44
475.72	495.44
475.939	499.44
476.158	497.44
476.377	507.44
476.596	507.44
476.814	507.44
477.033	523.44
477.252	511.44
477.471	513.44
477.69	516.44
477.908	543.44
478.127	543.44
478.346	567.44
478.564	553.44
478.783	565.44
479.002	574.44
479.22	565.44
479.439	589.44
479.658	581.44
479.876	593.44
480.095	615.44
480.313	628.44
480.532	609.44
480.751	601.44
480.969	621.44
481.188	648.44
481.406	693.44
481.624	633.44
481.843	605.44
482.061	594.44
482.28	581.44
482.498	568.44
482.717	571.44
482.935	559.44
483.153	548.44
483.372	567.44
483.59	565.44
483.808	570.44
484.027	565.44
484.245	561.44
484.463	579.44
484.681	586.44
484.9	588.44
485.118	600.44
485.336	560.44
485.554	596.44
485.772	588.44
485.99	587.44
486.209	557.44
486.427	597.44
486.645	572.44
486.863	624.44
487.081	616.44
487.299	631.44
487.517	608.44
487.735	610.44
487.953	593.44
488.171	600.44
488.389	598.44
488.607	604.44
488.825	599.44
489.043	605.44
489.261	596.44
489.479	602.44
489.696	596.44
489.914	631.44
490.132	654.44
490.35	616.44
490.568	641.44
490.786	631.44
491.003	671.44
491.221	681.44
491.439	673.44
491.657	681.44
491.874	692.44
492.092	680.44
492.31	694.44
492.527	685.44
492.745	720.44
492.963	722.44
493.18	711.44
493.398	703.44
493.615	677.44
493.833	717.44
494.05	716.44
494.268	696.44
494.485	681.44
494.703	715.44
494.92	710.44
495.138	700.44
495.355	701.44
495.573	719.44
495.79	739.44
496.008	709.44
496.225	714.44
496.442	685.44
496.66	696.44
496.877	701.44
497.094	753.44
497.312	744.44
497.529	734.44
497.746	753.44
497.963	779.44
498.181	783.44
498.398	812.44
498.615	826.44
498.832	853.44
499.049	883.44
499.267	907.44
499.484	966.44
499.701	977.44
499.918	1043.44
500.135	1116.44
500.352	1191.44
500.569	1223.44
500.786	1239.44
501.003	1195.44
501.22	1123.44
501.437	1077.44
501.654	1019.44
501.871	1020.44
