Data from 1985.PennyLincolnUp.Lamp.En5.5.200Scan.071819.P1_HRD10591_17-01-50-969.txt Node
Date: Thu Jul 18 17:01:50 EDT 2019
User: cochatt
Spectrometer: HR+D1059
Trigger mode: 1
Integration Time (sec): 1.000000E-1
Scans to average: 1
Electric dark correction enabled: true
Nonlinearity correction enabled: false
Boxcar width: 0
XAxis mode: Wavelengths
Number of Pixels in Spectrum: 2048
>>>>>Begin Spectral Data<<<<<
223.165	-7.12
223.4	-7.12
223.635	-7.12
223.869	-18.12
224.104	-24.12
224.338	-20.12
224.573	-9.12
224.808	-4.12
225.042	-12.12
225.277	-10.12
225.511	-2.12
225.746	6.88
225.98	-3.12
226.215	13.88
226.449	15.88
226.683	19.88
226.918	25.88
227.152	27.88
227.387	43.88
227.621	49.88
227.856	42.88
228.09	50.88
228.324	50.88
228.559	49.88
228.793	69.88
229.027	93.88
229.262	111.88
229.496	110.88
229.73	131.88
229.964	135.88
230.199	119.88
230.433	108.88
230.667	99.88
230.901	120.88
231.136	103.88
231.37	107.88
231.604	111.88
231.838	109.88
232.072	107.88
232.306	115.88
232.541	110.88
232.775	116.88
233.009	110.88
233.243	117.88
233.477	107.88
233.711	108.88
233.945	104.88
234.179	122.88
234.413	113.88
234.647	118.88
234.881	119.88
235.115	115.88
235.349	126.88
235.583	114.88
235.817	118.88
236.051	135.88
236.285	137.88
236.519	126.88
236.753	134.88
236.987	140.88
237.221	166.88
237.455	213.88
237.689	170.88
237.922	143.88
238.156	131.88
238.39	123.88
238.624	128.88
238.858	135.88
239.091	125.88
239.325	131.88
239.559	127.88
239.793	133.88
240.027	138.88
240.26	124.88
240.494	120.88
240.728	132.88
240.961	151.88
241.195	134.88
241.429	145.88
241.662	120.88
241.896	122.88
242.13	143.88
242.363	126.88
242.597	132.88
242.83	136.88
243.064	140.88
243.298	122.88
243.531	145.88
243.765	150.88
243.998	130.88
244.232	149.88
244.465	152.88
244.699	160.88
244.932	154.88
245.166	125.88
245.399	145.88
245.633	140.88
245.866	149.88
246.099	144.88
246.333	139.88
246.566	153.88
246.8	158.88
247.033	163.88
247.266	155.88
247.5	162.88
247.733	154.88
247.966	185.88
248.2	174.88
248.433	169.88
248.666	157.88
248.899	187.88
249.133	186.88
249.366	201.88
249.599	194.88
249.832	175.88
250.066	182.88
250.299	173.88
250.532	187.88
250.765	191.88
250.998	208.88
251.231	214.88
251.465	218.88
251.698	190.88
251.931	188.88
252.164	196.88
252.397	197.88
252.63	180.88
252.863	208.88
253.096	212.88
253.329	228.88
253.562	229.88
253.795	205.88
254.028	199.88
254.261	202.88
254.494	217.88
254.727	244.88
254.96	263.88
255.193	242.88
255.426	211.88
255.659	213.88
255.892	206.88
256.124	221.88
256.357	189.88
256.59	190.88
256.823	213.88
257.056	184.88
257.289	204.88
257.521	206.88
257.754	204.88
257.987	198.88
258.22	196.88
258.452	217.88
258.685	201.88
258.918	212.88
259.151	204.88
259.383	212.88
259.616	197.88
259.849	224.88
260.081	231.88
260.314	240.88
260.547	247.88
260.779	263.88
261.012	255.88
261.244	225.88
261.477	231.88
261.71	226.88
261.942	213.88
262.175	220.88
262.407	229.88
262.64	219.88
262.872	222.88
263.105	216.88
263.337	228.88
263.57	214.88
263.802	220.88
264.035	225.88
264.267	207.88
264.499	217.88
264.732	212.88
264.964	223.88
265.197	222.88
265.429	211.88
265.661	242.88
265.894	220.88
266.126	226.88
266.358	226.88
266.591	214.88
266.823	231.88
267.055	228.88
267.287	225.88
267.52	234.88
267.752	214.88
267.984	237.88
268.216	222.88
268.448	243.88
268.681	249.88
268.913	258.88
269.145	253.88
269.377	270.88
269.609	266.88
269.841	269.88
270.073	278.88
270.306	284.88
270.538	310.88
270.77	308.88
271.002	292.88
271.234	279.88
271.466	287.88
271.698	316.88
271.93	301.88
272.162	316.88
272.394	326.88
272.626	316.88
272.858	277.88
273.09	282.88
273.322	280.88
273.553	278.88
273.785	277.88
274.017	266.88
274.249	269.88
274.481	261.88
274.713	265.88
274.945	279.88
275.176	277.88
275.408	262.88
275.64	267.88
275.872	266.88
276.104	271.88
276.335	272.88
276.567	281.88
276.799	262.88
277.031	300.88
277.262	335.88
277.494	320.88
277.726	324.88
277.957	275.88
278.189	289.88
278.421	293.88
278.652	299.88
278.884	288.88
279.115	271.88
279.347	261.88
279.579	272.88
279.81	276.88
280.042	286.88
280.273	283.88
280.505	284.88
280.736	289.88
280.968	276.88
281.199	286.88
281.431	300.88
281.662	291.88
281.894	279.88
282.125	287.88
282.356	278.88
282.588	313.88
282.819	325.88
283.051	308.88
283.282	287.88
283.513	291.88
283.745	299.88
283.976	295.88
284.207	311.88
284.439	307.88
284.67	291.88
284.901	293.88
285.132	294.88
285.364	286.88
285.595	308.88
285.826	298.88
286.057	298.88
286.288	294.88
286.52	306.88
286.751	311.88
286.982	316.88
287.213	318.88
287.444	324.88
287.675	313.88
287.906	311.88
288.138	321.88
288.369	308.88
288.6	310.88
288.831	331.88
289.062	292.88
289.293	306.88
289.524	312.88
289.755	311.88
289.986	327.88
290.217	311.88
290.448	314.88
290.679	303.88
290.91	308.88
291.141	310.88
291.371	311.88
291.602	302.88
291.833	319.88
292.064	327.88
292.295	314.88
292.526	314.88
292.757	314.88
292.987	304.88
293.218	314.88
293.449	299.88
293.68	315.88
293.91	304.88
294.141	326.88
294.372	317.88
294.603	323.88
294.833	321.88
295.064	319.88
295.295	331.88
295.525	296.88
295.756	329.88
295.987	324.88
296.217	356.88
296.448	343.88
296.679	355.88
296.909	326.88
297.14	322.88
297.37	330.88
297.601	322.88
297.831	324.88
298.062	336.88
298.292	320.88
298.523	350.88
298.753	324.88
298.984	326.88
299.214	319.88
299.445	335.88
299.675	332.88
299.905	351.88
300.136	326.88
300.366	346.88
300.597	323.88
300.827	357.88
301.057	362.88
301.288	345.88
301.518	366.88
301.748	330.88
301.979	349.88
302.209	346.88
302.439	351.88
302.669	357.88
302.9	361.88
303.13	356.88
303.36	358.88
303.59	367.88
303.82	380.88
304.051	382.88
304.281	350.88
304.511	343.88
304.741	358.88
304.971	366.88
305.201	355.88
305.431	366.88
305.661	364.88
305.891	366.88
306.121	378.88
306.352	366.88
306.582	364.88
306.812	359.88
307.042	365.88
307.272	355.88
307.502	362.88
307.731	372.88
307.961	360.88
308.191	372.88
308.421	362.88
308.651	363.88
308.881	363.88
309.111	366.88
309.341	364.88
309.571	372.88
309.8	366.88
310.03	406.88
310.26	378.88
310.49	395.88
310.72	388.88
310.949	392.88
311.179	411.88
311.409	406.88
311.639	400.88
311.868	405.88
312.098	380.88
312.328	391.88
312.557	425.88
312.787	443.88
313.017	430.88
313.246	421.88
313.476	395.88
313.706	384.88
313.935	417.88
314.165	414.88
314.394	422.88
314.624	424.88
314.853	407.88
315.083	407.88
315.312	418.88
315.542	399.88
315.771	400.88
316.001	387.88
316.23	404.88
316.46	424.88
316.689	416.88
316.919	412.88
317.148	407.88
317.377	398.88
317.607	422.88
317.836	410.88
318.065	444.88
318.295	421.88
318.524	401.88
318.753	405.88
318.983	413.88
319.212	397.88
319.441	418.88
319.67	409.88
319.9	406.88
320.129	404.88
320.358	410.88
320.587	421.88
320.816	414.88
321.046	436.88
321.275	414.88
321.504	426.88
321.733	419.88
321.962	440.88
322.191	444.88
322.42	437.88
322.649	438.88
322.878	466.88
323.108	456.88
323.337	489.88
323.566	493.88
323.795	505.88
324.024	563.88
324.253	635.88
324.482	844.88
324.71	1259.88
324.939	1702.88
325.168	1476.88
325.397	834.88
325.626	587.88
325.855	542.88
326.084	509.88
326.313	515.88
326.542	494.88
326.77	539.88
326.999	618.88
327.228	785.88
327.457	1092.88
327.686	1335.88
327.914	904.88
328.143	627.88
328.372	572.88
328.6	528.88
328.829	520.88
329.058	552.88
329.287	524.88
329.515	543.88
329.744	503.88
329.972	506.88
330.201	490.88
330.43	517.88
330.658	532.88
330.887	563.88
331.115	566.88
331.344	508.88
331.572	500.88
331.801	491.88
332.03	496.88
332.258	517.88
332.486	490.88
332.715	512.88
332.943	515.88
333.172	495.88
333.4	501.88
333.629	518.88
333.857	519.88
334.085	503.88
334.314	504.88
334.542	517.88
334.771	508.88
334.999	512.88
335.227	501.88
335.455	505.88
335.684	489.88
335.912	489.88
336.14	461.88
336.369	480.88
336.597	473.88
336.825	481.88
337.053	475.88
337.281	470.88
337.51	479.88
337.738	472.88
337.966	469.88
338.194	468.88
338.422	461.88
338.65	470.88
338.878	445.88
339.106	469.88
339.334	466.88
339.562	439.88
339.79	452.88
340.018	463.88
340.246	461.88
340.474	454.88
340.702	459.88
340.93	475.88
341.158	463.88
341.386	467.88
341.614	444.88
341.842	463.88
342.07	448.88
342.298	462.88
342.526	425.88
342.754	432.88
342.981	450.88
343.209	444.88
343.437	452.88
343.665	468.88
343.893	474.88
344.12	484.88
344.348	494.88
344.576	481.88
344.804	467.88
345.031	478.88
345.259	484.88
345.487	446.88
345.714	463.88
345.942	445.88
346.17	458.88
346.397	437.88
346.625	452.88
346.853	427.88
347.08	424.88
347.308	432.88
347.535	440.88
347.763	427.88
347.99	436.88
348.218	422.88
348.445	428.88
348.673	437.88
348.9	447.88
349.128	432.88
349.355	428.88
349.583	419.88
349.81	403.88
350.037	414.88
350.265	415.88
350.492	431.88
350.72	422.88
350.947	412.88
351.174	437.88
351.402	441.88
351.629	442.88
351.856	421.88
352.083	440.88
352.311	424.88
352.538	446.88
352.765	454.88
352.992	431.88
353.22	418.88
353.447	431.88
353.674	431.88
353.901	407.88
354.128	393.88
354.355	409.88
354.583	447.88
354.81	411.88
355.037	413.88
355.264	398.88
355.491	402.88
355.718	411.88
355.945	408.88
356.172	412.88
356.399	398.88
356.626	392.88
356.853	420.88
357.08	415.88
357.307	392.88
357.534	416.88
357.761	401.88
357.988	422.88
358.215	408.88
358.441	416.88
358.668	399.88
358.895	404.88
359.122	404.88
359.349	413.88
359.576	411.88
359.802	438.88
360.029	462.88
360.256	472.88
360.483	454.88
360.709	431.88
360.936	441.88
361.163	444.88
361.39	438.88
361.616	434.88
361.843	423.88
362.07	420.88
362.296	431.88
362.523	434.88
362.749	416.88
362.976	425.88
363.203	429.88
363.429	430.88
363.656	427.88
363.882	413.88
364.109	418.88
364.335	413.88
364.562	411.88
364.788	433.88
365.015	413.88
365.241	400.88
365.468	410.88
365.694	423.88
365.92	422.88
366.147	397.88
366.373	421.88
366.599	398.88
366.826	430.88
367.052	414.88
367.278	398.88
367.505	406.88
367.731	420.88
367.957	414.88
368.184	419.88
368.41	400.88
368.636	427.88
368.862	426.88
369.089	416.88
369.315	414.88
369.541	406.88
369.767	427.88
369.993	379.88
370.219	415.88
370.445	381.88
370.672	412.88
370.898	423.88
371.124	420.88
371.35	439.88
371.576	428.88
371.802	399.88
372.028	412.88
372.254	414.88
372.48	422.88
372.706	428.88
372.932	451.88
373.158	427.88
373.384	436.88
373.61	434.88
373.835	423.88
374.061	444.88
374.287	411.88
374.513	440.88
374.739	426.88
374.965	445.88
375.191	436.88
375.416	408.88
375.642	451.88
375.868	428.88
376.094	451.88
376.319	429.88
376.545	413.88
376.771	402.88
376.997	408.88
377.222	412.88
377.448	408.88
377.674	417.88
377.899	387.88
378.125	417.88
378.35	425.88
378.576	438.88
378.802	385.88
379.027	404.88
379.253	410.88
379.478	410.88
379.704	408.88
379.929	398.88
380.155	421.88
380.38	400.88
380.606	414.88
380.831	424.88
381.057	411.88
381.282	402.88
381.507	405.88
381.733	414.88
381.958	416.88
382.184	432.88
382.409	419.88
382.634	443.88
382.86	430.88
383.085	416.88
383.31	414.88
383.535	446.88
383.761	443.88
383.986	435.88
384.211	449.88
384.436	443.88
384.662	464.88
384.887	435.88
385.112	476.88
385.337	473.88
385.562	465.88
385.787	450.88
386.013	471.88
386.238	476.88
386.463	458.88
386.688	494.88
386.913	484.88
387.138	467.88
387.363	455.88
387.588	451.88
387.813	460.88
388.038	472.88
388.263	463.88
388.488	466.88
388.713	465.88
388.938	458.88
389.163	462.88
389.387	423.88
389.612	460.88
389.837	438.88
390.062	464.88
390.287	466.88
390.512	454.88
390.736	467.88
390.961	459.88
391.186	472.88
391.411	493.88
391.636	484.88
391.86	478.88
392.085	483.88
392.31	482.88
392.534	467.88
392.759	478.88
392.984	473.88
393.208	488.88
393.433	473.88
393.658	474.88
393.882	446.88
394.107	484.88
394.331	492.88
394.556	470.88
394.78	466.88
395.005	469.88
395.229	475.88
395.454	488.88
395.678	490.88
395.903	484.88
396.127	520.88
396.352	488.88
396.576	484.88
396.801	475.88
397.025	483.88
397.249	487.88
397.474	507.88
397.698	508.88
397.922	505.88
398.147	534.88
398.371	542.88
398.595	533.88
398.82	529.88
399.044	552.88
399.268	602.88
399.492	630.88
399.717	668.88
399.941	705.88
400.165	697.88
400.389	655.88
400.613	613.88
400.837	573.88
401.062	565.88
401.286	543.88
401.51	536.88
401.734	536.88
401.958	548.88
402.182	543.88
402.406	546.88
402.63	551.88
402.854	556.88
403.078	571.88
403.302	548.88
403.526	571.88
403.75	568.88
403.974	580.88
404.198	553.88
404.422	568.88
404.645	564.88
404.869	556.88
405.093	592.88
405.317	582.88
405.541	607.88
405.765	587.88
405.988	565.88
406.212	586.88
406.436	604.88
406.66	608.88
406.883	605.88
407.107	620.88
407.331	668.88
407.555	728.88
407.778	720.88
408.002	669.88
408.226	624.88
408.449	613.88
408.673	596.88
408.896	615.88
409.12	662.88
409.344	631.88
409.567	599.88
409.791	562.88
410.014	569.88
410.238	567.88
410.461	546.88
410.685	559.88
410.908	564.88
411.132	590.88
411.355	617.88
411.578	586.88
411.802	575.88
412.025	539.88
412.249	538.88
412.472	566.88
412.695	528.88
412.919	541.88
413.142	537.88
413.365	512.88
413.589	530.88
413.812	522.88
414.035	536.88
414.258	516.88
414.482	516.88
414.705	510.88
414.928	524.88
415.151	515.88
415.374	504.88
415.597	514.88
415.821	504.88
416.044	509.88
416.267	512.88
416.49	523.88
416.713	498.88
416.936	506.88
417.159	525.88
417.382	514.88
417.605	524.88
417.828	525.88
418.051	528.88
418.274	523.88
418.497	541.88
418.72	527.88
418.943	505.88
419.166	533.88
419.389	548.88
419.611	565.88
419.834	544.88
420.057	525.88
420.28	524.88
420.503	528.88
420.726	515.88
420.948	545.88
421.171	579.88
421.394	601.88
421.617	541.88
421.839	539.88
422.062	541.88
422.285	541.88
422.507	618.88
422.73	671.88
422.953	636.88
423.175	573.88
423.398	580.88
423.621	539.88
423.843	581.88
424.066	583.88
424.288	573.88
424.511	579.88
424.733	634.88
424.956	674.88
425.178	666.88
425.401	631.88
425.623	638.88
425.846	573.88
426.068	570.88
426.291	565.88
426.513	527.88
426.735	547.88
426.958	590.88
427.18	658.88
427.402	749.88
427.625	841.88
427.847	694.88
428.069	604.88
428.292	555.88
428.514	543.88
428.736	529.88
428.958	529.88
429.181	517.88
429.403	515.88
429.625	516.88
429.847	534.88
430.069	592.88
430.292	591.88
430.514	535.88
430.736	522.88
430.958	498.88
431.18	479.88
431.402	490.88
431.624	490.88
431.846	504.88
432.068	467.88
432.29	503.88
432.512	462.88
432.734	496.88
432.956	489.88
433.178	486.88
433.4	499.88
433.622	471.88
433.844	497.88
434.066	471.88
434.287	484.88
434.509	509.88
434.731	553.88
434.953	519.88
435.175	538.88
435.397	539.88
435.618	540.88
435.84	594.88
436.062	646.88
436.284	711.88
436.505	626.88
436.727	540.88
436.949	529.88
437.17	555.88
437.392	492.88
437.614	503.88
437.835	540.88
438.057	624.88
438.278	695.88
438.5	693.88
438.721	774.88
438.943	742.88
439.165	584.88
439.386	543.88
439.608	563.88
439.829	540.88
440.05	570.88
440.272	616.88
440.493	580.88
440.715	530.88
440.936	537.88
441.158	526.88
441.379	516.88
441.6	523.88
441.822	547.88
442.043	586.88
442.264	661.88
442.486	702.88
442.707	599.88
442.928	574.88
443.149	575.88
443.371	572.88
443.592	623.88
443.813	708.88
444.034	746.88
444.255	636.88
444.476	623.88
444.698	606.88
444.919	591.88
445.14	690.88
445.361	638.88
445.582	602.88
445.803	652.88
446.024	716.88
446.245	734.88
446.466	657.88
446.687	582.88
446.908	537.88
447.129	510.88
447.35	495.88
447.571	493.88
447.792	499.88
448.013	491.88
448.234	484.88
448.455	542.88
448.675	644.88
448.896	749.88
449.117	642.88
449.338	617.88
449.559	699.88
449.779	794.88
450	624.88
450.221	528.88
450.442	521.88
450.662	483.88
450.883	491.88
451.104	496.88
451.324	482.88
451.545	475.88
451.766	474.88
451.986	469.88
452.207	451.88
452.428	461.88
452.648	450.88
452.869	453.88
453.089	474.88
453.31	479.88
453.53	470.88
453.751	460.88
453.971	453.88
454.192	469.88
454.412	475.88
454.633	447.88
454.853	443.88
455.073	446.88
455.294	482.88
455.514	509.88
455.734	504.88
455.955	418.88
456.175	435.88
456.395	427.88
456.616	420.88
456.836	432.88
457.056	400.88
457.276	426.88
457.497	447.88
457.717	453.88
457.937	429.88
458.157	454.88
458.377	444.88
458.598	476.88
458.818	502.88
459.038	584.88
459.258	602.88
459.478	541.88
459.698	481.88
459.918	498.88
460.138	495.88
460.358	536.88
460.578	514.88
460.798	542.88
461.018	544.88
461.238	524.88
461.458	532.88
461.678	547.88
461.898	521.88
462.118	529.88
462.338	535.88
462.558	547.88
462.777	564.88
462.997	597.88
463.217	624.88
463.437	613.88
463.657	597.88
463.876	570.88
464.096	570.88
464.316	537.88
464.536	574.88
464.755	567.88
464.975	559.88
465.195	576.88
465.414	621.88
465.634	575.88
465.854	515.88
466.073	503.88
466.293	490.88
466.512	478.88
466.732	476.88
466.951	483.88
467.171	467.88
467.391	491.88
467.61	500.88
467.829	481.88
468.049	454.88
468.268	455.88
468.488	452.88
468.707	439.88
468.927	451.88
469.146	472.88
469.365	459.88
469.585	451.88
469.804	466.88
470.023	461.88
470.243	471.88
470.462	475.88
470.681	503.88
470.901	491.88
471.12	473.88
471.339	459.88
471.558	484.88
471.777	482.88
471.997	471.88
472.216	454.88
472.435	460.88
472.654	456.88
472.873	483.88
473.092	466.88
473.311	471.88
473.53	463.88
473.749	472.88
473.968	509.88
474.187	582.88
474.406	623.88
474.625	524.88
474.844	476.88
475.063	470.88
475.282	481.88
475.501	478.88
475.72	483.88
475.939	474.88
476.158	498.88
476.377	496.88
476.596	493.88
476.814	476.88
477.033	494.88
477.252	522.88
477.471	502.88
477.69	510.88
477.908	508.88
478.127	533.88
478.346	540.88
478.564	539.88
478.783	574.88
479.002	534.88
479.22	543.88
479.439	540.88
479.658	574.88
479.876	576.88
480.095	588.88
480.313	608.88
480.532	585.88
480.751	600.88
480.969	588.88
481.188	597.88
481.406	582.88
481.624	559.88
481.843	556.88
482.061	566.88
482.28	549.88
482.498	555.88
482.717	522.88
482.935	534.88
483.153	565.88
483.372	537.88
483.59	523.88
483.808	562.88
484.027	558.88
484.245	550.88
484.463	556.88
484.681	565.88
484.9	578.88
485.118	548.88
485.336	573.88
485.554	591.88
485.772	577.88
485.99	555.88
486.209	572.88
486.427	569.88
486.645	580.88
486.863	601.88
487.081	586.88
487.299	588.88
487.517	562.88
487.735	589.88
487.953	587.88
488.171	579.88
488.389	606.88
488.607	574.88
488.825	559.88
489.043	589.88
489.261	587.88
489.479	591.88
489.696	587.88
489.914	588.88
490.132	590.88
490.35	606.88
490.568	585.88
490.786	605.88
491.003	621.88
491.221	623.88
491.439	615.88
491.657	644.88
491.874	653.88
492.092	659.88
492.31	642.88
492.527	663.88
492.745	636.88
492.963	620.88
493.18	654.88
493.398	659.88
493.615	660.88
493.833	674.88
494.05	666.88
494.268	662.88
494.485	677.88
494.703	681.88
494.92	675.88
495.138	676.88
495.355	665.88
495.573	663.88
495.79	670.88
496.008	680.88
496.225	690.88
496.442	680.88
496.66	673.88
496.877	684.88
497.094	702.88
497.312	686.88
497.529	708.88
497.746	722.88
497.963	760.88
498.181	773.88
498.398	785.88
498.615	792.88
498.832	833.88
499.049	838.88
499.267	871.88
499.484	917.88
499.701	983.88
499.918	999.88
500.135	1099.88
500.352	1195.88
500.569	1180.88
500.786	1166.88
501.003	1140.88
501.22	1074.88
501.437	1061.88
501.654	1010.88
501.871	959.88
