Data from 1985.PennyLincolnUp.Lamp.En5.5.200Scan.071819.P1_HRD10591_17-02-35-970.txt Node
Date: Thu Jul 18 17:02:35 EDT 2019
User: cochatt
Spectrometer: HR+D1059
Trigger mode: 1
Integration Time (sec): 1.000000E-1
Scans to average: 1
Electric dark correction enabled: true
Nonlinearity correction enabled: false
Boxcar width: 0
XAxis mode: Wavelengths
Number of Pixels in Spectrum: 2048
>>>>>Begin Spectral Data<<<<<
223.165	-6.12
223.4	-6.12
223.635	-6.12
223.869	-25.12
224.104	-17.12
224.338	-15.12
224.573	-20.12
224.808	-6.12
225.042	2.88
225.277	-3.12
225.511	-18.12
225.746	-0.12
225.98	-4.12
226.215	21.88
226.449	9.88
226.683	23.88
226.918	31.88
227.152	24.88
227.387	28.88
227.621	17.88
227.856	23.88
228.09	50.88
228.324	41.88
228.559	47.88
228.793	53.88
229.027	89.88
229.262	87.88
229.496	97.88
229.73	117.88
229.964	133.88
230.199	122.88
230.433	101.88
230.667	120.88
230.901	105.88
231.136	104.88
231.37	104.88
231.604	104.88
231.838	120.88
232.072	103.88
232.306	99.88
232.541	93.88
232.775	129.88
233.009	109.88
233.243	119.88
233.477	103.88
233.711	111.88
233.945	106.88
234.179	103.88
234.413	128.88
234.647	117.88
234.881	118.88
235.115	103.88
235.349	114.88
235.583	138.88
235.817	97.88
236.051	121.88
236.285	115.88
236.519	117.88
236.753	133.88
236.987	144.88
237.221	157.88
237.455	190.88
237.689	162.88
237.922	119.88
238.156	125.88
238.39	123.88
238.624	118.88
238.858	120.88
239.091	115.88
239.325	125.88
239.559	108.88
239.793	123.88
240.027	125.88
240.26	133.88
240.494	151.88
240.728	140.88
240.961	160.88
241.195	140.88
241.429	137.88
241.662	128.88
241.896	120.88
242.13	123.88
242.363	141.88
242.597	136.88
242.83	145.88
243.064	145.88
243.298	136.88
243.531	130.88
243.765	144.88
243.998	132.88
244.232	139.88
244.465	153.88
244.699	141.88
244.932	144.88
245.166	151.88
245.399	133.88
245.633	138.88
245.866	127.88
246.099	142.88
246.333	157.88
246.566	143.88
246.8	135.88
247.033	147.88
247.266	152.88
247.5	161.88
247.733	149.88
247.966	156.88
248.2	156.88
248.433	174.88
248.666	176.88
248.899	174.88
249.133	172.88
249.366	178.88
249.599	179.88
249.832	162.88
250.066	167.88
250.299	175.88
250.532	170.88
250.765	185.88
250.998	211.88
251.231	214.88
251.465	214.88
251.698	198.88
251.931	173.88
252.164	185.88
252.397	185.88
252.63	191.88
252.863	202.88
253.096	209.88
253.329	211.88
253.562	198.88
253.795	205.88
254.028	184.88
254.261	199.88
254.494	212.88
254.727	251.88
254.96	265.88
255.193	247.88
255.426	237.88
255.659	201.88
255.892	213.88
256.124	192.88
256.357	219.88
256.59	208.88
256.823	206.88
257.056	215.88
257.289	201.88
257.521	181.88
257.754	193.88
257.987	194.88
258.22	209.88
258.452	216.88
258.685	184.88
258.918	191.88
259.151	213.88
259.383	209.88
259.616	202.88
259.849	217.88
260.081	221.88
260.314	244.88
260.547	248.88
260.779	232.88
261.012	249.88
261.244	219.88
261.477	202.88
261.71	217.88
261.942	216.88
262.175	219.88
262.407	228.88
262.64	214.88
262.872	215.88
263.105	203.88
263.337	212.88
263.57	206.88
263.802	210.88
264.035	213.88
264.267	200.88
264.499	223.88
264.732	210.88
264.964	229.88
265.197	211.88
265.429	233.88
265.661	221.88
265.894	216.88
266.126	198.88
266.358	226.88
266.591	219.88
266.823	233.88
267.055	231.88
267.287	243.88
267.52	232.88
267.752	219.88
267.984	229.88
268.216	232.88
268.448	228.88
268.681	260.88
268.913	236.88
269.145	266.88
269.377	260.88
269.609	271.88
269.841	253.88
270.073	262.88
270.306	287.88
270.538	309.88
270.77	311.88
271.002	293.88
271.234	296.88
271.466	292.88
271.698	310.88
271.93	299.88
272.162	299.88
272.394	312.88
272.626	301.88
272.858	288.88
273.09	287.88
273.322	287.88
273.553	260.88
273.785	271.88
274.017	264.88
274.249	262.88
274.481	256.88
274.713	263.88
274.945	277.88
275.176	249.88
275.408	273.88
275.64	266.88
275.872	278.88
276.104	268.88
276.335	279.88
276.567	272.88
276.799	290.88
277.031	311.88
277.262	309.88
277.494	328.88
277.726	312.88
277.957	302.88
278.189	283.88
278.421	289.88
278.652	271.88
278.884	253.88
279.115	266.88
279.347	270.88
279.579	272.88
279.81	274.88
280.042	274.88
280.273	277.88
280.505	287.88
280.736	267.88
280.968	290.88
281.199	265.88
281.431	259.88
281.662	285.88
281.894	296.88
282.125	282.88
282.356	300.88
282.588	321.88
282.819	314.88
283.051	300.88
283.282	303.88
283.513	282.88
283.745	287.88
283.976	280.88
284.207	298.88
284.439	288.88
284.67	297.88
284.901	295.88
285.132	306.88
285.364	263.88
285.595	291.88
285.826	298.88
286.057	290.88
286.288	281.88
286.52	296.88
286.751	278.88
286.982	294.88
287.213	312.88
287.444	303.88
287.675	328.88
287.906	324.88
288.138	330.88
288.369	326.88
288.6	330.88
288.831	306.88
289.062	302.88
289.293	313.88
289.524	308.88
289.755	313.88
289.986	310.88
290.217	302.88
290.448	327.88
290.679	280.88
290.91	304.88
291.141	305.88
291.371	329.88
291.602	295.88
291.833	308.88
292.064	299.88
292.295	303.88
292.526	318.88
292.757	298.88
292.987	318.88
293.218	303.88
293.449	304.88
293.68	317.88
293.91	322.88
294.141	312.88
294.372	296.88
294.603	330.88
294.833	315.88
295.064	315.88
295.295	303.88
295.525	320.88
295.756	314.88
295.987	319.88
296.217	325.88
296.448	371.88
296.679	329.88
296.909	330.88
297.14	307.88
297.37	321.88
297.601	316.88
297.831	323.88
298.062	337.88
298.292	335.88
298.523	340.88
298.753	319.88
298.984	323.88
299.214	334.88
299.445	324.88
299.675	341.88
299.905	329.88
300.136	341.88
300.366	312.88
300.597	359.88
300.827	348.88
301.057	361.88
301.288	353.88
301.518	359.88
301.748	336.88
301.979	348.88
302.209	347.88
302.439	344.88
302.669	355.88
302.9	369.88
303.13	361.88
303.36	355.88
303.59	363.88
303.82	376.88
304.051	348.88
304.281	358.88
304.511	357.88
304.741	362.88
304.971	361.88
305.201	358.88
305.431	362.88
305.661	347.88
305.891	344.88
306.121	362.88
306.352	362.88
306.582	335.88
306.812	360.88
307.042	364.88
307.272	375.88
307.502	339.88
307.731	344.88
307.961	337.88
308.191	367.88
308.421	370.88
308.651	367.88
308.881	362.88
309.111	365.88
309.341	370.88
309.571	376.88
309.8	387.88
310.03	374.88
310.26	411.88
310.49	382.88
310.72	387.88
310.949	408.88
311.179	401.88
311.409	400.88
311.639	409.88
311.868	399.88
312.098	407.88
312.328	421.88
312.557	401.88
312.787	448.88
313.017	409.88
313.246	407.88
313.476	394.88
313.706	405.88
313.935	417.88
314.165	406.88
314.394	413.88
314.624	413.88
314.853	386.88
315.083	403.88
315.312	395.88
315.542	401.88
315.771	411.88
316.001	404.88
316.23	395.88
316.46	397.88
316.689	417.88
316.919	405.88
317.148	406.88
317.377	413.88
317.607	404.88
317.836	427.88
318.065	410.88
318.295	401.88
318.524	408.88
318.753	425.88
318.983	409.88
319.212	407.88
319.441	421.88
319.67	400.88
319.9	409.88
320.129	403.88
320.358	403.88
320.587	408.88
320.816	414.88
321.046	404.88
321.275	404.88
321.504	423.88
321.733	429.88
321.962	443.88
322.191	433.88
322.42	434.88
322.649	445.88
322.878	476.88
323.108	450.88
323.337	494.88
323.566	503.88
323.795	524.88
324.024	563.88
324.253	648.88
324.482	932.88
324.71	1389.88
324.939	1973.88
325.168	1676.88
325.397	869.88
325.626	617.88
325.855	541.88
326.084	534.88
326.313	487.88
326.542	515.88
326.77	547.88
326.999	643.88
327.228	851.88
327.457	1254.88
327.686	1475.88
327.914	984.88
328.143	706.88
328.372	598.88
328.6	564.88
328.829	565.88
329.058	573.88
329.287	578.88
329.515	562.88
329.744	518.88
329.972	497.88
330.201	522.88
330.43	517.88
330.658	555.88
330.887	609.88
331.115	613.88
331.344	537.88
331.572	513.88
331.801	505.88
332.03	487.88
332.258	498.88
332.486	496.88
332.715	470.88
332.943	491.88
333.172	491.88
333.4	509.88
333.629	525.88
333.857	509.88
334.085	527.88
334.314	523.88
334.542	539.88
334.771	537.88
334.999	494.88
335.227	512.88
335.455	506.88
335.684	488.88
335.912	507.88
336.14	495.88
336.369	495.88
336.597	512.88
336.825	497.88
337.053	472.88
337.281	487.88
337.51	489.88
337.738	482.88
337.966	477.88
338.194	456.88
338.422	461.88
338.65	461.88
338.878	447.88
339.106	447.88
339.334	471.88
339.562	455.88
339.79	472.88
340.018	455.88
340.246	450.88
340.474	445.88
340.702	445.88
340.93	433.88
341.158	458.88
341.386	462.88
341.614	460.88
341.842	430.88
342.07	479.88
342.298	448.88
342.526	436.88
342.754	441.88
342.981	443.88
343.209	443.88
343.437	467.88
343.665	447.88
343.893	491.88
344.12	498.88
344.348	477.88
344.576	459.88
344.804	475.88
345.031	480.88
345.259	481.88
345.487	472.88
345.714	447.88
345.942	426.88
346.17	420.88
346.397	410.88
346.625	443.88
346.853	435.88
347.08	424.88
347.308	421.88
347.535	437.88
347.763	439.88
347.99	427.88
348.218	426.88
348.445	442.88
348.673	464.88
348.9	439.88
349.128	429.88
349.355	407.88
349.583	424.88
349.81	413.88
350.037	422.88
350.265	416.88
350.492	429.88
350.72	436.88
350.947	434.88
351.174	419.88
351.402	457.88
351.629	466.88
351.856	443.88
352.083	449.88
352.311	433.88
352.538	449.88
352.765	448.88
352.992	441.88
353.22	447.88
353.447	440.88
353.674	433.88
353.901	408.88
354.128	400.88
354.355	401.88
354.583	406.88
354.81	402.88
355.037	408.88
355.264	414.88
355.491	397.88
355.718	394.88
355.945	401.88
356.172	396.88
356.399	417.88
356.626	407.88
356.853	410.88
357.08	414.88
357.307	417.88
357.534	387.88
357.761	417.88
357.988	403.88
358.215	405.88
358.441	407.88
358.668	400.88
358.895	425.88
359.122	414.88
359.349	423.88
359.576	414.88
359.802	448.88
360.029	462.88
360.256	468.88
360.483	467.88
360.709	424.88
360.936	439.88
361.163	431.88
361.39	433.88
361.616	438.88
361.843	445.88
362.07	415.88
362.296	427.88
362.523	414.88
362.749	433.88
362.976	399.88
363.203	413.88
363.429	414.88
363.656	413.88
363.882	407.88
364.109	427.88
364.335	399.88
364.562	404.88
364.788	405.88
365.015	424.88
365.241	405.88
365.468	397.88
365.694	435.88
365.92	423.88
366.147	399.88
366.373	395.88
366.599	429.88
366.826	414.88
367.052	385.88
367.278	402.88
367.505	409.88
367.731	415.88
367.957	411.88
368.184	419.88
368.41	400.88
368.636	415.88
368.862	410.88
369.089	438.88
369.315	434.88
369.541	395.88
369.767	390.88
369.993	426.88
370.219	413.88
370.445	409.88
370.672	408.88
370.898	399.88
371.124	416.88
371.35	433.88
371.576	393.88
371.802	429.88
372.028	394.88
372.254	401.88
372.48	396.88
372.706	413.88
372.932	433.88
373.158	414.88
373.384	435.88
373.61	412.88
373.835	413.88
374.061	421.88
374.287	425.88
374.513	420.88
374.739	435.88
374.965	440.88
375.191	459.88
375.416	421.88
375.642	424.88
375.868	401.88
376.094	410.88
376.319	395.88
376.545	430.88
376.771	398.88
376.997	409.88
377.222	399.88
377.448	402.88
377.674	410.88
377.899	415.88
378.125	411.88
378.35	419.88
378.576	406.88
378.802	405.88
379.027	413.88
379.253	419.88
379.478	400.88
379.704	411.88
379.929	397.88
380.155	423.88
380.38	429.88
380.606	423.88
380.831	414.88
381.057	416.88
381.282	416.88
381.507	422.88
381.733	403.88
381.958	409.88
382.184	424.88
382.409	436.88
382.634	416.88
382.86	441.88
383.085	435.88
383.31	420.88
383.535	443.88
383.761	422.88
383.986	440.88
384.211	452.88
384.436	436.88
384.662	423.88
384.887	461.88
385.112	450.88
385.337	464.88
385.562	454.88
385.787	462.88
386.013	468.88
386.238	437.88
386.463	450.88
386.688	450.88
386.913	454.88
387.138	449.88
387.363	463.88
387.588	457.88
387.813	450.88
388.038	447.88
388.263	457.88
388.488	456.88
388.713	443.88
388.938	465.88
389.163	448.88
389.387	454.88
389.612	428.88
389.837	479.88
390.062	466.88
390.287	454.88
390.512	437.88
390.736	447.88
390.961	469.88
391.186	457.88
391.411	449.88
391.636	469.88
391.86	488.88
392.085	498.88
392.31	473.88
392.534	481.88
392.759	487.88
392.984	468.88
393.208	459.88
393.433	453.88
393.658	455.88
393.882	471.88
394.107	450.88
394.331	467.88
394.556	464.88
394.78	475.88
395.005	483.88
395.229	481.88
395.454	477.88
395.678	518.88
395.903	507.88
396.127	511.88
396.352	518.88
396.576	483.88
396.801	472.88
397.025	472.88
397.249	479.88
397.474	473.88
397.698	501.88
397.922	489.88
398.147	535.88
398.371	538.88
398.595	513.88
398.82	522.88
399.044	564.88
399.268	590.88
399.492	616.88
399.717	649.88
399.941	701.88
400.165	687.88
400.389	667.88
400.613	614.88
400.837	545.88
401.062	542.88
401.286	542.88
401.51	533.88
401.734	530.88
401.958	544.88
402.182	532.88
402.406	545.88
402.63	583.88
402.854	567.88
403.078	530.88
403.302	580.88
403.526	579.88
403.75	593.88
403.974	573.88
404.198	551.88
404.422	563.88
404.645	544.88
404.869	573.88
405.093	599.88
405.317	622.88
405.541	614.88
405.765	605.88
405.988	590.88
406.212	581.88
406.436	614.88
406.66	628.88
406.883	623.88
407.107	641.88
407.331	678.88
407.555	721.88
407.778	717.88
408.002	648.88
408.226	622.88
408.449	607.88
408.673	597.88
408.896	631.88
409.12	656.88
409.344	602.88
409.567	532.88
409.791	568.88
410.014	567.88
410.238	536.88
410.461	544.88
410.685	531.88
410.908	569.88
411.132	581.88
411.355	619.88
411.578	576.88
411.802	544.88
412.025	536.88
412.249	539.88
412.472	534.88
412.695	557.88
412.919	536.88
413.142	541.88
413.365	530.88
413.589	537.88
413.812	526.88
414.035	504.88
414.258	521.88
414.482	505.88
414.705	519.88
414.928	524.88
415.151	499.88
415.374	518.88
415.597	529.88
415.821	501.88
416.044	510.88
416.267	514.88
416.49	506.88
416.713	497.88
416.936	516.88
417.159	518.88
417.382	513.88
417.605	521.88
417.828	534.88
418.051	545.88
418.274	549.88
418.497	494.88
418.72	486.88
418.943	530.88
419.166	546.88
419.389	573.88
419.611	554.88
419.834	519.88
420.057	536.88
420.28	521.88
420.503	530.88
420.726	522.88
420.948	542.88
421.171	577.88
421.394	598.88
421.617	531.88
421.839	527.88
422.062	535.88
422.285	533.88
422.507	597.88
422.73	645.88
422.953	614.88
423.175	578.88
423.398	540.88
423.621	572.88
423.843	571.88
424.066	567.88
424.288	577.88
424.511	572.88
424.733	622.88
424.956	711.88
425.178	652.88
425.401	662.88
425.623	716.88
425.846	585.88
426.068	550.88
426.291	546.88
426.513	550.88
426.735	556.88
426.958	602.88
427.18	659.88
427.402	789.88
427.625	835.88
427.847	757.88
428.069	611.88
428.292	574.88
428.514	518.88
428.736	519.88
428.958	540.88
429.181	505.88
429.403	502.88
429.625	511.88
429.847	535.88
430.069	604.88
430.292	614.88
430.514	550.88
430.736	515.88
430.958	512.88
431.18	486.88
431.402	487.88
431.624	509.88
431.846	482.88
432.068	500.88
432.29	488.88
432.512	501.88
432.734	480.88
432.956	477.88
433.178	520.88
433.4	515.88
433.622	501.88
433.844	482.88
434.066	494.88
434.287	492.88
434.509	494.88
434.731	507.88
434.953	533.88
435.175	539.88
435.397	551.88
435.618	551.88
435.84	577.88
436.062	653.88
436.284	713.88
436.505	606.88
436.727	554.88
436.949	527.88
437.17	490.88
437.392	497.88
437.614	529.88
437.835	537.88
438.057	601.88
438.278	718.88
438.5	696.88
438.721	791.88
438.943	753.88
439.165	614.88
439.386	561.88
439.608	545.88
439.829	527.88
440.05	594.88
440.272	615.88
440.493	559.88
440.715	522.88
440.936	536.88
441.158	531.88
441.379	530.88
441.6	528.88
441.822	547.88
442.043	610.88
442.264	650.88
442.486	696.88
442.707	576.88
442.928	558.88
443.149	565.88
443.371	605.88
443.592	615.88
443.813	706.88
444.034	769.88
444.255	627.88
444.476	569.88
444.698	590.88
444.919	583.88
445.14	712.88
445.361	633.88
445.582	614.88
445.803	652.88
446.024	742.88
446.245	721.88
446.466	673.88
446.687	573.88
446.908	533.88
447.129	527.88
447.35	493.88
447.571	488.88
447.792	495.88
448.013	507.88
448.234	511.88
448.455	549.88
448.675	664.88
448.896	769.88
449.117	633.88
449.338	606.88
449.559	734.88
449.779	827.88
450	636.88
450.221	538.88
450.442	495.88
450.662	510.88
450.883	485.88
451.104	504.88
451.324	494.88
451.545	461.88
451.766	475.88
451.986	441.88
452.207	445.88
452.428	435.88
452.648	453.88
452.869	444.88
453.089	462.88
453.31	485.88
453.53	473.88
453.751	463.88
453.971	458.88
454.192	457.88
454.412	462.88
454.633	449.88
454.853	458.88
455.073	428.88
455.294	476.88
455.514	532.88
455.734	501.88
455.955	446.88
456.175	433.88
456.395	415.88
456.616	436.88
456.836	443.88
457.056	432.88
457.276	429.88
457.497	419.88
457.717	439.88
457.937	420.88
458.157	423.88
458.377	462.88
458.598	497.88
458.818	541.88
459.038	614.88
459.258	584.88
459.478	539.88
459.698	516.88
459.918	498.88
460.138	493.88
460.358	534.88
460.578	522.88
460.798	551.88
461.018	515.88
461.238	515.88
461.458	536.88
461.678	509.88
461.898	533.88
462.118	526.88
462.338	536.88
462.558	561.88
462.777	567.88
462.997	575.88
463.217	601.88
463.437	598.88
463.657	596.88
463.876	569.88
464.096	559.88
464.316	566.88
464.536	563.88
464.755	593.88
464.975	558.88
465.195	564.88
465.414	637.88
465.634	575.88
465.854	524.88
466.073	484.88
466.293	506.88
466.512	468.88
466.732	467.88
466.951	464.88
467.171	455.88
467.391	464.88
467.61	484.88
467.829	505.88
468.049	470.88
468.268	459.88
468.488	486.88
468.707	461.88
468.927	468.88
469.146	467.88
469.365	453.88
469.585	458.88
469.804	471.88
470.023	490.88
470.243	490.88
470.462	504.88
470.681	514.88
470.901	512.88
471.12	457.88
471.339	456.88
471.558	481.88
471.777	459.88
471.997	478.88
472.216	473.88
472.435	464.88
472.654	466.88
472.873	465.88
473.092	446.88
473.311	468.88
473.53	464.88
473.749	465.88
473.968	514.88
474.187	595.88
474.406	584.88
474.625	498.88
474.844	472.88
475.063	475.88
475.282	465.88
475.501	472.88
475.72	466.88
475.939	472.88
476.158	469.88
476.377	475.88
476.596	477.88
476.814	481.88
477.033	521.88
477.252	515.88
477.471	517.88
477.69	516.88
477.908	527.88
478.127	534.88
478.346	516.88
478.564	516.88
478.783	542.88
479.002	540.88
479.22	533.88
479.439	564.88
479.658	564.88
479.876	575.88
480.095	565.88
480.313	600.88
480.532	582.88
480.751	605.88
480.969	607.88
481.188	599.88
481.406	605.88
481.624	581.88
481.843	559.88
482.061	542.88
482.28	541.88
482.498	546.88
482.717	559.88
482.935	562.88
483.153	551.88
483.372	545.88
483.59	538.88
483.808	534.88
484.027	538.88
484.245	560.88
484.463	541.88
484.681	552.88
484.9	560.88
485.118	561.88
485.336	555.88
485.554	555.88
485.772	562.88
485.99	557.88
486.209	559.88
486.427	570.88
486.645	569.88
486.863	577.88
487.081	570.88
487.299	577.88
487.517	577.88
487.735	565.88
487.953	564.88
488.171	597.88
488.389	576.88
488.607	593.88
488.825	594.88
489.043	584.88
489.261	582.88
489.479	575.88
489.696	553.88
489.914	567.88
490.132	603.88
490.35	630.88
490.568	594.88
490.786	626.88
491.003	630.88
491.221	652.88
491.439	645.88
491.657	632.88
491.874	651.88
492.092	673.88
492.31	689.88
492.527	647.88
492.745	636.88
492.963	646.88
493.18	647.88
493.398	673.88
493.615	666.88
493.833	654.88
494.05	685.88
494.268	663.88
494.485	673.88
494.703	674.88
494.92	640.88
495.138	672.88
495.355	680.88
495.573	700.88
495.79	680.88
496.008	701.88
496.225	661.88
496.442	685.88
496.66	700.88
496.877	685.88
497.094	713.88
497.312	704.88
497.529	712.88
497.746	725.88
497.963	740.88
498.181	751.88
498.398	787.88
498.615	830.88
498.832	818.88
499.049	864.88
499.267	895.88
499.484	929.88
499.701	982.88
499.918	1035.88
500.135	1122.88
500.352	1176.88
500.569	1174.88
500.786	1205.88
501.003	1149.88
501.22	1073.88
501.437	1047.88
501.654	999.88
501.871	957.88
