Data from 1985.PennyLincolnUp.Lamp.En5.5.200Scan.071819.P1_HRD10591_17-03-04-971.txt Node
Date: Thu Jul 18 17:03:04 EDT 2019
User: cochatt
Spectrometer: HR+D1059
Trigger mode: 1
Integration Time (sec): 1.000000E-1
Scans to average: 1
Electric dark correction enabled: true
Nonlinearity correction enabled: false
Boxcar width: 0
XAxis mode: Wavelengths
Number of Pixels in Spectrum: 2048
>>>>>Begin Spectral Data<<<<<
223.165	-6.44
223.4	-6.44
223.635	-6.44
223.869	-23.44
224.104	-7.44
224.338	-5.44
224.573	-21.44
224.808	-16.44
225.042	-10.44
225.277	-1.44
225.511	-6.44
225.746	8.56
225.98	-1.44
226.215	-0.44
226.449	23.56
226.683	17.56
226.918	22.56
227.152	28.56
227.387	56.56
227.621	45.56
227.856	35.56
228.09	45.56
228.324	55.56
228.559	68.56
228.793	78.56
229.027	93.56
229.262	116.56
229.496	130.56
229.73	134.56
229.964	133.56
230.199	127.56
230.433	125.56
230.667	113.56
230.901	124.56
231.136	112.56
231.37	111.56
231.604	106.56
231.838	117.56
232.072	104.56
232.306	110.56
232.541	130.56
232.775	109.56
233.009	106.56
233.243	111.56
233.477	121.56
233.711	123.56
233.945	109.56
234.179	120.56
234.413	128.56
234.647	141.56
234.881	129.56
235.115	118.56
235.349	116.56
235.583	126.56
235.817	126.56
236.051	131.56
236.285	135.56
236.519	126.56
236.753	139.56
236.987	146.56
237.221	187.56
237.455	214.56
237.689	185.56
237.922	136.56
238.156	140.56
238.39	146.56
238.624	131.56
238.858	134.56
239.091	143.56
239.325	139.56
239.559	125.56
239.793	136.56
240.027	135.56
240.26	157.56
240.494	166.56
240.728	155.56
240.961	163.56
241.195	159.56
241.429	150.56
241.662	140.56
241.896	143.56
242.13	144.56
242.363	151.56
242.597	144.56
242.83	159.56
243.064	145.56
243.298	135.56
243.531	146.56
243.765	152.56
243.998	136.56
244.232	134.56
244.465	155.56
244.699	148.56
244.932	140.56
245.166	142.56
245.399	156.56
245.633	154.56
245.866	170.56
246.099	146.56
246.333	163.56
246.566	140.56
246.8	166.56
247.033	158.56
247.266	171.56
247.5	178.56
247.733	165.56
247.966	173.56
248.2	188.56
248.433	180.56
248.666	190.56
248.899	195.56
249.133	207.56
249.366	202.56
249.599	194.56
249.832	183.56
250.066	182.56
250.299	190.56
250.532	202.56
250.765	205.56
250.998	226.56
251.231	234.56
251.465	219.56
251.698	206.56
251.931	213.56
252.164	208.56
252.397	200.56
252.63	206.56
252.863	211.56
253.096	222.56
253.329	239.56
253.562	218.56
253.795	222.56
254.028	214.56
254.261	217.56
254.494	226.56
254.727	276.56
254.96	305.56
255.193	278.56
255.426	264.56
255.659	230.56
255.892	236.56
256.124	224.56
256.357	246.56
256.59	211.56
256.823	197.56
257.056	206.56
257.289	213.56
257.521	218.56
257.754	217.56
257.987	210.56
258.22	222.56
258.452	227.56
258.685	227.56
258.918	223.56
259.151	203.56
259.383	219.56
259.616	230.56
259.849	226.56
260.081	231.56
260.314	268.56
260.547	285.56
260.779	284.56
261.012	271.56
261.244	253.56
261.477	241.56
261.71	227.56
261.942	231.56
262.175	241.56
262.407	231.56
262.64	224.56
262.872	240.56
263.105	228.56
263.337	237.56
263.57	225.56
263.802	230.56
264.035	239.56
264.267	216.56
264.499	225.56
264.732	220.56
264.964	242.56
265.197	223.56
265.429	239.56
265.661	233.56
265.894	253.56
266.126	230.56
266.358	251.56
266.591	251.56
266.823	247.56
267.055	253.56
267.287	258.56
267.52	248.56
267.752	243.56
267.984	250.56
268.216	243.56
268.448	271.56
268.681	278.56
268.913	266.56
269.145	273.56
269.377	296.56
269.609	291.56
269.841	296.56
270.073	279.56
270.306	323.56
270.538	355.56
270.77	344.56
271.002	330.56
271.234	304.56
271.466	330.56
271.698	329.56
271.93	324.56
272.162	322.56
272.394	354.56
272.626	301.56
272.858	316.56
273.09	299.56
273.322	298.56
273.553	284.56
273.785	300.56
274.017	292.56
274.249	269.56
274.481	292.56
274.713	277.56
274.945	290.56
275.176	287.56
275.408	291.56
275.64	287.56
275.872	286.56
276.104	300.56
276.335	285.56
276.567	296.56
276.799	331.56
277.031	336.56
277.262	355.56
277.494	350.56
277.726	332.56
277.957	327.56
278.189	306.56
278.421	290.56
278.652	303.56
278.884	297.56
279.115	303.56
279.347	308.56
279.579	289.56
279.81	280.56
280.042	294.56
280.273	302.56
280.505	312.56
280.736	288.56
280.968	291.56
281.199	302.56
281.431	305.56
281.662	300.56
281.894	298.56
282.125	301.56
282.356	325.56
282.588	328.56
282.819	336.56
283.051	307.56
283.282	312.56
283.513	311.56
283.745	302.56
283.976	319.56
284.207	332.56
284.439	310.56
284.67	306.56
284.901	330.56
285.132	308.56
285.364	318.56
285.595	318.56
285.826	302.56
286.057	332.56
286.288	318.56
286.52	331.56
286.751	327.56
286.982	324.56
287.213	326.56
287.444	332.56
287.675	326.56
287.906	337.56
288.138	330.56
288.369	348.56
288.6	344.56
288.831	343.56
289.062	327.56
289.293	327.56
289.524	340.56
289.755	335.56
289.986	334.56
290.217	331.56
290.448	349.56
290.679	338.56
290.91	329.56
291.141	336.56
291.371	334.56
291.602	320.56
291.833	339.56
292.064	352.56
292.295	320.56
292.526	343.56
292.757	318.56
292.987	358.56
293.218	339.56
293.449	340.56
293.68	333.56
293.91	343.56
294.141	338.56
294.372	338.56
294.603	340.56
294.833	345.56
295.064	346.56
295.295	339.56
295.525	343.56
295.756	351.56
295.987	347.56
296.217	364.56
296.448	371.56
296.679	355.56
296.909	352.56
297.14	330.56
297.37	328.56
297.601	375.56
297.831	344.56
298.062	314.56
298.292	351.56
298.523	368.56
298.753	358.56
298.984	356.56
299.214	374.56
299.445	352.56
299.675	359.56
299.905	371.56
300.136	366.56
300.366	366.56
300.597	375.56
300.827	378.56
301.057	369.56
301.288	394.56
301.518	379.56
301.748	387.56
301.979	399.56
302.209	396.56
302.439	394.56
302.669	384.56
302.9	375.56
303.13	397.56
303.36	380.56
303.59	392.56
303.82	392.56
304.051	380.56
304.281	392.56
304.511	374.56
304.741	388.56
304.971	377.56
305.201	384.56
305.431	386.56
305.661	394.56
305.891	374.56
306.121	355.56
306.352	388.56
306.582	390.56
306.812	379.56
307.042	378.56
307.272	384.56
307.502	399.56
307.731	397.56
307.961	379.56
308.191	381.56
308.421	395.56
308.651	385.56
308.881	411.56
309.111	409.56
309.341	384.56
309.571	417.56
309.8	408.56
310.03	410.56
310.26	412.56
310.49	420.56
310.72	426.56
310.949	442.56
311.179	445.56
311.409	435.56
311.639	432.56
311.868	430.56
312.098	431.56
312.328	450.56
312.557	447.56
312.787	475.56
313.017	446.56
313.246	450.56
313.476	420.56
313.706	418.56
313.935	444.56
314.165	435.56
314.394	451.56
314.624	448.56
314.853	448.56
315.083	443.56
315.312	430.56
315.542	434.56
315.771	431.56
316.001	430.56
316.23	428.56
316.46	424.56
316.689	441.56
316.919	450.56
317.148	451.56
317.377	450.56
317.607	433.56
317.836	442.56
318.065	436.56
318.295	428.56
318.524	439.56
318.753	449.56
318.983	443.56
319.212	441.56
319.441	448.56
319.67	450.56
319.9	417.56
320.129	428.56
320.358	419.56
320.587	444.56
320.816	464.56
321.046	451.56
321.275	459.56
321.504	467.56
321.733	488.56
321.962	455.56
322.191	485.56
322.42	480.56
322.649	503.56
322.878	515.56
323.108	503.56
323.337	531.56
323.566	549.56
323.795	574.56
324.024	619.56
324.253	720.56
324.482	977.56
324.71	1503.56
324.939	2135.56
325.168	1823.56
325.397	960.56
325.626	696.56
325.855	595.56
326.084	566.56
326.313	574.56
326.542	570.56
326.77	601.56
326.999	690.56
327.228	888.56
327.457	1359.56
327.686	1624.56
327.914	1080.56
328.143	743.56
328.372	655.56
328.6	621.56
328.829	606.56
329.058	631.56
329.287	648.56
329.515	598.56
329.744	568.56
329.972	546.56
330.201	564.56
330.43	601.56
330.658	602.56
330.887	674.56
331.115	637.56
331.344	578.56
331.572	558.56
331.801	554.56
332.03	558.56
332.258	539.56
332.486	521.56
332.715	518.56
332.943	527.56
333.172	533.56
333.4	546.56
333.629	564.56
333.857	560.56
334.085	578.56
334.314	554.56
334.542	574.56
334.771	566.56
334.999	569.56
335.227	539.56
335.455	538.56
335.684	532.56
335.912	526.56
336.14	523.56
336.369	509.56
336.597	540.56
336.825	531.56
337.053	506.56
337.281	512.56
337.51	509.56
337.738	504.56
337.966	508.56
338.194	490.56
338.422	516.56
338.65	499.56
338.878	494.56
339.106	470.56
339.334	498.56
339.562	458.56
339.79	497.56
340.018	485.56
340.246	481.56
340.474	486.56
340.702	497.56
340.93	479.56
341.158	470.56
341.386	473.56
341.614	492.56
341.842	482.56
342.07	475.56
342.298	480.56
342.526	501.56
342.754	475.56
342.981	456.56
343.209	490.56
343.437	493.56
343.665	493.56
343.893	494.56
344.12	528.56
344.348	503.56
344.576	518.56
344.804	499.56
345.031	499.56
345.259	516.56
345.487	475.56
345.714	462.56
345.942	484.56
346.17	475.56
346.397	481.56
346.625	455.56
346.853	438.56
347.08	467.56
347.308	460.56
347.535	474.56
347.763	490.56
347.99	473.56
348.218	462.56
348.445	472.56
348.673	464.56
348.9	471.56
349.128	457.56
349.355	433.56
349.583	435.56
349.81	456.56
350.037	453.56
350.265	440.56
350.492	457.56
350.72	465.56
350.947	473.56
351.174	457.56
351.402	474.56
351.629	456.56
351.856	470.56
352.083	476.56
352.311	484.56
352.538	488.56
352.765	472.56
352.992	476.56
353.22	449.56
353.447	478.56
353.674	471.56
353.901	438.56
354.128	440.56
354.355	440.56
354.583	450.56
354.81	453.56
355.037	450.56
355.264	435.56
355.491	446.56
355.718	422.56
355.945	438.56
356.172	443.56
356.399	431.56
356.626	429.56
356.853	425.56
357.08	435.56
357.307	430.56
357.534	428.56
357.761	409.56
357.988	410.56
358.215	433.56
358.441	431.56
358.668	423.56
358.895	435.56
359.122	455.56
359.349	456.56
359.576	458.56
359.802	486.56
360.029	506.56
360.256	526.56
360.483	508.56
360.709	439.56
360.936	478.56
361.163	444.56
361.39	457.56
361.616	464.56
361.843	440.56
362.07	467.56
362.296	457.56
362.523	443.56
362.749	458.56
362.976	451.56
363.203	450.56
363.429	451.56
363.656	441.56
363.882	462.56
364.109	433.56
364.335	456.56
364.562	445.56
364.788	454.56
365.015	441.56
365.241	465.56
365.468	434.56
365.694	448.56
365.92	450.56
366.147	440.56
366.373	433.56
366.599	435.56
366.826	447.56
367.052	427.56
367.278	435.56
367.505	421.56
367.731	443.56
367.957	429.56
368.184	446.56
368.41	429.56
368.636	449.56
368.862	475.56
369.089	430.56
369.315	428.56
369.541	435.56
369.767	423.56
369.993	456.56
370.219	433.56
370.445	448.56
370.672	458.56
370.898	438.56
371.124	421.56
371.35	440.56
371.576	423.56
371.802	450.56
372.028	446.56
372.254	444.56
372.48	449.56
372.706	443.56
372.932	464.56
373.158	438.56
373.384	467.56
373.61	445.56
373.835	453.56
374.061	416.56
374.287	445.56
374.513	448.56
374.739	449.56
374.965	473.56
375.191	459.56
375.416	448.56
375.642	447.56
375.868	454.56
376.094	450.56
376.319	439.56
376.545	440.56
376.771	446.56
376.997	439.56
377.222	451.56
377.448	438.56
377.674	442.56
377.899	446.56
378.125	428.56
378.35	411.56
378.576	445.56
378.802	412.56
379.027	440.56
379.253	422.56
379.478	435.56
379.704	440.56
379.929	431.56
380.155	439.56
380.38	457.56
380.606	446.56
380.831	430.56
381.057	449.56
381.282	436.56
381.507	428.56
381.733	418.56
381.958	439.56
382.184	430.56
382.409	446.56
382.634	432.56
382.86	440.56
383.085	467.56
383.31	450.56
383.535	449.56
383.761	436.56
383.986	467.56
384.211	468.56
384.436	447.56
384.662	495.56
384.887	497.56
385.112	479.56
385.337	479.56
385.562	484.56
385.787	479.56
386.013	517.56
386.238	502.56
386.463	482.56
386.688	498.56
386.913	493.56
387.138	480.56
387.363	485.56
387.588	472.56
387.813	482.56
388.038	471.56
388.263	477.56
388.488	484.56
388.713	498.56
388.938	477.56
389.163	481.56
389.387	487.56
389.612	463.56
389.837	485.56
390.062	465.56
390.287	500.56
390.512	470.56
390.736	491.56
390.961	503.56
391.186	502.56
391.411	513.56
391.636	518.56
391.86	491.56
392.085	517.56
392.31	518.56
392.534	524.56
392.759	498.56
392.984	485.56
393.208	480.56
393.433	484.56
393.658	496.56
393.882	482.56
394.107	496.56
394.331	514.56
394.556	486.56
394.78	487.56
395.005	516.56
395.229	507.56
395.454	522.56
395.678	523.56
395.903	516.56
396.127	532.56
396.352	536.56
396.576	502.56
396.801	510.56
397.025	532.56
397.249	522.56
397.474	496.56
397.698	511.56
397.922	566.56
398.147	530.56
398.371	551.56
398.595	559.56
398.82	571.56
399.044	600.56
399.268	603.56
399.492	655.56
399.717	717.56
399.941	728.56
400.165	727.56
400.389	700.56
400.613	652.56
400.837	622.56
401.062	583.56
401.286	568.56
401.51	585.56
401.734	558.56
401.958	552.56
402.182	562.56
402.406	585.56
402.63	596.56
402.854	598.56
403.078	596.56
403.302	595.56
403.526	590.56
403.75	578.56
403.974	594.56
404.198	585.56
404.422	600.56
404.645	580.56
404.869	592.56
405.093	628.56
405.317	657.56
405.541	659.56
405.765	640.56
405.988	614.56
406.212	637.56
406.436	664.56
406.66	663.56
406.883	649.56
407.107	666.56
407.331	722.56
407.555	778.56
407.778	774.56
408.002	713.56
408.226	668.56
408.449	650.56
408.673	660.56
408.896	669.56
409.12	696.56
409.344	688.56
409.567	622.56
409.791	597.56
410.014	575.56
410.238	591.56
410.461	584.56
410.685	596.56
410.908	610.56
411.132	627.56
411.355	657.56
411.578	633.56
411.802	596.56
412.025	553.56
412.249	594.56
412.472	608.56
412.695	598.56
412.919	620.56
413.142	594.56
413.365	588.56
413.589	550.56
413.812	554.56
414.035	535.56
414.258	558.56
414.482	562.56
414.705	560.56
414.928	561.56
415.151	561.56
415.374	552.56
415.597	523.56
415.821	523.56
416.044	556.56
416.267	536.56
416.49	547.56
416.713	527.56
416.936	536.56
417.159	538.56
417.382	547.56
417.605	559.56
417.828	550.56
418.051	568.56
418.274	580.56
418.497	552.56
418.72	538.56
418.943	538.56
419.166	568.56
419.389	595.56
419.611	597.56
419.834	593.56
420.057	598.56
420.28	555.56
420.503	548.56
420.726	542.56
420.948	573.56
421.171	617.56
421.394	648.56
421.617	581.56
421.839	568.56
422.062	544.56
422.285	560.56
422.507	641.56
422.73	697.56
422.953	701.56
423.175	609.56
423.398	609.56
423.621	595.56
423.843	623.56
424.066	610.56
424.288	607.56
424.511	622.56
424.733	667.56
424.956	764.56
425.178	715.56
425.401	716.56
425.623	737.56
425.846	627.56
426.068	584.56
426.291	562.56
426.513	596.56
426.735	616.56
426.958	616.56
427.18	716.56
427.402	856.56
427.625	941.56
427.847	822.56
428.069	672.56
428.292	627.56
428.514	576.56
428.736	574.56
428.958	549.56
429.181	543.56
429.403	528.56
429.625	537.56
429.847	599.56
430.069	650.56
430.292	615.56
430.514	547.56
430.736	546.56
430.958	540.56
431.18	530.56
431.402	538.56
431.624	535.56
431.846	521.56
432.068	519.56
432.29	526.56
432.512	514.56
432.734	532.56
432.956	530.56
433.178	522.56
433.4	527.56
433.622	521.56
433.844	510.56
434.066	526.56
434.287	506.56
434.509	533.56
434.731	559.56
434.953	562.56
435.175	587.56
435.397	595.56
435.618	608.56
435.84	611.56
436.062	719.56
436.284	773.56
436.505	678.56
436.727	577.56
436.949	550.56
437.17	532.56
437.392	539.56
437.614	552.56
437.835	559.56
438.057	669.56
438.278	777.56
438.5	780.56
438.721	864.56
438.943	783.56
439.165	617.56
439.386	609.56
439.608	582.56
439.829	590.56
440.05	616.56
440.272	650.56
440.493	621.56
440.715	584.56
440.936	586.56
441.158	559.56
441.379	559.56
441.6	567.56
441.822	603.56
442.043	623.56
442.264	716.56
442.486	724.56
442.707	634.56
442.928	588.56
443.149	617.56
443.371	616.56
443.592	668.56
443.813	754.56
444.034	795.56
444.255	668.56
444.476	644.56
444.698	610.56
444.919	635.56
445.14	761.56
445.361	672.56
445.582	656.56
445.803	695.56
446.024	802.56
446.245	780.56
446.466	723.56
446.687	620.56
446.908	596.56
447.129	552.56
447.35	552.56
447.571	533.56
447.792	560.56
448.013	534.56
448.234	568.56
448.455	592.56
448.675	716.56
448.896	827.56
449.117	684.56
449.338	638.56
449.559	778.56
449.779	843.56
450	690.56
450.221	562.56
450.442	547.56
450.662	546.56
450.883	527.56
451.104	554.56
451.324	534.56
451.545	508.56
451.766	482.56
451.986	470.56
452.207	484.56
452.428	502.56
452.648	475.56
452.869	479.56
453.089	486.56
453.31	510.56
453.53	497.56
453.751	478.56
453.971	507.56
454.192	512.56
454.412	498.56
454.633	495.56
454.853	468.56
455.073	487.56
455.294	508.56
455.514	540.56
455.734	542.56
455.955	464.56
456.175	462.56
456.395	456.56
456.616	474.56
456.836	455.56
457.056	458.56
457.276	456.56
457.497	457.56
457.717	450.56
457.937	468.56
458.157	475.56
458.377	447.56
458.598	491.56
458.818	561.56
459.038	635.56
459.258	654.56
459.478	555.56
459.698	536.56
459.918	533.56
460.138	536.56
460.358	544.56
460.578	547.56
460.798	570.56
461.018	577.56
461.238	577.56
461.458	545.56
461.678	530.56
461.898	568.56
462.118	544.56
462.338	560.56
462.558	613.56
462.777	602.56
462.997	618.56
463.217	631.56
463.437	638.56
463.657	611.56
463.876	600.56
464.096	594.56
464.316	587.56
464.536	587.56
464.755	592.56
464.975	607.56
465.195	635.56
465.414	714.56
465.634	630.56
465.854	545.56
466.073	538.56
466.293	528.56
466.512	527.56
466.732	496.56
466.951	524.56
467.171	488.56
467.391	499.56
467.61	521.56
467.829	522.56
468.049	503.56
468.268	482.56
468.488	481.56
468.707	478.56
468.927	480.56
469.146	487.56
469.365	494.56
469.585	492.56
469.804	512.56
470.023	520.56
470.243	514.56
470.462	538.56
470.681	531.56
470.901	541.56
471.12	497.56
471.339	504.56
471.558	516.56
471.777	505.56
471.997	499.56
472.216	497.56
472.435	513.56
472.654	495.56
472.873	487.56
473.092	504.56
473.311	499.56
473.53	495.56
473.749	525.56
473.968	546.56
474.187	643.56
474.406	619.56
474.625	544.56
474.844	523.56
475.063	506.56
475.282	514.56
475.501	499.56
475.72	522.56
475.939	531.56
476.158	495.56
476.377	512.56
476.596	512.56
476.814	518.56
477.033	527.56
477.252	520.56
477.471	541.56
477.69	547.56
477.908	548.56
478.127	541.56
478.346	570.56
478.564	598.56
478.783	573.56
479.002	577.56
479.22	588.56
479.439	604.56
479.658	602.56
479.876	612.56
480.095	614.56
480.313	673.56
480.532	624.56
480.751	642.56
480.969	627.56
481.188	630.56
481.406	630.56
481.624	618.56
481.843	591.56
482.061	593.56
482.28	610.56
482.498	568.56
482.717	572.56
482.935	588.56
483.153	585.56
483.372	555.56
483.59	588.56
483.808	558.56
484.027	601.56
484.245	590.56
484.463	568.56
484.681	591.56
484.9	599.56
485.118	612.56
485.336	592.56
485.554	609.56
485.772	610.56
485.99	609.56
486.209	609.56
486.427	617.56
486.645	635.56
486.863	630.56
487.081	615.56
487.299	627.56
487.517	594.56
487.735	629.56
487.953	605.56
488.171	650.56
488.389	646.56
488.607	616.56
488.825	612.56
489.043	617.56
489.261	610.56
489.479	628.56
489.696	632.56
489.914	618.56
490.132	650.56
490.35	643.56
490.568	670.56
490.786	672.56
491.003	644.56
491.221	652.56
491.439	703.56
491.657	694.56
491.874	690.56
492.092	698.56
492.31	715.56
492.527	701.56
492.745	707.56
492.963	710.56
493.18	712.56
493.398	722.56
493.615	737.56
493.833	752.56
494.05	726.56
494.268	744.56
494.485	739.56
494.703	712.56
494.92	738.56
495.138	731.56
495.355	719.56
495.573	714.56
495.79	738.56
496.008	728.56
496.225	730.56
496.442	720.56
496.66	719.56
496.877	724.56
497.094	749.56
497.312	760.56
497.529	788.56
497.746	777.56
497.963	785.56
498.181	815.56
498.398	872.56
498.615	858.56
498.832	866.56
499.049	867.56
499.267	945.56
499.484	977.56
499.701	999.56
499.918	1070.56
500.135	1157.56
500.352	1236.56
500.569	1217.56
500.786	1256.56
501.003	1244.56
501.22	1149.56
501.437	1106.56
501.654	1050.56
501.871	1030.56
