Data from 1985.PennyLincolnUp.Lamp.En5.5.200Scan.071819.P1_HRD10591_17-03-56-971.txt Node
Date: Thu Jul 18 17:03:56 EDT 2019
User: cochatt
Spectrometer: HR+D1059
Trigger mode: 1
Integration Time (sec): 1.000000E-1
Scans to average: 1
Electric dark correction enabled: true
Nonlinearity correction enabled: false
Boxcar width: 0
XAxis mode: Wavelengths
Number of Pixels in Spectrum: 2048
>>>>>Begin Spectral Data<<<<<
223.165	-26.94
223.4	-26.94
223.635	-26.94
223.869	-10.94
224.104	-15.94
224.338	-19.94
224.573	-22.94
224.808	-3.94
225.042	-2.94
225.277	-3.94
225.511	-10.94
225.746	7.06
225.98	-9.94
226.215	16.06
226.449	19.06
226.683	22.06
226.918	32.06
227.152	32.06
227.387	32.06
227.621	36.06
227.856	47.06
228.09	31.06
228.324	38.06
228.559	63.06
228.793	54.06
229.027	89.06
229.262	86.06
229.496	102.06
229.73	133.06
229.964	136.06
230.199	117.06
230.433	97.06
230.667	100.06
230.901	115.06
231.136	104.06
231.37	117.06
231.604	100.06
231.838	108.06
232.072	109.06
232.306	108.06
232.541	114.06
232.775	112.06
233.009	104.06
233.243	117.06
233.477	106.06
233.711	116.06
233.945	108.06
234.179	121.06
234.413	114.06
234.647	135.06
234.881	124.06
235.115	120.06
235.349	110.06
235.583	108.06
235.817	121.06
236.051	112.06
236.285	126.06
236.519	124.06
236.753	136.06
236.987	144.06
237.221	169.06
237.455	212.06
237.689	165.06
237.922	144.06
238.156	128.06
238.39	113.06
238.624	113.06
238.858	121.06
239.091	123.06
239.325	118.06
239.559	114.06
239.793	117.06
240.027	134.06
240.26	136.06
240.494	144.06
240.728	153.06
240.961	142.06
241.195	148.06
241.429	130.06
241.662	137.06
241.896	133.06
242.13	132.06
242.363	135.06
242.597	129.06
242.83	115.06
243.064	114.06
243.298	135.06
243.531	126.06
243.765	133.06
243.998	146.06
244.232	130.06
244.465	133.06
244.699	152.06
244.932	133.06
245.166	161.06
245.399	151.06
245.633	142.06
245.866	142.06
246.099	149.06
246.333	148.06
246.566	156.06
246.8	152.06
247.033	139.06
247.266	154.06
247.5	159.06
247.733	169.06
247.966	162.06
248.2	173.06
248.433	194.06
248.666	168.06
248.899	178.06
249.133	194.06
249.366	193.06
249.599	195.06
249.832	162.06
250.066	177.06
250.299	162.06
250.532	186.06
250.765	210.06
250.998	226.06
251.231	230.06
251.465	236.06
251.698	190.06
251.931	188.06
252.164	198.06
252.397	193.06
252.63	197.06
252.863	199.06
253.096	207.06
253.329	239.06
253.562	215.06
253.795	210.06
254.028	225.06
254.261	193.06
254.494	227.06
254.727	247.06
254.96	279.06
255.193	280.06
255.426	239.06
255.659	220.06
255.892	241.06
256.124	226.06
256.357	237.06
256.59	229.06
256.823	205.06
257.056	197.06
257.289	201.06
257.521	207.06
257.754	205.06
257.987	217.06
258.22	202.06
258.452	216.06
258.685	214.06
258.918	207.06
259.151	212.06
259.383	228.06
259.616	236.06
259.849	224.06
260.081	209.06
260.314	242.06
260.547	248.06
260.779	256.06
261.012	237.06
261.244	208.06
261.477	241.06
261.71	241.06
261.942	229.06
262.175	217.06
262.407	248.06
262.64	213.06
262.872	222.06
263.105	219.06
263.337	208.06
263.57	202.06
263.802	216.06
264.035	205.06
264.267	218.06
264.499	216.06
264.732	216.06
264.964	218.06
265.197	233.06
265.429	219.06
265.661	218.06
265.894	227.06
266.126	223.06
266.358	238.06
266.591	232.06
266.823	252.06
267.055	230.06
267.287	225.06
267.52	235.06
267.752	212.06
267.984	236.06
268.216	242.06
268.448	255.06
268.681	232.06
268.913	252.06
269.145	263.06
269.377	285.06
269.609	270.06
269.841	266.06
270.073	270.06
270.306	285.06
270.538	314.06
270.77	307.06
271.002	310.06
271.234	268.06
271.466	289.06
271.698	297.06
271.93	320.06
272.162	314.06
272.394	330.06
272.626	290.06
272.858	301.06
273.09	292.06
273.322	288.06
273.553	271.06
273.785	275.06
274.017	284.06
274.249	278.06
274.481	275.06
274.713	290.06
274.945	284.06
275.176	291.06
275.408	278.06
275.64	260.06
275.872	268.06
276.104	276.06
276.335	271.06
276.567	279.06
276.799	299.06
277.031	309.06
277.262	335.06
277.494	321.06
277.726	314.06
277.957	296.06
278.189	274.06
278.421	281.06
278.652	286.06
278.884	285.06
279.115	305.06
279.347	297.06
279.579	264.06
279.81	284.06
280.042	281.06
280.273	280.06
280.505	293.06
280.736	286.06
280.968	293.06
281.199	293.06
281.431	291.06
281.662	289.06
281.894	287.06
282.125	289.06
282.356	298.06
282.588	323.06
282.819	338.06
283.051	317.06
283.282	291.06
283.513	285.06
283.745	292.06
283.976	306.06
284.207	298.06
284.439	320.06
284.67	293.06
284.901	306.06
285.132	308.06
285.364	309.06
285.595	314.06
285.826	318.06
286.057	310.06
286.288	308.06
286.52	301.06
286.751	304.06
286.982	307.06
287.213	310.06
287.444	315.06
287.675	319.06
287.906	319.06
288.138	317.06
288.369	321.06
288.6	335.06
288.831	327.06
289.062	321.06
289.293	327.06
289.524	317.06
289.755	351.06
289.986	324.06
290.217	312.06
290.448	325.06
290.679	307.06
290.91	308.06
291.141	305.06
291.371	325.06
291.602	317.06
291.833	310.06
292.064	318.06
292.295	305.06
292.526	318.06
292.757	337.06
292.987	314.06
293.218	307.06
293.449	324.06
293.68	301.06
293.91	345.06
294.141	309.06
294.372	340.06
294.603	327.06
294.833	338.06
295.064	338.06
295.295	314.06
295.525	311.06
295.756	343.06
295.987	341.06
296.217	339.06
296.448	364.06
296.679	325.06
296.909	336.06
297.14	336.06
297.37	337.06
297.601	331.06
297.831	330.06
298.062	334.06
298.292	336.06
298.523	348.06
298.753	341.06
298.984	334.06
299.214	348.06
299.445	345.06
299.675	333.06
299.905	326.06
300.136	347.06
300.366	321.06
300.597	357.06
300.827	350.06
301.057	369.06
301.288	359.06
301.518	345.06
301.748	367.06
301.979	351.06
302.209	370.06
302.439	380.06
302.669	368.06
302.9	350.06
303.13	360.06
303.36	364.06
303.59	368.06
303.82	384.06
304.051	373.06
304.281	373.06
304.511	370.06
304.741	365.06
304.971	357.06
305.201	349.06
305.431	372.06
305.661	364.06
305.891	361.06
306.121	368.06
306.352	361.06
306.582	392.06
306.812	377.06
307.042	382.06
307.272	348.06
307.502	382.06
307.731	364.06
307.961	377.06
308.191	361.06
308.421	361.06
308.651	378.06
308.881	386.06
309.111	379.06
309.341	368.06
309.571	390.06
309.8	388.06
310.03	410.06
310.26	393.06
310.49	388.06
310.72	402.06
310.949	403.06
311.179	415.06
311.409	402.06
311.639	407.06
311.868	384.06
312.098	411.06
312.328	414.06
312.557	431.06
312.787	444.06
313.017	444.06
313.246	431.06
313.476	421.06
313.706	430.06
313.935	414.06
314.165	425.06
314.394	424.06
314.624	442.06
314.853	432.06
315.083	429.06
315.312	426.06
315.542	401.06
315.771	406.06
316.001	407.06
316.23	442.06
316.46	425.06
316.689	425.06
316.919	433.06
317.148	399.06
317.377	433.06
317.607	430.06
317.836	410.06
318.065	397.06
318.295	426.06
318.524	418.06
318.753	391.06
318.983	423.06
319.212	416.06
319.441	404.06
319.67	414.06
319.9	419.06
320.129	425.06
320.358	425.06
320.587	425.06
320.816	428.06
321.046	428.06
321.275	426.06
321.504	444.06
321.733	431.06
321.962	437.06
322.191	465.06
322.42	448.06
322.649	487.06
322.878	484.06
323.108	494.06
323.337	521.06
323.566	514.06
323.795	560.06
324.024	582.06
324.253	715.06
324.482	938.06
324.71	1438.06
324.939	2040.06
325.168	1684.06
325.397	891.06
325.626	672.06
325.855	560.06
326.084	549.06
326.313	520.06
326.542	538.06
326.77	581.06
326.999	660.06
327.228	890.06
327.457	1279.06
327.686	1510.06
327.914	1016.06
328.143	742.06
328.372	645.06
328.6	607.06
328.829	570.06
329.058	580.06
329.287	623.06
329.515	578.06
329.744	550.06
329.972	553.06
330.201	593.06
330.43	603.06
330.658	615.06
330.887	640.06
331.115	607.06
331.344	552.06
331.572	542.06
331.801	544.06
332.03	528.06
332.258	517.06
332.486	510.06
332.715	505.06
332.943	546.06
333.172	525.06
333.4	537.06
333.629	560.06
333.857	559.06
334.085	569.06
334.314	606.06
334.542	633.06
334.771	668.06
334.999	604.06
335.227	545.06
335.455	537.06
335.684	526.06
335.912	494.06
336.14	516.06
336.369	514.06
336.597	498.06
336.825	520.06
337.053	508.06
337.281	486.06
337.51	489.06
337.738	481.06
337.966	463.06
338.194	485.06
338.422	504.06
338.65	474.06
338.878	466.06
339.106	477.06
339.334	497.06
339.562	484.06
339.79	456.06
340.018	466.06
340.246	462.06
340.474	469.06
340.702	478.06
340.93	455.06
341.158	469.06
341.386	476.06
341.614	473.06
341.842	470.06
342.07	471.06
342.298	471.06
342.526	465.06
342.754	457.06
342.981	435.06
343.209	437.06
343.437	468.06
343.665	476.06
343.893	506.06
344.12	494.06
344.348	500.06
344.576	479.06
344.804	484.06
345.031	485.06
345.259	486.06
345.487	488.06
345.714	470.06
345.942	466.06
346.17	456.06
346.397	457.06
346.625	458.06
346.853	458.06
347.08	457.06
347.308	462.06
347.535	449.06
347.763	466.06
347.99	428.06
348.218	467.06
348.445	457.06
348.673	473.06
348.9	456.06
349.128	439.06
349.355	416.06
349.583	423.06
349.81	417.06
350.037	438.06
350.265	446.06
350.492	430.06
350.72	434.06
350.947	469.06
351.174	467.06
351.402	483.06
351.629	441.06
351.856	475.06
352.083	431.06
352.311	458.06
352.538	456.06
352.765	454.06
352.992	455.06
353.22	441.06
353.447	438.06
353.674	445.06
353.901	437.06
354.128	416.06
354.355	420.06
354.583	419.06
354.81	430.06
355.037	402.06
355.264	409.06
355.491	414.06
355.718	402.06
355.945	413.06
356.172	412.06
356.399	424.06
356.626	412.06
356.853	418.06
357.08	401.06
357.307	418.06
357.534	413.06
357.761	438.06
357.988	418.06
358.215	430.06
358.441	421.06
358.668	419.06
358.895	425.06
359.122	436.06
359.349	422.06
359.576	433.06
359.802	470.06
360.029	489.06
360.256	488.06
360.483	482.06
360.709	434.06
360.936	439.06
361.163	433.06
361.39	446.06
361.616	432.06
361.843	423.06
362.07	425.06
362.296	458.06
362.523	439.06
362.749	449.06
362.976	442.06
363.203	423.06
363.429	448.06
363.656	428.06
363.882	410.06
364.109	450.06
364.335	403.06
364.562	434.06
364.788	414.06
365.015	413.06
365.241	412.06
365.468	433.06
365.694	424.06
365.92	437.06
366.147	442.06
366.373	409.06
366.599	420.06
366.826	416.06
367.052	428.06
367.278	398.06
367.505	423.06
367.731	399.06
367.957	426.06
368.184	448.06
368.41	437.06
368.636	432.06
368.862	434.06
369.089	433.06
369.315	425.06
369.541	410.06
369.767	418.06
369.993	418.06
370.219	388.06
370.445	431.06
370.672	423.06
370.898	404.06
371.124	430.06
371.35	438.06
371.576	420.06
371.802	446.06
372.028	431.06
372.254	423.06
372.48	412.06
372.706	431.06
372.932	458.06
373.158	439.06
373.384	458.06
373.61	429.06
373.835	422.06
374.061	427.06
374.287	446.06
374.513	437.06
374.739	453.06
374.965	438.06
375.191	451.06
375.416	413.06
375.642	436.06
375.868	426.06
376.094	442.06
376.319	438.06
376.545	438.06
376.771	417.06
376.997	418.06
377.222	402.06
377.448	418.06
377.674	427.06
377.899	422.06
378.125	436.06
378.35	413.06
378.576	413.06
378.802	409.06
379.027	438.06
379.253	410.06
379.478	400.06
379.704	418.06
379.929	407.06
380.155	434.06
380.38	418.06
380.606	433.06
380.831	423.06
381.057	426.06
381.282	408.06
381.507	420.06
381.733	442.06
381.958	425.06
382.184	432.06
382.409	456.06
382.634	446.06
382.86	440.06
383.085	436.06
383.31	448.06
383.535	440.06
383.761	437.06
383.986	446.06
384.211	428.06
384.436	452.06
384.662	433.06
384.887	445.06
385.112	437.06
385.337	467.06
385.562	466.06
385.787	457.06
386.013	476.06
386.238	465.06
386.463	464.06
386.688	464.06
386.913	461.06
387.138	469.06
387.363	474.06
387.588	446.06
387.813	465.06
388.038	469.06
388.263	452.06
388.488	456.06
388.713	465.06
388.938	502.06
389.163	461.06
389.387	464.06
389.612	465.06
389.837	468.06
390.062	462.06
390.287	480.06
390.512	455.06
390.736	462.06
390.961	479.06
391.186	459.06
391.411	466.06
391.636	480.06
391.86	489.06
392.085	462.06
392.31	488.06
392.534	513.06
392.759	490.06
392.984	478.06
393.208	491.06
393.433	480.06
393.658	474.06
393.882	467.06
394.107	470.06
394.331	506.06
394.556	488.06
394.78	485.06
395.005	492.06
395.229	478.06
395.454	502.06
395.678	497.06
395.903	503.06
396.127	493.06
396.352	535.06
396.576	504.06
396.801	496.06
397.025	495.06
397.249	498.06
397.474	493.06
397.698	499.06
397.922	527.06
398.147	541.06
398.371	533.06
398.595	534.06
398.82	549.06
399.044	549.06
399.268	602.06
399.492	638.06
399.717	676.06
399.941	723.06
400.165	716.06
400.389	675.06
400.613	626.06
400.837	566.06
401.062	549.06
401.286	536.06
401.51	552.06
401.734	535.06
401.958	550.06
402.182	563.06
402.406	571.06
402.63	556.06
402.854	577.06
403.078	553.06
403.302	586.06
403.526	597.06
403.75	588.06
403.974	602.06
404.198	598.06
404.422	606.06
404.645	614.06
404.869	597.06
405.093	627.06
405.317	666.06
405.541	719.06
405.765	634.06
405.988	608.06
406.212	594.06
406.436	611.06
406.66	644.06
406.883	632.06
407.107	634.06
407.331	691.06
407.555	735.06
407.778	764.06
408.002	676.06
408.226	657.06
408.449	626.06
408.673	643.06
408.896	662.06
409.12	673.06
409.344	643.06
409.567	587.06
409.791	575.06
410.014	557.06
410.238	545.06
410.461	581.06
410.685	560.06
410.908	576.06
411.132	618.06
411.355	639.06
411.578	612.06
411.802	553.06
412.025	563.06
412.249	574.06
412.472	623.06
412.695	650.06
412.919	615.06
413.142	583.06
413.365	566.06
413.589	579.06
413.812	541.06
414.035	539.06
414.258	554.06
414.482	544.06
414.705	519.06
414.928	543.06
415.151	518.06
415.374	538.06
415.597	516.06
415.821	534.06
416.044	529.06
416.267	545.06
416.49	507.06
416.713	518.06
416.936	513.06
417.159	495.06
417.382	529.06
417.605	550.06
417.828	534.06
418.051	575.06
418.274	539.06
418.497	526.06
418.72	518.06
418.943	540.06
419.166	559.06
419.389	588.06
419.611	568.06
419.834	565.06
420.057	572.06
420.28	581.06
420.503	580.06
420.726	557.06
420.948	570.06
421.171	596.06
421.394	617.06
421.617	553.06
421.839	553.06
422.062	559.06
422.285	551.06
422.507	617.06
422.73	701.06
422.953	645.06
423.175	583.06
423.398	573.06
423.621	562.06
423.843	596.06
424.066	586.06
424.288	599.06
424.511	631.06
424.733	642.06
424.956	712.06
425.178	679.06
425.401	683.06
425.623	712.06
425.846	627.06
426.068	587.06
426.291	564.06
426.513	534.06
426.735	581.06
426.958	623.06
427.18	673.06
427.402	796.06
427.625	877.06
427.847	776.06
428.069	664.06
428.292	595.06
428.514	558.06
428.736	553.06
428.958	556.06
429.181	511.06
429.403	517.06
429.625	542.06
429.847	544.06
430.069	618.06
430.292	614.06
430.514	525.06
430.736	521.06
430.958	509.06
431.18	500.06
431.402	520.06
431.624	489.06
431.846	497.06
432.068	500.06
432.29	516.06
432.512	499.06
432.734	524.06
432.956	518.06
433.178	512.06
433.4	512.06
433.622	498.06
433.844	490.06
434.066	518.06
434.287	509.06
434.509	509.06
434.731	530.06
434.953	517.06
435.175	536.06
435.397	581.06
435.618	574.06
435.84	598.06
436.062	671.06
436.284	750.06
436.505	617.06
436.727	572.06
436.949	508.06
437.17	510.06
437.392	517.06
437.614	531.06
437.835	570.06
438.057	644.06
438.278	734.06
438.5	750.06
438.721	786.06
438.943	767.06
439.165	626.06
439.386	574.06
439.608	556.06
439.829	575.06
440.05	578.06
440.272	640.06
440.493	582.06
440.715	545.06
440.936	544.06
441.158	542.06
441.379	544.06
441.6	558.06
441.822	566.06
442.043	598.06
442.264	691.06
442.486	718.06
442.707	612.06
442.928	597.06
443.149	590.06
443.371	606.06
443.592	676.06
443.813	736.06
444.034	775.06
444.255	662.06
444.476	615.06
444.698	601.06
444.919	621.06
445.14	742.06
445.361	648.06
445.582	638.06
445.803	684.06
446.024	743.06
446.245	757.06
446.466	701.06
446.687	593.06
446.908	564.06
447.129	541.06
447.35	528.06
447.571	515.06
447.792	498.06
448.013	528.06
448.234	519.06
448.455	590.06
448.675	671.06
448.896	772.06
449.117	631.06
449.338	667.06
449.559	757.06
449.779	810.06
450	644.06
450.221	564.06
450.442	532.06
450.662	496.06
450.883	487.06
451.104	521.06
451.324	495.06
451.545	492.06
451.766	462.06
451.986	458.06
452.207	459.06
452.428	469.06
452.648	461.06
452.869	466.06
453.089	466.06
453.31	489.06
453.53	504.06
453.751	485.06
453.971	476.06
454.192	482.06
454.412	477.06
454.633	466.06
454.853	472.06
455.073	466.06
455.294	484.06
455.514	556.06
455.734	529.06
455.955	464.06
456.175	450.06
456.395	442.06
456.616	430.06
456.836	442.06
457.056	461.06
457.276	424.06
457.497	448.06
457.717	416.06
457.937	428.06
458.157	455.06
458.377	468.06
458.598	485.06
458.818	549.06
459.038	596.06
459.258	615.06
459.478	554.06
459.698	525.06
459.918	491.06
460.138	511.06
460.358	502.06
460.578	532.06
460.798	534.06
461.018	554.06
461.238	534.06
461.458	537.06
461.678	515.06
461.898	520.06
462.118	513.06
462.338	533.06
462.558	561.06
462.777	552.06
462.997	592.06
463.217	630.06
463.437	620.06
463.657	605.06
463.876	580.06
464.096	612.06
464.316	588.06
464.536	583.06
464.755	585.06
464.975	555.06
465.195	612.06
465.414	642.06
465.634	569.06
465.854	543.06
466.073	517.06
466.293	503.06
466.512	496.06
466.732	483.06
466.951	477.06
467.171	494.06
467.391	486.06
467.61	503.06
467.829	504.06
468.049	490.06
468.268	493.06
468.488	488.06
468.707	466.06
468.927	452.06
469.146	456.06
469.365	470.06
469.585	456.06
469.804	497.06
470.023	477.06
470.243	509.06
470.462	506.06
470.681	527.06
470.901	527.06
471.12	509.06
471.339	496.06
471.558	504.06
471.777	483.06
471.997	499.06
472.216	482.06
472.435	542.06
472.654	513.06
472.873	492.06
473.092	512.06
473.311	461.06
473.53	473.06
473.749	469.06
473.968	531.06
474.187	612.06
474.406	621.06
474.625	526.06
474.844	481.06
475.063	484.06
475.282	485.06
475.501	510.06
475.72	495.06
475.939	496.06
476.158	488.06
476.377	485.06
476.596	490.06
476.814	504.06
477.033	512.06
477.252	528.06
477.471	516.06
477.69	521.06
477.908	540.06
478.127	533.06
478.346	531.06
478.564	550.06
478.783	542.06
479.002	567.06
479.22	553.06
479.439	585.06
479.658	601.06
479.876	597.06
480.095	595.06
480.313	633.06
480.532	630.06
480.751	601.06
480.969	612.06
481.188	670.06
481.406	712.06
481.624	626.06
481.843	611.06
482.061	586.06
482.28	579.06
482.498	552.06
482.717	569.06
482.935	562.06
483.153	565.06
483.372	565.06
483.59	564.06
483.808	551.06
484.027	566.06
484.245	565.06
484.463	564.06
484.681	580.06
484.9	563.06
485.118	582.06
485.336	586.06
485.554	600.06
485.772	590.06
485.99	584.06
486.209	581.06
486.427	581.06
486.645	572.06
486.863	611.06
487.081	578.06
487.299	587.06
487.517	567.06
487.735	603.06
487.953	622.06
488.171	606.06
488.389	583.06
488.607	613.06
488.825	606.06
489.043	606.06
489.261	593.06
489.479	637.06
489.696	614.06
489.914	590.06
490.132	630.06
490.35	644.06
490.568	622.06
490.786	651.06
491.003	661.06
491.221	655.06
491.439	673.06
491.657	693.06
491.874	697.06
492.092	699.06
492.31	704.06
492.527	711.06
492.745	679.06
492.963	720.06
493.18	710.06
493.398	726.06
493.615	735.06
493.833	721.06
494.05	748.06
494.268	723.06
494.485	690.06
494.703	711.06
494.92	697.06
495.138	727.06
495.355	735.06
495.573	730.06
495.79	716.06
496.008	721.06
496.225	725.06
496.442	733.06
496.66	724.06
496.877	715.06
497.094	742.06
497.312	718.06
497.529	764.06
497.746	770.06
497.963	781.06
498.181	801.06
498.398	839.06
498.615	822.06
498.832	862.06
499.049	886.06
499.267	929.06
499.484	955.06
499.701	981.06
499.918	1030.06
500.135	1139.06
500.352	1195.06
500.569	1227.06
500.786	1230.06
501.003	1202.06
501.22	1119.06
501.437	1077.06
501.654	1024.06
501.871	997.06
