Data from 1985.PennyLincolnUp.Lamp.En5.5.200Scan.071819.P1_HRD10591_17-03-09-971.txt Node
Date: Thu Jul 18 17:03:09 EDT 2019
User: cochatt
Spectrometer: HR+D1059
Trigger mode: 1
Integration Time (sec): 1.000000E-1
Scans to average: 1
Electric dark correction enabled: true
Nonlinearity correction enabled: false
Boxcar width: 0
XAxis mode: Wavelengths
Number of Pixels in Spectrum: 2048
>>>>>Begin Spectral Data<<<<<
223.165	-24.5
223.4	-24.5
223.635	-24.5
223.869	-15.5
224.104	-15.5
224.338	-28.5
224.573	-12.5
224.808	-17.5
225.042	-15.5
225.277	-3.5
225.511	-9.5
225.746	3.5
225.98	4.5
226.215	29.5
226.449	20.5
226.683	24.5
226.918	23.5
227.152	36.5
227.387	35.5
227.621	30.5
227.856	26.5
228.09	34.5
228.324	30.5
228.559	50.5
228.793	70.5
229.027	76.5
229.262	89.5
229.496	116.5
229.73	125.5
229.964	160.5
230.199	135.5
230.433	108.5
230.667	112.5
230.901	110.5
231.136	121.5
231.37	131.5
231.604	110.5
231.838	114.5
232.072	121.5
232.306	113.5
232.541	115.5
232.775	110.5
233.009	114.5
233.243	120.5
233.477	117.5
233.711	113.5
233.945	118.5
234.179	108.5
234.413	100.5
234.647	112.5
234.881	109.5
235.115	115.5
235.349	114.5
235.583	110.5
235.817	104.5
236.051	122.5
236.285	124.5
236.519	131.5
236.753	127.5
236.987	134.5
237.221	178.5
237.455	222.5
237.689	169.5
237.922	138.5
238.156	122.5
238.39	132.5
238.624	125.5
238.858	118.5
239.091	123.5
239.325	115.5
239.559	125.5
239.793	123.5
240.027	132.5
240.26	140.5
240.494	167.5
240.728	143.5
240.961	149.5
241.195	136.5
241.429	146.5
241.662	145.5
241.896	116.5
242.13	153.5
242.363	122.5
242.597	139.5
242.83	153.5
243.064	136.5
243.298	130.5
243.531	132.5
243.765	148.5
243.998	143.5
244.232	142.5
244.465	157.5
244.699	159.5
244.932	142.5
245.166	146.5
245.399	122.5
245.633	130.5
245.866	160.5
246.099	152.5
246.333	159.5
246.566	151.5
246.8	151.5
247.033	154.5
247.266	159.5
247.5	162.5
247.733	168.5
247.966	151.5
248.2	157.5
248.433	156.5
248.666	180.5
248.899	186.5
249.133	194.5
249.366	210.5
249.599	199.5
249.832	183.5
250.066	180.5
250.299	172.5
250.532	190.5
250.765	205.5
250.998	214.5
251.231	225.5
251.465	219.5
251.698	204.5
251.931	201.5
252.164	186.5
252.397	194.5
252.63	191.5
252.863	219.5
253.096	211.5
253.329	226.5
253.562	220.5
253.795	202.5
254.028	194.5
254.261	211.5
254.494	213.5
254.727	252.5
254.96	269.5
255.193	262.5
255.426	234.5
255.659	226.5
255.892	218.5
256.124	230.5
256.357	228.5
256.59	211.5
256.823	211.5
257.056	199.5
257.289	201.5
257.521	206.5
257.754	210.5
257.987	232.5
258.22	203.5
258.452	212.5
258.685	210.5
258.918	204.5
259.151	204.5
259.383	215.5
259.616	202.5
259.849	210.5
260.081	234.5
260.314	261.5
260.547	268.5
260.779	233.5
261.012	232.5
261.244	215.5
261.477	231.5
261.71	215.5
261.942	222.5
262.175	227.5
262.407	228.5
262.64	225.5
262.872	238.5
263.105	234.5
263.337	226.5
263.57	215.5
263.802	236.5
264.035	247.5
264.267	222.5
264.499	211.5
264.732	233.5
264.964	221.5
265.197	206.5
265.429	214.5
265.661	208.5
265.894	235.5
266.126	224.5
266.358	246.5
266.591	212.5
266.823	250.5
267.055	254.5
267.287	252.5
267.52	240.5
267.752	238.5
267.984	237.5
268.216	229.5
268.448	230.5
268.681	255.5
268.913	264.5
269.145	266.5
269.377	297.5
269.609	296.5
269.841	278.5
270.073	296.5
270.306	315.5
270.538	295.5
270.77	329.5
271.002	310.5
271.234	304.5
271.466	308.5
271.698	322.5
271.93	329.5
272.162	327.5
272.394	313.5
272.626	315.5
272.858	290.5
273.09	302.5
273.322	280.5
273.553	278.5
273.785	281.5
274.017	286.5
274.249	284.5
274.481	282.5
274.713	271.5
274.945	281.5
275.176	274.5
275.408	297.5
275.64	283.5
275.872	275.5
276.104	284.5
276.335	283.5
276.567	306.5
276.799	286.5
277.031	309.5
277.262	342.5
277.494	323.5
277.726	296.5
277.957	298.5
278.189	298.5
278.421	293.5
278.652	294.5
278.884	294.5
279.115	297.5
279.347	283.5
279.579	284.5
279.81	289.5
280.042	280.5
280.273	272.5
280.505	283.5
280.736	299.5
280.968	270.5
281.199	290.5
281.431	291.5
281.662	292.5
281.894	306.5
282.125	310.5
282.356	313.5
282.588	319.5
282.819	341.5
283.051	294.5
283.282	295.5
283.513	304.5
283.745	290.5
283.976	308.5
284.207	303.5
284.439	304.5
284.67	318.5
284.901	325.5
285.132	304.5
285.364	302.5
285.595	313.5
285.826	304.5
286.057	321.5
286.288	302.5
286.52	296.5
286.751	306.5
286.982	323.5
287.213	298.5
287.444	302.5
287.675	308.5
287.906	338.5
288.138	338.5
288.369	338.5
288.6	318.5
288.831	316.5
289.062	318.5
289.293	306.5
289.524	319.5
289.755	305.5
289.986	310.5
290.217	334.5
290.448	321.5
290.679	331.5
290.91	330.5
291.141	324.5
291.371	334.5
291.602	328.5
291.833	312.5
292.064	316.5
292.295	346.5
292.526	330.5
292.757	331.5
292.987	318.5
293.218	326.5
293.449	329.5
293.68	307.5
293.91	330.5
294.141	326.5
294.372	328.5
294.603	310.5
294.833	335.5
295.064	327.5
295.295	341.5
295.525	327.5
295.756	338.5
295.987	343.5
296.217	350.5
296.448	368.5
296.679	348.5
296.909	345.5
297.14	332.5
297.37	337.5
297.601	357.5
297.831	341.5
298.062	352.5
298.292	332.5
298.523	337.5
298.753	343.5
298.984	343.5
299.214	336.5
299.445	358.5
299.675	339.5
299.905	346.5
300.136	330.5
300.366	356.5
300.597	343.5
300.827	378.5
301.057	361.5
301.288	374.5
301.518	372.5
301.748	356.5
301.979	359.5
302.209	372.5
302.439	359.5
302.669	362.5
302.9	351.5
303.13	371.5
303.36	371.5
303.59	379.5
303.82	371.5
304.051	383.5
304.281	373.5
304.511	346.5
304.741	358.5
304.971	368.5
305.201	352.5
305.431	384.5
305.661	361.5
305.891	372.5
306.121	366.5
306.352	374.5
306.582	369.5
306.812	374.5
307.042	388.5
307.272	367.5
307.502	374.5
307.731	368.5
307.961	376.5
308.191	375.5
308.421	378.5
308.651	370.5
308.881	380.5
309.111	364.5
309.341	378.5
309.571	406.5
309.8	387.5
310.03	398.5
310.26	418.5
310.49	410.5
310.72	425.5
310.949	442.5
311.179	446.5
311.409	420.5
311.639	423.5
311.868	416.5
312.098	430.5
312.328	418.5
312.557	435.5
312.787	446.5
313.017	449.5
313.246	436.5
313.476	424.5
313.706	426.5
313.935	453.5
314.165	462.5
314.394	444.5
314.624	450.5
314.853	444.5
315.083	429.5
315.312	421.5
315.542	418.5
315.771	427.5
316.001	426.5
316.23	423.5
316.46	432.5
316.689	430.5
316.919	431.5
317.148	444.5
317.377	434.5
317.607	413.5
317.836	407.5
318.065	425.5
318.295	385.5
318.524	395.5
318.753	404.5
318.983	430.5
319.212	415.5
319.441	425.5
319.67	445.5
319.9	434.5
320.129	434.5
320.358	403.5
320.587	411.5
320.816	434.5
321.046	452.5
321.275	446.5
321.504	447.5
321.733	446.5
321.962	456.5
322.191	448.5
322.42	470.5
322.649	488.5
322.878	478.5
323.108	484.5
323.337	504.5
323.566	518.5
323.795	555.5
324.024	602.5
324.253	697.5
324.482	974.5
324.71	1445.5
324.939	2068.5
325.168	1742.5
325.397	954.5
325.626	652.5
325.855	586.5
326.084	543.5
326.313	517.5
326.542	540.5
326.77	586.5
326.999	664.5
327.228	857.5
327.457	1320.5
327.686	1573.5
327.914	1049.5
328.143	719.5
328.372	646.5
328.6	618.5
328.829	588.5
329.058	613.5
329.287	620.5
329.515	576.5
329.744	540.5
329.972	526.5
330.201	545.5
330.43	578.5
330.658	605.5
330.887	624.5
331.115	609.5
331.344	554.5
331.572	547.5
331.801	544.5
332.03	537.5
332.258	506.5
332.486	484.5
332.715	512.5
332.943	512.5
333.172	551.5
333.4	526.5
333.629	531.5
333.857	545.5
334.085	560.5
334.314	548.5
334.542	566.5
334.771	592.5
334.999	559.5
335.227	543.5
335.455	540.5
335.684	546.5
335.912	532.5
336.14	478.5
336.369	514.5
336.597	489.5
336.825	515.5
337.053	499.5
337.281	496.5
337.51	502.5
337.738	498.5
337.966	503.5
338.194	513.5
338.422	500.5
338.65	494.5
338.878	482.5
339.106	490.5
339.334	489.5
339.562	472.5
339.79	451.5
340.018	475.5
340.246	483.5
340.474	472.5
340.702	478.5
340.93	472.5
341.158	474.5
341.386	483.5
341.614	498.5
341.842	461.5
342.07	470.5
342.298	454.5
342.526	467.5
342.754	472.5
342.981	465.5
343.209	456.5
343.437	478.5
343.665	492.5
343.893	486.5
344.12	488.5
344.348	514.5
344.576	486.5
344.804	484.5
345.031	502.5
345.259	502.5
345.487	484.5
345.714	479.5
345.942	454.5
346.17	475.5
346.397	451.5
346.625	468.5
346.853	461.5
347.08	444.5
347.308	440.5
347.535	450.5
347.763	477.5
347.99	461.5
348.218	452.5
348.445	466.5
348.673	450.5
348.9	435.5
349.128	459.5
349.355	437.5
349.583	433.5
349.81	430.5
350.037	425.5
350.265	440.5
350.492	446.5
350.72	442.5
350.947	435.5
351.174	441.5
351.402	458.5
351.629	451.5
351.856	451.5
352.083	470.5
352.311	443.5
352.538	474.5
352.765	445.5
352.992	446.5
353.22	461.5
353.447	459.5
353.674	419.5
353.901	430.5
354.128	446.5
354.355	441.5
354.583	434.5
354.81	426.5
355.037	437.5
355.264	426.5
355.491	415.5
355.718	423.5
355.945	425.5
356.172	415.5
356.399	424.5
356.626	426.5
356.853	417.5
357.08	433.5
357.307	425.5
357.534	438.5
357.761	412.5
357.988	412.5
358.215	422.5
358.441	419.5
358.668	417.5
358.895	417.5
359.122	444.5
359.349	434.5
359.576	458.5
359.802	454.5
360.029	479.5
360.256	493.5
360.483	472.5
360.709	459.5
360.936	440.5
361.163	451.5
361.39	447.5
361.616	457.5
361.843	463.5
362.07	427.5
362.296	456.5
362.523	464.5
362.749	432.5
362.976	420.5
363.203	428.5
363.429	447.5
363.656	428.5
363.882	459.5
364.109	449.5
364.335	439.5
364.562	404.5
364.788	407.5
365.015	413.5
365.241	436.5
365.468	442.5
365.694	442.5
365.92	434.5
366.147	437.5
366.373	439.5
366.599	435.5
366.826	447.5
367.052	433.5
367.278	411.5
367.505	435.5
367.731	441.5
367.957	424.5
368.184	439.5
368.41	427.5
368.636	440.5
368.862	464.5
369.089	438.5
369.315	421.5
369.541	424.5
369.767	444.5
369.993	414.5
370.219	408.5
370.445	433.5
370.672	451.5
370.898	435.5
371.124	424.5
371.35	432.5
371.576	426.5
371.802	426.5
372.028	428.5
372.254	432.5
372.48	425.5
372.706	453.5
372.932	432.5
373.158	437.5
373.384	430.5
373.61	428.5
373.835	427.5
374.061	427.5
374.287	436.5
374.513	430.5
374.739	459.5
374.965	457.5
375.191	471.5
375.416	455.5
375.642	457.5
375.868	426.5
376.094	443.5
376.319	432.5
376.545	427.5
376.771	442.5
376.997	410.5
377.222	449.5
377.448	419.5
377.674	438.5
377.899	417.5
378.125	414.5
378.35	423.5
378.576	403.5
378.802	405.5
379.027	416.5
379.253	413.5
379.478	408.5
379.704	417.5
379.929	416.5
380.155	411.5
380.38	419.5
380.606	438.5
380.831	440.5
381.057	433.5
381.282	409.5
381.507	424.5
381.733	421.5
381.958	418.5
382.184	436.5
382.409	434.5
382.634	437.5
382.86	440.5
383.085	427.5
383.31	438.5
383.535	444.5
383.761	441.5
383.986	452.5
384.211	447.5
384.436	458.5
384.662	461.5
384.887	481.5
385.112	458.5
385.337	471.5
385.562	488.5
385.787	460.5
386.013	464.5
386.238	480.5
386.463	485.5
386.688	495.5
386.913	485.5
387.138	467.5
387.363	453.5
387.588	466.5
387.813	473.5
388.038	470.5
388.263	478.5
388.488	481.5
388.713	486.5
388.938	460.5
389.163	463.5
389.387	466.5
389.612	454.5
389.837	456.5
390.062	456.5
390.287	448.5
390.512	470.5
390.736	446.5
390.961	478.5
391.186	495.5
391.411	490.5
391.636	479.5
391.86	502.5
392.085	493.5
392.31	499.5
392.534	496.5
392.759	511.5
392.984	502.5
393.208	475.5
393.433	471.5
393.658	472.5
393.882	485.5
394.107	465.5
394.331	473.5
394.556	487.5
394.78	484.5
395.005	496.5
395.229	479.5
395.454	500.5
395.678	494.5
395.903	522.5
396.127	538.5
396.352	552.5
396.576	494.5
396.801	483.5
397.025	500.5
397.249	521.5
397.474	516.5
397.698	507.5
397.922	532.5
398.147	534.5
398.371	548.5
398.595	538.5
398.82	555.5
399.044	550.5
399.268	609.5
399.492	640.5
399.717	700.5
399.941	711.5
400.165	730.5
400.389	690.5
400.613	619.5
400.837	602.5
401.062	592.5
401.286	560.5
401.51	549.5
401.734	535.5
401.958	575.5
402.182	563.5
402.406	578.5
402.63	602.5
402.854	563.5
403.078	578.5
403.302	576.5
403.526	591.5
403.75	595.5
403.974	608.5
404.198	553.5
404.422	601.5
404.645	589.5
404.869	605.5
405.093	623.5
405.317	636.5
405.541	632.5
405.765	627.5
405.988	587.5
406.212	645.5
406.436	632.5
406.66	646.5
406.883	613.5
407.107	662.5
407.331	703.5
407.555	766.5
407.778	751.5
408.002	696.5
408.226	642.5
408.449	609.5
408.673	626.5
408.896	650.5
409.12	672.5
409.344	650.5
409.567	603.5
409.791	594.5
410.014	566.5
410.238	557.5
410.461	569.5
410.685	583.5
410.908	593.5
411.132	614.5
411.355	643.5
411.578	631.5
411.802	560.5
412.025	560.5
412.249	566.5
412.472	608.5
412.695	628.5
412.919	624.5
413.142	551.5
413.365	556.5
413.589	566.5
413.812	553.5
414.035	543.5
414.258	514.5
414.482	554.5
414.705	531.5
414.928	557.5
415.151	517.5
415.374	538.5
415.597	528.5
415.821	529.5
416.044	528.5
416.267	530.5
416.49	542.5
416.713	525.5
416.936	531.5
417.159	521.5
417.382	559.5
417.605	542.5
417.828	552.5
418.051	545.5
418.274	556.5
418.497	538.5
418.72	534.5
418.943	544.5
419.166	576.5
419.389	585.5
419.611	566.5
419.834	576.5
420.057	578.5
420.28	548.5
420.503	558.5
420.726	531.5
420.948	544.5
421.171	629.5
421.394	622.5
421.617	581.5
421.839	569.5
422.062	553.5
422.285	568.5
422.507	612.5
422.73	705.5
422.953	651.5
423.175	606.5
423.398	574.5
423.621	568.5
423.843	601.5
424.066	590.5
424.288	624.5
424.511	637.5
424.733	678.5
424.956	741.5
425.178	714.5
425.401	716.5
425.623	731.5
425.846	614.5
426.068	602.5
426.291	560.5
426.513	570.5
426.735	586.5
426.958	632.5
427.18	689.5
427.402	811.5
427.625	892.5
427.847	747.5
428.069	670.5
428.292	607.5
428.514	547.5
428.736	536.5
428.958	525.5
429.181	530.5
429.403	532.5
429.625	531.5
429.847	549.5
430.069	626.5
430.292	618.5
430.514	547.5
430.736	519.5
430.958	523.5
431.18	517.5
431.402	519.5
431.624	505.5
431.846	516.5
432.068	498.5
432.29	506.5
432.512	516.5
432.734	516.5
432.956	511.5
433.178	514.5
433.4	542.5
433.622	527.5
433.844	520.5
434.066	506.5
434.287	494.5
434.509	513.5
434.731	525.5
434.953	540.5
435.175	562.5
435.397	565.5
435.618	575.5
435.84	600.5
436.062	704.5
436.284	739.5
436.505	638.5
436.727	582.5
436.949	551.5
437.17	533.5
437.392	534.5
437.614	532.5
437.835	571.5
438.057	668.5
438.278	756.5
438.5	757.5
438.721	823.5
438.943	780.5
439.165	623.5
439.386	588.5
439.608	568.5
439.829	551.5
440.05	605.5
440.272	631.5
440.493	602.5
440.715	564.5
440.936	558.5
441.158	537.5
441.379	552.5
441.6	546.5
441.822	555.5
442.043	611.5
442.264	682.5
442.486	744.5
442.707	618.5
442.928	580.5
443.149	616.5
443.371	610.5
443.592	658.5
443.813	747.5
444.034	779.5
444.255	679.5
444.476	623.5
444.698	606.5
444.919	594.5
445.14	741.5
445.361	661.5
445.582	630.5
445.803	675.5
446.024	766.5
446.245	790.5
446.466	681.5
446.687	603.5
446.908	561.5
447.129	554.5
447.35	539.5
447.571	511.5
447.792	508.5
448.013	520.5
448.234	554.5
448.455	575.5
448.675	696.5
448.896	786.5
449.117	650.5
449.338	632.5
449.559	741.5
449.779	818.5
450	657.5
450.221	574.5
450.442	530.5
450.662	495.5
450.883	529.5
451.104	546.5
451.324	518.5
451.545	479.5
451.766	468.5
451.986	483.5
452.207	445.5
452.428	468.5
452.648	465.5
452.869	498.5
453.089	495.5
453.31	515.5
453.53	469.5
453.751	460.5
453.971	476.5
454.192	480.5
454.412	470.5
454.633	455.5
454.853	462.5
455.073	472.5
455.294	477.5
455.514	568.5
455.734	539.5
455.955	454.5
456.175	442.5
456.395	437.5
456.616	471.5
456.836	446.5
457.056	441.5
457.276	441.5
457.497	451.5
457.717	447.5
457.937	457.5
458.157	476.5
458.377	468.5
458.598	492.5
458.818	545.5
459.038	625.5
459.258	609.5
459.478	563.5
459.698	527.5
459.918	534.5
460.138	522.5
460.358	544.5
460.578	545.5
460.798	556.5
461.018	543.5
461.238	535.5
461.458	528.5
461.678	540.5
461.898	544.5
462.118	555.5
462.338	569.5
462.558	579.5
462.777	574.5
462.997	634.5
463.217	647.5
463.437	635.5
463.657	611.5
463.876	599.5
464.096	603.5
464.316	572.5
464.536	593.5
464.755	585.5
464.975	593.5
465.195	598.5
465.414	685.5
465.634	592.5
465.854	573.5
466.073	512.5
466.293	502.5
466.512	475.5
466.732	496.5
466.951	502.5
467.171	499.5
467.391	500.5
467.61	500.5
467.829	504.5
468.049	494.5
468.268	496.5
468.488	498.5
468.707	476.5
468.927	484.5
469.146	475.5
469.365	495.5
469.585	464.5
469.804	499.5
470.023	508.5
470.243	497.5
470.462	505.5
470.681	506.5
470.901	510.5
471.12	507.5
471.339	500.5
471.558	487.5
471.777	498.5
471.997	482.5
472.216	496.5
472.435	510.5
472.654	507.5
472.873	473.5
473.092	466.5
473.311	471.5
473.53	479.5
473.749	488.5
473.968	538.5
474.187	603.5
474.406	633.5
474.625	532.5
474.844	498.5
475.063	497.5
475.282	495.5
475.501	483.5
475.72	492.5
475.939	507.5
476.158	508.5
476.377	481.5
476.596	512.5
476.814	514.5
477.033	528.5
477.252	512.5
477.471	530.5
477.69	532.5
477.908	528.5
478.127	542.5
478.346	532.5
478.564	542.5
478.783	572.5
479.002	581.5
479.22	562.5
479.439	582.5
479.658	611.5
479.876	591.5
480.095	583.5
480.313	615.5
480.532	636.5
480.751	619.5
480.969	626.5
481.188	642.5
481.406	653.5
481.624	595.5
481.843	605.5
482.061	597.5
482.28	563.5
482.498	569.5
482.717	559.5
482.935	593.5
483.153	566.5
483.372	572.5
483.59	565.5
483.808	559.5
484.027	569.5
484.245	576.5
484.463	581.5
484.681	576.5
484.9	584.5
485.118	588.5
485.336	582.5
485.554	552.5
485.772	587.5
485.99	580.5
486.209	597.5
486.427	591.5
486.645	594.5
486.863	625.5
487.081	592.5
487.299	596.5
487.517	602.5
487.735	610.5
487.953	610.5
488.171	609.5
488.389	603.5
488.607	604.5
488.825	590.5
489.043	634.5
489.261	602.5
489.479	590.5
489.696	611.5
489.914	628.5
490.132	648.5
490.35	656.5
490.568	626.5
490.786	645.5
491.003	664.5
491.221	688.5
491.439	683.5
491.657	667.5
491.874	689.5
492.092	709.5
492.31	682.5
492.527	701.5
492.745	709.5
492.963	694.5
493.18	704.5
493.398	705.5
493.615	730.5
493.833	714.5
494.05	709.5
494.268	698.5
494.485	697.5
494.703	721.5
494.92	695.5
495.138	710.5
495.355	733.5
495.573	708.5
495.79	699.5
496.008	740.5
496.225	732.5
496.442	736.5
496.66	704.5
496.877	721.5
497.094	730.5
497.312	724.5
497.529	716.5
497.746	757.5
497.963	786.5
498.181	812.5
498.398	836.5
498.615	849.5
498.832	892.5
499.049	894.5
499.267	906.5
499.484	974.5
499.701	1009.5
499.918	1088.5
500.135	1145.5
500.352	1226.5
500.569	1228.5
500.786	1244.5
501.003	1206.5
501.22	1139.5
501.437	1096.5
501.654	1032.5
501.871	1010.5
502.088	914.5
502.305	908.5
502.522	863.5
502.739	840.5
502.956	821.5
503.172	784.5
503.389	759.5
503.606	772.5
503.823	792.5
504.04	759.5
504.256	751.5
504.473	762.5
504.69	761.5
504.907	735.5
505.123	710.5
505.34	704.5
505.557	695.5
505.773	686.5
505.99	707.5
506.207	699.5
506.423	696.5
506.64	668.5
506.856	644.5
507.073	660.5
507.289	668.5
507.506	666.5
507.722	686.5
507.939	678.5
508.155	641.5
508.372	649.5
508.588	624.5
508.805	641.5
509.021	653.5
509.238	642.5
509.454	656.5
509.67	638.5
509.887	630.5
510.103	643.5
510.319	660.5
510.536	741.5
510.752	1207.5
510.968	988.5
511.184	666.5
511.401	614.5
511.617	618.5
511.833	622.5
512.049	606.5
512.265	601.5
512.481	596.5
512.698	596.5
512.914	619.5
513.13	612.5
513.346	598.5
513.562	623.5
513.778	616.5
513.994	624.5
514.21	622.5
514.426	655.5
514.642	686.5
514.858	694.5
515.074	733.5
515.29	862.5
515.506	1280.5
515.721	1107.5
515.937	733.5
516.153	685.5
516.369	670.5
516.585	653.5
516.801	640.5
517.016	663.5
517.232	679.5
517.448	669.5
517.664	682.5
517.879	682.5
518.095	675.5
518.311	665.5
518.527	653.5
518.742	649.5
518.958	624.5
519.173	630.5
519.389	617.5
519.605	611.5
