Data from 1985.PennyLincolnUp.Lamp.En5.5.200Scan.071819.P1_HRD10591_17-01-31-970.txt Node
Date: Thu Jul 18 17:01:31 EDT 2019
User: cochatt
Spectrometer: HR+D1059
Trigger mode: 1
Integration Time (sec): 1.000000E-1
Scans to average: 1
Electric dark correction enabled: true
Nonlinearity correction enabled: false
Boxcar width: 0
XAxis mode: Wavelengths
Number of Pixels in Spectrum: 2048
>>>>>Begin Spectral Data<<<<<
223.165	-10.75
223.4	-10.75
223.635	-10.75
223.869	-19.75
224.104	-21.75
224.338	-12.75
224.573	-6.75
224.808	-20.75
225.042	6.25
225.277	-22.75
225.511	-0.75
225.746	-9.75
225.98	10.25
226.215	23.25
226.449	8.25
226.683	32.25
226.918	24.25
227.152	21.25
227.387	24.25
227.621	33.25
227.856	32.25
228.09	38.25
228.324	46.25
228.559	38.25
228.793	70.25
229.027	80.25
229.262	85.25
229.496	110.25
229.73	106.25
229.964	130.25
230.199	109.25
230.433	99.25
230.667	108.25
230.901	100.25
231.136	96.25
231.37	106.25
231.604	123.25
231.838	91.25
232.072	127.25
232.306	110.25
232.541	100.25
232.775	118.25
233.009	106.25
233.243	115.25
233.477	119.25
233.711	119.25
233.945	119.25
234.179	121.25
234.413	116.25
234.647	114.25
234.881	110.25
235.115	113.25
235.349	106.25
235.583	113.25
235.817	115.25
236.051	110.25
236.285	115.25
236.519	124.25
236.753	122.25
236.987	133.25
237.221	169.25
237.455	197.25
237.689	174.25
237.922	129.25
238.156	127.25
238.39	133.25
238.624	124.25
238.858	125.25
239.091	116.25
239.325	129.25
239.559	114.25
239.793	124.25
240.027	124.25
240.26	130.25
240.494	142.25
240.728	133.25
240.961	125.25
241.195	138.25
241.429	134.25
241.662	134.25
241.896	136.25
242.13	158.25
242.363	132.25
242.597	124.25
242.83	125.25
243.064	136.25
243.298	129.25
243.531	142.25
243.765	133.25
243.998	132.25
244.232	128.25
244.465	129.25
244.699	120.25
244.932	137.25
245.166	144.25
245.399	145.25
245.633	147.25
245.866	146.25
246.099	134.25
246.333	137.25
246.566	146.25
246.8	137.25
247.033	149.25
247.266	159.25
247.5	165.25
247.733	154.25
247.966	163.25
248.2	165.25
248.433	161.25
248.666	159.25
248.899	180.25
249.133	173.25
249.366	183.25
249.599	189.25
249.832	173.25
250.066	177.25
250.299	169.25
250.532	165.25
250.765	191.25
250.998	201.25
251.231	208.25
251.465	194.25
251.698	186.25
251.931	190.25
252.164	190.25
252.397	190.25
252.63	178.25
252.863	213.25
253.096	212.25
253.329	208.25
253.562	210.25
253.795	214.25
254.028	209.25
254.261	207.25
254.494	226.25
254.727	220.25
254.96	247.25
255.193	252.25
255.426	237.25
255.659	214.25
255.892	207.25
256.124	198.25
256.357	198.25
256.59	195.25
256.823	199.25
257.056	190.25
257.289	192.25
257.521	213.25
257.754	198.25
257.987	196.25
258.22	212.25
258.452	191.25
258.685	204.25
258.918	204.25
259.151	204.25
259.383	223.25
259.616	207.25
259.849	217.25
260.081	249.25
260.314	233.25
260.547	243.25
260.779	217.25
261.012	211.25
261.244	214.25
261.477	222.25
261.71	219.25
261.942	211.25
262.175	224.25
262.407	217.25
262.64	215.25
262.872	209.25
263.105	204.25
263.337	209.25
263.57	206.25
263.802	222.25
264.035	190.25
264.267	204.25
264.499	211.25
264.732	199.25
264.964	216.25
265.197	234.25
265.429	211.25
265.661	195.25
265.894	213.25
266.126	232.25
266.358	222.25
266.591	218.25
266.823	207.25
267.055	224.25
267.287	233.25
267.52	228.25
267.752	230.25
267.984	227.25
268.216	229.25
268.448	237.25
268.681	219.25
268.913	243.25
269.145	269.25
269.377	277.25
269.609	263.25
269.841	265.25
270.073	258.25
270.306	301.25
270.538	287.25
270.77	294.25
271.002	261.25
271.234	275.25
271.466	271.25
271.698	302.25
271.93	302.25
272.162	308.25
272.394	301.25
272.626	289.25
272.858	291.25
273.09	283.25
273.322	272.25
273.553	272.25
273.785	249.25
274.017	253.25
274.249	270.25
274.481	267.25
274.713	264.25
274.945	262.25
275.176	256.25
275.408	261.25
275.64	274.25
275.872	281.25
276.104	260.25
276.335	279.25
276.567	265.25
276.799	295.25
277.031	313.25
277.262	289.25
277.494	297.25
277.726	303.25
277.957	293.25
278.189	277.25
278.421	261.25
278.652	287.25
278.884	267.25
279.115	287.25
279.347	287.25
279.579	291.25
279.81	282.25
280.042	277.25
280.273	287.25
280.505	275.25
280.736	290.25
280.968	262.25
281.199	264.25
281.431	284.25
281.662	274.25
281.894	302.25
282.125	303.25
282.356	308.25
282.588	313.25
282.819	326.25
283.051	297.25
283.282	300.25
283.513	305.25
283.745	281.25
283.976	295.25
284.207	283.25
284.439	286.25
284.67	301.25
284.901	306.25
285.132	291.25
285.364	300.25
285.595	277.25
285.826	306.25
286.057	321.25
286.288	297.25
286.52	293.25
286.751	311.25
286.982	313.25
287.213	308.25
287.444	310.25
287.675	314.25
287.906	313.25
288.138	296.25
288.369	307.25
288.6	301.25
288.831	333.25
289.062	323.25
289.293	314.25
289.524	302.25
289.755	312.25
289.986	300.25
290.217	294.25
290.448	308.25
290.679	321.25
290.91	320.25
291.141	313.25
291.371	316.25
291.602	294.25
291.833	286.25
292.064	321.25
292.295	313.25
292.526	307.25
292.757	309.25
292.987	307.25
293.218	307.25
293.449	297.25
293.68	315.25
293.91	311.25
294.141	324.25
294.372	326.25
294.603	310.25
294.833	331.25
295.064	311.25
295.295	319.25
295.525	295.25
295.756	312.25
295.987	330.25
296.217	331.25
296.448	345.25
296.679	317.25
296.909	326.25
297.14	316.25
297.37	331.25
297.601	322.25
297.831	331.25
298.062	338.25
298.292	329.25
298.523	323.25
298.753	322.25
298.984	335.25
299.214	342.25
299.445	339.25
299.675	320.25
299.905	343.25
300.136	328.25
300.366	338.25
300.597	335.25
300.827	347.25
301.057	360.25
301.288	365.25
301.518	346.25
301.748	335.25
301.979	337.25
302.209	362.25
302.439	350.25
302.669	362.25
302.9	365.25
303.13	355.25
303.36	329.25
303.59	356.25
303.82	370.25
304.051	361.25
304.281	361.25
304.511	341.25
304.741	333.25
304.971	353.25
305.201	354.25
305.431	345.25
305.661	360.25
305.891	348.25
306.121	343.25
306.352	364.25
306.582	369.25
306.812	353.25
307.042	364.25
307.272	349.25
307.502	353.25
307.731	362.25
307.961	355.25
308.191	362.25
308.421	382.25
308.651	367.25
308.881	382.25
309.111	376.25
309.341	358.25
309.571	363.25
309.8	369.25
310.03	387.25
310.26	379.25
310.49	384.25
310.72	375.25
310.949	389.25
311.179	394.25
311.409	379.25
311.639	389.25
311.868	384.25
312.098	418.25
312.328	389.25
312.557	414.25
312.787	442.25
313.017	411.25
313.246	385.25
313.476	398.25
313.706	392.25
313.935	395.25
314.165	394.25
314.394	391.25
314.624	417.25
314.853	388.25
315.083	415.25
315.312	396.25
315.542	413.25
315.771	395.25
316.001	380.25
316.23	381.25
316.46	400.25
316.689	415.25
316.919	385.25
317.148	404.25
317.377	406.25
317.607	418.25
317.836	401.25
318.065	403.25
318.295	396.25
318.524	391.25
318.753	394.25
318.983	395.25
319.212	391.25
319.441	397.25
319.67	405.25
319.9	418.25
320.129	403.25
320.358	420.25
320.587	401.25
320.816	413.25
321.046	413.25
321.275	410.25
321.504	418.25
321.733	405.25
321.962	412.25
322.191	430.25
322.42	427.25
322.649	440.25
322.878	445.25
323.108	463.25
323.337	457.25
323.566	495.25
323.795	508.25
324.024	525.25
324.253	597.25
324.482	797.25
324.71	1192.25
324.939	1642.25
325.168	1408.25
325.397	774.25
325.626	568.25
325.855	497.25
326.084	505.25
326.313	482.25
326.542	492.25
326.77	535.25
326.999	570.25
327.228	742.25
327.457	1062.25
327.686	1285.25
327.914	857.25
328.143	614.25
328.372	529.25
328.6	525.25
328.829	535.25
329.058	511.25
329.287	543.25
329.515	519.25
329.744	487.25
329.972	468.25
330.201	491.25
330.43	477.25
330.658	532.25
330.887	550.25
331.115	555.25
331.344	513.25
331.572	473.25
331.801	475.25
332.03	499.25
332.258	491.25
332.486	469.25
332.715	484.25
332.943	459.25
333.172	495.25
333.4	501.25
333.629	498.25
333.857	509.25
334.085	520.25
334.314	504.25
334.542	494.25
334.771	498.25
334.999	501.25
335.227	503.25
335.455	482.25
335.684	470.25
335.912	484.25
336.14	484.25
336.369	460.25
336.597	479.25
336.825	462.25
337.053	471.25
337.281	476.25
337.51	457.25
337.738	456.25
337.966	458.25
338.194	467.25
338.422	461.25
338.65	453.25
338.878	446.25
339.106	429.25
339.334	457.25
339.562	441.25
339.79	464.25
340.018	434.25
340.246	446.25
340.474	465.25
340.702	446.25
340.93	439.25
341.158	418.25
341.386	442.25
341.614	462.25
341.842	438.25
342.07	442.25
342.298	415.25
342.526	441.25
342.754	442.25
342.981	460.25
343.209	447.25
343.437	463.25
343.665	469.25
343.893	472.25
344.12	457.25
344.348	475.25
344.576	499.25
344.804	476.25
345.031	449.25
345.259	487.25
345.487	454.25
345.714	429.25
345.942	422.25
346.17	418.25
346.397	420.25
346.625	416.25
346.853	423.25
347.08	417.25
347.308	436.25
347.535	435.25
347.763	429.25
347.99	417.25
348.218	439.25
348.445	449.25
348.673	434.25
348.9	418.25
349.128	419.25
349.355	399.25
349.583	421.25
349.81	403.25
350.037	410.25
350.265	417.25
350.492	414.25
350.72	435.25
350.947	406.25
351.174	420.25
351.402	415.25
351.629	414.25
351.856	426.25
352.083	429.25
352.311	431.25
352.538	458.25
352.765	441.25
352.992	421.25
353.22	415.25
353.447	438.25
353.674	423.25
353.901	401.25
354.128	414.25
354.355	415.25
354.583	415.25
354.81	409.25
355.037	402.25
355.264	393.25
355.491	393.25
355.718	405.25
355.945	405.25
356.172	396.25
356.399	401.25
356.626	397.25
356.853	393.25
357.08	405.25
357.307	398.25
357.534	406.25
357.761	412.25
357.988	409.25
358.215	422.25
358.441	400.25
358.668	389.25
358.895	426.25
359.122	413.25
359.349	417.25
359.576	428.25
359.802	428.25
360.029	449.25
360.256	438.25
360.483	425.25
360.709	433.25
360.936	417.25
361.163	427.25
361.39	432.25
361.616	437.25
361.843	410.25
362.07	419.25
362.296	425.25
362.523	411.25
362.749	423.25
362.976	423.25
363.203	427.25
363.429	406.25
363.656	395.25
363.882	389.25
364.109	423.25
364.335	393.25
364.562	415.25
364.788	391.25
365.015	396.25
365.241	388.25
365.468	402.25
365.694	412.25
365.92	409.25
366.147	402.25
366.373	390.25
366.599	403.25
366.826	411.25
367.052	409.25
367.278	404.25
367.505	399.25
367.731	412.25
367.957	419.25
368.184	403.25
368.41	399.25
368.636	420.25
368.862	435.25
369.089	415.25
369.315	420.25
369.541	414.25
369.767	421.25
369.993	409.25
370.219	419.25
370.445	409.25
370.672	401.25
370.898	418.25
371.124	401.25
371.35	401.25
371.576	408.25
371.802	418.25
372.028	401.25
372.254	408.25
372.48	422.25
372.706	421.25
372.932	426.25
373.158	433.25
373.384	414.25
373.61	414.25
373.835	399.25
374.061	400.25
374.287	437.25
374.513	419.25
374.739	429.25
374.965	432.25
375.191	439.25
375.416	411.25
375.642	433.25
375.868	435.25
376.094	440.25
376.319	414.25
376.545	426.25
376.771	411.25
376.997	421.25
377.222	411.25
377.448	419.25
377.674	402.25
377.899	394.25
378.125	418.25
378.35	400.25
378.576	399.25
378.802	406.25
379.027	437.25
379.253	426.25
379.478	396.25
379.704	406.25
379.929	425.25
380.155	431.25
380.38	387.25
380.606	407.25
380.831	398.25
381.057	434.25
381.282	409.25
381.507	421.25
381.733	410.25
381.958	407.25
382.184	414.25
382.409	437.25
382.634	427.25
382.86	433.25
383.085	408.25
383.31	430.25
383.535	439.25
383.761	426.25
383.986	433.25
384.211	433.25
384.436	459.25
384.662	457.25
384.887	442.25
385.112	470.25
385.337	454.25
385.562	459.25
385.787	458.25
386.013	474.25
386.238	455.25
386.463	471.25
386.688	476.25
386.913	458.25
387.138	451.25
387.363	451.25
387.588	437.25
387.813	449.25
388.038	464.25
388.263	448.25
388.488	480.25
388.713	476.25
388.938	466.25
389.163	455.25
389.387	451.25
389.612	436.25
389.837	453.25
390.062	456.25
390.287	446.25
390.512	459.25
390.736	440.25
390.961	459.25
391.186	456.25
391.411	470.25
391.636	477.25
391.86	492.25
392.085	475.25
392.31	489.25
392.534	488.25
392.759	494.25
392.984	456.25
393.208	466.25
393.433	442.25
393.658	476.25
393.882	471.25
394.107	463.25
394.331	482.25
394.556	457.25
394.78	474.25
395.005	470.25
395.229	469.25
395.454	462.25
395.678	488.25
395.903	494.25
396.127	504.25
396.352	490.25
396.576	487.25
396.801	477.25
397.025	496.25
397.249	468.25
397.474	509.25
397.698	501.25
397.922	518.25
398.147	516.25
398.371	495.25
398.595	509.25
398.82	525.25
399.044	567.25
399.268	550.25
399.492	632.25
399.717	662.25
399.941	683.25
400.165	699.25
400.389	658.25
400.613	612.25
400.837	545.25
401.062	547.25
401.286	554.25
401.51	526.25
401.734	523.25
401.958	547.25
402.182	551.25
402.406	551.25
402.63	542.25
402.854	538.25
403.078	541.25
403.302	568.25
403.526	567.25
403.75	563.25
403.974	562.25
404.198	569.25
404.422	577.25
404.645	573.25
404.869	553.25
405.093	566.25
405.317	575.25
405.541	602.25
405.765	585.25
405.988	585.25
406.212	571.25
406.436	583.25
406.66	607.25
406.883	590.25
407.107	608.25
407.331	668.25
407.555	713.25
407.778	717.25
408.002	648.25
408.226	621.25
408.449	619.25
408.673	601.25
408.896	609.25
409.12	659.25
409.344	641.25
409.567	572.25
409.791	554.25
410.014	553.25
410.238	534.25
410.461	557.25
410.685	555.25
410.908	587.25
411.132	609.25
411.355	612.25
411.578	588.25
411.802	553.25
412.025	531.25
412.249	550.25
412.472	572.25
412.695	541.25
412.919	521.25
413.142	527.25
413.365	524.25
413.589	518.25
413.812	527.25
414.035	510.25
414.258	517.25
414.482	527.25
414.705	523.25
414.928	515.25
415.151	519.25
415.374	515.25
415.597	503.25
415.821	489.25
416.044	535.25
416.267	505.25
416.49	504.25
416.713	492.25
416.936	490.25
417.159	527.25
417.382	521.25
417.605	517.25
417.828	518.25
418.051	520.25
418.274	559.25
418.497	508.25
418.72	509.25
418.943	534.25
419.166	536.25
419.389	565.25
419.611	535.25
419.834	545.25
420.057	531.25
420.28	525.25
420.503	521.25
420.726	506.25
420.948	526.25
421.171	565.25
421.394	591.25
421.617	538.25
421.839	514.25
422.062	509.25
422.285	529.25
422.507	598.25
422.73	655.25
422.953	633.25
423.175	574.25
423.398	554.25
423.621	573.25
423.843	556.25
424.066	561.25
424.288	566.25
424.511	562.25
424.733	626.25
424.956	683.25
425.178	654.25
425.401	660.25
425.623	650.25
425.846	584.25
426.068	557.25
426.291	527.25
426.513	539.25
426.735	550.25
426.958	586.25
427.18	643.25
427.402	776.25
427.625	829.25
427.847	693.25
428.069	587.25
428.292	543.25
428.514	531.25
428.736	511.25
428.958	515.25
429.181	493.25
429.403	502.25
429.625	479.25
429.847	529.25
430.069	583.25
430.292	585.25
430.514	500.25
430.736	496.25
430.958	497.25
431.18	488.25
431.402	490.25
431.624	499.25
431.846	476.25
432.068	479.25
432.29	487.25
432.512	488.25
432.734	491.25
432.956	478.25
433.178	512.25
433.4	475.25
433.622	500.25
433.844	483.25
434.066	474.25
434.287	513.25
434.509	494.25
434.731	511.25
434.953	499.25
435.175	518.25
435.397	539.25
435.618	544.25
435.84	565.25
436.062	655.25
436.284	716.25
436.505	601.25
436.727	543.25
436.949	501.25
437.17	510.25
437.392	490.25
437.614	506.25
437.835	535.25
438.057	615.25
438.278	690.25
438.5	665.25
438.721	746.25
438.943	710.25
439.165	586.25
439.386	569.25
439.608	537.25
439.829	530.25
440.05	556.25
440.272	570.25
440.493	556.25
440.715	553.25
440.936	535.25
441.158	522.25
441.379	518.25
441.6	532.25
441.822	549.25
442.043	606.25
442.264	633.25
442.486	695.25
442.707	597.25
442.928	567.25
443.149	564.25
443.371	581.25
443.592	619.25
443.813	695.25
444.034	755.25
444.255	616.25
444.476	573.25
444.698	590.25
444.919	583.25
445.14	706.25
445.361	615.25
445.582	606.25
445.803	603.25
446.024	727.25
446.245	684.25
446.466	642.25
446.687	553.25
446.908	523.25
447.129	494.25
447.35	495.25
447.571	498.25
447.792	492.25
448.013	495.25
448.234	498.25
448.455	547.25
448.675	663.25
448.896	746.25
449.117	620.25
449.338	597.25
449.559	702.25
449.779	789.25
450	619.25
450.221	542.25
450.442	484.25
450.662	475.25
450.883	483.25
451.104	473.25
451.324	462.25
451.545	482.25
451.766	440.25
451.986	455.25
452.207	445.25
452.428	439.25
452.648	445.25
452.869	455.25
453.089	431.25
453.31	461.25
453.53	463.25
453.751	475.25
453.971	449.25
454.192	456.25
454.412	471.25
454.633	416.25
454.853	439.25
455.073	452.25
455.294	465.25
455.514	500.25
455.734	501.25
455.955	441.25
456.175	431.25
456.395	417.25
456.616	412.25
456.836	430.25
457.056	424.25
457.276	415.25
457.497	437.25
457.717	439.25
457.937	407.25
458.157	432.25
458.377	425.25
458.598	483.25
458.818	507.25
459.038	572.25
459.258	567.25
459.478	504.25
459.698	490.25
459.918	490.25
460.138	493.25
460.358	515.25
460.578	515.25
460.798	530.25
461.018	521.25
461.238	513.25
461.458	519.25
461.678	503.25
461.898	521.25
462.118	537.25
462.338	559.25
462.558	558.25
462.777	560.25
462.997	603.25
463.217	587.25
463.437	596.25
463.657	589.25
463.876	580.25
464.096	574.25
464.316	563.25
464.536	560.25
464.755	566.25
464.975	563.25
465.195	574.25
465.414	613.25
465.634	548.25
465.854	502.25
466.073	504.25
466.293	476.25
466.512	449.25
466.732	471.25
466.951	451.25
467.171	468.25
467.391	477.25
467.61	492.25
467.829	477.25
468.049	481.25
468.268	475.25
468.488	425.25
468.707	475.25
468.927	470.25
469.146	457.25
469.365	448.25
469.585	455.25
469.804	463.25
470.023	481.25
470.243	455.25
470.462	490.25
470.681	494.25
470.901	515.25
471.12	496.25
471.339	473.25
471.558	483.25
471.777	490.25
471.997	451.25
472.216	465.25
472.435	466.25
472.654	451.25
472.873	450.25
473.092	460.25
473.311	462.25
473.53	462.25
473.749	470.25
473.968	484.25
474.187	584.25
474.406	567.25
474.625	486.25
474.844	462.25
475.063	455.25
475.282	464.25
475.501	458.25
475.72	489.25
475.939	482.25
476.158	454.25
476.377	475.25
476.596	505.25
476.814	464.25
477.033	499.25
477.252	504.25
477.471	486.25
477.69	522.25
477.908	507.25
478.127	517.25
478.346	516.25
478.564	531.25
478.783	525.25
479.002	548.25
479.22	535.25
479.439	545.25
479.658	565.25
479.876	566.25
480.095	587.25
480.313	593.25
480.532	589.25
480.751	572.25
480.969	559.25
481.188	562.25
481.406	571.25
481.624	578.25
481.843	542.25
482.061	561.25
482.28	549.25
482.498	531.25
482.717	564.25
482.935	542.25
483.153	523.25
483.372	537.25
483.59	524.25
483.808	543.25
484.027	549.25
484.245	551.25
484.463	538.25
484.681	537.25
484.9	560.25
485.118	566.25
485.336	555.25
485.554	558.25
485.772	541.25
485.99	556.25
486.209	555.25
486.427	567.25
486.645	590.25
486.863	597.25
487.081	577.25
487.299	561.25
487.517	563.25
487.735	570.25
487.953	562.25
488.171	570.25
488.389	581.25
488.607	587.25
488.825	577.25
489.043	591.25
489.261	588.25
489.479	594.25
489.696	577.25
489.914	604.25
490.132	606.25
490.35	612.25
490.568	595.25
490.786	602.25
491.003	626.25
491.221	634.25
491.439	622.25
491.657	628.25
491.874	647.25
492.092	627.25
492.31	627.25
492.527	633.25
492.745	653.25
492.963	641.25
493.18	646.25
493.398	634.25
493.615	660.25
493.833	647.25
494.05	655.25
494.268	669.25
494.485	656.25
494.703	640.25
494.92	653.25
495.138	666.25
495.355	678.25
495.573	661.25
495.79	661.25
496.008	686.25
496.225	678.25
496.442	671.25
496.66	693.25
496.877	679.25
497.094	700.25
497.312	710.25
497.529	678.25
497.746	707.25
497.963	714.25
498.181	753.25
498.398	774.25
498.615	778.25
498.832	806.25
499.049	836.25
499.267	859.25
499.484	897.25
499.701	966.25
499.918	1044.25
500.135	1079.25
500.352	1163.25
500.569	1185.25
500.786	1153.25
501.003	1139.25
501.22	1095.25
501.437	1012.25
501.654	993.25
501.871	934.25
