Data from 1985.PennyLincolnUp.Lamp.En5.5.200Scan.071819.P1_HRD10591_17-04-08-971.txt Node
Date: Thu Jul 18 17:04:08 EDT 2019
User: cochatt
Spectrometer: HR+D1059
Trigger mode: 1
Integration Time (sec): 1.000000E-1
Scans to average: 1
Electric dark correction enabled: true
Nonlinearity correction enabled: false
Boxcar width: 0
XAxis mode: Wavelengths
Number of Pixels in Spectrum: 2048
>>>>>Begin Spectral Data<<<<<
223.165	-2.56
223.4	-2.56
223.635	-2.56
223.869	-18.56
224.104	-21.56
224.338	-14.56
224.573	-16.56
224.808	-10.56
225.042	-27.56
225.277	0.44
225.511	-2.56
225.746	-0.56
225.98	5.44
226.215	14.44
226.449	10.44
226.683	32.44
226.918	28.44
227.152	23.44
227.387	35.44
227.621	56.44
227.856	51.44
228.09	39.44
228.324	55.44
228.559	58.44
228.793	63.44
229.027	87.44
229.262	90.44
229.496	113.44
229.73	121.44
229.964	144.44
230.199	133.44
230.433	115.44
230.667	104.44
230.901	99.44
231.136	122.44
231.37	98.44
231.604	102.44
231.838	113.44
232.072	107.44
232.306	115.44
232.541	113.44
232.775	111.44
233.009	120.44
233.243	114.44
233.477	109.44
233.711	107.44
233.945	114.44
234.179	123.44
234.413	125.44
234.647	116.44
234.881	105.44
235.115	127.44
235.349	128.44
235.583	129.44
235.817	113.44
236.051	121.44
236.285	128.44
236.519	123.44
236.753	121.44
236.987	140.44
237.221	170.44
237.455	219.44
237.689	167.44
237.922	150.44
238.156	124.44
238.39	117.44
238.624	123.44
238.858	119.44
239.091	121.44
239.325	128.44
239.559	140.44
239.793	122.44
240.027	123.44
240.26	135.44
240.494	144.44
240.728	152.44
240.961	145.44
241.195	153.44
241.429	151.44
241.662	130.44
241.896	141.44
242.13	129.44
242.363	147.44
242.597	134.44
242.83	138.44
243.064	164.44
243.298	141.44
243.531	141.44
243.765	148.44
243.998	154.44
244.232	159.44
244.465	149.44
244.699	154.44
244.932	136.44
245.166	149.44
245.399	153.44
245.633	144.44
245.866	148.44
246.099	149.44
246.333	140.44
246.566	145.44
246.8	152.44
247.033	155.44
247.266	166.44
247.5	160.44
247.733	158.44
247.966	176.44
248.2	175.44
248.433	172.44
248.666	180.44
248.899	172.44
249.133	195.44
249.366	195.44
249.599	191.44
249.832	191.44
250.066	185.44
250.299	192.44
250.532	200.44
250.765	205.44
250.998	244.44
251.231	220.44
251.465	231.44
251.698	209.44
251.931	209.44
252.164	202.44
252.397	202.44
252.63	184.44
252.863	216.44
253.096	216.44
253.329	223.44
253.562	198.44
253.795	218.44
254.028	211.44
254.261	216.44
254.494	223.44
254.727	255.44
254.96	271.44
255.193	276.44
255.426	233.44
255.659	233.44
255.892	240.44
256.124	259.44
256.357	266.44
256.59	237.44
256.823	228.44
257.056	217.44
257.289	196.44
257.521	219.44
257.754	211.44
257.987	204.44
258.22	205.44
258.452	215.44
258.685	216.44
258.918	219.44
259.151	235.44
259.383	231.44
259.616	217.44
259.849	218.44
260.081	234.44
260.314	258.44
260.547	251.44
260.779	240.44
261.012	246.44
261.244	225.44
261.477	248.44
261.71	227.44
261.942	243.44
262.175	233.44
262.407	229.44
262.64	217.44
262.872	216.44
263.105	233.44
263.337	212.44
263.57	199.44
263.802	228.44
264.035	213.44
264.267	226.44
264.499	235.44
264.732	223.44
264.964	223.44
265.197	222.44
265.429	241.44
265.661	233.44
265.894	243.44
266.126	234.44
266.358	249.44
266.591	237.44
266.823	233.44
267.055	226.44
267.287	226.44
267.52	218.44
267.752	240.44
267.984	239.44
268.216	250.44
268.448	235.44
268.681	261.44
268.913	236.44
269.145	269.44
269.377	288.44
269.609	305.44
269.841	267.44
270.073	279.44
270.306	303.44
270.538	326.44
270.77	322.44
271.002	285.44
271.234	271.44
271.466	291.44
271.698	310.44
271.93	332.44
272.162	332.44
272.394	334.44
272.626	299.44
272.858	296.44
273.09	286.44
273.322	299.44
273.553	295.44
273.785	280.44
274.017	290.44
274.249	276.44
274.481	281.44
274.713	282.44
274.945	277.44
275.176	299.44
275.408	275.44
275.64	290.44
275.872	286.44
276.104	289.44
276.335	269.44
276.567	283.44
276.799	298.44
277.031	323.44
277.262	314.44
277.494	335.44
277.726	340.44
277.957	313.44
278.189	296.44
278.421	291.44
278.652	282.44
278.884	280.44
279.115	288.44
279.347	277.44
279.579	290.44
279.81	277.44
280.042	287.44
280.273	294.44
280.505	309.44
280.736	297.44
280.968	284.44
281.199	284.44
281.431	299.44
281.662	301.44
281.894	299.44
282.125	300.44
282.356	330.44
282.588	348.44
282.819	322.44
283.051	296.44
283.282	296.44
283.513	282.44
283.745	292.44
283.976	303.44
284.207	307.44
284.439	300.44
284.67	311.44
284.901	299.44
285.132	319.44
285.364	299.44
285.595	305.44
285.826	320.44
286.057	293.44
286.288	305.44
286.52	311.44
286.751	320.44
286.982	317.44
287.213	314.44
287.444	305.44
287.675	319.44
287.906	336.44
288.138	308.44
288.369	332.44
288.6	338.44
288.831	331.44
289.062	316.44
289.293	324.44
289.524	337.44
289.755	343.44
289.986	324.44
290.217	316.44
290.448	339.44
290.679	319.44
290.91	321.44
291.141	331.44
291.371	303.44
291.602	327.44
291.833	330.44
292.064	315.44
292.295	333.44
292.526	333.44
292.757	330.44
292.987	333.44
293.218	337.44
293.449	329.44
293.68	315.44
293.91	338.44
294.141	318.44
294.372	325.44
294.603	323.44
294.833	332.44
295.064	314.44
295.295	340.44
295.525	327.44
295.756	324.44
295.987	343.44
296.217	368.44
296.448	380.44
296.679	353.44
296.909	332.44
297.14	332.44
297.37	357.44
297.601	333.44
297.831	344.44
298.062	352.44
298.292	333.44
298.523	359.44
298.753	339.44
298.984	338.44
299.214	347.44
299.445	355.44
299.675	348.44
299.905	353.44
300.136	359.44
300.366	379.44
300.597	334.44
300.827	373.44
301.057	367.44
301.288	354.44
301.518	356.44
301.748	385.44
301.979	387.44
302.209	381.44
302.439	364.44
302.669	381.44
302.9	375.44
303.13	375.44
303.36	387.44
303.59	373.44
303.82	380.44
304.051	373.44
304.281	353.44
304.511	377.44
304.741	378.44
304.971	360.44
305.201	394.44
305.431	380.44
305.661	371.44
305.891	356.44
306.121	369.44
306.352	385.44
306.582	381.44
306.812	379.44
307.042	387.44
307.272	359.44
307.502	369.44
307.731	363.44
307.961	369.44
308.191	385.44
308.421	367.44
308.651	385.44
308.881	377.44
309.111	372.44
309.341	361.44
309.571	392.44
309.8	402.44
310.03	405.44
310.26	391.44
310.49	387.44
310.72	424.44
310.949	423.44
311.179	467.44
311.409	420.44
311.639	396.44
311.868	410.44
312.098	407.44
312.328	425.44
312.557	423.44
312.787	447.44
313.017	427.44
313.246	420.44
313.476	412.44
313.706	418.44
313.935	407.44
314.165	422.44
314.394	437.44
314.624	444.44
314.853	432.44
315.083	436.44
315.312	396.44
315.542	422.44
315.771	415.44
316.001	416.44
316.23	416.44
316.46	411.44
316.689	439.44
316.919	428.44
317.148	429.44
317.377	451.44
317.607	425.44
317.836	420.44
318.065	417.44
318.295	404.44
318.524	403.44
318.753	406.44
318.983	427.44
319.212	420.44
319.441	439.44
319.67	421.44
319.9	436.44
320.129	412.44
320.358	392.44
320.587	438.44
320.816	445.44
321.046	441.44
321.275	421.44
321.504	442.44
321.733	438.44
321.962	452.44
322.191	458.44
322.42	467.44
322.649	480.44
322.878	476.44
323.108	490.44
323.337	512.44
323.566	543.44
323.795	554.44
324.024	603.44
324.253	717.44
324.482	948.44
324.71	1457.44
324.939	2049.44
325.168	1752.44
325.397	895.44
325.626	633.44
325.855	553.44
326.084	553.44
326.313	521.44
326.542	545.44
326.77	579.44
326.999	663.44
327.228	900.44
327.457	1307.44
327.686	1579.44
327.914	1050.44
328.143	710.44
328.372	637.44
328.6	625.44
328.829	572.44
329.058	597.44
329.287	590.44
329.515	590.44
329.744	555.44
329.972	552.44
330.201	601.44
330.43	655.44
330.658	633.44
330.887	649.44
331.115	632.44
331.344	563.44
331.572	549.44
331.801	559.44
332.03	517.44
332.258	540.44
332.486	521.44
332.715	517.44
332.943	515.44
333.172	554.44
333.4	537.44
333.629	561.44
333.857	568.44
334.085	578.44
334.314	626.44
334.542	681.44
334.771	674.44
334.999	610.44
335.227	560.44
335.455	534.44
335.684	541.44
335.912	521.44
336.14	522.44
336.369	510.44
336.597	498.44
336.825	532.44
337.053	510.44
337.281	498.44
337.51	493.44
337.738	495.44
337.966	518.44
338.194	511.44
338.422	495.44
338.65	471.44
338.878	487.44
339.106	473.44
339.334	476.44
339.562	475.44
339.79	480.44
340.018	489.44
340.246	473.44
340.474	467.44
340.702	470.44
340.93	467.44
341.158	472.44
341.386	490.44
341.614	498.44
341.842	475.44
342.07	466.44
342.298	451.44
342.526	434.44
342.754	460.44
342.981	442.44
343.209	501.44
343.437	469.44
343.665	474.44
343.893	501.44
344.12	515.44
344.348	513.44
344.576	527.44
344.804	476.44
345.031	501.44
345.259	517.44
345.487	484.44
345.714	482.44
345.942	466.44
346.17	476.44
346.397	428.44
346.625	476.44
346.853	468.44
347.08	443.44
347.308	452.44
347.535	467.44
347.763	486.44
347.99	457.44
348.218	467.44
348.445	465.44
348.673	454.44
348.9	447.44
349.128	433.44
349.355	451.44
349.583	460.44
349.81	443.44
350.037	442.44
350.265	437.44
350.492	445.44
350.72	434.44
350.947	448.44
351.174	456.44
351.402	455.44
351.629	464.44
351.856	455.44
352.083	465.44
352.311	458.44
352.538	465.44
352.765	453.44
352.992	445.44
353.22	444.44
353.447	453.44
353.674	454.44
353.901	443.44
354.128	420.44
354.355	416.44
354.583	424.44
354.81	426.44
355.037	415.44
355.264	419.44
355.491	412.44
355.718	425.44
355.945	415.44
356.172	427.44
356.399	440.44
356.626	409.44
356.853	433.44
357.08	433.44
357.307	436.44
357.534	408.44
357.761	406.44
357.988	417.44
358.215	433.44
358.441	416.44
358.668	422.44
358.895	429.44
359.122	432.44
359.349	418.44
359.576	419.44
359.802	461.44
360.029	490.44
360.256	480.44
360.483	476.44
360.709	443.44
360.936	426.44
361.163	438.44
361.39	449.44
361.616	437.44
361.843	449.44
362.07	442.44
362.296	450.44
362.523	448.44
362.749	449.44
362.976	435.44
363.203	433.44
363.429	421.44
363.656	433.44
363.882	426.44
364.109	417.44
364.335	429.44
364.562	425.44
364.788	425.44
365.015	434.44
365.241	445.44
365.468	417.44
365.694	433.44
365.92	429.44
366.147	421.44
366.373	425.44
366.599	420.44
366.826	423.44
367.052	418.44
367.278	433.44
367.505	421.44
367.731	434.44
367.957	421.44
368.184	413.44
368.41	441.44
368.636	450.44
368.862	453.44
369.089	438.44
369.315	416.44
369.541	403.44
369.767	433.44
369.993	452.44
370.219	421.44
370.445	421.44
370.672	433.44
370.898	429.44
371.124	416.44
371.35	428.44
371.576	414.44
371.802	422.44
372.028	422.44
372.254	443.44
372.48	423.44
372.706	433.44
372.932	425.44
373.158	433.44
373.384	429.44
373.61	440.44
373.835	438.44
374.061	430.44
374.287	435.44
374.513	438.44
374.739	434.44
374.965	440.44
375.191	447.44
375.416	457.44
375.642	415.44
375.868	438.44
376.094	419.44
376.319	439.44
376.545	420.44
376.771	439.44
376.997	408.44
377.222	447.44
377.448	407.44
377.674	417.44
377.899	433.44
378.125	429.44
378.35	427.44
378.576	427.44
378.802	428.44
379.027	427.44
379.253	437.44
379.478	405.44
379.704	432.44
379.929	426.44
380.155	415.44
380.38	424.44
380.606	428.44
380.831	415.44
381.057	441.44
381.282	446.44
381.507	436.44
381.733	427.44
381.958	440.44
382.184	433.44
382.409	424.44
382.634	431.44
382.86	435.44
383.085	448.44
383.31	440.44
383.535	449.44
383.761	448.44
383.986	451.44
384.211	439.44
384.436	472.44
384.662	454.44
384.887	466.44
385.112	455.44
385.337	487.44
385.562	461.44
385.787	496.44
386.013	462.44
386.238	475.44
386.463	477.44
386.688	468.44
386.913	474.44
387.138	467.44
387.363	477.44
387.588	475.44
387.813	473.44
388.038	475.44
388.263	467.44
388.488	481.44
388.713	493.44
388.938	474.44
389.163	461.44
389.387	466.44
389.612	475.44
389.837	466.44
390.062	458.44
390.287	469.44
390.512	474.44
390.736	466.44
390.961	460.44
391.186	477.44
391.411	499.44
391.636	479.44
391.86	497.44
392.085	505.44
392.31	490.44
392.534	491.44
392.759	487.44
392.984	473.44
393.208	480.44
393.433	479.44
393.658	486.44
393.882	465.44
394.107	453.44
394.331	481.44
394.556	478.44
394.78	485.44
395.005	476.44
395.229	489.44
395.454	488.44
395.678	503.44
395.903	519.44
396.127	507.44
396.352	525.44
396.576	500.44
396.801	494.44
397.025	512.44
397.249	514.44
397.474	527.44
397.698	526.44
397.922	523.44
398.147	537.44
398.371	545.44
398.595	540.44
398.82	561.44
399.044	578.44
399.268	606.44
399.492	621.44
399.717	673.44
399.941	708.44
400.165	710.44
400.389	693.44
400.613	616.44
400.837	577.44
401.062	573.44
401.286	563.44
401.51	578.44
401.734	539.44
401.958	541.44
402.182	563.44
402.406	568.44
402.63	583.44
402.854	586.44
403.078	577.44
403.302	590.44
403.526	581.44
403.75	603.44
403.974	581.44
404.198	588.44
404.422	607.44
404.645	597.44
404.869	611.44
405.093	624.44
405.317	681.44
405.541	722.44
405.765	661.44
405.988	612.44
406.212	602.44
406.436	647.44
406.66	652.44
406.883	633.44
407.107	664.44
407.331	709.44
407.555	771.44
407.778	765.44
408.002	699.44
408.226	634.44
408.449	647.44
408.673	627.44
408.896	659.44
409.12	664.44
409.344	662.44
409.567	589.44
409.791	610.44
410.014	576.44
410.238	558.44
410.461	592.44
410.685	577.44
410.908	588.44
411.132	600.44
411.355	642.44
411.578	643.44
411.802	584.44
412.025	591.44
412.249	581.44
412.472	607.44
412.695	671.44
412.919	654.44
413.142	604.44
413.365	566.44
413.589	551.44
413.812	531.44
414.035	546.44
414.258	543.44
414.482	525.44
414.705	533.44
414.928	533.44
415.151	534.44
415.374	529.44
415.597	532.44
415.821	508.44
416.044	536.44
416.267	532.44
416.49	524.44
416.713	544.44
416.936	532.44
417.159	531.44
417.382	515.44
417.605	536.44
417.828	549.44
418.051	572.44
418.274	560.44
418.497	538.44
418.72	550.44
418.943	526.44
419.166	564.44
419.389	583.44
419.611	577.44
419.834	577.44
420.057	586.44
420.28	576.44
420.503	555.44
420.726	565.44
420.948	565.44
421.171	615.44
421.394	630.44
421.617	579.44
421.839	552.44
422.062	556.44
422.285	554.44
422.507	628.44
422.73	687.44
422.953	671.44
423.175	581.44
423.398	596.44
423.621	559.44
423.843	588.44
424.066	593.44
424.288	578.44
424.511	617.44
424.733	643.44
424.956	729.44
425.178	693.44
425.401	677.44
425.623	709.44
425.846	589.44
426.068	567.44
426.291	563.44
426.513	588.44
426.735	582.44
426.958	618.44
427.18	698.44
427.402	785.44
427.625	891.44
427.847	781.44
428.069	680.44
428.292	588.44
428.514	577.44
428.736	534.44
428.958	563.44
429.181	548.44
429.403	489.44
429.625	539.44
429.847	584.44
430.069	627.44
430.292	602.44
430.514	549.44
430.736	536.44
430.958	530.44
431.18	499.44
431.402	491.44
431.624	494.44
431.846	499.44
432.068	510.44
432.29	504.44
432.512	507.44
432.734	513.44
432.956	526.44
433.178	536.44
433.4	530.44
433.622	529.44
433.844	500.44
434.066	499.44
434.287	492.44
434.509	522.44
434.731	540.44
434.953	530.44
435.175	552.44
435.397	580.44
435.618	572.44
435.84	609.44
436.062	673.44
436.284	756.44
436.505	625.44
436.727	572.44
436.949	543.44
437.17	542.44
437.392	527.44
437.614	522.44
437.835	551.44
438.057	634.44
438.278	729.44
438.5	759.44
438.721	817.44
438.943	780.44
439.165	598.44
439.386	571.44
439.608	583.44
439.829	570.44
440.05	597.44
440.272	638.44
440.493	589.44
440.715	560.44
440.936	544.44
441.158	529.44
441.379	543.44
441.6	560.44
441.822	597.44
442.043	622.44
442.264	693.44
442.486	720.44
442.707	598.44
442.928	599.44
443.149	601.44
443.371	604.44
443.592	661.44
443.813	751.44
444.034	824.44
444.255	708.44
444.476	633.44
444.698	598.44
444.919	612.44
445.14	737.44
445.361	665.44
445.582	641.44
445.803	664.44
446.024	755.44
446.245	779.44
446.466	683.44
446.687	596.44
446.908	556.44
447.129	523.44
447.35	528.44
447.571	507.44
447.792	526.44
448.013	501.44
448.234	540.44
448.455	594.44
448.675	676.44
448.896	811.44
449.117	660.44
449.338	602.44
449.559	729.44
449.779	848.44
450	636.44
450.221	568.44
450.442	517.44
450.662	498.44
450.883	523.44
451.104	514.44
451.324	523.44
451.545	511.44
451.766	484.44
451.986	468.44
452.207	468.44
452.428	452.44
452.648	466.44
452.869	467.44
453.089	475.44
453.31	503.44
453.53	471.44
453.751	481.44
453.971	464.44
454.192	483.44
454.412	460.44
454.633	463.44
454.853	456.44
455.073	448.44
455.294	480.44
455.514	540.44
455.734	551.44
455.955	474.44
456.175	431.44
456.395	437.44
456.616	442.44
456.836	446.44
457.056	435.44
457.276	426.44
457.497	434.44
457.717	429.44
457.937	443.44
458.157	448.44
458.377	464.44
458.598	494.44
458.818	525.44
459.038	595.44
459.258	632.44
459.478	556.44
459.698	526.44
459.918	496.44
460.138	526.44
460.358	537.44
460.578	535.44
460.798	544.44
461.018	540.44
461.238	530.44
461.458	520.44
461.678	523.44
461.898	545.44
462.118	542.44
462.338	546.44
462.558	567.44
462.777	567.44
462.997	612.44
463.217	593.44
463.437	632.44
463.657	587.44
463.876	585.44
464.096	607.44
464.316	589.44
464.536	603.44
464.755	583.44
464.975	596.44
465.195	614.44
465.414	667.44
465.634	583.44
465.854	530.44
466.073	507.44
466.293	517.44
466.512	507.44
466.732	488.44
466.951	501.44
467.171	507.44
467.391	496.44
467.61	503.44
467.829	526.44
468.049	492.44
468.268	495.44
468.488	492.44
468.707	468.44
468.927	457.44
469.146	443.44
469.365	479.44
469.585	482.44
469.804	476.44
470.023	507.44
470.243	499.44
470.462	497.44
470.681	511.44
470.901	501.44
471.12	509.44
471.339	502.44
471.558	505.44
471.777	488.44
471.997	484.44
472.216	515.44
472.435	555.44
472.654	536.44
472.873	497.44
473.092	480.44
473.311	483.44
473.53	469.44
473.749	489.44
473.968	559.44
474.187	602.44
474.406	635.44
474.625	532.44
474.844	489.44
475.063	483.44
475.282	476.44
475.501	492.44
475.72	507.44
475.939	514.44
476.158	489.44
476.377	503.44
476.596	528.44
476.814	521.44
477.033	521.44
477.252	505.44
477.471	518.44
477.69	535.44
477.908	545.44
478.127	546.44
478.346	545.44
478.564	561.44
478.783	553.44
479.002	554.44
479.22	555.44
479.439	564.44
479.658	600.44
479.876	581.44
480.095	644.44
480.313	642.44
480.532	633.44
480.751	628.44
480.969	618.44
481.188	693.44
481.406	751.44
481.624	653.44
481.843	601.44
482.061	592.44
482.28	580.44
482.498	552.44
482.717	570.44
482.935	565.44
483.153	547.44
483.372	561.44
483.59	564.44
483.808	576.44
484.027	589.44
484.245	571.44
484.463	576.44
484.681	599.44
484.9	578.44
485.118	588.44
485.336	612.44
485.554	571.44
485.772	593.44
485.99	585.44
486.209	596.44
486.427	601.44
486.645	609.44
486.863	588.44
487.081	640.44
487.299	628.44
487.517	600.44
487.735	604.44
487.953	645.44
488.171	614.44
488.389	602.44
488.607	607.44
488.825	611.44
489.043	589.44
489.261	637.44
489.479	644.44
489.696	636.44
489.914	631.44
490.132	619.44
490.35	639.44
490.568	635.44
490.786	645.44
491.003	668.44
491.221	663.44
491.439	679.44
491.657	675.44
491.874	708.44
492.092	681.44
492.31	697.44
492.527	727.44
492.745	727.44
492.963	737.44
493.18	726.44
493.398	735.44
493.615	729.44
493.833	711.44
494.05	713.44
494.268	709.44
494.485	720.44
494.703	726.44
494.92	740.44
495.138	715.44
495.355	707.44
495.573	721.44
495.79	716.44
496.008	729.44
496.225	725.44
496.442	724.44
496.66	716.44
496.877	715.44
497.094	727.44
497.312	724.44
497.529	752.44
497.746	749.44
497.963	793.44
498.181	809.44
498.398	803.44
498.615	827.44
498.832	827.44
499.049	888.44
499.267	899.44
499.484	942.44
499.701	1026.44
499.918	1066.44
500.135	1120.44
500.352	1196.44
500.569	1223.44
500.786	1228.44
501.003	1203.44
501.22	1136.44
501.437	1088.44
501.654	1023.44
501.871	989.44
