Data from 1985.PennyLincolnUp.Lamp.En5.5.200Scan.071819.P1_HRD10591_17-03-25-971.txt Node
Date: Thu Jul 18 17:03:25 EDT 2019
User: cochatt
Spectrometer: HR+D1059
Trigger mode: 1
Integration Time (sec): 1.000000E-1
Scans to average: 1
Electric dark correction enabled: true
Nonlinearity correction enabled: false
Boxcar width: 0
XAxis mode: Wavelengths
Number of Pixels in Spectrum: 2048
>>>>>Begin Spectral Data<<<<<
223.165	-26.69
223.4	-26.69
223.635	-26.69
223.869	-15.69
224.104	-14.69
224.338	-26.69
224.573	-12.69
224.808	-7.69
225.042	-1.69
225.277	8.31
225.511	5.31
225.746	2.31
225.98	16.31
226.215	12.31
226.449	5.31
226.683	15.31
226.918	17.31
227.152	23.31
227.387	38.31
227.621	36.31
227.856	38.31
228.09	40.31
228.324	36.31
228.559	41.31
228.793	65.31
229.027	92.31
229.262	109.31
229.496	110.31
229.73	98.31
229.964	137.31
230.199	123.31
230.433	107.31
230.667	115.31
230.901	95.31
231.136	95.31
231.37	118.31
231.604	117.31
231.838	102.31
232.072	122.31
232.306	121.31
232.541	113.31
232.775	112.31
233.009	94.31
233.243	115.31
233.477	113.31
233.711	112.31
233.945	129.31
234.179	119.31
234.413	116.31
234.647	102.31
234.881	106.31
235.115	106.31
235.349	113.31
235.583	117.31
235.817	109.31
236.051	116.31
236.285	120.31
236.519	116.31
236.753	129.31
236.987	144.31
237.221	173.31
237.455	220.31
237.689	168.31
237.922	143.31
238.156	144.31
238.39	138.31
238.624	124.31
238.858	119.31
239.091	123.31
239.325	120.31
239.559	120.31
239.793	137.31
240.027	130.31
240.26	121.31
240.494	143.31
240.728	154.31
240.961	142.31
241.195	132.31
241.429	132.31
241.662	134.31
241.896	131.31
242.13	131.31
242.363	127.31
242.597	119.31
242.83	125.31
243.064	128.31
243.298	126.31
243.531	120.31
243.765	128.31
243.998	132.31
244.232	145.31
244.465	154.31
244.699	136.31
244.932	160.31
245.166	138.31
245.399	156.31
245.633	142.31
245.866	147.31
246.099	140.31
246.333	143.31
246.566	137.31
246.8	163.31
247.033	161.31
247.266	149.31
247.5	154.31
247.733	165.31
247.966	159.31
248.2	167.31
248.433	151.31
248.666	172.31
248.899	170.31
249.133	198.31
249.366	200.31
249.599	186.31
249.832	164.31
250.066	184.31
250.299	182.31
250.532	198.31
250.765	205.31
250.998	221.31
251.231	216.31
251.465	218.31
251.698	198.31
251.931	195.31
252.164	188.31
252.397	191.31
252.63	191.31
252.863	188.31
253.096	209.31
253.329	235.31
253.562	210.31
253.795	240.31
254.028	201.31
254.261	192.31
254.494	200.31
254.727	241.31
254.96	281.31
255.193	250.31
255.426	254.31
255.659	232.31
255.892	241.31
256.124	218.31
256.357	221.31
256.59	211.31
256.823	202.31
257.056	201.31
257.289	199.31
257.521	219.31
257.754	207.31
257.987	201.31
258.22	204.31
258.452	197.31
258.685	213.31
258.918	208.31
259.151	209.31
259.383	217.31
259.616	207.31
259.849	218.31
260.081	233.31
260.314	247.31
260.547	252.31
260.779	250.31
261.012	231.31
261.244	218.31
261.477	203.31
261.71	212.31
261.942	226.31
262.175	223.31
262.407	242.31
262.64	222.31
262.872	202.31
263.105	215.31
263.337	232.31
263.57	236.31
263.802	211.31
264.035	217.31
264.267	210.31
264.499	210.31
264.732	226.31
264.964	205.31
265.197	227.31
265.429	242.31
265.661	215.31
265.894	212.31
266.126	220.31
266.358	232.31
266.591	239.31
266.823	241.31
267.055	242.31
267.287	243.31
267.52	230.31
267.752	228.31
267.984	231.31
268.216	245.31
268.448	256.31
268.681	224.31
268.913	263.31
269.145	257.31
269.377	281.31
269.609	280.31
269.841	272.31
270.073	285.31
270.306	294.31
270.538	320.31
270.77	338.31
271.002	294.31
271.234	303.31
271.466	297.31
271.698	319.31
271.93	328.31
272.162	327.31
272.394	317.31
272.626	315.31
272.858	302.31
273.09	277.31
273.322	276.31
273.553	264.31
273.785	264.31
274.017	273.31
274.249	273.31
274.481	252.31
274.713	264.31
274.945	274.31
275.176	282.31
275.408	296.31
275.64	292.31
275.872	288.31
276.104	287.31
276.335	273.31
276.567	286.31
276.799	295.31
277.031	318.31
277.262	346.31
277.494	341.31
277.726	317.31
277.957	314.31
278.189	285.31
278.421	307.31
278.652	281.31
278.884	285.31
279.115	290.31
279.347	280.31
279.579	260.31
279.81	307.31
280.042	285.31
280.273	300.31
280.505	290.31
280.736	276.31
280.968	279.31
281.199	281.31
281.431	290.31
281.662	307.31
281.894	304.31
282.125	291.31
282.356	301.31
282.588	318.31
282.819	327.31
283.051	308.31
283.282	292.31
283.513	311.31
283.745	300.31
283.976	295.31
284.207	312.31
284.439	322.31
284.67	309.31
284.901	317.31
285.132	322.31
285.364	303.31
285.595	319.31
285.826	311.31
286.057	308.31
286.288	312.31
286.52	313.31
286.751	319.31
286.982	322.31
287.213	308.31
287.444	332.31
287.675	321.31
287.906	344.31
288.138	329.31
288.369	324.31
288.6	338.31
288.831	319.31
289.062	335.31
289.293	335.31
289.524	310.31
289.755	304.31
289.986	322.31
290.217	297.31
290.448	316.31
290.679	315.31
290.91	326.31
291.141	326.31
291.371	323.31
291.602	313.31
291.833	320.31
292.064	327.31
292.295	311.31
292.526	324.31
292.757	329.31
292.987	332.31
293.218	332.31
293.449	322.31
293.68	328.31
293.91	309.31
294.141	312.31
294.372	329.31
294.603	337.31
294.833	333.31
295.064	314.31
295.295	344.31
295.525	341.31
295.756	344.31
295.987	340.31
296.217	350.31
296.448	359.31
296.679	364.31
296.909	340.31
297.14	300.31
297.37	339.31
297.601	330.31
297.831	320.31
298.062	340.31
298.292	350.31
298.523	345.31
298.753	343.31
298.984	356.31
299.214	358.31
299.445	349.31
299.675	340.31
299.905	358.31
300.136	365.31
300.366	348.31
300.597	369.31
300.827	375.31
301.057	344.31
301.288	351.31
301.518	355.31
301.748	348.31
301.979	353.31
302.209	357.31
302.439	374.31
302.669	353.31
302.9	359.31
303.13	364.31
303.36	354.31
303.59	376.31
303.82	388.31
304.051	376.31
304.281	367.31
304.511	365.31
304.741	349.31
304.971	366.31
305.201	372.31
305.431	391.31
305.661	367.31
305.891	364.31
306.121	356.31
306.352	367.31
306.582	376.31
306.812	356.31
307.042	366.31
307.272	361.31
307.502	360.31
307.731	378.31
307.961	366.31
308.191	377.31
308.421	369.31
308.651	384.31
308.881	372.31
309.111	379.31
309.341	388.31
309.571	399.31
309.8	386.31
310.03	413.31
310.26	414.31
310.49	417.31
310.72	424.31
310.949	441.31
311.179	432.31
311.409	410.31
311.639	416.31
311.868	420.31
312.098	413.31
312.328	404.31
312.557	430.31
312.787	438.31
313.017	448.31
313.246	434.31
313.476	431.31
313.706	431.31
313.935	413.31
314.165	430.31
314.394	452.31
314.624	440.31
314.853	416.31
315.083	419.31
315.312	429.31
315.542	435.31
315.771	433.31
316.001	414.31
316.23	414.31
316.46	407.31
316.689	407.31
316.919	417.31
317.148	421.31
317.377	448.31
317.607	429.31
317.836	409.31
318.065	413.31
318.295	395.31
318.524	421.31
318.753	416.31
318.983	415.31
319.212	420.31
319.441	428.31
319.67	441.31
319.9	425.31
320.129	440.31
320.358	443.31
320.587	435.31
320.816	425.31
321.046	432.31
321.275	431.31
321.504	431.31
321.733	435.31
321.962	447.31
322.191	455.31
322.42	456.31
322.649	480.31
322.878	474.31
323.108	494.31
323.337	507.31
323.566	537.31
323.795	580.31
324.024	582.31
324.253	717.31
324.482	981.31
324.71	1481.31
324.939	2133.31
325.168	1771.31
325.397	966.31
325.626	677.31
325.855	596.31
326.084	561.31
326.313	542.31
326.542	558.31
326.77	590.31
326.999	673.31
327.228	899.31
327.457	1321.31
327.686	1559.31
327.914	1082.31
328.143	744.31
328.372	640.31
328.6	626.31
328.829	602.31
329.058	600.31
329.287	623.31
329.515	566.31
329.744	548.31
329.972	566.31
330.201	553.31
330.43	576.31
330.658	602.31
330.887	639.31
331.115	615.31
331.344	564.31
331.572	516.31
331.801	551.31
332.03	564.31
332.258	523.31
332.486	516.31
332.715	508.31
332.943	520.31
333.172	523.31
333.4	514.31
333.629	558.31
333.857	544.31
334.085	549.31
334.314	593.31
334.542	600.31
334.771	585.31
334.999	550.31
335.227	535.31
335.455	530.31
335.684	490.31
335.912	503.31
336.14	504.31
336.369	514.31
336.597	510.31
336.825	516.31
337.053	504.31
337.281	500.31
337.51	498.31
337.738	488.31
337.966	488.31
338.194	492.31
338.422	492.31
338.65	484.31
338.878	488.31
339.106	469.31
339.334	495.31
339.562	492.31
339.79	480.31
340.018	474.31
340.246	450.31
340.474	474.31
340.702	465.31
340.93	473.31
341.158	477.31
341.386	477.31
341.614	476.31
341.842	473.31
342.07	463.31
342.298	466.31
342.526	465.31
342.754	462.31
342.981	454.31
343.209	475.31
343.437	472.31
343.665	473.31
343.893	510.31
344.12	520.31
344.348	490.31
344.576	496.31
344.804	495.31
345.031	495.31
345.259	496.31
345.487	486.31
345.714	478.31
345.942	467.31
346.17	463.31
346.397	454.31
346.625	454.31
346.853	456.31
347.08	441.31
347.308	463.31
347.535	461.31
347.763	461.31
347.99	462.31
348.218	480.31
348.445	470.31
348.673	462.31
348.9	449.31
349.128	440.31
349.355	426.31
349.583	431.31
349.81	448.31
350.037	455.31
350.265	463.31
350.492	428.31
350.72	435.31
350.947	426.31
351.174	446.31
351.402	462.31
351.629	443.31
351.856	468.31
352.083	456.31
352.311	481.31
352.538	450.31
352.765	459.31
352.992	456.31
353.22	452.31
353.447	449.31
353.674	450.31
353.901	418.31
354.128	424.31
354.355	428.31
354.583	414.31
354.81	430.31
355.037	434.31
355.264	423.31
355.491	442.31
355.718	439.31
355.945	424.31
356.172	423.31
356.399	415.31
356.626	421.31
356.853	410.31
357.08	420.31
357.307	434.31
357.534	424.31
357.761	447.31
357.988	435.31
358.215	419.31
358.441	421.31
358.668	409.31
358.895	417.31
359.122	422.31
359.349	441.31
359.576	458.31
359.802	460.31
360.029	513.31
360.256	514.31
360.483	480.31
360.709	444.31
360.936	452.31
361.163	438.31
361.39	451.31
361.616	441.31
361.843	440.31
362.07	450.31
362.296	441.31
362.523	455.31
362.749	449.31
362.976	434.31
363.203	420.31
363.429	437.31
363.656	432.31
363.882	423.31
364.109	437.31
364.335	408.31
364.562	437.31
364.788	429.31
365.015	429.31
365.241	439.31
365.468	442.31
365.694	447.31
365.92	436.31
366.147	449.31
366.373	425.31
366.599	416.31
366.826	416.31
367.052	436.31
367.278	408.31
367.505	416.31
367.731	446.31
367.957	418.31
368.184	420.31
368.41	443.31
368.636	445.31
368.862	441.31
369.089	417.31
369.315	420.31
369.541	437.31
369.767	426.31
369.993	419.31
370.219	422.31
370.445	420.31
370.672	444.31
370.898	412.31
371.124	433.31
371.35	433.31
371.576	434.31
371.802	441.31
372.028	422.31
372.254	436.31
372.48	436.31
372.706	429.31
372.932	452.31
373.158	430.31
373.384	443.31
373.61	428.31
373.835	435.31
374.061	448.31
374.287	449.31
374.513	452.31
374.739	424.31
374.965	449.31
375.191	438.31
375.416	457.31
375.642	433.31
375.868	419.31
376.094	440.31
376.319	411.31
376.545	403.31
376.771	440.31
376.997	401.31
377.222	429.31
377.448	431.31
377.674	417.31
377.899	432.31
378.125	405.31
378.35	436.31
378.576	421.31
378.802	414.31
379.027	428.31
379.253	417.31
379.478	421.31
379.704	416.31
379.929	446.31
380.155	421.31
380.38	423.31
380.606	415.31
380.831	408.31
381.057	415.31
381.282	418.31
381.507	413.31
381.733	435.31
381.958	439.31
382.184	432.31
382.409	461.31
382.634	451.31
382.86	427.31
383.085	448.31
383.31	437.31
383.535	436.31
383.761	454.31
383.986	425.31
384.211	448.31
384.436	470.31
384.662	456.31
384.887	458.31
385.112	474.31
385.337	474.31
385.562	483.31
385.787	480.31
386.013	480.31
386.238	521.31
386.463	477.31
386.688	483.31
386.913	464.31
387.138	462.31
387.363	457.31
387.588	469.31
387.813	479.31
388.038	488.31
388.263	456.31
388.488	455.31
388.713	464.31
388.938	484.31
389.163	462.31
389.387	465.31
389.612	476.31
389.837	484.31
390.062	446.31
390.287	457.31
390.512	472.31
390.736	463.31
390.961	459.31
391.186	481.31
391.411	494.31
391.636	501.31
391.86	506.31
392.085	499.31
392.31	500.31
392.534	494.31
392.759	512.31
392.984	488.31
393.208	477.31
393.433	486.31
393.658	475.31
393.882	471.31
394.107	489.31
394.331	488.31
394.556	477.31
394.78	495.31
395.005	481.31
395.229	493.31
395.454	504.31
395.678	501.31
395.903	490.31
396.127	542.31
396.352	499.31
396.576	498.31
396.801	488.31
397.025	497.31
397.249	504.31
397.474	506.31
397.698	513.31
397.922	534.31
398.147	539.31
398.371	547.31
398.595	548.31
398.82	546.31
399.044	565.31
399.268	598.31
399.492	647.31
399.717	674.31
399.941	719.31
400.165	710.31
400.389	706.31
400.613	617.31
400.837	579.31
401.062	564.31
401.286	563.31
401.51	573.31
401.734	558.31
401.958	545.31
402.182	534.31
402.406	545.31
402.63	592.31
402.854	586.31
403.078	582.31
403.302	596.31
403.526	596.31
403.75	582.31
403.974	573.31
404.198	589.31
404.422	588.31
404.645	600.31
404.869	591.31
405.093	629.31
405.317	641.31
405.541	658.31
405.765	617.31
405.988	589.31
406.212	617.31
406.436	635.31
406.66	634.31
406.883	623.31
407.107	630.31
407.331	732.31
407.555	754.31
407.778	774.31
408.002	692.31
408.226	634.31
408.449	629.31
408.673	616.31
408.896	665.31
409.12	683.31
409.344	651.31
409.567	595.31
409.791	592.31
410.014	569.31
410.238	567.31
410.461	558.31
410.685	562.31
410.908	597.31
411.132	634.31
411.355	644.31
411.578	609.31
411.802	597.31
412.025	571.31
412.249	565.31
412.472	595.31
412.695	648.31
412.919	628.31
413.142	576.31
413.365	538.31
413.589	569.31
413.812	552.31
414.035	546.31
414.258	546.31
414.482	541.31
414.705	559.31
414.928	534.31
415.151	549.31
415.374	548.31
415.597	538.31
415.821	528.31
416.044	552.31
416.267	539.31
416.49	554.31
416.713	506.31
416.936	551.31
417.159	533.31
417.382	564.31
417.605	553.31
417.828	536.31
418.051	562.31
418.274	585.31
418.497	559.31
418.72	544.31
418.943	536.31
419.166	573.31
419.389	586.31
419.611	575.31
419.834	579.31
420.057	567.31
420.28	586.31
420.503	562.31
420.726	561.31
420.948	577.31
421.171	612.31
421.394	611.31
421.617	587.31
421.839	544.31
422.062	552.31
422.285	578.31
422.507	621.31
422.73	717.31
422.953	660.31
423.175	599.31
423.398	570.31
423.621	577.31
423.843	586.31
424.066	607.31
424.288	585.31
424.511	632.31
424.733	648.31
424.956	746.31
425.178	689.31
425.401	680.31
425.623	684.31
425.846	612.31
426.068	587.31
426.291	578.31
426.513	574.31
426.735	582.31
426.958	637.31
427.18	703.31
427.402	821.31
427.625	878.31
427.847	744.31
428.069	670.31
428.292	566.31
428.514	560.31
428.736	563.31
428.958	536.31
429.181	534.31
429.403	524.31
429.625	528.31
429.847	562.31
430.069	645.31
430.292	610.31
430.514	564.31
430.736	519.31
430.958	524.31
431.18	522.31
431.402	489.31
431.624	488.31
431.846	513.31
432.068	508.31
432.29	522.31
432.512	525.31
432.734	517.31
432.956	515.31
433.178	503.31
433.4	521.31
433.622	522.31
433.844	518.31
434.066	513.31
434.287	521.31
434.509	505.31
434.731	545.31
434.953	556.31
435.175	550.31
435.397	569.31
435.618	577.31
435.84	609.31
436.062	696.31
436.284	751.31
436.505	628.31
436.727	563.31
436.949	537.31
437.17	550.31
437.392	566.31
437.614	553.31
437.835	577.31
438.057	655.31
438.278	740.31
438.5	769.31
438.721	830.31
438.943	798.31
439.165	624.31
439.386	576.31
439.608	572.31
439.829	581.31
440.05	610.31
440.272	646.31
440.493	623.31
440.715	568.31
440.936	575.31
441.158	543.31
441.379	549.31
441.6	563.31
441.822	583.31
442.043	627.31
442.264	726.31
442.486	740.31
442.707	658.31
442.928	602.31
443.149	596.31
443.371	634.31
443.592	658.31
443.813	764.31
444.034	804.31
444.255	659.31
444.476	631.31
444.698	577.31
444.919	603.31
445.14	737.31
445.361	663.31
445.582	634.31
445.803	692.31
446.024	764.31
446.245	790.31
446.466	701.31
446.687	602.31
446.908	561.31
447.129	539.31
447.35	523.31
447.571	501.31
447.792	511.31
448.013	542.31
448.234	544.31
448.455	590.31
448.675	713.31
448.896	800.31
449.117	688.31
449.338	632.31
449.559	713.31
449.779	836.31
450	673.31
450.221	552.31
450.442	529.31
450.662	517.31
450.883	507.31
451.104	549.31
451.324	500.31
451.545	516.31
451.766	486.31
451.986	468.31
452.207	470.31
452.428	456.31
452.648	481.31
452.869	485.31
453.089	481.31
453.31	504.31
453.53	493.31
453.751	464.31
453.971	483.31
454.192	488.31
454.412	450.31
454.633	468.31
454.853	452.31
455.073	455.31
455.294	502.31
455.514	569.31
455.734	546.31
455.955	481.31
456.175	470.31
456.395	433.31
456.616	434.31
456.836	446.31
457.056	441.31
457.276	434.31
457.497	435.31
457.717	454.31
457.937	450.31
458.157	462.31
458.377	447.31
458.598	465.31
458.818	532.31
459.038	621.31
459.258	644.31
459.478	548.31
459.698	514.31
459.918	514.31
460.138	521.31
460.358	527.31
460.578	521.31
460.798	536.31
461.018	545.31
461.238	545.31
461.458	546.31
461.678	540.31
461.898	553.31
462.118	535.31
462.338	543.31
462.558	575.31
462.777	583.31
462.997	617.31
463.217	627.31
463.437	638.31
463.657	590.31
463.876	576.31
464.096	589.31
464.316	584.31
464.536	595.31
464.755	605.31
464.975	578.31
465.195	600.31
465.414	675.31
465.634	588.31
465.854	554.31
466.073	536.31
466.293	519.31
466.512	503.31
466.732	481.31
466.951	482.31
467.171	468.31
467.391	501.31
467.61	489.31
467.829	518.31
468.049	497.31
468.268	508.31
468.488	472.31
468.707	489.31
468.927	473.31
469.146	472.31
469.365	459.31
469.585	478.31
469.804	480.31
470.023	487.31
470.243	483.31
470.462	490.31
470.681	507.31
470.901	524.31
471.12	517.31
471.339	491.31
471.558	499.31
471.777	502.31
471.997	483.31
472.216	485.31
472.435	509.31
472.654	512.31
472.873	516.31
473.092	497.31
473.311	504.31
473.53	477.31
473.749	489.31
473.968	538.31
474.187	617.31
474.406	642.31
474.625	526.31
474.844	514.31
475.063	496.31
475.282	493.31
475.501	482.31
475.72	482.31
475.939	489.31
476.158	476.31
476.377	526.31
476.596	510.31
476.814	512.31
477.033	514.31
477.252	529.31
477.471	527.31
477.69	530.31
477.908	530.31
478.127	545.31
478.346	551.31
478.564	533.31
478.783	577.31
479.002	574.31
479.22	565.31
479.439	585.31
479.658	585.31
479.876	620.31
480.095	610.31
480.313	632.31
480.532	636.31
480.751	634.31
480.969	624.31
481.188	655.31
481.406	660.31
481.624	623.31
481.843	606.31
482.061	590.31
482.28	567.31
482.498	554.31
482.717	568.31
482.935	544.31
483.153	576.31
483.372	542.31
483.59	561.31
483.808	568.31
484.027	580.31
484.245	577.31
484.463	569.31
484.681	573.31
484.9	583.31
485.118	590.31
485.336	565.31
485.554	575.31
485.772	583.31
485.99	598.31
486.209	595.31
486.427	574.31
486.645	609.31
486.863	610.31
487.081	616.31
487.299	608.31
487.517	604.31
487.735	601.31
487.953	601.31
488.171	602.31
488.389	607.31
488.607	590.31
488.825	607.31
489.043	607.31
489.261	649.31
489.479	643.31
489.696	616.31
489.914	613.31
490.132	647.31
490.35	629.31
490.568	649.31
490.786	647.31
491.003	656.31
491.221	645.31
491.439	677.31
491.657	665.31
491.874	676.31
492.092	699.31
492.31	686.31
492.527	690.31
492.745	692.31
492.963	714.31
493.18	694.31
493.398	687.31
493.615	732.31
493.833	730.31
494.05	720.31
494.268	713.31
494.485	709.31
494.703	718.31
494.92	740.31
495.138	734.31
495.355	720.31
495.573	729.31
495.79	720.31
496.008	723.31
496.225	744.31
496.442	714.31
496.66	745.31
496.877	733.31
497.094	717.31
497.312	724.31
497.529	749.31
497.746	774.31
497.963	766.31
498.181	840.31
498.398	817.31
498.615	819.31
498.832	852.31
499.049	886.31
499.267	929.31
499.484	960.31
499.701	1050.31
499.918	1072.31
500.135	1122.31
500.352	1200.31
500.569	1268.31
500.786	1220.31
501.003	1206.31
501.22	1166.31
501.437	1079.31
501.654	1038.31
501.871	1012.31
