Data from 1985.PennyLincolnUp.Lamp.En5.5.200Scan.071819.P1_HRD10591_17-01-38-971.txt Node
Date: Thu Jul 18 17:01:38 EDT 2019
User: cochatt
Spectrometer: HR+D1059
Trigger mode: 1
Integration Time (sec): 1.000000E-1
Scans to average: 1
Electric dark correction enabled: true
Nonlinearity correction enabled: false
Boxcar width: 0
XAxis mode: Wavelengths
Number of Pixels in Spectrum: 2048
>>>>>Begin Spectral Data<<<<<
223.165	-5.75
223.4	-5.75
223.635	-5.75
223.869	-7.75
224.104	-15.75
224.338	-27.75
224.573	-10.75
224.808	-10.75
225.042	-9.75
225.277	-5.75
225.511	5.25
225.746	3.25
225.98	2.25
226.215	-4.75
226.449	15.25
226.683	14.25
226.918	29.25
227.152	29.25
227.387	22.25
227.621	29.25
227.856	43.25
228.09	52.25
228.324	49.25
228.559	54.25
228.793	60.25
229.027	89.25
229.262	103.25
229.496	110.25
229.73	128.25
229.964	144.25
230.199	114.25
230.433	120.25
230.667	119.25
230.901	116.25
231.136	114.25
231.37	107.25
231.604	116.25
231.838	99.25
232.072	114.25
232.306	117.25
232.541	118.25
232.775	116.25
233.009	104.25
233.243	126.25
233.477	118.25
233.711	120.25
233.945	114.25
234.179	105.25
234.413	114.25
234.647	101.25
234.881	127.25
235.115	105.25
235.349	119.25
235.583	114.25
235.817	107.25
236.051	136.25
236.285	132.25
236.519	112.25
236.753	103.25
236.987	148.25
237.221	173.25
237.455	209.25
237.689	161.25
237.922	126.25
238.156	130.25
238.39	115.25
238.624	128.25
238.858	118.25
239.091	125.25
239.325	125.25
239.559	129.25
239.793	133.25
240.027	125.25
240.26	141.25
240.494	143.25
240.728	145.25
240.961	153.25
241.195	136.25
241.429	138.25
241.662	138.25
241.896	125.25
242.13	136.25
242.363	132.25
242.597	134.25
242.83	137.25
243.064	149.25
243.298	125.25
243.531	135.25
243.765	149.25
243.998	138.25
244.232	134.25
244.465	143.25
244.699	137.25
244.932	141.25
245.166	142.25
245.399	142.25
245.633	145.25
245.866	152.25
246.099	152.25
246.333	157.25
246.566	153.25
246.8	153.25
247.033	160.25
247.266	163.25
247.5	164.25
247.733	134.25
247.966	171.25
248.2	153.25
248.433	159.25
248.666	177.25
248.899	164.25
249.133	177.25
249.366	207.25
249.599	183.25
249.832	183.25
250.066	188.25
250.299	168.25
250.532	175.25
250.765	178.25
250.998	198.25
251.231	205.25
251.465	199.25
251.698	203.25
251.931	184.25
252.164	197.25
252.397	202.25
252.63	187.25
252.863	184.25
253.096	193.25
253.329	210.25
253.562	213.25
253.795	213.25
254.028	209.25
254.261	209.25
254.494	219.25
254.727	242.25
254.96	250.25
255.193	255.25
255.426	214.25
255.659	216.25
255.892	216.25
256.124	208.25
256.357	199.25
256.59	189.25
256.823	197.25
257.056	188.25
257.289	209.25
257.521	206.25
257.754	195.25
257.987	201.25
258.22	202.25
258.452	210.25
258.685	213.25
258.918	199.25
259.151	213.25
259.383	202.25
259.616	213.25
259.849	221.25
260.081	224.25
260.314	250.25
260.547	251.25
260.779	227.25
261.012	219.25
261.244	215.25
261.477	207.25
261.71	203.25
261.942	222.25
262.175	207.25
262.407	209.25
262.64	206.25
262.872	206.25
263.105	235.25
263.337	219.25
263.57	220.25
263.802	210.25
264.035	231.25
264.267	192.25
264.499	208.25
264.732	229.25
264.964	215.25
265.197	218.25
265.429	212.25
265.661	232.25
265.894	212.25
266.126	220.25
266.358	218.25
266.591	240.25
266.823	227.25
267.055	235.25
267.287	237.25
267.52	220.25
267.752	227.25
267.984	242.25
268.216	235.25
268.448	235.25
268.681	248.25
268.913	254.25
269.145	264.25
269.377	279.25
269.609	274.25
269.841	270.25
270.073	270.25
270.306	287.25
270.538	289.25
270.77	298.25
271.002	286.25
271.234	268.25
271.466	284.25
271.698	283.25
271.93	306.25
272.162	312.25
272.394	300.25
272.626	295.25
272.858	277.25
273.09	290.25
273.322	275.25
273.553	272.25
273.785	284.25
274.017	271.25
274.249	264.25
274.481	281.25
274.713	279.25
274.945	266.25
275.176	275.25
275.408	274.25
275.64	262.25
275.872	263.25
276.104	265.25
276.335	268.25
276.567	290.25
276.799	300.25
277.031	299.25
277.262	293.25
277.494	316.25
277.726	310.25
277.957	306.25
278.189	277.25
278.421	290.25
278.652	269.25
278.884	270.25
279.115	273.25
279.347	292.25
279.579	277.25
279.81	293.25
280.042	285.25
280.273	280.25
280.505	271.25
280.736	274.25
280.968	288.25
281.199	268.25
281.431	297.25
281.662	284.25
281.894	302.25
282.125	277.25
282.356	321.25
282.588	310.25
282.819	302.25
283.051	297.25
283.282	289.25
283.513	284.25
283.745	289.25
283.976	290.25
284.207	313.25
284.439	298.25
284.67	293.25
284.901	306.25
285.132	304.25
285.364	288.25
285.595	288.25
285.826	308.25
286.057	287.25
286.288	306.25
286.52	310.25
286.751	308.25
286.982	302.25
287.213	289.25
287.444	302.25
287.675	290.25
287.906	325.25
288.138	325.25
288.369	324.25
288.6	315.25
288.831	304.25
289.062	298.25
289.293	309.25
289.524	297.25
289.755	328.25
289.986	314.25
290.217	304.25
290.448	317.25
290.679	317.25
290.91	297.25
291.141	297.25
291.371	300.25
291.602	323.25
291.833	316.25
292.064	334.25
292.295	304.25
292.526	289.25
292.757	308.25
292.987	320.25
293.218	292.25
293.449	320.25
293.68	317.25
293.91	324.25
294.141	306.25
294.372	308.25
294.603	321.25
294.833	316.25
295.064	315.25
295.295	317.25
295.525	308.25
295.756	333.25
295.987	326.25
296.217	339.25
296.448	350.25
296.679	317.25
296.909	334.25
297.14	327.25
297.37	330.25
297.601	324.25
297.831	332.25
298.062	316.25
298.292	346.25
298.523	328.25
298.753	332.25
298.984	328.25
299.214	337.25
299.445	332.25
299.675	332.25
299.905	362.25
300.136	344.25
300.366	337.25
300.597	355.25
300.827	373.25
301.057	342.25
301.288	342.25
301.518	356.25
301.748	368.25
301.979	356.25
302.209	349.25
302.439	361.25
302.669	353.25
302.9	344.25
303.13	352.25
303.36	356.25
303.59	349.25
303.82	355.25
304.051	363.25
304.281	365.25
304.511	349.25
304.741	355.25
304.971	351.25
305.201	357.25
305.431	355.25
305.661	336.25
305.891	324.25
306.121	352.25
306.352	352.25
306.582	369.25
306.812	351.25
307.042	366.25
307.272	356.25
307.502	363.25
307.731	359.25
307.961	373.25
308.191	345.25
308.421	361.25
308.651	360.25
308.881	361.25
309.111	386.25
309.341	360.25
309.571	364.25
309.8	376.25
310.03	377.25
310.26	380.25
310.49	390.25
310.72	408.25
310.949	399.25
311.179	413.25
311.409	382.25
311.639	390.25
311.868	390.25
312.098	401.25
312.328	405.25
312.557	403.25
312.787	409.25
313.017	414.25
313.246	402.25
313.476	378.25
313.706	401.25
313.935	397.25
314.165	403.25
314.394	422.25
314.624	401.25
314.853	411.25
315.083	395.25
315.312	405.25
315.542	409.25
315.771	397.25
316.001	405.25
316.23	386.25
316.46	385.25
316.689	382.25
316.919	383.25
317.148	424.25
317.377	410.25
317.607	396.25
317.836	387.25
318.065	402.25
318.295	397.25
318.524	413.25
318.753	402.25
318.983	399.25
319.212	402.25
319.441	404.25
319.67	390.25
319.9	396.25
320.129	402.25
320.358	403.25
320.587	406.25
320.816	409.25
321.046	428.25
321.275	412.25
321.504	394.25
321.733	418.25
321.962	421.25
322.191	421.25
322.42	449.25
322.649	447.25
322.878	452.25
323.108	450.25
323.337	476.25
323.566	466.25
323.795	532.25
324.024	531.25
324.253	627.25
324.482	851.25
324.71	1241.25
324.939	1750.25
325.168	1466.25
325.397	776.25
325.626	582.25
325.855	510.25
326.084	509.25
326.313	484.25
326.542	501.25
326.77	510.25
326.999	596.25
327.228	786.25
327.457	1097.25
327.686	1331.25
327.914	866.25
328.143	622.25
328.372	555.25
328.6	538.25
328.829	515.25
329.058	547.25
329.287	548.25
329.515	537.25
329.744	505.25
329.972	488.25
330.201	484.25
330.43	494.25
330.658	542.25
330.887	552.25
331.115	558.25
331.344	504.25
331.572	491.25
331.801	502.25
332.03	520.25
332.258	504.25
332.486	471.25
332.715	489.25
332.943	480.25
333.172	493.25
333.4	491.25
333.629	498.25
333.857	516.25
334.085	512.25
334.314	515.25
334.542	511.25
334.771	521.25
334.999	477.25
335.227	490.25
335.455	477.25
335.684	463.25
335.912	485.25
336.14	462.25
336.369	472.25
336.597	486.25
336.825	496.25
337.053	458.25
337.281	453.25
337.51	475.25
337.738	484.25
337.966	499.25
338.194	484.25
338.422	467.25
338.65	461.25
338.878	475.25
339.106	463.25
339.334	440.25
339.562	452.25
339.79	446.25
340.018	452.25
340.246	464.25
340.474	453.25
340.702	463.25
340.93	459.25
341.158	465.25
341.386	453.25
341.614	436.25
341.842	442.25
342.07	414.25
342.298	435.25
342.526	430.25
342.754	443.25
342.981	429.25
343.209	454.25
343.437	436.25
343.665	469.25
343.893	485.25
344.12	483.25
344.348	482.25
344.576	479.25
344.804	468.25
345.031	466.25
345.259	456.25
345.487	453.25
345.714	442.25
345.942	448.25
346.17	438.25
346.397	434.25
346.625	434.25
346.853	420.25
347.08	416.25
347.308	436.25
347.535	444.25
347.763	452.25
347.99	443.25
348.218	422.25
348.445	454.25
348.673	424.25
348.9	430.25
349.128	427.25
349.355	413.25
349.583	416.25
349.81	437.25
350.037	422.25
350.265	438.25
350.492	411.25
350.72	416.25
350.947	429.25
351.174	432.25
351.402	432.25
351.629	429.25
351.856	408.25
352.083	434.25
352.311	441.25
352.538	436.25
352.765	450.25
352.992	428.25
353.22	425.25
353.447	434.25
353.674	436.25
353.901	399.25
354.128	404.25
354.355	387.25
354.583	409.25
354.81	397.25
355.037	378.25
355.264	415.25
355.491	418.25
355.718	403.25
355.945	399.25
356.172	398.25
356.399	407.25
356.626	414.25
356.853	408.25
357.08	403.25
357.307	380.25
357.534	396.25
357.761	409.25
357.988	397.25
358.215	410.25
358.441	397.25
358.668	402.25
358.895	393.25
359.122	399.25
359.349	430.25
359.576	420.25
359.802	452.25
360.029	454.25
360.256	478.25
360.483	422.25
360.709	413.25
360.936	409.25
361.163	410.25
361.39	423.25
361.616	452.25
361.843	417.25
362.07	408.25
362.296	415.25
362.523	421.25
362.749	411.25
362.976	421.25
363.203	398.25
363.429	410.25
363.656	419.25
363.882	406.25
364.109	408.25
364.335	388.25
364.562	388.25
364.788	388.25
365.015	421.25
365.241	410.25
365.468	408.25
365.694	400.25
365.92	406.25
366.147	411.25
366.373	380.25
366.599	391.25
366.826	393.25
367.052	388.25
367.278	407.25
367.505	393.25
367.731	413.25
367.957	387.25
368.184	410.25
368.41	416.25
368.636	409.25
368.862	432.25
369.089	420.25
369.315	420.25
369.541	394.25
369.767	435.25
369.993	412.25
370.219	408.25
370.445	422.25
370.672	432.25
370.898	422.25
371.124	416.25
371.35	406.25
371.576	415.25
371.802	396.25
372.028	405.25
372.254	412.25
372.48	427.25
372.706	414.25
372.932	417.25
373.158	394.25
373.384	411.25
373.61	420.25
373.835	416.25
374.061	405.25
374.287	427.25
374.513	413.25
374.739	427.25
374.965	437.25
375.191	434.25
375.416	418.25
375.642	424.25
375.868	418.25
376.094	411.25
376.319	412.25
376.545	419.25
376.771	401.25
376.997	410.25
377.222	400.25
377.448	415.25
377.674	388.25
377.899	401.25
378.125	408.25
378.35	402.25
378.576	417.25
378.802	408.25
379.027	406.25
379.253	423.25
379.478	405.25
379.704	416.25
379.929	404.25
380.155	399.25
380.38	402.25
380.606	409.25
380.831	406.25
381.057	432.25
381.282	420.25
381.507	415.25
381.733	413.25
381.958	421.25
382.184	408.25
382.409	406.25
382.634	430.25
382.86	427.25
383.085	411.25
383.31	412.25
383.535	437.25
383.761	438.25
383.986	435.25
384.211	426.25
384.436	424.25
384.662	454.25
384.887	443.25
385.112	467.25
385.337	438.25
385.562	476.25
385.787	450.25
386.013	468.25
386.238	454.25
386.463	433.25
386.688	455.25
386.913	441.25
387.138	451.25
387.363	445.25
387.588	470.25
387.813	456.25
388.038	456.25
388.263	450.25
388.488	442.25
388.713	463.25
388.938	464.25
389.163	455.25
389.387	464.25
389.612	436.25
389.837	462.25
390.062	454.25
390.287	436.25
390.512	460.25
390.736	445.25
390.961	452.25
391.186	464.25
391.411	471.25
391.636	458.25
391.86	479.25
392.085	461.25
392.31	465.25
392.534	465.25
392.759	468.25
392.984	463.25
393.208	471.25
393.433	475.25
393.658	474.25
393.882	472.25
394.107	476.25
394.331	470.25
394.556	467.25
394.78	467.25
395.005	455.25
395.229	465.25
395.454	483.25
395.678	483.25
395.903	507.25
396.127	514.25
396.352	488.25
396.576	497.25
396.801	462.25
397.025	498.25
397.249	465.25
397.474	465.25
397.698	476.25
397.922	501.25
398.147	516.25
398.371	525.25
398.595	530.25
398.82	536.25
399.044	544.25
399.268	576.25
399.492	636.25
399.717	670.25
399.941	692.25
400.165	700.25
400.389	654.25
400.613	615.25
400.837	559.25
401.062	563.25
401.286	548.25
401.51	517.25
401.734	540.25
401.958	562.25
402.182	530.25
402.406	527.25
402.63	537.25
402.854	539.25
403.078	555.25
403.302	546.25
403.526	548.25
403.75	557.25
403.974	553.25
404.198	561.25
404.422	562.25
404.645	567.25
404.869	584.25
405.093	555.25
405.317	597.25
405.541	589.25
405.765	569.25
405.988	562.25
406.212	571.25
406.436	606.25
406.66	608.25
406.883	605.25
407.107	637.25
407.331	644.25
407.555	718.25
407.778	708.25
408.002	623.25
408.226	612.25
408.449	611.25
408.673	602.25
408.896	611.25
409.12	643.25
409.344	625.25
409.567	579.25
409.791	546.25
410.014	550.25
410.238	557.25
410.461	535.25
410.685	525.25
410.908	580.25
411.132	578.25
411.355	606.25
411.578	592.25
411.802	560.25
412.025	540.25
412.249	534.25
412.472	540.25
412.695	519.25
412.919	526.25
413.142	512.25
413.365	518.25
413.589	544.25
413.812	493.25
414.035	500.25
414.258	522.25
414.482	534.25
414.705	538.25
414.928	543.25
415.151	521.25
415.374	522.25
415.597	513.25
415.821	503.25
416.044	530.25
416.267	525.25
416.49	506.25
416.713	504.25
416.936	526.25
417.159	509.25
417.382	513.25
417.605	505.25
417.828	524.25
418.051	549.25
418.274	526.25
418.497	531.25
418.72	524.25
418.943	501.25
419.166	537.25
419.389	568.25
419.611	568.25
419.834	547.25
420.057	514.25
420.28	530.25
420.503	503.25
420.726	518.25
420.948	535.25
421.171	591.25
421.394	590.25
421.617	545.25
421.839	510.25
422.062	547.25
422.285	538.25
422.507	617.25
422.73	626.25
422.953	608.25
423.175	574.25
423.398	566.25
423.621	580.25
423.843	542.25
424.066	546.25
424.288	577.25
424.511	580.25
424.733	620.25
424.956	711.25
425.178	682.25
425.401	655.25
425.623	678.25
425.846	591.25
426.068	570.25
426.291	554.25
426.513	563.25
426.735	542.25
426.958	587.25
427.18	648.25
427.402	754.25
427.625	821.25
427.847	734.25
428.069	588.25
428.292	569.25
428.514	527.25
428.736	525.25
428.958	518.25
429.181	517.25
429.403	483.25
429.625	508.25
429.847	560.25
430.069	583.25
430.292	583.25
430.514	533.25
430.736	515.25
430.958	505.25
431.18	484.25
431.402	506.25
431.624	490.25
431.846	473.25
432.068	457.25
432.29	501.25
432.512	493.25
432.734	498.25
432.956	488.25
433.178	501.25
433.4	496.25
433.622	498.25
433.844	484.25
434.066	493.25
434.287	493.25
434.509	510.25
434.731	506.25
434.953	520.25
435.175	545.25
435.397	551.25
435.618	520.25
435.84	590.25
436.062	662.25
436.284	710.25
436.505	591.25
436.727	543.25
436.949	545.25
437.17	502.25
437.392	479.25
437.614	484.25
437.835	540.25
438.057	626.25
438.278	704.25
438.5	689.25
438.721	771.25
438.943	733.25
439.165	593.25
439.386	538.25
439.608	542.25
439.829	553.25
440.05	558.25
440.272	567.25
440.493	549.25
440.715	522.25
440.936	521.25
441.158	521.25
441.379	528.25
441.6	537.25
441.822	548.25
442.043	573.25
442.264	661.25
442.486	689.25
442.707	601.25
442.928	564.25
443.149	572.25
443.371	577.25
443.592	619.25
443.813	696.25
444.034	736.25
444.255	632.25
444.476	562.25
444.698	570.25
444.919	581.25
445.14	685.25
445.361	661.25
445.582	596.25
445.803	645.25
446.024	729.25
446.245	724.25
446.466	656.25
446.687	575.25
446.908	544.25
447.129	523.25
447.35	499.25
447.571	489.25
447.792	477.25
448.013	492.25
448.234	502.25
448.455	533.25
448.675	658.25
448.896	763.25
449.117	639.25
449.338	617.25
449.559	721.25
449.779	803.25
450	642.25
450.221	532.25
450.442	504.25
450.662	492.25
450.883	473.25
451.104	500.25
451.324	491.25
451.545	472.25
451.766	472.25
451.986	460.25
452.207	437.25
452.428	457.25
452.648	442.25
452.869	451.25
453.089	430.25
453.31	455.25
453.53	470.25
453.751	440.25
453.971	436.25
454.192	443.25
454.412	441.25
454.633	458.25
454.853	452.25
455.073	435.25
455.294	460.25
455.514	537.25
455.734	502.25
455.955	442.25
456.175	428.25
456.395	437.25
456.616	432.25
456.836	426.25
457.056	438.25
457.276	408.25
457.497	434.25
457.717	426.25
457.937	442.25
458.157	437.25
458.377	468.25
458.598	449.25
458.818	512.25
459.038	580.25
459.258	585.25
459.478	529.25
459.698	489.25
459.918	506.25
460.138	492.25
460.358	498.25
460.578	516.25
460.798	507.25
461.018	515.25
461.238	553.25
461.458	499.25
461.678	528.25
461.898	521.25
462.118	536.25
462.338	554.25
462.558	556.25
462.777	576.25
462.997	576.25
463.217	594.25
463.437	584.25
463.657	592.25
463.876	585.25
464.096	579.25
464.316	573.25
464.536	576.25
464.755	554.25
464.975	566.25
465.195	594.25
465.414	610.25
465.634	548.25
465.854	523.25
466.073	489.25
466.293	464.25
466.512	457.25
466.732	472.25
466.951	466.25
467.171	457.25
467.391	483.25
467.61	460.25
467.829	498.25
468.049	481.25
468.268	470.25
468.488	457.25
468.707	448.25
468.927	449.25
469.146	446.25
469.365	451.25
469.585	460.25
469.804	491.25
470.023	471.25
470.243	484.25
470.462	484.25
470.681	501.25
470.901	493.25
471.12	485.25
471.339	491.25
471.558	475.25
471.777	465.25
471.997	465.25
472.216	448.25
472.435	466.25
472.654	466.25
472.873	458.25
473.092	449.25
473.311	459.25
473.53	454.25
473.749	479.25
473.968	508.25
474.187	580.25
474.406	613.25
474.625	509.25
474.844	467.25
475.063	482.25
475.282	471.25
475.501	468.25
475.72	480.25
475.939	479.25
476.158	486.25
476.377	469.25
476.596	471.25
476.814	468.25
477.033	486.25
477.252	500.25
477.471	490.25
477.69	489.25
477.908	532.25
478.127	522.25
478.346	516.25
478.564	533.25
478.783	543.25
479.002	527.25
479.22	554.25
479.439	556.25
479.658	555.25
479.876	582.25
480.095	581.25
480.313	603.25
480.532	617.25
480.751	589.25
480.969	565.25
481.188	584.25
481.406	576.25
481.624	555.25
481.843	558.25
482.061	526.25
482.28	523.25
482.498	549.25
482.717	544.25
482.935	526.25
483.153	549.25
483.372	562.25
483.59	534.25
483.808	541.25
484.027	539.25
484.245	552.25
484.463	533.25
484.681	529.25
484.9	556.25
485.118	562.25
485.336	532.25
485.554	567.25
485.772	575.25
485.99	547.25
486.209	560.25
486.427	556.25
486.645	574.25
486.863	597.25
487.081	565.25
487.299	601.25
487.517	595.25
487.735	572.25
487.953	557.25
488.171	572.25
488.389	582.25
488.607	573.25
488.825	588.25
489.043	576.25
489.261	576.25
489.479	596.25
489.696	584.25
489.914	593.25
490.132	586.25
490.35	598.25
490.568	594.25
490.786	594.25
491.003	613.25
491.221	617.25
491.439	627.25
491.657	647.25
491.874	638.25
492.092	636.25
492.31	605.25
492.527	654.25
492.745	650.25
492.963	656.25
493.18	645.25
493.398	650.25
493.615	656.25
493.833	637.25
494.05	670.25
494.268	674.25
494.485	661.25
494.703	665.25
494.92	682.25
495.138	656.25
495.355	678.25
495.573	688.25
495.79	662.25
496.008	674.25
496.225	664.25
496.442	670.25
496.66	697.25
496.877	666.25
497.094	682.25
497.312	718.25
497.529	700.25
497.746	697.25
497.963	725.25
498.181	755.25
498.398	757.25
498.615	778.25
498.832	808.25
499.049	853.25
499.267	861.25
499.484	914.25
499.701	969.25
499.918	1004.25
500.135	1101.25
500.352	1152.25
500.569	1169.25
500.786	1185.25
501.003	1185.25
501.22	1084.25
501.437	1022.25
501.654	984.25
501.871	951.25
