Data from 1985.PennyLincolnUp.Lamp.En5.5.200Scan.071819.P1_HRD10591_17-04-22-971.txt Node
Date: Thu Jul 18 17:04:22 EDT 2019
User: cochatt
Spectrometer: HR+D1059
Trigger mode: 1
Integration Time (sec): 1.000000E-1
Scans to average: 1
Electric dark correction enabled: true
Nonlinearity correction enabled: false
Boxcar width: 0
XAxis mode: Wavelengths
Number of Pixels in Spectrum: 2048
>>>>>Begin Spectral Data<<<<<
223.165	-8.56
223.4	-8.56
223.635	-8.56
223.869	-15.56
224.104	-9.56
224.338	-21.56
224.573	-21.56
224.808	-19.56
225.042	-7.56
225.277	0.44
225.511	-9.56
225.746	7.44
225.98	3.44
226.215	13.44
226.449	18.44
226.683	21.44
226.918	10.44
227.152	38.44
227.387	35.44
227.621	62.44
227.856	52.44
228.09	47.44
228.324	55.44
228.559	52.44
228.793	58.44
229.027	94.44
229.262	114.44
229.496	120.44
229.73	132.44
229.964	148.44
230.199	117.44
230.433	120.44
230.667	112.44
230.901	108.44
231.136	105.44
231.37	116.44
231.604	124.44
231.838	101.44
232.072	120.44
232.306	115.44
232.541	100.44
232.775	111.44
233.009	120.44
233.243	120.44
233.477	118.44
233.711	130.44
233.945	118.44
234.179	116.44
234.413	112.44
234.647	109.44
234.881	115.44
235.115	104.44
235.349	117.44
235.583	118.44
235.817	132.44
236.051	121.44
236.285	121.44
236.519	126.44
236.753	128.44
236.987	132.44
237.221	173.44
237.455	213.44
237.689	177.44
237.922	134.44
238.156	128.44
238.39	128.44
238.624	123.44
238.858	120.44
239.091	130.44
239.325	117.44
239.559	133.44
239.793	138.44
240.027	123.44
240.26	135.44
240.494	141.44
240.728	140.44
240.961	150.44
241.195	136.44
241.429	134.44
241.662	153.44
241.896	127.44
242.13	156.44
242.363	140.44
242.597	129.44
242.83	145.44
243.064	141.44
243.298	133.44
243.531	140.44
243.765	149.44
243.998	141.44
244.232	136.44
244.465	148.44
244.699	152.44
244.932	158.44
245.166	138.44
245.399	153.44
245.633	150.44
245.866	148.44
246.099	156.44
246.333	163.44
246.566	152.44
246.8	145.44
247.033	152.44
247.266	162.44
247.5	163.44
247.733	150.44
247.966	165.44
248.2	164.44
248.433	166.44
248.666	162.44
248.899	179.44
249.133	194.44
249.366	203.44
249.599	197.44
249.832	185.44
250.066	189.44
250.299	198.44
250.532	212.44
250.765	208.44
250.998	218.44
251.231	215.44
251.465	207.44
251.698	203.44
251.931	193.44
252.164	182.44
252.397	199.44
252.63	200.44
252.863	197.44
253.096	216.44
253.329	221.44
253.562	221.44
253.795	211.44
254.028	214.44
254.261	205.44
254.494	226.44
254.727	251.44
254.96	277.44
255.193	266.44
255.426	225.44
255.659	220.44
255.892	243.44
256.124	258.44
256.357	264.44
256.59	257.44
256.823	231.44
257.056	213.44
257.289	219.44
257.521	212.44
257.754	219.44
257.987	205.44
258.22	201.44
258.452	208.44
258.685	189.44
258.918	203.44
259.151	206.44
259.383	208.44
259.616	204.44
259.849	229.44
260.081	241.44
260.314	254.44
260.547	268.44
260.779	243.44
261.012	238.44
261.244	229.44
261.477	230.44
261.71	229.44
261.942	241.44
262.175	217.44
262.407	231.44
262.64	215.44
262.872	216.44
263.105	227.44
263.337	213.44
263.57	202.44
263.802	223.44
264.035	233.44
264.267	213.44
264.499	230.44
264.732	230.44
264.964	231.44
265.197	214.44
265.429	227.44
265.661	228.44
265.894	225.44
266.126	234.44
266.358	231.44
266.591	240.44
266.823	245.44
267.055	241.44
267.287	238.44
267.52	226.44
267.752	231.44
267.984	229.44
268.216	254.44
268.448	255.44
268.681	238.44
268.913	250.44
269.145	275.44
269.377	276.44
269.609	281.44
269.841	280.44
270.073	283.44
270.306	288.44
270.538	318.44
270.77	325.44
271.002	306.44
271.234	288.44
271.466	294.44
271.698	307.44
271.93	307.44
272.162	312.44
272.394	308.44
272.626	301.44
272.858	278.44
273.09	275.44
273.322	284.44
273.553	273.44
273.785	271.44
274.017	277.44
274.249	265.44
274.481	268.44
274.713	274.44
274.945	293.44
275.176	250.44
275.408	266.44
275.64	268.44
275.872	266.44
276.104	279.44
276.335	275.44
276.567	283.44
276.799	316.44
277.031	315.44
277.262	318.44
277.494	331.44
277.726	315.44
277.957	302.44
278.189	302.44
278.421	308.44
278.652	288.44
278.884	294.44
279.115	296.44
279.347	283.44
279.579	282.44
279.81	286.44
280.042	293.44
280.273	298.44
280.505	304.44
280.736	294.44
280.968	301.44
281.199	316.44
281.431	285.44
281.662	284.44
281.894	293.44
282.125	288.44
282.356	313.44
282.588	325.44
282.819	336.44
283.051	319.44
283.282	286.44
283.513	320.44
283.745	313.44
283.976	316.44
284.207	308.44
284.439	299.44
284.67	292.44
284.901	304.44
285.132	316.44
285.364	317.44
285.595	321.44
285.826	316.44
286.057	284.44
286.288	302.44
286.52	300.44
286.751	310.44
286.982	322.44
287.213	297.44
287.444	301.44
287.675	324.44
287.906	328.44
288.138	318.44
288.369	337.44
288.6	309.44
288.831	314.44
289.062	324.44
289.293	314.44
289.524	325.44
289.755	308.44
289.986	308.44
290.217	301.44
290.448	318.44
290.679	307.44
290.91	330.44
291.141	332.44
291.371	324.44
291.602	350.44
291.833	321.44
292.064	316.44
292.295	327.44
292.526	331.44
292.757	336.44
292.987	309.44
293.218	346.44
293.449	333.44
293.68	332.44
293.91	325.44
294.141	315.44
294.372	328.44
294.603	329.44
294.833	337.44
295.064	318.44
295.295	336.44
295.525	343.44
295.756	324.44
295.987	330.44
296.217	361.44
296.448	386.44
296.679	350.44
296.909	320.44
297.14	328.44
297.37	338.44
297.601	353.44
297.831	352.44
298.062	334.44
298.292	350.44
298.523	358.44
298.753	345.44
298.984	346.44
299.214	338.44
299.445	330.44
299.675	345.44
299.905	357.44
300.136	344.44
300.366	356.44
300.597	341.44
300.827	349.44
301.057	366.44
301.288	388.44
301.518	376.44
301.748	362.44
301.979	385.44
302.209	380.44
302.439	368.44
302.669	355.44
302.9	376.44
303.13	348.44
303.36	354.44
303.59	366.44
303.82	371.44
304.051	388.44
304.281	364.44
304.511	372.44
304.741	362.44
304.971	375.44
305.201	356.44
305.431	376.44
305.661	374.44
305.891	370.44
306.121	365.44
306.352	370.44
306.582	374.44
306.812	375.44
307.042	373.44
307.272	344.44
307.502	370.44
307.731	383.44
307.961	386.44
308.191	380.44
308.421	358.44
308.651	381.44
308.881	392.44
309.111	376.44
309.341	380.44
309.571	385.44
309.8	406.44
310.03	412.44
310.26	421.44
310.49	414.44
310.72	409.44
310.949	441.44
311.179	416.44
311.409	406.44
311.639	415.44
311.868	410.44
312.098	401.44
312.328	437.44
312.557	443.44
312.787	435.44
313.017	425.44
313.246	434.44
313.476	415.44
313.706	425.44
313.935	426.44
314.165	425.44
314.394	438.44
314.624	424.44
314.853	419.44
315.083	419.44
315.312	425.44
315.542	397.44
315.771	421.44
316.001	424.44
316.23	421.44
316.46	412.44
316.689	416.44
316.919	435.44
317.148	445.44
317.377	440.44
317.607	412.44
317.836	425.44
318.065	410.44
318.295	422.44
318.524	426.44
318.753	405.44
318.983	427.44
319.212	418.44
319.441	406.44
319.67	436.44
319.9	411.44
320.129	447.44
320.358	408.44
320.587	404.44
320.816	430.44
321.046	430.44
321.275	454.44
321.504	416.44
321.733	443.44
321.962	434.44
322.191	472.44
322.42	461.44
322.649	476.44
322.878	470.44
323.108	484.44
323.337	501.44
323.566	521.44
323.795	565.44
324.024	586.44
324.253	686.44
324.482	951.44
324.71	1427.44
324.939	1983.44
325.168	1673.44
325.397	907.44
325.626	652.44
325.855	569.44
326.084	547.44
326.313	533.44
326.542	530.44
326.77	587.44
326.999	623.44
327.228	880.44
327.457	1252.44
327.686	1530.44
327.914	1052.44
328.143	716.44
328.372	672.44
328.6	637.44
328.829	582.44
329.058	598.44
329.287	612.44
329.515	600.44
329.744	572.44
329.972	562.44
330.201	589.44
330.43	629.44
330.658	628.44
330.887	642.44
331.115	636.44
331.344	555.44
331.572	538.44
331.801	514.44
332.03	526.44
332.258	538.44
332.486	533.44
332.715	513.44
332.943	532.44
333.172	536.44
333.4	533.44
333.629	556.44
333.857	597.44
334.085	591.44
334.314	654.44
334.542	674.44
334.771	694.44
334.999	616.44
335.227	588.44
335.455	547.44
335.684	505.44
335.912	532.44
336.14	521.44
336.369	503.44
336.597	514.44
336.825	525.44
337.053	499.44
337.281	484.44
337.51	476.44
337.738	484.44
337.966	498.44
338.194	502.44
338.422	488.44
338.65	486.44
338.878	468.44
339.106	501.44
339.334	473.44
339.562	473.44
339.79	464.44
340.018	460.44
340.246	461.44
340.474	484.44
340.702	490.44
340.93	476.44
341.158	470.44
341.386	473.44
341.614	468.44
341.842	470.44
342.07	475.44
342.298	461.44
342.526	455.44
342.754	460.44
342.981	450.44
343.209	447.44
343.437	475.44
343.665	493.44
343.893	517.44
344.12	508.44
344.348	516.44
344.576	485.44
344.804	477.44
345.031	510.44
345.259	485.44
345.487	472.44
345.714	448.44
345.942	478.44
346.17	459.44
346.397	459.44
346.625	458.44
346.853	434.44
347.08	445.44
347.308	440.44
347.535	465.44
347.763	446.44
347.99	459.44
348.218	460.44
348.445	464.44
348.673	467.44
348.9	434.44
349.128	444.44
349.355	437.44
349.583	446.44
349.81	452.44
350.037	441.44
350.265	456.44
350.492	440.44
350.72	433.44
350.947	441.44
351.174	446.44
351.402	462.44
351.629	439.44
351.856	458.44
352.083	465.44
352.311	460.44
352.538	457.44
352.765	476.44
352.992	434.44
353.22	438.44
353.447	440.44
353.674	444.44
353.901	438.44
354.128	448.44
354.355	421.44
354.583	448.44
354.81	432.44
355.037	417.44
355.264	414.44
355.491	413.44
355.718	415.44
355.945	420.44
356.172	422.44
356.399	417.44
356.626	412.44
356.853	425.44
357.08	412.44
357.307	417.44
357.534	421.44
357.761	428.44
357.988	412.44
358.215	412.44
358.441	413.44
358.668	428.44
358.895	409.44
359.122	438.44
359.349	434.44
359.576	443.44
359.802	466.44
360.029	480.44
360.256	478.44
360.483	474.44
360.709	439.44
360.936	421.44
361.163	425.44
361.39	453.44
361.616	451.44
361.843	444.44
362.07	437.44
362.296	439.44
362.523	438.44
362.749	432.44
362.976	434.44
363.203	445.44
363.429	414.44
363.656	434.44
363.882	409.44
364.109	427.44
364.335	428.44
364.562	439.44
364.788	418.44
365.015	434.44
365.241	442.44
365.468	433.44
365.694	434.44
365.92	428.44
366.147	421.44
366.373	440.44
366.599	434.44
366.826	433.44
367.052	429.44
367.278	440.44
367.505	412.44
367.731	432.44
367.957	421.44
368.184	412.44
368.41	423.44
368.636	412.44
368.862	433.44
369.089	436.44
369.315	429.44
369.541	443.44
369.767	429.44
369.993	426.44
370.219	406.44
370.445	434.44
370.672	436.44
370.898	407.44
371.124	434.44
371.35	429.44
371.576	438.44
371.802	449.44
372.028	419.44
372.254	436.44
372.48	423.44
372.706	450.44
372.932	447.44
373.158	448.44
373.384	441.44
373.61	428.44
373.835	434.44
374.061	411.44
374.287	446.44
374.513	454.44
374.739	450.44
374.965	430.44
375.191	451.44
375.416	465.44
375.642	462.44
375.868	456.44
376.094	424.44
376.319	418.44
376.545	420.44
376.771	401.44
376.997	409.44
377.222	430.44
377.448	433.44
377.674	404.44
377.899	411.44
378.125	420.44
378.35	430.44
378.576	427.44
378.802	427.44
379.027	446.44
379.253	412.44
379.478	412.44
379.704	416.44
379.929	413.44
380.155	434.44
380.38	412.44
380.606	409.44
380.831	434.44
381.057	428.44
381.282	420.44
381.507	438.44
381.733	438.44
381.958	442.44
382.184	444.44
382.409	419.44
382.634	405.44
382.86	436.44
383.085	425.44
383.31	440.44
383.535	439.44
383.761	440.44
383.986	456.44
384.211	446.44
384.436	427.44
384.662	461.44
384.887	473.44
385.112	449.44
385.337	474.44
385.562	485.44
385.787	484.44
386.013	484.44
386.238	466.44
386.463	475.44
386.688	482.44
386.913	429.44
387.138	462.44
387.363	453.44
387.588	458.44
387.813	473.44
388.038	471.44
388.263	474.44
388.488	452.44
388.713	472.44
388.938	467.44
389.163	466.44
389.387	479.44
389.612	447.44
389.837	466.44
390.062	472.44
390.287	469.44
390.512	453.44
390.736	450.44
390.961	464.44
391.186	485.44
391.411	486.44
391.636	471.44
391.86	517.44
392.085	503.44
392.31	487.44
392.534	494.44
392.759	496.44
392.984	473.44
393.208	456.44
393.433	465.44
393.658	462.44
393.882	446.44
394.107	485.44
394.331	479.44
394.556	498.44
394.78	484.44
395.005	472.44
395.229	490.44
395.454	504.44
395.678	498.44
395.903	515.44
396.127	507.44
396.352	484.44
396.576	494.44
396.801	494.44
397.025	482.44
397.249	499.44
397.474	520.44
397.698	516.44
397.922	551.44
398.147	540.44
398.371	536.44
398.595	522.44
398.82	536.44
399.044	552.44
399.268	573.44
399.492	640.44
399.717	704.44
399.941	715.44
400.165	708.44
400.389	667.44
400.613	630.44
400.837	600.44
401.062	566.44
401.286	548.44
401.51	541.44
401.734	541.44
401.958	571.44
402.182	554.44
402.406	575.44
402.63	564.44
402.854	576.44
403.078	580.44
403.302	564.44
403.526	586.44
403.75	592.44
403.974	549.44
404.198	572.44
404.422	609.44
404.645	590.44
404.869	608.44
405.093	638.44
405.317	660.44
405.541	717.44
405.765	655.44
405.988	613.44
406.212	600.44
406.436	629.44
406.66	622.44
406.883	616.44
407.107	638.44
407.331	688.44
407.555	770.44
407.778	772.44
408.002	681.44
408.226	646.44
408.449	628.44
408.673	627.44
408.896	640.44
409.12	700.44
409.344	652.44
409.567	600.44
409.791	604.44
410.014	585.44
410.238	567.44
410.461	532.44
410.685	577.44
410.908	582.44
411.132	604.44
411.355	640.44
411.578	590.44
411.802	550.44
412.025	553.44
412.249	585.44
412.472	611.44
412.695	640.44
412.919	651.44
413.142	580.44
413.365	544.44
413.589	549.44
413.812	534.44
414.035	539.44
414.258	548.44
414.482	548.44
414.705	525.44
414.928	563.44
415.151	552.44
415.374	536.44
415.597	530.44
415.821	530.44
416.044	548.44
416.267	543.44
416.49	522.44
416.713	521.44
416.936	522.44
417.159	538.44
417.382	535.44
417.605	538.44
417.828	561.44
418.051	537.44
418.274	566.44
418.497	542.44
418.72	533.44
418.943	566.44
419.166	555.44
419.389	594.44
419.611	574.44
419.834	557.44
420.057	569.44
420.28	560.44
420.503	562.44
420.726	579.44
420.948	560.44
421.171	610.44
421.394	626.44
421.617	560.44
421.839	540.44
422.062	562.44
422.285	563.44
422.507	610.44
422.73	687.44
422.953	632.44
423.175	560.44
423.398	570.44
423.621	600.44
423.843	604.44
424.066	583.44
424.288	567.44
424.511	575.44
424.733	636.44
424.956	726.44
425.178	696.44
425.401	676.44
425.623	707.44
425.846	596.44
426.068	577.44
426.291	574.44
426.513	578.44
426.735	550.44
426.958	622.44
427.18	667.44
427.402	802.44
427.625	868.44
427.847	765.44
428.069	688.44
428.292	617.44
428.514	567.44
428.736	534.44
428.958	541.44
429.181	529.44
429.403	499.44
429.625	555.44
429.847	541.44
430.069	618.44
430.292	632.44
430.514	539.44
430.736	529.44
430.958	527.44
431.18	506.44
431.402	504.44
431.624	505.44
431.846	516.44
432.068	501.44
432.29	508.44
432.512	519.44
432.734	508.44
432.956	524.44
433.178	499.44
433.4	512.44
433.622	526.44
433.844	494.44
434.066	502.44
434.287	512.44
434.509	530.44
434.731	522.44
434.953	531.44
435.175	539.44
435.397	555.44
435.618	551.44
435.84	611.44
436.062	706.44
436.284	744.44
436.505	636.44
436.727	572.44
436.949	530.44
437.17	510.44
437.392	540.44
437.614	544.44
437.835	544.44
438.057	652.44
438.278	700.44
438.5	708.44
438.721	817.44
438.943	776.44
439.165	612.44
439.386	575.44
439.608	541.44
439.829	545.44
440.05	562.44
440.272	599.44
440.493	597.44
440.715	532.44
440.936	521.44
441.158	514.44
441.379	510.44
441.6	537.44
441.822	566.44
442.043	609.44
442.264	685.44
442.486	727.44
442.707	624.44
442.928	584.44
443.149	602.44
443.371	608.44
443.592	656.44
443.813	740.44
444.034	789.44
444.255	664.44
444.476	610.44
444.698	610.44
444.919	620.44
445.14	744.44
445.361	649.44
445.582	645.44
445.803	675.44
446.024	747.44
446.245	762.44
446.466	682.44
446.687	583.44
446.908	563.44
447.129	508.44
447.35	528.44
447.571	501.44
447.792	493.44
448.013	530.44
448.234	525.44
448.455	573.44
448.675	672.44
448.896	784.44
449.117	672.44
449.338	614.44
449.559	725.44
449.779	816.44
450	634.44
450.221	549.44
450.442	536.44
450.662	514.44
450.883	493.44
451.104	496.44
451.324	485.44
451.545	496.44
451.766	472.44
451.986	470.44
452.207	455.44
452.428	475.44
452.648	468.44
452.869	482.44
453.089	474.44
453.31	476.44
453.53	485.44
453.751	450.44
453.971	470.44
454.192	489.44
454.412	454.44
454.633	478.44
454.853	455.44
455.073	460.44
455.294	483.44
455.514	535.44
455.734	522.44
455.955	452.44
456.175	445.44
456.395	438.44
456.616	437.44
456.836	430.44
457.056	423.44
457.276	422.44
457.497	432.44
457.717	430.44
457.937	440.44
458.157	458.44
458.377	462.44
458.598	493.44
458.818	542.44
459.038	590.44
459.258	604.44
459.478	564.44
459.698	506.44
459.918	526.44
460.138	525.44
460.358	505.44
460.578	523.44
460.798	536.44
461.018	560.44
461.238	546.44
461.458	534.44
461.678	525.44
461.898	544.44
462.118	550.44
462.338	556.44
462.558	572.44
462.777	590.44
462.997	597.44
463.217	631.44
463.437	625.44
463.657	612.44
463.876	570.44
464.096	572.44
464.316	590.44
464.536	578.44
464.755	576.44
464.975	572.44
465.195	594.44
465.414	648.44
465.634	576.44
465.854	535.44
466.073	509.44
466.293	527.44
466.512	524.44
466.732	472.44
466.951	476.44
467.171	519.44
467.391	488.44
467.61	489.44
467.829	509.44
468.049	501.44
468.268	481.44
468.488	482.44
468.707	482.44
468.927	486.44
469.146	490.44
469.365	465.44
469.585	482.44
469.804	504.44
470.023	522.44
470.243	503.44
470.462	488.44
470.681	507.44
470.901	518.44
471.12	481.44
471.339	504.44
471.558	479.44
471.777	478.44
471.997	501.44
472.216	484.44
472.435	553.44
472.654	539.44
472.873	529.44
473.092	500.44
473.311	473.44
473.53	492.44
473.749	497.44
473.968	524.44
474.187	617.44
474.406	626.44
474.625	561.44
474.844	492.44
475.063	498.44
475.282	472.44
475.501	475.44
475.72	491.44
475.939	511.44
476.158	492.44
476.377	490.44
476.596	500.44
476.814	522.44
477.033	540.44
477.252	532.44
477.471	536.44
477.69	515.44
477.908	537.44
478.127	535.44
478.346	554.44
478.564	554.44
478.783	569.44
479.002	563.44
479.22	569.44
479.439	600.44
479.658	615.44
479.876	606.44
480.095	605.44
480.313	626.44
480.532	605.44
480.751	618.44
480.969	631.44
481.188	678.44
481.406	772.44
481.624	650.44
481.843	606.44
482.061	570.44
482.28	574.44
482.498	584.44
482.717	588.44
482.935	573.44
483.153	573.44
483.372	579.44
483.59	578.44
483.808	566.44
484.027	557.44
484.245	564.44
484.463	567.44
484.681	578.44
484.9	588.44
485.118	587.44
485.336	604.44
485.554	573.44
485.772	582.44
485.99	583.44
486.209	595.44
486.427	607.44
486.645	618.44
486.863	627.44
487.081	610.44
487.299	628.44
487.517	619.44
487.735	625.44
487.953	604.44
488.171	610.44
488.389	605.44
488.607	606.44
488.825	594.44
489.043	594.44
489.261	638.44
489.479	600.44
489.696	602.44
489.914	649.44
490.132	644.44
490.35	641.44
490.568	640.44
490.786	658.44
491.003	647.44
491.221	645.44
491.439	680.44
491.657	708.44
491.874	702.44
492.092	728.44
492.31	699.44
492.527	706.44
492.745	720.44
492.963	691.44
493.18	721.44
493.398	709.44
493.615	718.44
493.833	725.44
494.05	735.44
494.268	713.44
494.485	700.44
494.703	730.44
494.92	713.44
495.138	703.44
495.355	739.44
495.573	717.44
495.79	710.44
496.008	718.44
496.225	703.44
496.442	729.44
496.66	723.44
496.877	742.44
497.094	740.44
497.312	755.44
497.529	731.44
497.746	763.44
497.963	816.44
498.181	797.44
498.398	797.44
498.615	829.44
498.832	881.44
499.049	877.44
499.267	910.44
499.484	937.44
499.701	1013.44
499.918	1059.44
500.135	1120.44
500.352	1173.44
500.569	1228.44
500.786	1237.44
501.003	1208.44
501.22	1129.44
501.437	1059.44
501.654	989.44
501.871	974.44
