Data from 1985.PennyLincolnUp.Lamp.En5.5.200Scan.071819.P1_HRD10591_17-03-30-970.txt Node
Date: Thu Jul 18 17:03:30 EDT 2019
User: cochatt
Spectrometer: HR+D1059
Trigger mode: 1
Integration Time (sec): 1.000000E-1
Scans to average: 1
Electric dark correction enabled: true
Nonlinearity correction enabled: false
Boxcar width: 0
XAxis mode: Wavelengths
Number of Pixels in Spectrum: 2048
>>>>>Begin Spectral Data<<<<<
223.165	-15.81
223.4	-15.81
223.635	-15.81
223.869	-15.81
224.104	-9.81
224.338	-1.81
224.573	-9.81
224.808	-26.81
225.042	-3.81
225.277	-0.81
225.511	-1.81
225.746	7.19
225.98	4.19
226.215	15.19
226.449	11.19
226.683	8.19
226.918	20.19
227.152	20.19
227.387	25.19
227.621	39.19
227.856	45.19
228.09	44.19
228.324	50.19
228.559	44.19
228.793	66.19
229.027	85.19
229.262	93.19
229.496	119.19
229.73	126.19
229.964	138.19
230.199	118.19
230.433	112.19
230.667	107.19
230.901	105.19
231.136	97.19
231.37	108.19
231.604	100.19
231.838	103.19
232.072	110.19
232.306	126.19
232.541	97.19
232.775	105.19
233.009	92.19
233.243	100.19
233.477	115.19
233.711	116.19
233.945	100.19
234.179	110.19
234.413	114.19
234.647	116.19
234.881	109.19
235.115	103.19
235.349	97.19
235.583	108.19
235.817	113.19
236.051	123.19
236.285	119.19
236.519	129.19
236.753	132.19
236.987	151.19
237.221	161.19
237.455	209.19
237.689	164.19
237.922	146.19
238.156	133.19
238.39	116.19
238.624	136.19
238.858	119.19
239.091	128.19
239.325	122.19
239.559	120.19
239.793	139.19
240.027	132.19
240.26	120.19
240.494	152.19
240.728	154.19
240.961	135.19
241.195	148.19
241.429	134.19
241.662	140.19
241.896	130.19
242.13	128.19
242.363	133.19
242.597	121.19
242.83	136.19
243.064	151.19
243.298	136.19
243.531	128.19
243.765	147.19
243.998	149.19
244.232	157.19
244.465	128.19
244.699	139.19
244.932	139.19
245.166	146.19
245.399	138.19
245.633	160.19
245.866	146.19
246.099	157.19
246.333	148.19
246.566	140.19
246.8	149.19
247.033	156.19
247.266	167.19
247.5	164.19
247.733	184.19
247.966	178.19
248.2	171.19
248.433	170.19
248.666	160.19
248.899	161.19
249.133	162.19
249.366	200.19
249.599	205.19
249.832	174.19
250.066	188.19
250.299	173.19
250.532	205.19
250.765	211.19
250.998	219.19
251.231	217.19
251.465	193.19
251.698	199.19
251.931	194.19
252.164	188.19
252.397	210.19
252.63	197.19
252.863	179.19
253.096	205.19
253.329	217.19
253.562	214.19
253.795	204.19
254.028	214.19
254.261	201.19
254.494	213.19
254.727	237.19
254.96	256.19
255.193	253.19
255.426	231.19
255.659	232.19
255.892	221.19
256.124	235.19
256.357	231.19
256.59	220.19
256.823	219.19
257.056	221.19
257.289	219.19
257.521	208.19
257.754	199.19
257.987	201.19
258.22	198.19
258.452	208.19
258.685	207.19
258.918	218.19
259.151	201.19
259.383	189.19
259.616	210.19
259.849	215.19
260.081	225.19
260.314	241.19
260.547	254.19
260.779	232.19
261.012	229.19
261.244	228.19
261.477	221.19
261.71	228.19
261.942	233.19
262.175	225.19
262.407	240.19
262.64	221.19
262.872	223.19
263.105	215.19
263.337	222.19
263.57	211.19
263.802	224.19
264.035	217.19
264.267	212.19
264.499	213.19
264.732	222.19
264.964	213.19
265.197	226.19
265.429	235.19
265.661	231.19
265.894	218.19
266.126	212.19
266.358	221.19
266.591	231.19
266.823	225.19
267.055	233.19
267.287	223.19
267.52	234.19
267.752	235.19
267.984	236.19
268.216	234.19
268.448	233.19
268.681	232.19
268.913	248.19
269.145	275.19
269.377	278.19
269.609	278.19
269.841	278.19
270.073	275.19
270.306	291.19
270.538	331.19
270.77	295.19
271.002	296.19
271.234	287.19
271.466	268.19
271.698	320.19
271.93	317.19
272.162	314.19
272.394	315.19
272.626	302.19
272.858	288.19
273.09	283.19
273.322	298.19
273.553	270.19
273.785	266.19
274.017	266.19
274.249	268.19
274.481	266.19
274.713	282.19
274.945	264.19
275.176	275.19
275.408	270.19
275.64	271.19
275.872	263.19
276.104	278.19
276.335	271.19
276.567	288.19
276.799	287.19
277.031	282.19
277.262	332.19
277.494	304.19
277.726	308.19
277.957	307.19
278.189	290.19
278.421	288.19
278.652	286.19
278.884	281.19
279.115	276.19
279.347	285.19
279.579	272.19
279.81	267.19
280.042	268.19
280.273	270.19
280.505	283.19
280.736	284.19
280.968	289.19
281.199	294.19
281.431	284.19
281.662	293.19
281.894	276.19
282.125	303.19
282.356	329.19
282.588	321.19
282.819	326.19
283.051	307.19
283.282	293.19
283.513	286.19
283.745	289.19
283.976	291.19
284.207	291.19
284.439	311.19
284.67	299.19
284.901	301.19
285.132	298.19
285.364	297.19
285.595	296.19
285.826	294.19
286.057	311.19
286.288	301.19
286.52	292.19
286.751	293.19
286.982	309.19
287.213	305.19
287.444	311.19
287.675	309.19
287.906	309.19
288.138	316.19
288.369	311.19
288.6	339.19
288.831	329.19
289.062	334.19
289.293	327.19
289.524	316.19
289.755	299.19
289.986	308.19
290.217	311.19
290.448	308.19
290.679	314.19
290.91	324.19
291.141	323.19
291.371	312.19
291.602	296.19
291.833	317.19
292.064	317.19
292.295	313.19
292.526	325.19
292.757	315.19
292.987	329.19
293.218	321.19
293.449	310.19
293.68	328.19
293.91	313.19
294.141	315.19
294.372	323.19
294.603	322.19
294.833	323.19
295.064	345.19
295.295	320.19
295.525	321.19
295.756	345.19
295.987	348.19
296.217	352.19
296.448	389.19
296.679	332.19
296.909	337.19
297.14	329.19
297.37	316.19
297.601	341.19
297.831	325.19
298.062	336.19
298.292	332.19
298.523	338.19
298.753	344.19
298.984	342.19
299.214	316.19
299.445	338.19
299.675	363.19
299.905	347.19
300.136	347.19
300.366	356.19
300.597	336.19
300.827	342.19
301.057	343.19
301.288	348.19
301.518	355.19
301.748	362.19
301.979	371.19
302.209	351.19
302.439	346.19
302.669	369.19
302.9	357.19
303.13	358.19
303.36	339.19
303.59	378.19
303.82	386.19
304.051	379.19
304.281	378.19
304.511	376.19
304.741	358.19
304.971	360.19
305.201	370.19
305.431	368.19
305.661	383.19
305.891	353.19
306.121	368.19
306.352	368.19
306.582	334.19
306.812	364.19
307.042	374.19
307.272	373.19
307.502	377.19
307.731	379.19
307.961	377.19
308.191	353.19
308.421	394.19
308.651	366.19
308.881	380.19
309.111	384.19
309.341	385.19
309.571	394.19
309.8	388.19
310.03	408.19
310.26	396.19
310.49	392.19
310.72	402.19
310.949	407.19
311.179	402.19
311.409	423.19
311.639	418.19
311.868	390.19
312.098	410.19
312.328	399.19
312.557	424.19
312.787	429.19
313.017	436.19
313.246	421.19
313.476	404.19
313.706	407.19
313.935	424.19
314.165	427.19
314.394	450.19
314.624	427.19
314.853	416.19
315.083	408.19
315.312	404.19
315.542	413.19
315.771	399.19
316.001	434.19
316.23	423.19
316.46	407.19
316.689	417.19
316.919	413.19
317.148	377.19
317.377	441.19
317.607	409.19
317.836	434.19
318.065	412.19
318.295	412.19
318.524	413.19
318.753	405.19
318.983	410.19
319.212	403.19
319.441	426.19
319.67	406.19
319.9	416.19
320.129	397.19
320.358	407.19
320.587	417.19
320.816	425.19
321.046	414.19
321.275	424.19
321.504	442.19
321.733	439.19
321.962	456.19
322.191	445.19
322.42	456.19
322.649	469.19
322.878	470.19
323.108	473.19
323.337	489.19
323.566	527.19
323.795	536.19
324.024	577.19
324.253	672.19
324.482	910.19
324.71	1418.19
324.939	1972.19
325.168	1638.19
325.397	881.19
325.626	626.19
325.855	547.19
326.084	523.19
326.313	505.19
326.542	535.19
326.77	570.19
326.999	642.19
327.228	873.19
327.457	1232.19
327.686	1494.19
327.914	1003.19
328.143	715.19
328.372	613.19
328.6	567.19
328.829	541.19
329.058	562.19
329.287	589.19
329.515	555.19
329.744	524.19
329.972	513.19
330.201	539.19
330.43	570.19
330.658	605.19
330.887	606.19
331.115	609.19
331.344	547.19
331.572	540.19
331.801	522.19
332.03	549.19
332.258	526.19
332.486	498.19
332.715	519.19
332.943	509.19
333.172	514.19
333.4	523.19
333.629	504.19
333.857	547.19
334.085	547.19
334.314	577.19
334.542	562.19
334.771	563.19
334.999	566.19
335.227	525.19
335.455	505.19
335.684	508.19
335.912	493.19
336.14	512.19
336.369	502.19
336.597	478.19
336.825	487.19
337.053	489.19
337.281	477.19
337.51	488.19
337.738	472.19
337.966	480.19
338.194	479.19
338.422	500.19
338.65	492.19
338.878	460.19
339.106	464.19
339.334	469.19
339.562	477.19
339.79	450.19
340.018	464.19
340.246	453.19
340.474	467.19
340.702	473.19
340.93	464.19
341.158	465.19
341.386	459.19
341.614	452.19
341.842	464.19
342.07	428.19
342.298	456.19
342.526	452.19
342.754	443.19
342.981	441.19
343.209	445.19
343.437	453.19
343.665	486.19
343.893	475.19
344.12	484.19
344.348	504.19
344.576	480.19
344.804	475.19
345.031	457.19
345.259	477.19
345.487	465.19
345.714	468.19
345.942	460.19
346.17	481.19
346.397	466.19
346.625	433.19
346.853	417.19
347.08	424.19
347.308	429.19
347.535	443.19
347.763	437.19
347.99	441.19
348.218	449.19
348.445	461.19
348.673	467.19
348.9	437.19
349.128	444.19
349.355	439.19
349.583	438.19
349.81	407.19
350.037	421.19
350.265	425.19
350.492	429.19
350.72	409.19
350.947	425.19
351.174	449.19
351.402	449.19
351.629	462.19
351.856	424.19
352.083	454.19
352.311	438.19
352.538	459.19
352.765	464.19
352.992	458.19
353.22	442.19
353.447	437.19
353.674	420.19
353.901	411.19
354.128	404.19
354.355	416.19
354.583	434.19
354.81	417.19
355.037	417.19
355.264	439.19
355.491	426.19
355.718	429.19
355.945	428.19
356.172	405.19
356.399	401.19
356.626	417.19
356.853	425.19
357.08	423.19
357.307	416.19
357.534	422.19
357.761	389.19
357.988	398.19
358.215	413.19
358.441	408.19
358.668	419.19
358.895	435.19
359.122	452.19
359.349	429.19
359.576	434.19
359.802	458.19
360.029	468.19
360.256	482.19
360.483	473.19
360.709	448.19
360.936	440.19
361.163	442.19
361.39	437.19
361.616	450.19
361.843	430.19
362.07	426.19
362.296	444.19
362.523	425.19
362.749	439.19
362.976	425.19
363.203	432.19
363.429	414.19
363.656	408.19
363.882	408.19
364.109	433.19
364.335	422.19
364.562	422.19
364.788	423.19
365.015	416.19
365.241	404.19
365.468	411.19
365.694	422.19
365.92	422.19
366.147	419.19
366.373	417.19
366.599	425.19
366.826	427.19
367.052	413.19
367.278	421.19
367.505	410.19
367.731	402.19
367.957	422.19
368.184	425.19
368.41	452.19
368.636	432.19
368.862	434.19
369.089	438.19
369.315	417.19
369.541	423.19
369.767	418.19
369.993	450.19
370.219	416.19
370.445	424.19
370.672	418.19
370.898	437.19
371.124	433.19
371.35	429.19
371.576	405.19
371.802	429.19
372.028	419.19
372.254	409.19
372.48	404.19
372.706	430.19
372.932	416.19
373.158	407.19
373.384	436.19
373.61	418.19
373.835	434.19
374.061	429.19
374.287	420.19
374.513	418.19
374.739	434.19
374.965	449.19
375.191	448.19
375.416	430.19
375.642	426.19
375.868	430.19
376.094	417.19
376.319	440.19
376.545	420.19
376.771	414.19
376.997	418.19
377.222	432.19
377.448	422.19
377.674	418.19
377.899	408.19
378.125	408.19
378.35	418.19
378.576	397.19
378.802	409.19
379.027	403.19
379.253	412.19
379.478	426.19
379.704	401.19
379.929	429.19
380.155	411.19
380.38	406.19
380.606	411.19
380.831	389.19
381.057	432.19
381.282	428.19
381.507	436.19
381.733	426.19
381.958	422.19
382.184	434.19
382.409	434.19
382.634	412.19
382.86	429.19
383.085	442.19
383.31	440.19
383.535	435.19
383.761	435.19
383.986	445.19
384.211	456.19
384.436	450.19
384.662	449.19
384.887	426.19
385.112	455.19
385.337	466.19
385.562	470.19
385.787	453.19
386.013	482.19
386.238	464.19
386.463	488.19
386.688	477.19
386.913	452.19
387.138	444.19
387.363	467.19
387.588	448.19
387.813	466.19
388.038	478.19
388.263	476.19
388.488	481.19
388.713	478.19
388.938	444.19
389.163	451.19
389.387	481.19
389.612	458.19
389.837	450.19
390.062	451.19
390.287	459.19
390.512	451.19
390.736	435.19
390.961	445.19
391.186	450.19
391.411	481.19
391.636	478.19
391.86	501.19
392.085	481.19
392.31	483.19
392.534	477.19
392.759	474.19
392.984	477.19
393.208	479.19
393.433	470.19
393.658	484.19
393.882	456.19
394.107	454.19
394.331	465.19
394.556	480.19
394.78	447.19
395.005	478.19
395.229	464.19
395.454	499.19
395.678	467.19
395.903	482.19
396.127	537.19
396.352	489.19
396.576	475.19
396.801	483.19
397.025	494.19
397.249	489.19
397.474	508.19
397.698	480.19
397.922	514.19
398.147	490.19
398.371	541.19
398.595	521.19
398.82	545.19
399.044	554.19
399.268	571.19
399.492	634.19
399.717	678.19
399.941	667.19
400.165	676.19
400.389	677.19
400.613	615.19
400.837	579.19
401.062	578.19
401.286	542.19
401.51	537.19
401.734	516.19
401.958	540.19
402.182	549.19
402.406	544.19
402.63	531.19
402.854	547.19
403.078	544.19
403.302	565.19
403.526	569.19
403.75	568.19
403.974	586.19
404.198	565.19
404.422	583.19
404.645	568.19
404.869	576.19
405.093	611.19
405.317	658.19
405.541	678.19
405.765	628.19
405.988	574.19
406.212	607.19
406.436	630.19
406.66	625.19
406.883	591.19
407.107	644.19
407.331	675.19
407.555	750.19
407.778	729.19
408.002	658.19
408.226	629.19
408.449	617.19
408.673	595.19
408.896	627.19
409.12	682.19
409.344	658.19
409.567	610.19
409.791	580.19
410.014	572.19
410.238	543.19
410.461	540.19
410.685	558.19
410.908	571.19
411.132	601.19
411.355	618.19
411.578	605.19
411.802	554.19
412.025	556.19
412.249	585.19
412.472	594.19
412.695	622.19
412.919	581.19
413.142	569.19
413.365	538.19
413.589	527.19
413.812	565.19
414.035	515.19
414.258	528.19
414.482	514.19
414.705	514.19
414.928	533.19
415.151	514.19
415.374	524.19
415.597	527.19
415.821	518.19
416.044	519.19
416.267	504.19
416.49	521.19
416.713	525.19
416.936	501.19
417.159	525.19
417.382	515.19
417.605	526.19
417.828	566.19
418.051	550.19
418.274	550.19
418.497	536.19
418.72	515.19
418.943	512.19
419.166	541.19
419.389	572.19
419.611	551.19
419.834	534.19
420.057	555.19
420.28	566.19
420.503	536.19
420.726	528.19
420.948	537.19
421.171	585.19
421.394	622.19
421.617	557.19
421.839	536.19
422.062	515.19
422.285	533.19
422.507	605.19
422.73	681.19
422.953	653.19
423.175	576.19
423.398	571.19
423.621	574.19
423.843	586.19
424.066	572.19
424.288	573.19
424.511	599.19
424.733	638.19
424.956	690.19
425.178	672.19
425.401	690.19
425.623	688.19
425.846	613.19
426.068	562.19
426.291	565.19
426.513	578.19
426.735	568.19
426.958	589.19
427.18	666.19
427.402	790.19
427.625	866.19
427.847	781.19
428.069	653.19
428.292	588.19
428.514	559.19
428.736	538.19
428.958	516.19
429.181	514.19
429.403	497.19
429.625	528.19
429.847	539.19
430.069	627.19
430.292	610.19
430.514	512.19
430.736	510.19
430.958	511.19
431.18	498.19
431.402	493.19
431.624	485.19
431.846	490.19
432.068	489.19
432.29	488.19
432.512	504.19
432.734	497.19
432.956	518.19
433.178	498.19
433.4	493.19
433.622	500.19
433.844	510.19
434.066	485.19
434.287	489.19
434.509	499.19
434.731	545.19
434.953	532.19
435.175	553.19
435.397	537.19
435.618	552.19
435.84	577.19
436.062	675.19
436.284	723.19
436.505	602.19
436.727	547.19
436.949	524.19
437.17	513.19
437.392	520.19
437.614	508.19
437.835	542.19
438.057	637.19
438.278	721.19
438.5	724.19
438.721	779.19
438.943	762.19
439.165	596.19
439.386	548.19
439.608	568.19
439.829	546.19
440.05	586.19
440.272	635.19
440.493	568.19
440.715	560.19
440.936	523.19
441.158	539.19
441.379	523.19
441.6	544.19
441.822	566.19
442.043	592.19
442.264	685.19
442.486	733.19
442.707	593.19
442.928	562.19
443.149	589.19
443.371	613.19
443.592	622.19
443.813	718.19
444.034	773.19
444.255	646.19
444.476	633.19
444.698	598.19
444.919	582.19
445.14	718.19
445.361	657.19
445.582	621.19
445.803	669.19
446.024	718.19
446.245	747.19
446.466	672.19
446.687	600.19
446.908	547.19
447.129	551.19
447.35	506.19
447.571	492.19
447.792	500.19
448.013	513.19
448.234	551.19
448.455	563.19
448.675	676.19
448.896	757.19
449.117	658.19
449.338	624.19
449.559	728.19
449.779	806.19
450	637.19
450.221	545.19
450.442	512.19
450.662	496.19
450.883	492.19
451.104	522.19
451.324	520.19
451.545	497.19
451.766	466.19
451.986	452.19
452.207	461.19
452.428	466.19
452.648	476.19
452.869	461.19
453.089	456.19
453.31	454.19
453.53	445.19
453.751	464.19
453.971	455.19
454.192	463.19
454.412	465.19
454.633	436.19
454.853	432.19
455.073	446.19
455.294	490.19
455.514	538.19
455.734	530.19
455.955	448.19
456.175	443.19
456.395	428.19
456.616	438.19
456.836	425.19
457.056	433.19
457.276	432.19
457.497	441.19
457.717	444.19
457.937	437.19
458.157	469.19
458.377	427.19
458.598	463.19
458.818	522.19
459.038	624.19
459.258	578.19
459.478	543.19
459.698	524.19
459.918	483.19
460.138	503.19
460.358	530.19
460.578	539.19
460.798	524.19
461.018	522.19
461.238	525.19
461.458	539.19
461.678	516.19
461.898	538.19
462.118	531.19
462.338	564.19
462.558	580.19
462.777	557.19
462.997	590.19
463.217	601.19
463.437	616.19
463.657	584.19
463.876	562.19
464.096	587.19
464.316	565.19
464.536	592.19
464.755	580.19
464.975	571.19
465.195	562.19
465.414	636.19
465.634	557.19
465.854	530.19
466.073	504.19
466.293	486.19
466.512	489.19
466.732	482.19
466.951	508.19
467.171	492.19
467.391	473.19
467.61	508.19
467.829	515.19
468.049	478.19
468.268	487.19
468.488	478.19
468.707	468.19
468.927	460.19
469.146	455.19
469.365	455.19
469.585	465.19
469.804	473.19
470.023	497.19
470.243	489.19
470.462	487.19
470.681	481.19
470.901	527.19
471.12	485.19
471.339	497.19
471.558	502.19
471.777	501.19
471.997	469.19
472.216	477.19
472.435	510.19
472.654	492.19
472.873	483.19
473.092	457.19
473.311	466.19
473.53	498.19
473.749	477.19
473.968	508.19
474.187	599.19
474.406	624.19
474.625	531.19
474.844	483.19
475.063	472.19
475.282	493.19
475.501	486.19
475.72	492.19
475.939	488.19
476.158	508.19
476.377	506.19
476.596	498.19
476.814	489.19
477.033	497.19
477.252	505.19
477.471	507.19
477.69	515.19
477.908	515.19
478.127	519.19
478.346	541.19
478.564	532.19
478.783	523.19
479.002	553.19
479.22	545.19
479.439	569.19
479.658	564.19
479.876	585.19
480.095	580.19
480.313	611.19
480.532	621.19
480.751	592.19
480.969	611.19
481.188	640.19
481.406	651.19
481.624	607.19
481.843	553.19
482.061	588.19
482.28	580.19
482.498	547.19
482.717	540.19
482.935	562.19
483.153	541.19
483.372	506.19
483.59	586.19
483.808	555.19
484.027	566.19
484.245	564.19
484.463	566.19
484.681	588.19
484.9	581.19
485.118	577.19
485.336	560.19
485.554	571.19
485.772	578.19
485.99	578.19
486.209	583.19
486.427	584.19
486.645	598.19
486.863	594.19
487.081	564.19
487.299	600.19
487.517	588.19
487.735	576.19
487.953	599.19
488.171	567.19
488.389	596.19
488.607	584.19
488.825	598.19
489.043	630.19
489.261	606.19
489.479	596.19
489.696	591.19
489.914	596.19
490.132	608.19
490.35	622.19
490.568	635.19
490.786	630.19
491.003	624.19
491.221	650.19
491.439	668.19
491.657	646.19
491.874	680.19
492.092	668.19
492.31	681.19
492.527	666.19
492.745	677.19
492.963	679.19
493.18	685.19
493.398	689.19
493.615	698.19
493.833	689.19
494.05	693.19
494.268	707.19
494.485	685.19
494.703	681.19
494.92	697.19
495.138	690.19
495.355	701.19
495.573	685.19
495.79	698.19
496.008	712.19
496.225	693.19
496.442	701.19
496.66	733.19
496.877	715.19
497.094	715.19
497.312	729.19
497.529	718.19
497.746	746.19
497.963	762.19
498.181	752.19
498.398	786.19
498.615	827.19
498.832	832.19
499.049	852.19
499.267	893.19
499.484	887.19
499.701	997.19
499.918	1018.19
500.135	1103.19
500.352	1172.19
500.569	1192.19
500.786	1194.19
501.003	1175.19
501.22	1106.19
501.437	1047.19
501.654	974.19
501.871	988.19
