Data from 1985.PennyLincolnUp.Lamp.En5.5.200Scan.071819.P1_HRD10591_17-01-28-969.txt Node
Date: Thu Jul 18 17:01:28 EDT 2019
User: cochatt
Spectrometer: HR+D1059
Trigger mode: 1
Integration Time (sec): 1.000000E-1
Scans to average: 1
Electric dark correction enabled: true
Nonlinearity correction enabled: false
Boxcar width: 0
XAxis mode: Wavelengths
Number of Pixels in Spectrum: 2048
>>>>>Begin Spectral Data<<<<<
223.165	-7.81
223.4	-7.81
223.635	-7.81
223.869	-14.81
224.104	-11.81
224.338	-22.81
224.573	-17.81
224.808	-13.81
225.042	2.19
225.277	-3.81
225.511	9.19
225.746	8.19
225.98	16.19
226.215	-8.81
226.449	7.19
226.683	11.19
226.918	24.19
227.152	23.19
227.387	28.19
227.621	36.19
227.856	41.19
228.09	55.19
228.324	64.19
228.559	53.19
228.793	82.19
229.027	76.19
229.262	72.19
229.496	96.19
229.73	108.19
229.964	138.19
230.199	123.19
230.433	114.19
230.667	99.19
230.901	96.19
231.136	115.19
231.37	121.19
231.604	107.19
231.838	113.19
232.072	89.19
232.306	115.19
232.541	114.19
232.775	99.19
233.009	113.19
233.243	113.19
233.477	104.19
233.711	112.19
233.945	107.19
234.179	122.19
234.413	110.19
234.647	111.19
234.881	106.19
235.115	118.19
235.349	124.19
235.583	103.19
235.817	94.19
236.051	106.19
236.285	106.19
236.519	111.19
236.753	123.19
236.987	127.19
237.221	182.19
237.455	204.19
237.689	163.19
237.922	138.19
238.156	130.19
238.39	120.19
238.624	124.19
238.858	95.19
239.091	121.19
239.325	132.19
239.559	106.19
239.793	120.19
240.027	129.19
240.26	124.19
240.494	146.19
240.728	145.19
240.961	129.19
241.195	127.19
241.429	135.19
241.662	135.19
241.896	129.19
242.13	125.19
242.363	139.19
242.597	127.19
242.83	127.19
243.064	135.19
243.298	126.19
243.531	127.19
243.765	132.19
243.998	133.19
244.232	138.19
244.465	135.19
244.699	134.19
244.932	153.19
245.166	138.19
245.399	136.19
245.633	130.19
245.866	136.19
246.099	137.19
246.333	136.19
246.566	127.19
246.8	148.19
247.033	148.19
247.266	144.19
247.5	161.19
247.733	152.19
247.966	178.19
248.2	155.19
248.433	154.19
248.666	162.19
248.899	169.19
249.133	180.19
249.366	195.19
249.599	172.19
249.832	169.19
250.066	144.19
250.299	160.19
250.532	175.19
250.765	168.19
250.998	181.19
251.231	208.19
251.465	194.19
251.698	188.19
251.931	178.19
252.164	160.19
252.397	195.19
252.63	174.19
252.863	186.19
253.096	184.19
253.329	199.19
253.562	202.19
253.795	187.19
254.028	196.19
254.261	193.19
254.494	198.19
254.727	218.19
254.96	230.19
255.193	227.19
255.426	206.19
255.659	199.19
255.892	191.19
256.124	203.19
256.357	215.19
256.59	197.19
256.823	186.19
257.056	169.19
257.289	198.19
257.521	207.19
257.754	198.19
257.987	181.19
258.22	181.19
258.452	184.19
258.685	190.19
258.918	193.19
259.151	204.19
259.383	215.19
259.616	205.19
259.849	215.19
260.081	206.19
260.314	227.19
260.547	234.19
260.779	235.19
261.012	217.19
261.244	220.19
261.477	217.19
261.71	212.19
261.942	195.19
262.175	219.19
262.407	216.19
262.64	202.19
262.872	193.19
263.105	202.19
263.337	196.19
263.57	199.19
263.802	201.19
264.035	208.19
264.267	200.19
264.499	208.19
264.732	203.19
264.964	210.19
265.197	212.19
265.429	219.19
265.661	208.19
265.894	228.19
266.126	206.19
266.358	215.19
266.591	196.19
266.823	229.19
267.055	222.19
267.287	227.19
267.52	231.19
267.752	230.19
267.984	222.19
268.216	221.19
268.448	235.19
268.681	242.19
268.913	246.19
269.145	248.19
269.377	260.19
269.609	259.19
269.841	229.19
270.073	248.19
270.306	278.19
270.538	290.19
270.77	283.19
271.002	265.19
271.234	277.19
271.466	274.19
271.698	282.19
271.93	289.19
272.162	315.19
272.394	286.19
272.626	276.19
272.858	262.19
273.09	247.19
273.322	254.19
273.553	231.19
273.785	242.19
274.017	267.19
274.249	268.19
274.481	259.19
274.713	274.19
274.945	254.19
275.176	268.19
275.408	274.19
275.64	256.19
275.872	270.19
276.104	261.19
276.335	274.19
276.567	266.19
276.799	273.19
277.031	292.19
277.262	284.19
277.494	291.19
277.726	283.19
277.957	282.19
278.189	273.19
278.421	260.19
278.652	270.19
278.884	271.19
279.115	279.19
279.347	260.19
279.579	268.19
279.81	270.19
280.042	266.19
280.273	261.19
280.505	257.19
280.736	270.19
280.968	269.19
281.199	273.19
281.431	282.19
281.662	261.19
281.894	270.19
282.125	293.19
282.356	284.19
282.588	309.19
282.819	314.19
283.051	285.19
283.282	268.19
283.513	276.19
283.745	278.19
283.976	268.19
284.207	272.19
284.439	276.19
284.67	272.19
284.901	274.19
285.132	272.19
285.364	281.19
285.595	295.19
285.826	290.19
286.057	281.19
286.288	277.19
286.52	290.19
286.751	290.19
286.982	288.19
287.213	282.19
287.444	315.19
287.675	310.19
287.906	309.19
288.138	303.19
288.369	305.19
288.6	311.19
288.831	295.19
289.062	299.19
289.293	280.19
289.524	304.19
289.755	288.19
289.986	306.19
290.217	282.19
290.448	296.19
290.679	302.19
290.91	327.19
291.141	294.19
291.371	278.19
291.602	290.19
291.833	290.19
292.064	294.19
292.295	290.19
292.526	284.19
292.757	308.19
292.987	302.19
293.218	278.19
293.449	303.19
293.68	291.19
293.91	310.19
294.141	298.19
294.372	277.19
294.603	308.19
294.833	302.19
295.064	298.19
295.295	290.19
295.525	275.19
295.756	311.19
295.987	306.19
296.217	332.19
296.448	327.19
296.679	335.19
296.909	315.19
297.14	315.19
297.37	306.19
297.601	306.19
297.831	323.19
298.062	320.19
298.292	309.19
298.523	312.19
298.753	321.19
298.984	323.19
299.214	318.19
299.445	329.19
299.675	314.19
299.905	336.19
300.136	328.19
300.366	330.19
300.597	332.19
300.827	334.19
301.057	340.19
301.288	340.19
301.518	346.19
301.748	353.19
301.979	351.19
302.209	335.19
302.439	331.19
302.669	332.19
302.9	336.19
303.13	328.19
303.36	331.19
303.59	341.19
303.82	354.19
304.051	355.19
304.281	338.19
304.511	339.19
304.741	338.19
304.971	330.19
305.201	340.19
305.431	343.19
305.661	336.19
305.891	332.19
306.121	328.19
306.352	348.19
306.582	371.19
306.812	334.19
307.042	346.19
307.272	338.19
307.502	343.19
307.731	356.19
307.961	343.19
308.191	332.19
308.421	337.19
308.651	335.19
308.881	342.19
309.111	354.19
309.341	362.19
309.571	350.19
309.8	374.19
310.03	358.19
310.26	353.19
310.49	367.19
310.72	374.19
310.949	385.19
311.179	378.19
311.409	367.19
311.639	362.19
311.868	370.19
312.098	370.19
312.328	376.19
312.557	394.19
312.787	395.19
313.017	394.19
313.246	382.19
313.476	382.19
313.706	365.19
313.935	392.19
314.165	370.19
314.394	393.19
314.624	404.19
314.853	396.19
315.083	392.19
315.312	376.19
315.542	384.19
315.771	380.19
316.001	384.19
316.23	358.19
316.46	369.19
316.689	363.19
316.919	374.19
317.148	394.19
317.377	385.19
317.607	386.19
317.836	387.19
318.065	383.19
318.295	411.19
318.524	378.19
318.753	378.19
318.983	373.19
319.212	372.19
319.441	384.19
319.67	386.19
319.9	373.19
320.129	395.19
320.358	387.19
320.587	401.19
320.816	395.19
321.046	380.19
321.275	403.19
321.504	405.19
321.733	403.19
321.962	393.19
322.191	414.19
322.42	432.19
322.649	438.19
322.878	417.19
323.108	416.19
323.337	427.19
323.566	456.19
323.795	463.19
324.024	484.19
324.253	579.19
324.482	777.19
324.71	1099.19
324.939	1514.19
325.168	1328.19
325.397	735.19
325.626	536.19
325.855	470.19
326.084	464.19
326.313	456.19
326.542	459.19
326.77	474.19
326.999	553.19
327.228	705.19
327.457	1020.19
327.686	1204.19
327.914	822.19
328.143	558.19
328.372	532.19
328.6	508.19
328.829	502.19
329.058	514.19
329.287	522.19
329.515	495.19
329.744	469.19
329.972	461.19
330.201	460.19
330.43	471.19
330.658	486.19
330.887	543.19
331.115	539.19
331.344	470.19
331.572	478.19
331.801	485.19
332.03	459.19
332.258	462.19
332.486	463.19
332.715	456.19
332.943	471.19
333.172	450.19
333.4	477.19
333.629	479.19
333.857	473.19
334.085	502.19
334.314	477.19
334.542	468.19
334.771	484.19
334.999	450.19
335.227	471.19
335.455	480.19
335.684	462.19
335.912	455.19
336.14	470.19
336.369	464.19
336.597	475.19
336.825	473.19
337.053	464.19
337.281	470.19
337.51	457.19
337.738	449.19
337.966	437.19
338.194	468.19
338.422	448.19
338.65	443.19
338.878	447.19
339.106	453.19
339.334	454.19
339.562	424.19
339.79	431.19
340.018	438.19
340.246	438.19
340.474	446.19
340.702	448.19
340.93	432.19
341.158	397.19
341.386	434.19
341.614	431.19
341.842	432.19
342.07	447.19
342.298	438.19
342.526	442.19
342.754	427.19
342.981	439.19
343.209	435.19
343.437	424.19
343.665	440.19
343.893	456.19
344.12	478.19
344.348	449.19
344.576	449.19
344.804	442.19
345.031	442.19
345.259	459.19
345.487	441.19
345.714	449.19
345.942	421.19
346.17	414.19
346.397	412.19
346.625	402.19
346.853	412.19
347.08	405.19
347.308	432.19
347.535	392.19
347.763	426.19
347.99	402.19
348.218	415.19
348.445	402.19
348.673	400.19
348.9	419.19
349.128	402.19
349.355	395.19
349.583	399.19
349.81	397.19
350.037	411.19
350.265	396.19
350.492	397.19
350.72	394.19
350.947	409.19
351.174	418.19
351.402	425.19
351.629	410.19
351.856	400.19
352.083	400.19
352.311	420.19
352.538	413.19
352.765	412.19
352.992	399.19
353.22	403.19
353.447	408.19
353.674	395.19
353.901	412.19
354.128	394.19
354.355	387.19
354.583	386.19
354.81	375.19
355.037	390.19
355.264	387.19
355.491	375.19
355.718	382.19
355.945	379.19
356.172	387.19
356.399	394.19
356.626	391.19
356.853	382.19
357.08	412.19
357.307	385.19
357.534	389.19
357.761	384.19
357.988	404.19
358.215	396.19
358.441	395.19
358.668	402.19
358.895	374.19
359.122	401.19
359.349	409.19
359.576	410.19
359.802	402.19
360.029	430.19
360.256	440.19
360.483	419.19
360.709	426.19
360.936	411.19
361.163	400.19
361.39	396.19
361.616	411.19
361.843	411.19
362.07	408.19
362.296	394.19
362.523	380.19
362.749	400.19
362.976	403.19
363.203	383.19
363.429	389.19
363.656	394.19
363.882	402.19
364.109	388.19
364.335	384.19
364.562	394.19
364.788	376.19
365.015	380.19
365.241	387.19
365.468	406.19
365.694	396.19
365.92	419.19
366.147	393.19
366.373	393.19
366.599	412.19
366.826	377.19
367.052	382.19
367.278	377.19
367.505	392.19
367.731	387.19
367.957	396.19
368.184	375.19
368.41	384.19
368.636	412.19
368.862	417.19
369.089	389.19
369.315	370.19
369.541	402.19
369.767	383.19
369.993	400.19
370.219	394.19
370.445	407.19
370.672	405.19
370.898	389.19
371.124	393.19
371.35	385.19
371.576	404.19
371.802	404.19
372.028	407.19
372.254	403.19
372.48	407.19
372.706	398.19
372.932	397.19
373.158	394.19
373.384	404.19
373.61	406.19
373.835	398.19
374.061	394.19
374.287	410.19
374.513	402.19
374.739	409.19
374.965	412.19
375.191	422.19
375.416	391.19
375.642	391.19
375.868	394.19
376.094	402.19
376.319	409.19
376.545	386.19
376.771	388.19
376.997	377.19
377.222	402.19
377.448	397.19
377.674	403.19
377.899	386.19
378.125	388.19
378.35	387.19
378.576	372.19
378.802	381.19
379.027	398.19
379.253	421.19
379.478	395.19
379.704	387.19
379.929	399.19
380.155	397.19
380.38	395.19
380.606	388.19
380.831	401.19
381.057	406.19
381.282	376.19
381.507	400.19
381.733	414.19
381.958	408.19
382.184	402.19
382.409	403.19
382.634	412.19
382.86	396.19
383.085	433.19
383.31	404.19
383.535	409.19
383.761	406.19
383.986	412.19
384.211	425.19
384.436	434.19
384.662	414.19
384.887	463.19
385.112	454.19
385.337	435.19
385.562	433.19
385.787	442.19
386.013	462.19
386.238	435.19
386.463	452.19
386.688	450.19
386.913	443.19
387.138	448.19
387.363	453.19
387.588	427.19
387.813	434.19
388.038	444.19
388.263	463.19
388.488	439.19
388.713	431.19
388.938	441.19
389.163	432.19
389.387	436.19
389.612	448.19
389.837	449.19
390.062	422.19
390.287	428.19
390.512	422.19
390.736	433.19
390.961	430.19
391.186	461.19
391.411	469.19
391.636	449.19
391.86	456.19
392.085	460.19
392.31	485.19
392.534	476.19
392.759	465.19
392.984	455.19
393.208	460.19
393.433	427.19
393.658	466.19
393.882	441.19
394.107	441.19
394.331	450.19
394.556	441.19
394.78	459.19
395.005	452.19
395.229	457.19
395.454	465.19
395.678	458.19
395.903	484.19
396.127	489.19
396.352	487.19
396.576	443.19
396.801	451.19
397.025	454.19
397.249	476.19
397.474	478.19
397.698	480.19
397.922	499.19
398.147	516.19
398.371	519.19
398.595	487.19
398.82	486.19
399.044	543.19
399.268	572.19
399.492	605.19
399.717	629.19
399.941	635.19
400.165	665.19
400.389	624.19
400.613	583.19
400.837	547.19
401.062	514.19
401.286	511.19
401.51	509.19
401.734	495.19
401.958	507.19
402.182	513.19
402.406	528.19
402.63	531.19
402.854	519.19
403.078	534.19
403.302	547.19
403.526	543.19
403.75	543.19
403.974	555.19
404.198	553.19
404.422	543.19
404.645	551.19
404.869	561.19
405.093	538.19
405.317	566.19
405.541	573.19
405.765	564.19
405.988	538.19
406.212	564.19
406.436	575.19
406.66	583.19
406.883	563.19
407.107	613.19
407.331	640.19
407.555	676.19
407.778	692.19
408.002	654.19
408.226	605.19
408.449	571.19
408.673	568.19
408.896	591.19
409.12	614.19
409.344	586.19
409.567	541.19
409.791	556.19
410.014	543.19
410.238	517.19
410.461	522.19
410.685	532.19
410.908	537.19
411.132	568.19
411.355	583.19
411.578	567.19
411.802	534.19
412.025	525.19
412.249	528.19
412.472	521.19
412.695	514.19
412.919	513.19
413.142	516.19
413.365	495.19
413.589	488.19
413.812	518.19
414.035	515.19
414.258	498.19
414.482	487.19
414.705	487.19
414.928	495.19
415.151	483.19
415.374	485.19
415.597	487.19
415.821	483.19
416.044	490.19
416.267	501.19
416.49	482.19
416.713	477.19
416.936	470.19
417.159	484.19
417.382	478.19
417.605	498.19
417.828	498.19
418.051	511.19
418.274	525.19
418.497	486.19
418.72	516.19
418.943	475.19
419.166	506.19
419.389	515.19
419.611	525.19
419.834	528.19
420.057	519.19
420.28	514.19
420.503	511.19
420.726	510.19
420.948	527.19
421.171	568.19
421.394	577.19
421.617	533.19
421.839	515.19
422.062	490.19
422.285	521.19
422.507	582.19
422.73	618.19
422.953	602.19
423.175	532.19
423.398	535.19
423.621	536.19
423.843	531.19
424.066	569.19
424.288	544.19
424.511	577.19
424.733	576.19
424.956	652.19
425.178	648.19
425.401	641.19
425.623	638.19
425.846	562.19
426.068	511.19
426.291	518.19
426.513	515.19
426.735	531.19
426.958	555.19
427.18	659.19
427.402	759.19
427.625	800.19
427.847	663.19
428.069	573.19
428.292	535.19
428.514	506.19
428.736	488.19
428.958	485.19
429.181	486.19
429.403	475.19
429.625	492.19
429.847	508.19
430.069	568.19
430.292	560.19
430.514	528.19
430.736	486.19
430.958	456.19
431.18	460.19
431.402	475.19
431.624	480.19
431.846	455.19
432.068	462.19
432.29	481.19
432.512	451.19
432.734	473.19
432.956	459.19
433.178	450.19
433.4	481.19
433.622	479.19
433.844	462.19
434.066	455.19
434.287	455.19
434.509	477.19
434.731	481.19
434.953	503.19
435.175	516.19
435.397	511.19
435.618	520.19
435.84	558.19
436.062	644.19
436.284	668.19
436.505	585.19
436.727	542.19
436.949	502.19
437.17	474.19
437.392	478.19
437.614	484.19
437.835	526.19
438.057	592.19
438.278	656.19
438.5	661.19
438.721	741.19
438.943	698.19
439.165	568.19
439.386	521.19
439.608	510.19
439.829	522.19
440.05	523.19
440.272	578.19
440.493	544.19
440.715	498.19
440.936	485.19
441.158	470.19
441.379	475.19
441.6	514.19
441.822	518.19
442.043	586.19
442.264	628.19
442.486	640.19
442.707	557.19
442.928	536.19
443.149	562.19
443.371	570.19
443.592	597.19
443.813	677.19
444.034	697.19
444.255	615.19
444.476	587.19
444.698	559.19
444.919	543.19
445.14	702.19
445.361	609.19
445.582	566.19
445.803	626.19
446.024	671.19
446.245	692.19
446.466	633.19
446.687	553.19
446.908	516.19
447.129	501.19
447.35	472.19
447.571	467.19
447.792	456.19
448.013	468.19
448.234	508.19
448.455	518.19
448.675	631.19
448.896	714.19
449.117	630.19
449.338	577.19
449.559	674.19
449.779	734.19
450	581.19
450.221	521.19
450.442	476.19
450.662	466.19
450.883	443.19
451.104	481.19
451.324	445.19
451.545	422.19
451.766	436.19
451.986	432.19
452.207	428.19
452.428	431.19
452.648	454.19
452.869	438.19
453.089	441.19
453.31	472.19
453.53	450.19
453.751	437.19
453.971	434.19
454.192	444.19
454.412	431.19
454.633	418.19
454.853	432.19
455.073	420.19
455.294	444.19
455.514	494.19
455.734	496.19
455.955	409.19
456.175	414.19
456.395	408.19
456.616	410.19
456.836	410.19
457.056	407.19
457.276	410.19
457.497	415.19
457.717	414.19
457.937	411.19
458.157	406.19
458.377	417.19
458.598	456.19
458.818	473.19
459.038	545.19
459.258	542.19
459.478	504.19
459.698	478.19
459.918	478.19
460.138	472.19
460.358	486.19
460.578	509.19
460.798	514.19
461.018	507.19
461.238	508.19
461.458	503.19
461.678	513.19
461.898	514.19
462.118	516.19
462.338	534.19
462.558	528.19
462.777	541.19
462.997	571.19
463.217	597.19
463.437	592.19
463.657	550.19
463.876	554.19
464.096	545.19
464.316	558.19
464.536	554.19
464.755	536.19
464.975	546.19
465.195	532.19
465.414	593.19
465.634	530.19
465.854	479.19
466.073	494.19
466.293	450.19
466.512	445.19
466.732	434.19
466.951	459.19
467.171	453.19
467.391	468.19
467.61	437.19
467.829	434.19
468.049	439.19
468.268	450.19
468.488	445.19
468.707	448.19
468.927	437.19
469.146	436.19
469.365	420.19
469.585	457.19
469.804	440.19
470.023	456.19
470.243	474.19
470.462	462.19
470.681	474.19
470.901	481.19
471.12	468.19
471.339	437.19
471.558	458.19
471.777	458.19
471.997	451.19
472.216	440.19
472.435	443.19
472.654	442.19
472.873	438.19
473.092	444.19
473.311	446.19
473.53	460.19
473.749	456.19
473.968	466.19
474.187	574.19
474.406	578.19
474.625	498.19
474.844	454.19
475.063	464.19
475.282	451.19
475.501	444.19
475.72	460.19
475.939	449.19
476.158	462.19
476.377	443.19
476.596	452.19
476.814	442.19
477.033	467.19
477.252	477.19
477.471	496.19
477.69	472.19
477.908	489.19
478.127	511.19
478.346	498.19
478.564	521.19
478.783	511.19
479.002	535.19
479.22	524.19
479.439	516.19
479.658	544.19
479.876	540.19
480.095	537.19
480.313	583.19
480.532	577.19
480.751	552.19
480.969	559.19
481.188	537.19
481.406	532.19
481.624	521.19
481.843	529.19
482.061	525.19
482.28	536.19
482.498	507.19
482.717	524.19
482.935	524.19
483.153	524.19
483.372	504.19
483.59	500.19
483.808	528.19
484.027	523.19
484.245	526.19
484.463	522.19
484.681	534.19
484.9	544.19
485.118	514.19
485.336	532.19
485.554	544.19
485.772	551.19
485.99	542.19
486.209	546.19
486.427	544.19
486.645	568.19
486.863	553.19
487.081	563.19
487.299	538.19
487.517	553.19
487.735	546.19
487.953	552.19
488.171	571.19
488.389	547.19
488.607	558.19
488.825	540.19
489.043	552.19
489.261	563.19
489.479	540.19
489.696	582.19
489.914	576.19
490.132	577.19
490.35	565.19
490.568	574.19
490.786	570.19
491.003	599.19
491.221	615.19
491.439	599.19
491.657	601.19
491.874	632.19
492.092	624.19
492.31	613.19
492.527	640.19
492.745	618.19
492.963	620.19
493.18	635.19
493.398	625.19
493.615	617.19
493.833	646.19
494.05	658.19
494.268	655.19
494.485	636.19
494.703	636.19
494.92	635.19
495.138	648.19
495.355	657.19
495.573	610.19
495.79	640.19
496.008	644.19
496.225	653.19
496.442	661.19
496.66	648.19
496.877	659.19
497.094	655.19
497.312	683.19
497.529	693.19
497.746	682.19
497.963	700.19
498.181	723.19
498.398	721.19
498.615	745.19
498.832	793.19
499.049	803.19
499.267	847.19
499.484	898.19
499.701	938.19
499.918	996.19
500.135	1095.19
500.352	1143.19
500.569	1183.19
500.786	1134.19
501.003	1103.19
501.22	1034.19
501.437	978.19
501.654	971.19
501.871	902.19
502.088	870.19
