Data from 1985.PennyLincolnUp.Lamp.En5.5.200Scan.071819.P1_HRD10591_17-03-53-970.txt Node
Date: Thu Jul 18 17:03:53 EDT 2019
User: cochatt
Spectrometer: HR+D1059
Trigger mode: 1
Integration Time (sec): 1.000000E-1
Scans to average: 1
Electric dark correction enabled: true
Nonlinearity correction enabled: false
Boxcar width: 0
XAxis mode: Wavelengths
Number of Pixels in Spectrum: 2048
>>>>>Begin Spectral Data<<<<<
223.165	-20.06
223.4	-20.06
223.635	-20.06
223.869	-14.06
224.104	-8.06
224.338	-14.06
224.573	-16.06
224.808	-14.06
225.042	-12.06
225.277	-3.06
225.511	3.94
225.746	-18.06
225.98	3.94
226.215	8.94
226.449	13.94
226.683	22.94
226.918	24.94
227.152	40.94
227.387	42.94
227.621	52.94
227.856	45.94
228.09	49.94
228.324	47.94
228.559	50.94
228.793	69.94
229.027	96.94
229.262	117.94
229.496	107.94
229.73	128.94
229.964	141.94
230.199	121.94
230.433	122.94
230.667	108.94
230.901	115.94
231.136	125.94
231.37	113.94
231.604	126.94
231.838	124.94
232.072	131.94
232.306	124.94
232.541	109.94
232.775	118.94
233.009	123.94
233.243	113.94
233.477	123.94
233.711	115.94
233.945	116.94
234.179	109.94
234.413	124.94
234.647	116.94
234.881	123.94
235.115	118.94
235.349	121.94
235.583	124.94
235.817	134.94
236.051	130.94
236.285	120.94
236.519	139.94
236.753	121.94
236.987	152.94
237.221	183.94
237.455	231.94
237.689	178.94
237.922	142.94
238.156	122.94
238.39	131.94
238.624	129.94
238.858	149.94
239.091	122.94
239.325	124.94
239.559	144.94
239.793	130.94
240.027	136.94
240.26	149.94
240.494	152.94
240.728	165.94
240.961	141.94
241.195	154.94
241.429	150.94
241.662	128.94
241.896	136.94
242.13	134.94
242.363	147.94
242.597	140.94
242.83	138.94
243.064	129.94
243.298	135.94
243.531	130.94
243.765	155.94
243.998	136.94
244.232	131.94
244.465	139.94
244.699	146.94
244.932	138.94
245.166	155.94
245.399	141.94
245.633	152.94
245.866	157.94
246.099	143.94
246.333	170.94
246.566	157.94
246.8	164.94
247.033	163.94
247.266	171.94
247.5	162.94
247.733	180.94
247.966	168.94
248.2	174.94
248.433	178.94
248.666	178.94
248.899	186.94
249.133	207.94
249.366	204.94
249.599	181.94
249.832	197.94
250.066	175.94
250.299	211.94
250.532	210.94
250.765	226.94
250.998	235.94
251.231	236.94
251.465	225.94
251.698	209.94
251.931	211.94
252.164	197.94
252.397	212.94
252.63	207.94
252.863	199.94
253.096	226.94
253.329	231.94
253.562	211.94
253.795	244.94
254.028	218.94
254.261	219.94
254.494	244.94
254.727	255.94
254.96	273.94
255.193	263.94
255.426	239.94
255.659	242.94
255.892	235.94
256.124	247.94
256.357	270.94
256.59	245.94
256.823	229.94
257.056	225.94
257.289	239.94
257.521	224.94
257.754	229.94
257.987	216.94
258.22	221.94
258.452	218.94
258.685	193.94
258.918	228.94
259.151	237.94
259.383	225.94
259.616	228.94
259.849	231.94
260.081	229.94
260.314	262.94
260.547	269.94
260.779	265.94
261.012	224.94
261.244	248.94
261.477	253.94
261.71	250.94
261.942	240.94
262.175	235.94
262.407	239.94
262.64	230.94
262.872	221.94
263.105	228.94
263.337	249.94
263.57	226.94
263.802	236.94
264.035	229.94
264.267	236.94
264.499	221.94
264.732	216.94
264.964	217.94
265.197	217.94
265.429	241.94
265.661	232.94
265.894	222.94
266.126	240.94
266.358	231.94
266.591	248.94
266.823	239.94
267.055	264.94
267.287	246.94
267.52	259.94
267.752	235.94
267.984	245.94
268.216	243.94
268.448	258.94
268.681	285.94
268.913	271.94
269.145	281.94
269.377	310.94
269.609	272.94
269.841	292.94
270.073	277.94
270.306	301.94
270.538	323.94
270.77	336.94
271.002	313.94
271.234	299.94
271.466	310.94
271.698	322.94
271.93	345.94
272.162	352.94
272.394	320.94
272.626	322.94
272.858	310.94
273.09	305.94
273.322	297.94
273.553	300.94
273.785	289.94
274.017	273.94
274.249	289.94
274.481	293.94
274.713	290.94
274.945	306.94
275.176	287.94
275.408	304.94
275.64	283.94
275.872	298.94
276.104	302.94
276.335	289.94
276.567	305.94
276.799	316.94
277.031	334.94
277.262	342.94
277.494	344.94
277.726	329.94
277.957	306.94
278.189	322.94
278.421	310.94
278.652	309.94
278.884	291.94
279.115	280.94
279.347	284.94
279.579	291.94
279.81	297.94
280.042	298.94
280.273	293.94
280.505	293.94
280.736	309.94
280.968	312.94
281.199	306.94
281.431	312.94
281.662	300.94
281.894	311.94
282.125	297.94
282.356	310.94
282.588	348.94
282.819	321.94
283.051	300.94
283.282	303.94
283.513	315.94
283.745	318.94
283.976	311.94
284.207	322.94
284.439	316.94
284.67	308.94
284.901	321.94
285.132	318.94
285.364	307.94
285.595	306.94
285.826	327.94
286.057	324.94
286.288	305.94
286.52	333.94
286.751	326.94
286.982	309.94
287.213	329.94
287.444	312.94
287.675	321.94
287.906	329.94
288.138	331.94
288.369	342.94
288.6	348.94
288.831	340.94
289.062	349.94
289.293	321.94
289.524	327.94
289.755	314.94
289.986	331.94
290.217	320.94
290.448	338.94
290.679	349.94
290.91	326.94
291.141	347.94
291.371	315.94
291.602	332.94
291.833	341.94
292.064	342.94
292.295	342.94
292.526	344.94
292.757	335.94
292.987	357.94
293.218	326.94
293.449	348.94
293.68	322.94
293.91	328.94
294.141	310.94
294.372	330.94
294.603	345.94
294.833	336.94
295.064	349.94
295.295	339.94
295.525	326.94
295.756	347.94
295.987	345.94
296.217	362.94
296.448	365.94
296.679	359.94
296.909	337.94
297.14	365.94
297.37	345.94
297.601	363.94
297.831	351.94
298.062	332.94
298.292	344.94
298.523	375.94
298.753	358.94
298.984	360.94
299.214	359.94
299.445	343.94
299.675	349.94
299.905	351.94
300.136	356.94
300.366	334.94
300.597	344.94
300.827	367.94
301.057	368.94
301.288	367.94
301.518	391.94
301.748	374.94
301.979	368.94
302.209	374.94
302.439	394.94
302.669	388.94
302.9	386.94
303.13	369.94
303.36	378.94
303.59	385.94
303.82	389.94
304.051	395.94
304.281	397.94
304.511	362.94
304.741	379.94
304.971	380.94
305.201	384.94
305.431	382.94
305.661	386.94
305.891	361.94
306.121	386.94
306.352	384.94
306.582	397.94
306.812	396.94
307.042	366.94
307.272	379.94
307.502	394.94
307.731	385.94
307.961	382.94
308.191	373.94
308.421	392.94
308.651	381.94
308.881	383.94
309.111	408.94
309.341	408.94
309.571	409.94
309.8	424.94
310.03	401.94
310.26	421.94
310.49	428.94
310.72	414.94
310.949	455.94
311.179	444.94
311.409	426.94
311.639	411.94
311.868	424.94
312.098	420.94
312.328	437.94
312.557	430.94
312.787	450.94
313.017	439.94
313.246	441.94
313.476	422.94
313.706	450.94
313.935	425.94
314.165	448.94
314.394	453.94
314.624	440.94
314.853	438.94
315.083	425.94
315.312	430.94
315.542	420.94
315.771	417.94
316.001	417.94
316.23	420.94
316.46	433.94
316.689	429.94
316.919	428.94
317.148	428.94
317.377	440.94
317.607	439.94
317.836	428.94
318.065	425.94
318.295	423.94
318.524	429.94
318.753	434.94
318.983	432.94
319.212	437.94
319.441	448.94
319.67	454.94
319.9	420.94
320.129	432.94
320.358	431.94
320.587	417.94
320.816	441.94
321.046	441.94
321.275	461.94
321.504	458.94
321.733	458.94
321.962	439.94
322.191	465.94
322.42	467.94
322.649	488.94
322.878	488.94
323.108	504.94
323.337	542.94
323.566	542.94
323.795	565.94
324.024	617.94
324.253	698.94
324.482	986.94
324.71	1438.94
324.939	2052.94
325.168	1773.94
325.397	942.94
325.626	662.94
325.855	574.94
326.084	556.94
326.313	522.94
326.542	529.94
326.77	600.94
326.999	674.94
327.228	881.94
327.457	1333.94
327.686	1583.94
327.914	1088.94
328.143	724.94
328.372	654.94
328.6	622.94
328.829	590.94
329.058	599.94
329.287	615.94
329.515	573.94
329.744	558.94
329.972	579.94
330.201	590.94
330.43	626.94
330.658	628.94
330.887	650.94
331.115	621.94
331.344	593.94
331.572	548.94
331.801	537.94
332.03	580.94
332.258	551.94
332.486	524.94
332.715	522.94
332.943	536.94
333.172	546.94
333.4	552.94
333.629	550.94
333.857	569.94
334.085	591.94
334.314	585.94
334.542	641.94
334.771	661.94
334.999	587.94
335.227	566.94
335.455	538.94
335.684	522.94
335.912	525.94
336.14	514.94
336.369	503.94
336.597	528.94
336.825	525.94
337.053	521.94
337.281	514.94
337.51	480.94
337.738	514.94
337.966	545.94
338.194	496.94
338.422	511.94
338.65	507.94
338.878	486.94
339.106	475.94
339.334	504.94
339.562	473.94
339.79	490.94
340.018	481.94
340.246	487.94
340.474	502.94
340.702	472.94
340.93	478.94
341.158	487.94
341.386	491.94
341.614	503.94
341.842	494.94
342.07	464.94
342.298	472.94
342.526	454.94
342.754	486.94
342.981	484.94
343.209	477.94
343.437	475.94
343.665	484.94
343.893	518.94
344.12	533.94
344.348	508.94
344.576	495.94
344.804	506.94
345.031	500.94
345.259	497.94
345.487	494.94
345.714	453.94
345.942	463.94
346.17	478.94
346.397	458.94
346.625	460.94
346.853	468.94
347.08	452.94
347.308	447.94
347.535	469.94
347.763	466.94
347.99	479.94
348.218	465.94
348.445	478.94
348.673	446.94
348.9	448.94
349.128	452.94
349.355	450.94
349.583	439.94
349.81	429.94
350.037	446.94
350.265	431.94
350.492	450.94
350.72	448.94
350.947	458.94
351.174	446.94
351.402	445.94
351.629	461.94
351.856	475.94
352.083	477.94
352.311	485.94
352.538	463.94
352.765	484.94
352.992	462.94
353.22	457.94
353.447	443.94
353.674	466.94
353.901	436.94
354.128	421.94
354.355	436.94
354.583	420.94
354.81	429.94
355.037	437.94
355.264	443.94
355.491	434.94
355.718	432.94
355.945	439.94
356.172	426.94
356.399	429.94
356.626	426.94
356.853	422.94
357.08	425.94
357.307	438.94
357.534	427.94
357.761	452.94
357.988	452.94
358.215	416.94
358.441	404.94
358.668	418.94
358.895	436.94
359.122	430.94
359.349	436.94
359.576	453.94
359.802	462.94
360.029	476.94
360.256	502.94
360.483	494.94
360.709	445.94
360.936	458.94
361.163	457.94
361.39	441.94
361.616	446.94
361.843	445.94
362.07	453.94
362.296	441.94
362.523	429.94
362.749	431.94
362.976	464.94
363.203	439.94
363.429	430.94
363.656	456.94
363.882	420.94
364.109	450.94
364.335	439.94
364.562	439.94
364.788	429.94
365.015	441.94
365.241	425.94
365.468	438.94
365.694	463.94
365.92	436.94
366.147	421.94
366.373	425.94
366.599	456.94
366.826	427.94
367.052	413.94
367.278	430.94
367.505	446.94
367.731	437.94
367.957	414.94
368.184	421.94
368.41	441.94
368.636	440.94
368.862	429.94
369.089	440.94
369.315	418.94
369.541	433.94
369.767	444.94
369.993	423.94
370.219	429.94
370.445	446.94
370.672	438.94
370.898	426.94
371.124	430.94
371.35	443.94
371.576	415.94
371.802	451.94
372.028	430.94
372.254	416.94
372.48	416.94
372.706	438.94
372.932	464.94
373.158	465.94
373.384	442.94
373.61	431.94
373.835	443.94
374.061	445.94
374.287	444.94
374.513	453.94
374.739	428.94
374.965	441.94
375.191	435.94
375.416	470.94
375.642	440.94
375.868	459.94
376.094	454.94
376.319	449.94
376.545	445.94
376.771	426.94
376.997	429.94
377.222	436.94
377.448	420.94
377.674	410.94
377.899	425.94
378.125	439.94
378.35	431.94
378.576	430.94
378.802	423.94
379.027	425.94
379.253	415.94
379.478	426.94
379.704	437.94
379.929	445.94
380.155	433.94
380.38	440.94
380.606	442.94
380.831	437.94
381.057	429.94
381.282	431.94
381.507	424.94
381.733	458.94
381.958	434.94
382.184	443.94
382.409	430.94
382.634	439.94
382.86	440.94
383.085	455.94
383.31	438.94
383.535	455.94
383.761	453.94
383.986	463.94
384.211	480.94
384.436	469.94
384.662	469.94
384.887	471.94
385.112	476.94
385.337	457.94
385.562	472.94
385.787	484.94
386.013	502.94
386.238	490.94
386.463	486.94
386.688	477.94
386.913	481.94
387.138	466.94
387.363	465.94
387.588	465.94
387.813	448.94
388.038	496.94
388.263	477.94
388.488	476.94
388.713	500.94
388.938	491.94
389.163	474.94
389.387	489.94
389.612	467.94
389.837	470.94
390.062	459.94
390.287	484.94
390.512	467.94
390.736	487.94
390.961	479.94
391.186	488.94
391.411	480.94
391.636	492.94
391.86	497.94
392.085	519.94
392.31	511.94
392.534	502.94
392.759	487.94
392.984	493.94
393.208	495.94
393.433	473.94
393.658	492.94
393.882	488.94
394.107	494.94
394.331	493.94
394.556	499.94
394.78	488.94
395.005	529.94
395.229	493.94
395.454	513.94
395.678	500.94
395.903	507.94
396.127	536.94
396.352	536.94
396.576	503.94
396.801	507.94
397.025	509.94
397.249	501.94
397.474	516.94
397.698	535.94
397.922	537.94
398.147	525.94
398.371	556.94
398.595	544.94
398.82	537.94
399.044	570.94
399.268	605.94
399.492	638.94
399.717	683.94
399.941	706.94
400.165	728.94
400.389	718.94
400.613	632.94
400.837	601.94
401.062	588.94
401.286	558.94
401.51	566.94
401.734	562.94
401.958	553.94
402.182	555.94
402.406	566.94
402.63	596.94
402.854	584.94
403.078	598.94
403.302	580.94
403.526	600.94
403.75	579.94
403.974	590.94
404.198	613.94
404.422	593.94
404.645	596.94
404.869	598.94
405.093	628.94
405.317	659.94
405.541	706.94
405.765	650.94
405.988	622.94
406.212	617.94
406.436	622.94
406.66	642.94
406.883	662.94
407.107	660.94
407.331	696.94
407.555	777.94
407.778	775.94
408.002	720.94
408.226	644.94
408.449	638.94
408.673	624.94
408.896	662.94
409.12	686.94
409.344	642.94
409.567	600.94
409.791	601.94
410.014	586.94
410.238	587.94
410.461	570.94
410.685	586.94
410.908	612.94
411.132	630.94
411.355	645.94
411.578	611.94
411.802	616.94
412.025	568.94
412.249	589.94
412.472	594.94
412.695	640.94
412.919	621.94
413.142	578.94
413.365	556.94
413.589	571.94
413.812	543.94
414.035	530.94
414.258	535.94
414.482	557.94
414.705	564.94
414.928	534.94
415.151	559.94
415.374	567.94
415.597	552.94
415.821	536.94
416.044	537.94
416.267	536.94
416.49	540.94
416.713	535.94
416.936	530.94
417.159	536.94
417.382	530.94
417.605	541.94
417.828	564.94
418.051	564.94
418.274	540.94
418.497	545.94
418.72	544.94
418.943	544.94
419.166	554.94
419.389	578.94
419.611	582.94
419.834	571.94
420.057	590.94
420.28	586.94
420.503	592.94
420.726	568.94
420.948	588.94
421.171	603.94
421.394	669.94
421.617	566.94
421.839	548.94
422.062	548.94
422.285	578.94
422.507	643.94
422.73	678.94
422.953	644.94
423.175	612.94
423.398	588.94
423.621	582.94
423.843	590.94
424.066	621.94
424.288	591.94
424.511	622.94
424.733	646.94
424.956	745.94
425.178	707.94
425.401	674.94
425.623	715.94
425.846	621.94
426.068	622.94
426.291	578.94
426.513	573.94
426.735	574.94
426.958	622.94
427.18	680.94
427.402	817.94
427.625	905.94
427.847	820.94
428.069	691.94
428.292	610.94
428.514	574.94
428.736	544.94
428.958	550.94
429.181	519.94
429.403	534.94
429.625	545.94
429.847	556.94
430.069	643.94
430.292	612.94
430.514	536.94
430.736	526.94
430.958	530.94
431.18	533.94
431.402	532.94
431.624	516.94
431.846	534.94
432.068	528.94
432.29	491.94
432.512	491.94
432.734	538.94
432.956	523.94
433.178	550.94
433.4	510.94
433.622	517.94
433.844	523.94
434.066	512.94
434.287	534.94
434.509	537.94
434.731	548.94
434.953	529.94
435.175	563.94
435.397	576.94
435.618	576.94
435.84	602.94
436.062	699.94
436.284	747.94
436.505	630.94
436.727	582.94
436.949	574.94
437.17	533.94
437.392	535.94
437.614	538.94
437.835	576.94
438.057	654.94
438.278	746.94
438.5	749.94
438.721	831.94
438.943	776.94
439.165	626.94
439.386	598.94
439.608	559.94
439.829	575.94
440.05	601.94
440.272	652.94
440.493	620.94
440.715	568.94
440.936	586.94
441.158	578.94
441.379	551.94
441.6	565.94
441.822	604.94
442.043	643.94
442.264	718.94
442.486	746.94
442.707	644.94
442.928	586.94
443.149	590.94
443.371	638.94
443.592	640.94
443.813	745.94
444.034	801.94
444.255	678.94
444.476	606.94
444.698	623.94
444.919	636.94
445.14	750.94
445.361	672.94
445.582	653.94
445.803	692.94
446.024	786.94
446.245	789.94
446.466	710.94
446.687	626.94
446.908	576.94
447.129	551.94
447.35	545.94
447.571	504.94
447.792	527.94
448.013	522.94
448.234	559.94
448.455	589.94
448.675	702.94
448.896	801.94
449.117	685.94
449.338	641.94
449.559	763.94
449.779	820.94
450	683.94
450.221	585.94
450.442	548.94
450.662	514.94
450.883	518.94
451.104	538.94
451.324	513.94
451.545	524.94
451.766	487.94
451.986	470.94
452.207	474.94
452.428	469.94
452.648	468.94
452.869	479.94
453.089	484.94
453.31	482.94
453.53	475.94
453.751	481.94
453.971	476.94
454.192	505.94
454.412	496.94
454.633	484.94
454.853	468.94
455.073	455.94
455.294	493.94
455.514	556.94
455.734	569.94
455.955	464.94
456.175	460.94
456.395	452.94
456.616	457.94
456.836	469.94
457.056	460.94
457.276	440.94
457.497	449.94
457.717	451.94
457.937	448.94
458.157	472.94
458.377	464.94
458.598	474.94
458.818	528.94
459.038	613.94
459.258	632.94
459.478	560.94
459.698	524.94
459.918	524.94
460.138	517.94
460.358	555.94
460.578	526.94
460.798	558.94
461.018	570.94
461.238	520.94
461.458	534.94
461.678	529.94
461.898	540.94
462.118	547.94
462.338	557.94
462.558	585.94
462.777	592.94
462.997	604.94
463.217	651.94
463.437	616.94
463.657	590.94
463.876	585.94
464.096	610.94
464.316	573.94
464.536	587.94
464.755	602.94
464.975	589.94
465.195	600.94
465.414	664.94
465.634	599.94
465.854	557.94
466.073	529.94
466.293	515.94
466.512	497.94
466.732	507.94
466.951	496.94
467.171	493.94
467.391	490.94
467.61	506.94
467.829	514.94
468.049	494.94
468.268	490.94
468.488	501.94
468.707	500.94
468.927	500.94
469.146	502.94
469.365	491.94
469.585	475.94
469.804	516.94
470.023	530.94
470.243	504.94
470.462	537.94
470.681	536.94
470.901	527.94
471.12	521.94
471.339	515.94
471.558	504.94
471.777	510.94
471.997	491.94
472.216	514.94
472.435	546.94
472.654	536.94
472.873	505.94
473.092	488.94
473.311	478.94
473.53	488.94
473.749	496.94
473.968	547.94
474.187	615.94
474.406	628.94
474.625	522.94
474.844	487.94
475.063	502.94
475.282	498.94
475.501	507.94
475.72	497.94
475.939	525.94
476.158	502.94
476.377	524.94
476.596	497.94
476.814	540.94
477.033	521.94
477.252	530.94
477.471	536.94
477.69	536.94
477.908	556.94
478.127	569.94
478.346	530.94
478.564	560.94
478.783	554.94
479.002	565.94
479.22	590.94
479.439	591.94
479.658	606.94
479.876	618.94
480.095	628.94
480.313	637.94
480.532	646.94
480.751	613.94
480.969	636.94
481.188	697.94
481.406	746.94
481.624	668.94
481.843	632.94
482.061	616.94
482.28	586.94
482.498	585.94
482.717	559.94
482.935	586.94
483.153	583.94
483.372	582.94
483.59	572.94
483.808	574.94
484.027	603.94
484.245	579.94
484.463	574.94
484.681	586.94
484.9	587.94
485.118	587.94
485.336	599.94
485.554	609.94
485.772	595.94
485.99	598.94
486.209	593.94
486.427	625.94
486.645	584.94
486.863	637.94
487.081	624.94
487.299	625.94
487.517	632.94
487.735	611.94
487.953	617.94
488.171	643.94
488.389	633.94
488.607	614.94
488.825	628.94
489.043	642.94
489.261	630.94
489.479	625.94
489.696	623.94
489.914	651.94
490.132	634.94
490.35	653.94
490.568	644.94
490.786	670.94
491.003	670.94
491.221	663.94
491.439	700.94
491.657	704.94
491.874	703.94
492.092	722.94
492.31	715.94
492.527	718.94
492.745	722.94
492.963	728.94
493.18	740.94
493.398	734.94
493.615	726.94
493.833	738.94
494.05	726.94
494.268	752.94
494.485	729.94
494.703	740.94
494.92	717.94
495.138	738.94
495.355	744.94
495.573	739.94
495.79	751.94
496.008	710.94
496.225	734.94
496.442	741.94
496.66	736.94
496.877	716.94
497.094	762.94
497.312	760.94
497.529	767.94
497.746	781.94
497.963	792.94
498.181	794.94
498.398	824.94
498.615	850.94
498.832	876.94
499.049	906.94
499.267	918.94
499.484	963.94
499.701	1019.94
499.918	1066.94
500.135	1154.94
500.352	1228.94
500.569	1249.94
500.786	1272.94
501.003	1226.94
501.22	1158.94
501.437	1099.94
501.654	1032.94
501.871	1018.94
