Data from 1985.PennyLincolnUp.Lamp.En5.5.200Scan.071819.P1_HRD10591_17-03-31-971.txt Node
Date: Thu Jul 18 17:03:31 EDT 2019
User: cochatt
Spectrometer: HR+D1059
Trigger mode: 1
Integration Time (sec): 1.000000E-1
Scans to average: 1
Electric dark correction enabled: true
Nonlinearity correction enabled: false
Boxcar width: 0
XAxis mode: Wavelengths
Number of Pixels in Spectrum: 2048
>>>>>Begin Spectral Data<<<<<
223.165	-5.62
223.4	-5.62
223.635	-5.62
223.869	-11.62
224.104	-17.62
224.338	-17.62
224.573	-9.62
224.808	-9.62
225.042	-4.62
225.277	-12.62
225.511	-3.62
225.746	-2.62
225.98	9.38
226.215	1.38
226.449	9.38
226.683	28.38
226.918	23.38
227.152	23.38
227.387	30.38
227.621	40.38
227.856	54.38
228.09	50.38
228.324	55.38
228.559	51.38
228.793	70.38
229.027	91.38
229.262	109.38
229.496	114.38
229.73	130.38
229.964	161.38
230.199	124.38
230.433	119.38
230.667	114.38
230.901	103.38
231.136	109.38
231.37	110.38
231.604	93.38
231.838	101.38
232.072	99.38
232.306	112.38
232.541	120.38
232.775	126.38
233.009	120.38
233.243	112.38
233.477	107.38
233.711	124.38
233.945	113.38
234.179	117.38
234.413	120.38
234.647	116.38
234.881	133.38
235.115	98.38
235.349	116.38
235.583	134.38
235.817	111.38
236.051	130.38
236.285	132.38
236.519	130.38
236.753	136.38
236.987	144.38
237.221	162.38
237.455	206.38
237.689	187.38
237.922	154.38
238.156	123.38
238.39	123.38
238.624	121.38
238.858	121.38
239.091	137.38
239.325	131.38
239.559	139.38
239.793	111.38
240.027	134.38
240.26	144.38
240.494	153.38
240.728	138.38
240.961	148.38
241.195	137.38
241.429	146.38
241.662	130.38
241.896	145.38
242.13	128.38
242.363	142.38
242.597	134.38
242.83	156.38
243.064	150.38
243.298	139.38
243.531	142.38
243.765	133.38
243.998	149.38
244.232	143.38
244.465	138.38
244.699	142.38
244.932	139.38
245.166	153.38
245.399	136.38
245.633	149.38
245.866	149.38
246.099	145.38
246.333	158.38
246.566	163.38
246.8	164.38
247.033	151.38
247.266	157.38
247.5	152.38
247.733	179.38
247.966	194.38
248.2	170.38
248.433	176.38
248.666	178.38
248.899	189.38
249.133	199.38
249.366	203.38
249.599	208.38
249.832	176.38
250.066	180.38
250.299	196.38
250.532	215.38
250.765	217.38
250.998	252.38
251.231	217.38
251.465	206.38
251.698	201.38
251.931	217.38
252.164	197.38
252.397	203.38
252.63	199.38
252.863	190.38
253.096	215.38
253.329	226.38
253.562	220.38
253.795	225.38
254.028	202.38
254.261	215.38
254.494	243.38
254.727	250.38
254.96	276.38
255.193	291.38
255.426	255.38
255.659	231.38
255.892	239.38
256.124	247.38
256.357	256.38
256.59	228.38
256.823	214.38
257.056	206.38
257.289	207.38
257.521	213.38
257.754	210.38
257.987	212.38
258.22	228.38
258.452	199.38
258.685	198.38
258.918	199.38
259.151	221.38
259.383	232.38
259.616	231.38
259.849	233.38
260.081	250.38
260.314	266.38
260.547	248.38
260.779	245.38
261.012	243.38
261.244	232.38
261.477	235.38
261.71	220.38
261.942	224.38
262.175	247.38
262.407	243.38
262.64	234.38
262.872	234.38
263.105	225.38
263.337	214.38
263.57	215.38
263.802	229.38
264.035	227.38
264.267	219.38
264.499	223.38
264.732	236.38
264.964	212.38
265.197	210.38
265.429	210.38
265.661	213.38
265.894	206.38
266.126	223.38
266.358	226.38
266.591	229.38
266.823	226.38
267.055	245.38
267.287	230.38
267.52	225.38
267.752	223.38
267.984	228.38
268.216	235.38
268.448	218.38
268.681	236.38
268.913	253.38
269.145	272.38
269.377	278.38
269.609	266.38
269.841	273.38
270.073	288.38
270.306	315.38
270.538	334.38
270.77	317.38
271.002	303.38
271.234	296.38
271.466	292.38
271.698	339.38
271.93	333.38
272.162	342.38
272.394	324.38
272.626	322.38
272.858	301.38
273.09	303.38
273.322	282.38
273.553	280.38
273.785	280.38
274.017	272.38
274.249	285.38
274.481	272.38
274.713	269.38
274.945	295.38
275.176	284.38
275.408	278.38
275.64	278.38
275.872	271.38
276.104	278.38
276.335	283.38
276.567	277.38
276.799	308.38
277.031	316.38
277.262	328.38
277.494	329.38
277.726	311.38
277.957	306.38
278.189	312.38
278.421	309.38
278.652	291.38
278.884	303.38
279.115	314.38
279.347	300.38
279.579	297.38
279.81	303.38
280.042	301.38
280.273	301.38
280.505	299.38
280.736	297.38
280.968	290.38
281.199	285.38
281.431	295.38
281.662	296.38
281.894	297.38
282.125	306.38
282.356	305.38
282.588	328.38
282.819	326.38
283.051	288.38
283.282	290.38
283.513	315.38
283.745	329.38
283.976	289.38
284.207	320.38
284.439	323.38
284.67	318.38
284.901	308.38
285.132	306.38
285.364	299.38
285.595	306.38
285.826	315.38
286.057	298.38
286.288	312.38
286.52	316.38
286.751	311.38
286.982	330.38
287.213	319.38
287.444	320.38
287.675	317.38
287.906	333.38
288.138	329.38
288.369	327.38
288.6	331.38
288.831	336.38
289.062	348.38
289.293	318.38
289.524	301.38
289.755	303.38
289.986	306.38
290.217	316.38
290.448	331.38
290.679	310.38
290.91	327.38
291.141	324.38
291.371	340.38
291.602	310.38
291.833	306.38
292.064	336.38
292.295	322.38
292.526	321.38
292.757	333.38
292.987	335.38
293.218	330.38
293.449	333.38
293.68	323.38
293.91	321.38
294.141	335.38
294.372	324.38
294.603	335.38
294.833	310.38
295.064	331.38
295.295	332.38
295.525	326.38
295.756	334.38
295.987	344.38
296.217	358.38
296.448	359.38
296.679	345.38
296.909	346.38
297.14	327.38
297.37	347.38
297.601	343.38
297.831	344.38
298.062	338.38
298.292	340.38
298.523	342.38
298.753	336.38
298.984	361.38
299.214	334.38
299.445	343.38
299.675	346.38
299.905	345.38
300.136	359.38
300.366	362.38
300.597	362.38
300.827	347.38
301.057	370.38
301.288	364.38
301.518	370.38
301.748	365.38
301.979	372.38
302.209	378.38
302.439	377.38
302.669	370.38
302.9	360.38
303.13	372.38
303.36	378.38
303.59	361.38
303.82	372.38
304.051	382.38
304.281	360.38
304.511	356.38
304.741	378.38
304.971	358.38
305.201	364.38
305.431	376.38
305.661	360.38
305.891	360.38
306.121	372.38
306.352	376.38
306.582	370.38
306.812	367.38
307.042	384.38
307.272	370.38
307.502	388.38
307.731	378.38
307.961	383.38
308.191	382.38
308.421	371.38
308.651	388.38
308.881	364.38
309.111	390.38
309.341	378.38
309.571	382.38
309.8	394.38
310.03	389.38
310.26	429.38
310.49	410.38
310.72	423.38
310.949	438.38
311.179	438.38
311.409	403.38
311.639	420.38
311.868	407.38
312.098	436.38
312.328	412.38
312.557	440.38
312.787	440.38
313.017	440.38
313.246	430.38
313.476	404.38
313.706	414.38
313.935	427.38
314.165	441.38
314.394	448.38
314.624	425.38
314.853	441.38
315.083	434.38
315.312	413.38
315.542	414.38
315.771	417.38
316.001	412.38
316.23	414.38
316.46	426.38
316.689	428.38
316.919	411.38
317.148	421.38
317.377	427.38
317.607	442.38
317.836	433.38
318.065	420.38
318.295	421.38
318.524	426.38
318.753	411.38
318.983	409.38
319.212	427.38
319.441	436.38
319.67	428.38
319.9	429.38
320.129	434.38
320.358	438.38
320.587	440.38
320.816	420.38
321.046	464.38
321.275	446.38
321.504	435.38
321.733	451.38
321.962	444.38
322.191	451.38
322.42	443.38
322.649	475.38
322.878	470.38
323.108	477.38
323.337	511.38
323.566	528.38
323.795	562.38
324.024	587.38
324.253	671.38
324.482	965.38
324.71	1466.38
324.939	2104.38
325.168	1759.38
325.397	923.38
325.626	660.38
325.855	574.38
326.084	544.38
326.313	519.38
326.542	540.38
326.77	572.38
326.999	675.38
327.228	876.38
327.457	1327.38
327.686	1567.38
327.914	1040.38
328.143	733.38
328.372	665.38
328.6	605.38
328.829	596.38
329.058	606.38
329.287	598.38
329.515	569.38
329.744	534.38
329.972	555.38
330.201	576.38
330.43	604.38
330.658	633.38
330.887	642.38
331.115	616.38
331.344	545.38
331.572	522.38
331.801	539.38
332.03	527.38
332.258	522.38
332.486	519.38
332.715	502.38
332.943	533.38
333.172	528.38
333.4	529.38
333.629	547.38
333.857	538.38
334.085	547.38
334.314	568.38
334.542	587.38
334.771	596.38
334.999	559.38
335.227	549.38
335.455	549.38
335.684	516.38
335.912	518.38
336.14	482.38
336.369	498.38
336.597	515.38
336.825	536.38
337.053	509.38
337.281	499.38
337.51	483.38
337.738	520.38
337.966	483.38
338.194	507.38
338.422	495.38
338.65	470.38
338.878	498.38
339.106	490.38
339.334	462.38
339.562	489.38
339.79	498.38
340.018	464.38
340.246	486.38
340.474	503.38
340.702	494.38
340.93	473.38
341.158	452.38
341.386	487.38
341.614	471.38
341.842	479.38
342.07	456.38
342.298	474.38
342.526	452.38
342.754	465.38
342.981	473.38
343.209	467.38
343.437	484.38
343.665	490.38
343.893	514.38
344.12	491.38
344.348	503.38
344.576	491.38
344.804	512.38
345.031	484.38
345.259	492.38
345.487	486.38
345.714	491.38
345.942	468.38
346.17	453.38
346.397	462.38
346.625	437.38
346.853	440.38
347.08	459.38
347.308	439.38
347.535	464.38
347.763	466.38
347.99	445.38
348.218	444.38
348.445	482.38
348.673	456.38
348.9	474.38
349.128	456.38
349.355	459.38
349.583	427.38
349.81	436.38
350.037	442.38
350.265	415.38
350.492	439.38
350.72	414.38
350.947	444.38
351.174	455.38
351.402	458.38
351.629	456.38
351.856	446.38
352.083	447.38
352.311	470.38
352.538	475.38
352.765	475.38
352.992	452.38
353.22	435.38
353.447	450.38
353.674	461.38
353.901	436.38
354.128	441.38
354.355	409.38
354.583	440.38
354.81	433.38
355.037	437.38
355.264	410.38
355.491	422.38
355.718	409.38
355.945	421.38
356.172	400.38
356.399	425.38
356.626	422.38
356.853	423.38
357.08	421.38
357.307	421.38
357.534	410.38
357.761	414.38
357.988	434.38
358.215	428.38
358.441	422.38
358.668	414.38
358.895	426.38
359.122	448.38
359.349	439.38
359.576	435.38
359.802	463.38
360.029	506.38
360.256	516.38
360.483	465.38
360.709	453.38
360.936	444.38
361.163	426.38
361.39	475.38
361.616	446.38
361.843	438.38
362.07	436.38
362.296	440.38
362.523	472.38
362.749	454.38
362.976	453.38
363.203	464.38
363.429	438.38
363.656	422.38
363.882	415.38
364.109	442.38
364.335	429.38
364.562	419.38
364.788	426.38
365.015	422.38
365.241	422.38
365.468	416.38
365.694	436.38
365.92	426.38
366.147	422.38
366.373	431.38
366.599	410.38
366.826	429.38
367.052	420.38
367.278	422.38
367.505	400.38
367.731	429.38
367.957	416.38
368.184	426.38
368.41	430.38
368.636	439.38
368.862	454.38
369.089	440.38
369.315	435.38
369.541	430.38
369.767	425.38
369.993	449.38
370.219	437.38
370.445	446.38
370.672	411.38
370.898	410.38
371.124	415.38
371.35	424.38
371.576	427.38
371.802	426.38
372.028	424.38
372.254	423.38
372.48	431.38
372.706	433.38
372.932	438.38
373.158	431.38
373.384	434.38
373.61	438.38
373.835	447.38
374.061	424.38
374.287	452.38
374.513	430.38
374.739	448.38
374.965	448.38
375.191	441.38
375.416	408.38
375.642	415.38
375.868	440.38
376.094	427.38
376.319	409.38
376.545	429.38
376.771	427.38
376.997	420.38
377.222	416.38
377.448	413.38
377.674	423.38
377.899	421.38
378.125	412.38
378.35	408.38
378.576	418.38
378.802	419.38
379.027	412.38
379.253	427.38
379.478	427.38
379.704	444.38
379.929	432.38
380.155	420.38
380.38	418.38
380.606	426.38
380.831	424.38
381.057	418.38
381.282	434.38
381.507	418.38
381.733	431.38
381.958	436.38
382.184	444.38
382.409	448.38
382.634	428.38
382.86	422.38
383.085	451.38
383.31	456.38
383.535	440.38
383.761	419.38
383.986	451.38
384.211	450.38
384.436	453.38
384.662	469.38
384.887	444.38
385.112	470.38
385.337	470.38
385.562	476.38
385.787	474.38
386.013	491.38
386.238	493.38
386.463	479.38
386.688	468.38
386.913	472.38
387.138	485.38
387.363	480.38
387.588	488.38
387.813	481.38
388.038	477.38
388.263	478.38
388.488	479.38
388.713	470.38
388.938	489.38
389.163	459.38
389.387	479.38
389.612	470.38
389.837	471.38
390.062	450.38
390.287	470.38
390.512	482.38
390.736	464.38
390.961	483.38
391.186	487.38
391.411	475.38
391.636	496.38
391.86	503.38
392.085	514.38
392.31	533.38
392.534	484.38
392.759	491.38
392.984	484.38
393.208	458.38
393.433	468.38
393.658	498.38
393.882	468.38
394.107	486.38
394.331	486.38
394.556	485.38
394.78	471.38
395.005	490.38
395.229	476.38
395.454	480.38
395.678	484.38
395.903	524.38
396.127	519.38
396.352	493.38
396.576	505.38
396.801	494.38
397.025	493.38
397.249	508.38
397.474	526.38
397.698	508.38
397.922	526.38
398.147	556.38
398.371	546.38
398.595	538.38
398.82	563.38
399.044	562.38
399.268	585.38
399.492	632.38
399.717	675.38
399.941	711.38
400.165	695.38
400.389	692.38
400.613	629.38
400.837	580.38
401.062	573.38
401.286	567.38
401.51	547.38
401.734	549.38
401.958	546.38
402.182	580.38
402.406	573.38
402.63	570.38
402.854	569.38
403.078	572.38
403.302	577.38
403.526	580.38
403.75	586.38
403.974	587.38
404.198	581.38
404.422	587.38
404.645	598.38
404.869	579.38
405.093	623.38
405.317	659.38
405.541	670.38
405.765	614.38
405.988	605.38
406.212	623.38
406.436	626.38
406.66	640.38
406.883	612.38
407.107	654.38
407.331	692.38
407.555	766.38
407.778	751.38
408.002	685.38
408.226	646.38
408.449	635.38
408.673	605.38
408.896	646.38
409.12	675.38
409.344	638.38
409.567	614.38
409.791	590.38
410.014	589.38
410.238	576.38
410.461	571.38
410.685	568.38
410.908	599.38
411.132	604.38
411.355	652.38
411.578	633.38
411.802	574.38
412.025	574.38
412.249	600.38
412.472	605.38
412.695	619.38
412.919	620.38
413.142	582.38
413.365	558.38
413.589	550.38
413.812	532.38
414.035	537.38
414.258	543.38
414.482	549.38
414.705	532.38
414.928	552.38
415.151	539.38
415.374	510.38
415.597	526.38
415.821	515.38
416.044	530.38
416.267	534.38
416.49	526.38
416.713	518.38
416.936	536.38
417.159	532.38
417.382	541.38
417.605	539.38
417.828	542.38
418.051	544.38
418.274	532.38
418.497	527.38
418.72	540.38
418.943	538.38
419.166	566.38
419.389	592.38
419.611	582.38
419.834	591.38
420.057	577.38
420.28	552.38
420.503	583.38
420.726	543.38
420.948	572.38
421.171	616.38
421.394	626.38
421.617	563.38
421.839	552.38
422.062	570.38
422.285	552.38
422.507	618.38
422.73	692.38
422.953	659.38
423.175	616.38
423.398	570.38
423.621	567.38
423.843	622.38
424.066	598.38
424.288	589.38
424.511	620.38
424.733	679.38
424.956	720.38
425.178	710.38
425.401	689.38
425.623	702.38
425.846	601.38
426.068	570.38
426.291	567.38
426.513	556.38
426.735	589.38
426.958	644.38
427.18	710.38
427.402	824.38
427.625	894.38
427.847	772.38
428.069	660.38
428.292	619.38
428.514	549.38
428.736	539.38
428.958	542.38
429.181	531.38
429.403	507.38
429.625	532.38
429.847	581.38
430.069	622.38
430.292	633.38
430.514	539.38
430.736	516.38
430.958	517.38
431.18	526.38
431.402	519.38
431.624	489.38
431.846	502.38
432.068	523.38
432.29	507.38
432.512	501.38
432.734	499.38
432.956	518.38
433.178	523.38
433.4	529.38
433.622	510.38
433.844	521.38
434.066	494.38
434.287	499.38
434.509	510.38
434.731	527.38
434.953	554.38
435.175	546.38
435.397	579.38
435.618	602.38
435.84	635.38
436.062	706.38
436.284	754.38
436.505	628.38
436.727	567.38
436.949	564.38
437.17	523.38
437.392	520.38
437.614	534.38
437.835	552.38
438.057	639.38
438.278	729.38
438.5	739.38
438.721	782.38
438.943	780.38
439.165	611.38
439.386	568.38
439.608	566.38
439.829	575.38
440.05	605.38
440.272	646.38
440.493	599.38
440.715	558.38
440.936	538.38
441.158	520.38
441.379	536.38
441.6	543.38
441.822	598.38
442.043	607.38
442.264	711.38
442.486	726.38
442.707	626.38
442.928	602.38
443.149	581.38
443.371	631.38
443.592	663.38
443.813	727.38
444.034	762.38
444.255	674.38
444.476	607.38
444.698	623.38
444.919	607.38
445.14	739.38
445.361	677.38
445.582	644.38
445.803	667.38
446.024	785.38
446.245	759.38
446.466	712.38
446.687	627.38
446.908	546.38
447.129	543.38
447.35	530.38
447.571	526.38
447.792	526.38
448.013	526.38
448.234	537.38
448.455	582.38
448.675	694.38
448.896	775.38
449.117	677.38
449.338	623.38
449.559	726.38
449.779	838.38
450	644.38
450.221	576.38
450.442	514.38
450.662	484.38
450.883	499.38
451.104	531.38
451.324	521.38
451.545	503.38
451.766	471.38
451.986	459.38
452.207	462.38
452.428	474.38
452.648	467.38
452.869	479.38
453.089	502.38
453.31	481.38
453.53	471.38
453.751	467.38
453.971	467.38
454.192	495.38
454.412	473.38
454.633	458.38
454.853	447.38
455.073	456.38
455.294	511.38
455.514	554.38
455.734	541.38
455.955	485.38
456.175	444.38
456.395	446.38
456.616	444.38
456.836	470.38
457.056	464.38
457.276	450.38
457.497	446.38
457.717	454.38
457.937	452.38
458.157	475.38
458.377	472.38
458.598	477.38
458.818	538.38
459.038	602.38
459.258	617.38
459.478	571.38
459.698	518.38
459.918	512.38
460.138	519.38
460.358	529.38
460.578	540.38
460.798	539.38
461.018	540.38
461.238	550.38
461.458	542.38
461.678	549.38
461.898	557.38
462.118	549.38
462.338	566.38
462.558	564.38
462.777	575.38
462.997	600.38
463.217	646.38
463.437	638.38
463.657	596.38
463.876	588.38
464.096	602.38
464.316	582.38
464.536	588.38
464.755	578.38
464.975	593.38
465.195	609.38
465.414	675.38
465.634	586.38
465.854	555.38
466.073	526.38
466.293	500.38
466.512	490.38
466.732	492.38
466.951	499.38
467.171	501.38
467.391	487.38
467.61	499.38
467.829	503.38
468.049	494.38
468.268	479.38
468.488	489.38
468.707	483.38
468.927	484.38
469.146	468.38
469.365	489.38
469.585	479.38
469.804	492.38
470.023	490.38
470.243	512.38
470.462	525.38
470.681	527.38
470.901	523.38
471.12	503.38
471.339	519.38
471.558	477.38
471.777	514.38
471.997	493.38
472.216	493.38
472.435	532.38
472.654	522.38
472.873	492.38
473.092	477.38
473.311	487.38
473.53	468.38
473.749	490.38
473.968	530.38
474.187	617.38
474.406	640.38
474.625	535.38
474.844	494.38
475.063	502.38
475.282	488.38
475.501	479.38
475.72	514.38
475.939	494.38
476.158	515.38
476.377	502.38
476.596	499.38
476.814	518.38
477.033	510.38
477.252	522.38
477.471	534.38
477.69	514.38
477.908	544.38
478.127	558.38
478.346	536.38
478.564	540.38
478.783	568.38
479.002	584.38
479.22	573.38
479.439	600.38
479.658	598.38
479.876	600.38
480.095	613.38
480.313	634.38
480.532	632.38
480.751	627.38
480.969	615.38
481.188	664.38
481.406	703.38
481.624	625.38
481.843	600.38
482.061	586.38
482.28	568.38
482.498	558.38
482.717	563.38
482.935	570.38
483.153	534.38
483.372	555.38
483.59	559.38
483.808	571.38
484.027	592.38
484.245	572.38
484.463	553.38
484.681	583.38
484.9	579.38
485.118	577.38
485.336	582.38
485.554	567.38
485.772	579.38
485.99	590.38
486.209	583.38
486.427	584.38
486.645	589.38
486.863	607.38
487.081	614.38
487.299	620.38
487.517	616.38
487.735	613.38
487.953	591.38
488.171	600.38
488.389	620.38
488.607	610.38
488.825	624.38
489.043	614.38
489.261	604.38
489.479	629.38
489.696	610.38
489.914	623.38
490.132	634.38
490.35	614.38
490.568	644.38
490.786	638.38
491.003	648.38
491.221	651.38
491.439	671.38
491.657	674.38
491.874	668.38
492.092	669.38
492.31	701.38
492.527	691.38
492.745	703.38
492.963	720.38
493.18	702.38
493.398	725.38
493.615	715.38
493.833	727.38
494.05	738.38
494.268	717.38
494.485	742.38
494.703	733.38
494.92	732.38
495.138	705.38
495.355	740.38
495.573	718.38
495.79	715.38
496.008	696.38
496.225	739.38
496.442	711.38
496.66	742.38
496.877	714.38
497.094	724.38
497.312	732.38
497.529	726.38
497.746	728.38
497.963	811.38
498.181	822.38
498.398	831.38
498.615	829.38
498.832	870.38
499.049	889.38
499.267	898.38
499.484	943.38
499.701	1007.38
499.918	1072.38
500.135	1141.38
500.352	1246.38
500.569	1209.38
500.786	1226.38
501.003	1225.38
501.22	1138.38
501.437	1046.38
501.654	1014.38
501.871	977.38
