Data from 1985.PennyLincolnUp.Lamp.En5.5.200Scan.071819.P1_HRD10591_17-03-57-970.txt Node
Date: Thu Jul 18 17:03:57 EDT 2019
User: cochatt
Spectrometer: HR+D1059
Trigger mode: 1
Integration Time (sec): 1.000000E-1
Scans to average: 1
Electric dark correction enabled: true
Nonlinearity correction enabled: false
Boxcar width: 0
XAxis mode: Wavelengths
Number of Pixels in Spectrum: 2048
>>>>>Begin Spectral Data<<<<<
223.165	2.69
223.4	2.69
223.635	2.69
223.869	-8.31
224.104	-26.31
224.338	-34.31
224.573	-12.31
224.808	-19.31
225.042	9.69
225.277	-11.31
225.511	-9.31
225.746	-4.31
225.98	1.69
226.215	-1.31
226.449	27.69
226.683	29.69
226.918	39.69
227.152	15.69
227.387	22.69
227.621	38.69
227.856	51.69
228.09	60.69
228.324	37.69
228.559	55.69
228.793	58.69
229.027	86.69
229.262	105.69
229.496	107.69
229.73	127.69
229.964	143.69
230.199	121.69
230.433	107.69
230.667	103.69
230.901	111.69
231.136	100.69
231.37	111.69
231.604	120.69
231.838	106.69
232.072	117.69
232.306	96.69
232.541	114.69
232.775	114.69
233.009	123.69
233.243	108.69
233.477	116.69
233.711	110.69
233.945	116.69
234.179	120.69
234.413	120.69
234.647	118.69
234.881	122.69
235.115	110.69
235.349	119.69
235.583	110.69
235.817	122.69
236.051	114.69
236.285	115.69
236.519	118.69
236.753	124.69
236.987	143.69
237.221	169.69
237.455	215.69
237.689	159.69
237.922	129.69
238.156	140.69
238.39	142.69
238.624	122.69
238.858	126.69
239.091	122.69
239.325	127.69
239.559	126.69
239.793	125.69
240.027	126.69
240.26	143.69
240.494	150.69
240.728	150.69
240.961	143.69
241.195	142.69
241.429	143.69
241.662	139.69
241.896	132.69
242.13	127.69
242.363	136.69
242.597	148.69
242.83	145.69
243.064	143.69
243.298	123.69
243.531	130.69
243.765	141.69
243.998	142.69
244.232	131.69
244.465	144.69
244.699	156.69
244.932	148.69
245.166	152.69
245.399	142.69
245.633	156.69
245.866	139.69
246.099	150.69
246.333	148.69
246.566	144.69
246.8	156.69
247.033	153.69
247.266	154.69
247.5	150.69
247.733	148.69
247.966	166.69
248.2	161.69
248.433	170.69
248.666	172.69
248.899	187.69
249.133	164.69
249.366	175.69
249.599	191.69
249.832	170.69
250.066	172.69
250.299	187.69
250.532	188.69
250.765	214.69
250.998	225.69
251.231	214.69
251.465	196.69
251.698	202.69
251.931	197.69
252.164	198.69
252.397	207.69
252.63	202.69
252.863	180.69
253.096	215.69
253.329	222.69
253.562	222.69
253.795	211.69
254.028	196.69
254.261	199.69
254.494	209.69
254.727	253.69
254.96	270.69
255.193	249.69
255.426	221.69
255.659	243.69
255.892	249.69
256.124	248.69
256.357	239.69
256.59	226.69
256.823	208.69
257.056	223.69
257.289	224.69
257.521	215.69
257.754	213.69
257.987	206.69
258.22	209.69
258.452	230.69
258.685	209.69
258.918	208.69
259.151	201.69
259.383	212.69
259.616	215.69
259.849	225.69
260.081	240.69
260.314	263.69
260.547	247.69
260.779	226.69
261.012	240.69
261.244	223.69
261.477	223.69
261.71	233.69
261.942	227.69
262.175	237.69
262.407	232.69
262.64	213.69
262.872	214.69
263.105	210.69
263.337	218.69
263.57	234.69
263.802	227.69
264.035	211.69
264.267	217.69
264.499	212.69
264.732	219.69
264.964	227.69
265.197	234.69
265.429	205.69
265.661	218.69
265.894	215.69
266.126	224.69
266.358	227.69
266.591	227.69
266.823	225.69
267.055	242.69
267.287	265.69
267.52	238.69
267.752	214.69
267.984	232.69
268.216	227.69
268.448	250.69
268.681	244.69
268.913	256.69
269.145	263.69
269.377	286.69
269.609	270.69
269.841	282.69
270.073	287.69
270.306	301.69
270.538	332.69
270.77	336.69
271.002	301.69
271.234	298.69
271.466	299.69
271.698	323.69
271.93	310.69
272.162	318.69
272.394	308.69
272.626	304.69
272.858	286.69
273.09	283.69
273.322	284.69
273.553	288.69
273.785	275.69
274.017	270.69
274.249	270.69
274.481	278.69
274.713	262.69
274.945	273.69
275.176	266.69
275.408	273.69
275.64	298.69
275.872	276.69
276.104	284.69
276.335	268.69
276.567	293.69
276.799	301.69
277.031	308.69
277.262	320.69
277.494	316.69
277.726	326.69
277.957	290.69
278.189	299.69
278.421	290.69
278.652	289.69
278.884	289.69
279.115	275.69
279.347	287.69
279.579	289.69
279.81	296.69
280.042	278.69
280.273	281.69
280.505	288.69
280.736	295.69
280.968	284.69
281.199	292.69
281.431	290.69
281.662	311.69
281.894	291.69
282.125	293.69
282.356	307.69
282.588	329.69
282.819	330.69
283.051	286.69
283.282	273.69
283.513	296.69
283.745	312.69
283.976	317.69
284.207	312.69
284.439	303.69
284.67	310.69
284.901	307.69
285.132	319.69
285.364	294.69
285.595	310.69
285.826	308.69
286.057	301.69
286.288	308.69
286.52	314.69
286.751	298.69
286.982	299.69
287.213	325.69
287.444	319.69
287.675	320.69
287.906	315.69
288.138	323.69
288.369	332.69
288.6	327.69
288.831	325.69
289.062	324.69
289.293	347.69
289.524	326.69
289.755	323.69
289.986	324.69
290.217	318.69
290.448	305.69
290.679	316.69
290.91	322.69
291.141	294.69
291.371	313.69
291.602	322.69
291.833	317.69
292.064	318.69
292.295	326.69
292.526	310.69
292.757	336.69
292.987	327.69
293.218	320.69
293.449	338.69
293.68	344.69
293.91	328.69
294.141	324.69
294.372	332.69
294.603	311.69
294.833	338.69
295.064	309.69
295.295	314.69
295.525	333.69
295.756	344.69
295.987	327.69
296.217	349.69
296.448	346.69
296.679	341.69
296.909	345.69
297.14	329.69
297.37	331.69
297.601	333.69
297.831	335.69
298.062	322.69
298.292	337.69
298.523	342.69
298.753	347.69
298.984	345.69
299.214	341.69
299.445	338.69
299.675	358.69
299.905	348.69
300.136	345.69
300.366	338.69
300.597	350.69
300.827	355.69
301.057	367.69
301.288	357.69
301.518	378.69
301.748	362.69
301.979	372.69
302.209	384.69
302.439	361.69
302.669	380.69
302.9	378.69
303.13	347.69
303.36	360.69
303.59	391.69
303.82	368.69
304.051	358.69
304.281	383.69
304.511	357.69
304.741	378.69
304.971	376.69
305.201	376.69
305.431	388.69
305.661	374.69
305.891	350.69
306.121	368.69
306.352	364.69
306.582	376.69
306.812	375.69
307.042	360.69
307.272	369.69
307.502	386.69
307.731	370.69
307.961	354.69
308.191	340.69
308.421	378.69
308.651	386.69
308.881	393.69
309.111	387.69
309.341	367.69
309.571	373.69
309.8	382.69
310.03	407.69
310.26	397.69
310.49	422.69
310.72	418.69
310.949	430.69
311.179	400.69
311.409	406.69
311.639	384.69
311.868	388.69
312.098	410.69
312.328	406.69
312.557	409.69
312.787	429.69
313.017	434.69
313.246	408.69
313.476	392.69
313.706	393.69
313.935	409.69
314.165	424.69
314.394	438.69
314.624	454.69
314.853	426.69
315.083	408.69
315.312	407.69
315.542	398.69
315.771	399.69
316.001	393.69
316.23	397.69
316.46	420.69
316.689	408.69
316.919	415.69
317.148	419.69
317.377	412.69
317.607	431.69
317.836	422.69
318.065	432.69
318.295	411.69
318.524	417.69
318.753	416.69
318.983	416.69
319.212	415.69
319.441	431.69
319.67	419.69
319.9	410.69
320.129	413.69
320.358	412.69
320.587	409.69
320.816	445.69
321.046	438.69
321.275	428.69
321.504	434.69
321.733	439.69
321.962	448.69
322.191	462.69
322.42	442.69
322.649	460.69
322.878	463.69
323.108	482.69
323.337	493.69
323.566	512.69
323.795	532.69
324.024	578.69
324.253	656.69
324.482	938.69
324.71	1415.69
324.939	1999.69
325.168	1691.69
325.397	878.69
325.626	663.69
325.855	581.69
326.084	540.69
326.313	519.69
326.542	528.69
326.77	598.69
326.999	658.69
327.228	882.69
327.457	1286.69
327.686	1504.69
327.914	1052.69
328.143	723.69
328.372	642.69
328.6	606.69
328.829	577.69
329.058	588.69
329.287	603.69
329.515	551.69
329.744	530.69
329.972	551.69
330.201	568.69
330.43	610.69
330.658	623.69
330.887	640.69
331.115	606.69
331.344	536.69
331.572	530.69
331.801	534.69
332.03	530.69
332.258	523.69
332.486	512.69
332.715	511.69
332.943	500.69
333.172	531.69
333.4	528.69
333.629	538.69
333.857	572.69
334.085	579.69
334.314	589.69
334.542	644.69
334.771	642.69
334.999	576.69
335.227	543.69
335.455	521.69
335.684	538.69
335.912	520.69
336.14	518.69
336.369	510.69
336.597	506.69
336.825	504.69
337.053	495.69
337.281	486.69
337.51	493.69
337.738	487.69
337.966	481.69
338.194	500.69
338.422	492.69
338.65	478.69
338.878	480.69
339.106	461.69
339.334	484.69
339.562	486.69
339.79	459.69
340.018	460.69
340.246	463.69
340.474	499.69
340.702	482.69
340.93	477.69
341.158	446.69
341.386	480.69
341.614	456.69
341.842	432.69
342.07	456.69
342.298	455.69
342.526	458.69
342.754	463.69
342.981	450.69
343.209	469.69
343.437	463.69
343.665	479.69
343.893	494.69
344.12	495.69
344.348	508.69
344.576	486.69
344.804	470.69
345.031	477.69
345.259	502.69
345.487	466.69
345.714	458.69
345.942	459.69
346.17	453.69
346.397	450.69
346.625	457.69
346.853	454.69
347.08	445.69
347.308	450.69
347.535	454.69
347.763	448.69
347.99	465.69
348.218	460.69
348.445	437.69
348.673	446.69
348.9	438.69
349.128	432.69
349.355	445.69
349.583	444.69
349.81	429.69
350.037	436.69
350.265	428.69
350.492	418.69
350.72	419.69
350.947	452.69
351.174	454.69
351.402	458.69
351.629	453.69
351.856	435.69
352.083	442.69
352.311	452.69
352.538	462.69
352.765	456.69
352.992	443.69
353.22	432.69
353.447	448.69
353.674	444.69
353.901	425.69
354.128	414.69
354.355	401.69
354.583	410.69
354.81	422.69
355.037	406.69
355.264	422.69
355.491	414.69
355.718	417.69
355.945	423.69
356.172	429.69
356.399	424.69
356.626	406.69
356.853	407.69
357.08	436.69
357.307	414.69
357.534	414.69
357.761	401.69
357.988	382.69
358.215	411.69
358.441	415.69
358.668	424.69
358.895	450.69
359.122	426.69
359.349	431.69
359.576	452.69
359.802	447.69
360.029	468.69
360.256	486.69
360.483	482.69
360.709	444.69
360.936	438.69
361.163	424.69
361.39	423.69
361.616	428.69
361.843	431.69
362.07	420.69
362.296	430.69
362.523	433.69
362.749	431.69
362.976	423.69
363.203	438.69
363.429	420.69
363.656	436.69
363.882	439.69
364.109	425.69
364.335	414.69
364.562	407.69
364.788	420.69
365.015	440.69
365.241	423.69
365.468	419.69
365.694	400.69
365.92	422.69
366.147	400.69
366.373	411.69
366.599	407.69
366.826	424.69
367.052	411.69
367.278	406.69
367.505	416.69
367.731	432.69
367.957	417.69
368.184	431.69
368.41	414.69
368.636	412.69
368.862	428.69
369.089	430.69
369.315	426.69
369.541	419.69
369.767	432.69
369.993	410.69
370.219	455.69
370.445	434.69
370.672	430.69
370.898	426.69
371.124	417.69
371.35	415.69
371.576	436.69
371.802	420.69
372.028	438.69
372.254	410.69
372.48	422.69
372.706	422.69
372.932	443.69
373.158	443.69
373.384	440.69
373.61	424.69
373.835	427.69
374.061	431.69
374.287	431.69
374.513	429.69
374.739	429.69
374.965	422.69
375.191	411.69
375.416	455.69
375.642	408.69
375.868	433.69
376.094	418.69
376.319	421.69
376.545	434.69
376.771	409.69
376.997	420.69
377.222	421.69
377.448	429.69
377.674	414.69
377.899	429.69
378.125	415.69
378.35	431.69
378.576	413.69
378.802	411.69
379.027	407.69
379.253	413.69
379.478	413.69
379.704	404.69
379.929	412.69
380.155	413.69
380.38	422.69
380.606	438.69
380.831	429.69
381.057	435.69
381.282	421.69
381.507	413.69
381.733	419.69
381.958	430.69
382.184	414.69
382.409	447.69
382.634	444.69
382.86	427.69
383.085	440.69
383.31	435.69
383.535	425.69
383.761	453.69
383.986	445.69
384.211	464.69
384.436	448.69
384.662	464.69
384.887	455.69
385.112	469.69
385.337	463.69
385.562	463.69
385.787	443.69
386.013	464.69
386.238	468.69
386.463	475.69
386.688	485.69
386.913	459.69
387.138	459.69
387.363	476.69
387.588	485.69
387.813	454.69
388.038	459.69
388.263	464.69
388.488	468.69
388.713	460.69
388.938	480.69
389.163	474.69
389.387	452.69
389.612	458.69
389.837	458.69
390.062	449.69
390.287	477.69
390.512	474.69
390.736	456.69
390.961	479.69
391.186	473.69
391.411	476.69
391.636	501.69
391.86	505.69
392.085	491.69
392.31	498.69
392.534	463.69
392.759	482.69
392.984	450.69
393.208	473.69
393.433	442.69
393.658	478.69
393.882	461.69
394.107	476.69
394.331	472.69
394.556	479.69
394.78	471.69
395.005	483.69
395.229	477.69
395.454	487.69
395.678	477.69
395.903	493.69
396.127	537.69
396.352	523.69
396.576	500.69
396.801	479.69
397.025	486.69
397.249	514.69
397.474	500.69
397.698	515.69
397.922	504.69
398.147	522.69
398.371	533.69
398.595	549.69
398.82	538.69
399.044	536.69
399.268	578.69
399.492	633.69
399.717	697.69
399.941	681.69
400.165	675.69
400.389	663.69
400.613	640.69
400.837	575.69
401.062	582.69
401.286	543.69
401.51	541.69
401.734	545.69
401.958	548.69
402.182	554.69
402.406	560.69
402.63	551.69
402.854	566.69
403.078	557.69
403.302	570.69
403.526	572.69
403.75	570.69
403.974	576.69
404.198	586.69
404.422	608.69
404.645	590.69
404.869	589.69
405.093	625.69
405.317	630.69
405.541	688.69
405.765	629.69
405.988	616.69
406.212	623.69
406.436	636.69
406.66	644.69
406.883	598.69
407.107	647.69
407.331	695.69
407.555	766.69
407.778	728.69
408.002	687.69
408.226	646.69
408.449	633.69
408.673	604.69
408.896	637.69
409.12	677.69
409.344	655.69
409.567	579.69
409.791	568.69
410.014	581.69
410.238	544.69
410.461	582.69
410.685	564.69
410.908	585.69
411.132	604.69
411.355	619.69
411.578	610.69
411.802	577.69
412.025	574.69
412.249	566.69
412.472	592.69
412.695	640.69
412.919	613.69
413.142	570.69
413.365	566.69
413.589	553.69
413.812	541.69
414.035	529.69
414.258	529.69
414.482	519.69
414.705	535.69
414.928	532.69
415.151	535.69
415.374	539.69
415.597	543.69
415.821	534.69
416.044	539.69
416.267	514.69
416.49	500.69
416.713	503.69
416.936	538.69
417.159	539.69
417.382	524.69
417.605	546.69
417.828	555.69
418.051	538.69
418.274	539.69
418.497	499.69
418.72	522.69
418.943	518.69
419.166	562.69
419.389	590.69
419.611	585.69
419.834	570.69
420.057	564.69
420.28	561.69
420.503	581.69
420.726	567.69
420.948	570.69
421.171	611.69
421.394	619.69
421.617	573.69
421.839	565.69
422.062	565.69
422.285	571.69
422.507	605.69
422.73	676.69
422.953	648.69
423.175	587.69
423.398	573.69
423.621	564.69
423.843	558.69
424.066	592.69
424.288	600.69
424.511	620.69
424.733	640.69
424.956	682.69
425.178	662.69
425.401	671.69
425.623	683.69
425.846	603.69
426.068	559.69
426.291	560.69
426.513	575.69
426.735	565.69
426.958	590.69
427.18	674.69
427.402	782.69
427.625	859.69
427.847	764.69
428.069	662.69
428.292	590.69
428.514	575.69
428.736	541.69
428.958	518.69
429.181	526.69
429.403	525.69
429.625	518.69
429.847	538.69
430.069	623.69
430.292	610.69
430.514	529.69
430.736	499.69
430.958	492.69
431.18	491.69
431.402	496.69
431.624	484.69
431.846	499.69
432.068	523.69
432.29	488.69
432.512	499.69
432.734	519.69
432.956	503.69
433.178	521.69
433.4	523.69
433.622	501.69
433.844	503.69
434.066	472.69
434.287	502.69
434.509	520.69
434.731	527.69
434.953	542.69
435.175	543.69
435.397	576.69
435.618	566.69
435.84	596.69
436.062	674.69
436.284	735.69
436.505	650.69
436.727	572.69
436.949	542.69
437.17	492.69
437.392	518.69
437.614	538.69
437.835	559.69
438.057	639.69
438.278	728.69
438.5	727.69
438.721	787.69
438.943	772.69
439.165	612.69
439.386	568.69
439.608	549.69
439.829	559.69
440.05	575.69
440.272	612.69
440.493	602.69
440.715	557.69
440.936	550.69
441.158	553.69
441.379	540.69
441.6	569.69
441.822	547.69
442.043	609.69
442.264	680.69
442.486	708.69
442.707	605.69
442.928	576.69
443.149	584.69
443.371	613.69
443.592	622.69
443.813	722.69
444.034	772.69
444.255	662.69
444.476	605.69
444.698	592.69
444.919	619.69
445.14	738.69
445.361	653.69
445.582	598.69
445.803	678.69
446.024	744.69
446.245	735.69
446.466	668.69
446.687	570.69
446.908	547.69
447.129	514.69
447.35	518.69
447.571	504.69
447.792	502.69
448.013	504.69
448.234	499.69
448.455	590.69
448.675	674.69
448.896	776.69
449.117	643.69
449.338	620.69
449.559	729.69
449.779	805.69
450	668.69
450.221	547.69
450.442	516.69
450.662	500.69
450.883	496.69
451.104	518.69
451.324	508.69
451.545	478.69
451.766	480.69
451.986	474.69
452.207	459.69
452.428	463.69
452.648	456.69
452.869	465.69
453.089	477.69
453.31	474.69
453.53	476.69
453.751	456.69
453.971	457.69
454.192	493.69
454.412	476.69
454.633	475.69
454.853	448.69
455.073	457.69
455.294	485.69
455.514	552.69
455.734	517.69
455.955	459.69
456.175	453.69
456.395	441.69
456.616	436.69
456.836	429.69
457.056	430.69
457.276	417.69
457.497	446.69
457.717	436.69
457.937	443.69
458.157	462.69
458.377	434.69
458.598	468.69
458.818	528.69
459.038	577.69
459.258	580.69
459.478	535.69
459.698	516.69
459.918	490.69
460.138	525.69
460.358	506.69
460.578	526.69
460.798	553.69
461.018	548.69
461.238	500.69
461.458	530.69
461.678	524.69
461.898	534.69
462.118	554.69
462.338	530.69
462.558	567.69
462.777	594.69
462.997	585.69
463.217	620.69
463.437	638.69
463.657	603.69
463.876	581.69
464.096	577.69
464.316	563.69
464.536	576.69
464.755	566.69
464.975	567.69
465.195	587.69
465.414	642.69
465.634	570.69
465.854	529.69
466.073	501.69
466.293	505.69
466.512	509.69
466.732	478.69
466.951	492.69
467.171	479.69
467.391	470.69
467.61	492.69
467.829	512.69
468.049	497.69
468.268	512.69
468.488	478.69
468.707	471.69
468.927	476.69
469.146	454.69
469.365	468.69
469.585	464.69
469.804	459.69
470.023	490.69
470.243	501.69
470.462	494.69
470.681	518.69
470.901	482.69
471.12	506.69
471.339	470.69
471.558	488.69
471.777	485.69
471.997	494.69
472.216	508.69
472.435	523.69
472.654	532.69
472.873	511.69
473.092	483.69
473.311	475.69
473.53	485.69
473.749	477.69
473.968	528.69
474.187	613.69
474.406	615.69
474.625	534.69
474.844	498.69
475.063	472.69
475.282	483.69
475.501	480.69
475.72	476.69
475.939	491.69
476.158	500.69
476.377	502.69
476.596	469.69
476.814	499.69
477.033	529.69
477.252	538.69
477.471	520.69
477.69	508.69
477.908	531.69
478.127	529.69
478.346	537.69
478.564	532.69
478.783	531.69
479.002	551.69
479.22	569.69
479.439	573.69
479.658	592.69
479.876	600.69
480.095	615.69
480.313	619.69
480.532	623.69
480.751	621.69
480.969	626.69
481.188	645.69
481.406	743.69
481.624	649.69
481.843	596.69
482.061	583.69
482.28	558.69
482.498	548.69
482.717	572.69
482.935	541.69
483.153	536.69
483.372	563.69
483.59	569.69
483.808	580.69
484.027	555.69
484.245	570.69
484.463	551.69
484.681	571.69
484.9	566.69
485.118	584.69
485.336	569.69
485.554	575.69
485.772	570.69
485.99	579.69
486.209	588.69
486.427	591.69
486.645	596.69
486.863	611.69
487.081	604.69
487.299	601.69
487.517	596.69
487.735	601.69
487.953	615.69
488.171	599.69
488.389	598.69
488.607	602.69
488.825	618.69
489.043	616.69
489.261	621.69
489.479	583.69
489.696	586.69
489.914	616.69
490.132	640.69
490.35	640.69
490.568	632.69
490.786	647.69
491.003	655.69
491.221	665.69
491.439	667.69
491.657	669.69
491.874	700.69
492.092	691.69
492.31	685.69
492.527	692.69
492.745	708.69
492.963	712.69
493.18	710.69
493.398	688.69
493.615	685.69
493.833	714.69
494.05	729.69
494.268	726.69
494.485	703.69
494.703	707.69
494.92	678.69
495.138	712.69
495.355	705.69
495.573	716.69
495.79	692.69
496.008	725.69
496.225	691.69
496.442	714.69
496.66	713.69
496.877	726.69
497.094	717.69
497.312	737.69
497.529	730.69
497.746	776.69
497.963	766.69
498.181	787.69
498.398	804.69
498.615	823.69
498.832	862.69
499.049	876.69
499.267	905.69
499.484	973.69
499.701	994.69
499.918	1024.69
500.135	1146.69
500.352	1135.69
500.569	1218.69
500.786	1195.69
501.003	1170.69
501.22	1117.69
501.437	1060.69
501.654	1007.69
501.871	973.69
