Data from 1985.PennyLincolnUp.Lamp.En5.5.200Scan.071819.P1_HRD10591_17-03-34-970.txt Node
Date: Thu Jul 18 17:03:34 EDT 2019
User: cochatt
Spectrometer: HR+D1059
Trigger mode: 1
Integration Time (sec): 1.000000E-1
Scans to average: 1
Electric dark correction enabled: true
Nonlinearity correction enabled: false
Boxcar width: 0
XAxis mode: Wavelengths
Number of Pixels in Spectrum: 2048
>>>>>Begin Spectral Data<<<<<
223.165	-9.62
223.4	-9.62
223.635	-9.62
223.869	-11.62
224.104	-10.62
224.338	-14.62
224.573	-12.62
224.808	-13.62
225.042	5.38
225.277	-19.62
225.511	-9.62
225.746	2.38
225.98	4.38
226.215	4.38
226.449	9.38
226.683	17.38
226.918	28.38
227.152	30.38
227.387	27.38
227.621	39.38
227.856	52.38
228.09	42.38
228.324	48.38
228.559	53.38
228.793	53.38
229.027	91.38
229.262	96.38
229.496	107.38
229.73	128.38
229.964	141.38
230.199	121.38
230.433	109.38
230.667	109.38
230.901	109.38
231.136	118.38
231.37	125.38
231.604	110.38
231.838	116.38
232.072	111.38
232.306	96.38
232.541	109.38
232.775	103.38
233.009	116.38
233.243	121.38
233.477	98.38
233.711	108.38
233.945	106.38
234.179	124.38
234.413	102.38
234.647	119.38
234.881	120.38
235.115	127.38
235.349	96.38
235.583	131.38
235.817	128.38
236.051	117.38
236.285	119.38
236.519	134.38
236.753	104.38
236.987	138.38
237.221	156.38
237.455	211.38
237.689	165.38
237.922	151.38
238.156	118.38
238.39	120.38
238.624	128.38
238.858	113.38
239.091	110.38
239.325	105.38
239.559	141.38
239.793	108.38
240.027	139.38
240.26	134.38
240.494	156.38
240.728	151.38
240.961	146.38
241.195	163.38
241.429	135.38
241.662	122.38
241.896	147.38
242.13	137.38
242.363	131.38
242.597	136.38
242.83	155.38
243.064	131.38
243.298	129.38
243.531	143.38
243.765	149.38
243.998	153.38
244.232	142.38
244.465	130.38
244.699	151.38
244.932	138.38
245.166	151.38
245.399	149.38
245.633	151.38
245.866	150.38
246.099	148.38
246.333	153.38
246.566	157.38
246.8	138.38
247.033	161.38
247.266	159.38
247.5	147.38
247.733	162.38
247.966	169.38
248.2	166.38
248.433	176.38
248.666	188.38
248.899	181.38
249.133	194.38
249.366	200.38
249.599	197.38
249.832	174.38
250.066	175.38
250.299	191.38
250.532	196.38
250.765	201.38
250.998	206.38
251.231	227.38
251.465	189.38
251.698	199.38
251.931	204.38
252.164	193.38
252.397	181.38
252.63	206.38
252.863	186.38
253.096	208.38
253.329	229.38
253.562	218.38
253.795	208.38
254.028	212.38
254.261	204.38
254.494	245.38
254.727	258.38
254.96	265.38
255.193	250.38
255.426	244.38
255.659	221.38
255.892	216.38
256.124	249.38
256.357	231.38
256.59	236.38
256.823	228.38
257.056	218.38
257.289	202.38
257.521	211.38
257.754	215.38
257.987	218.38
258.22	215.38
258.452	193.38
258.685	186.38
258.918	201.38
259.151	220.38
259.383	221.38
259.616	215.38
259.849	239.38
260.081	216.38
260.314	251.38
260.547	253.38
260.779	245.38
261.012	232.38
261.244	223.38
261.477	226.38
261.71	219.38
261.942	216.38
262.175	225.38
262.407	237.38
262.64	211.38
262.872	211.38
263.105	208.38
263.337	226.38
263.57	215.38
263.802	228.38
264.035	239.38
264.267	218.38
264.499	223.38
264.732	227.38
264.964	228.38
265.197	232.38
265.429	221.38
265.661	233.38
265.894	229.38
266.126	228.38
266.358	227.38
266.591	233.38
266.823	256.38
267.055	232.38
267.287	240.38
267.52	235.38
267.752	238.38
267.984	235.38
268.216	259.38
268.448	229.38
268.681	245.38
268.913	236.38
269.145	265.38
269.377	283.38
269.609	266.38
269.841	265.38
270.073	277.38
270.306	309.38
270.538	318.38
270.77	328.38
271.002	301.38
271.234	284.38
271.466	282.38
271.698	307.38
271.93	324.38
272.162	311.38
272.394	311.38
272.626	321.38
272.858	279.38
273.09	289.38
273.322	300.38
273.553	284.38
273.785	287.38
274.017	275.38
274.249	282.38
274.481	287.38
274.713	284.38
274.945	269.38
275.176	261.38
275.408	278.38
275.64	245.38
275.872	274.38
276.104	269.38
276.335	293.38
276.567	274.38
276.799	297.38
277.031	330.38
277.262	330.38
277.494	340.38
277.726	311.38
277.957	290.38
278.189	287.38
278.421	284.38
278.652	286.38
278.884	283.38
279.115	289.38
279.347	301.38
279.579	267.38
279.81	273.38
280.042	280.38
280.273	289.38
280.505	289.38
280.736	272.38
280.968	289.38
281.199	308.38
281.431	317.38
281.662	297.38
281.894	303.38
282.125	290.38
282.356	313.38
282.588	326.38
282.819	322.38
283.051	324.38
283.282	301.38
283.513	295.38
283.745	301.38
283.976	304.38
284.207	303.38
284.439	299.38
284.67	317.38
284.901	297.38
285.132	299.38
285.364	304.38
285.595	316.38
285.826	305.38
286.057	287.38
286.288	299.38
286.52	300.38
286.751	305.38
286.982	315.38
287.213	308.38
287.444	287.38
287.675	316.38
287.906	341.38
288.138	309.38
288.369	310.38
288.6	331.38
288.831	332.38
289.062	328.38
289.293	331.38
289.524	321.38
289.755	316.38
289.986	303.38
290.217	323.38
290.448	316.38
290.679	324.38
290.91	324.38
291.141	312.38
291.371	319.38
291.602	313.38
291.833	339.38
292.064	316.38
292.295	314.38
292.526	318.38
292.757	317.38
292.987	333.38
293.218	319.38
293.449	343.38
293.68	314.38
293.91	316.38
294.141	330.38
294.372	300.38
294.603	329.38
294.833	321.38
295.064	343.38
295.295	339.38
295.525	320.38
295.756	328.38
295.987	350.38
296.217	372.38
296.448	367.38
296.679	360.38
296.909	306.38
297.14	331.38
297.37	339.38
297.601	347.38
297.831	314.38
298.062	314.38
298.292	331.38
298.523	360.38
298.753	374.38
298.984	341.38
299.214	348.38
299.445	344.38
299.675	339.38
299.905	365.38
300.136	346.38
300.366	361.38
300.597	349.38
300.827	344.38
301.057	349.38
301.288	373.38
301.518	357.38
301.748	363.38
301.979	351.38
302.209	376.38
302.439	377.38
302.669	369.38
302.9	377.38
303.13	371.38
303.36	357.38
303.59	355.38
303.82	368.38
304.051	358.38
304.281	378.38
304.511	376.38
304.741	364.38
304.971	349.38
305.201	343.38
305.431	367.38
305.661	363.38
305.891	342.38
306.121	383.38
306.352	378.38
306.582	374.38
306.812	372.38
307.042	369.38
307.272	376.38
307.502	369.38
307.731	362.38
307.961	379.38
308.191	387.38
308.421	376.38
308.651	369.38
308.881	377.38
309.111	350.38
309.341	376.38
309.571	407.38
309.8	383.38
310.03	393.38
310.26	387.38
310.49	412.38
310.72	393.38
310.949	418.38
311.179	431.38
311.409	418.38
311.639	410.38
311.868	415.38
312.098	393.38
312.328	420.38
312.557	439.38
312.787	437.38
313.017	429.38
313.246	421.38
313.476	408.38
313.706	393.38
313.935	390.38
314.165	423.38
314.394	441.38
314.624	438.38
314.853	438.38
315.083	412.38
315.312	399.38
315.542	405.38
315.771	397.38
316.001	426.38
316.23	409.38
316.46	413.38
316.689	412.38
316.919	391.38
317.148	419.38
317.377	434.38
317.607	417.38
317.836	404.38
318.065	407.38
318.295	423.38
318.524	423.38
318.753	419.38
318.983	409.38
319.212	401.38
319.441	420.38
319.67	438.38
319.9	423.38
320.129	427.38
320.358	445.38
320.587	421.38
320.816	442.38
321.046	431.38
321.275	444.38
321.504	433.38
321.733	433.38
321.962	453.38
322.191	478.38
322.42	453.38
322.649	448.38
322.878	452.38
323.108	492.38
323.337	496.38
323.566	513.38
323.795	535.38
324.024	575.38
324.253	686.38
324.482	939.38
324.71	1411.38
324.939	1976.38
325.168	1690.38
325.397	889.38
325.626	659.38
325.855	567.38
326.084	543.38
326.313	535.38
326.542	550.38
326.77	572.38
326.999	676.38
327.228	855.38
327.457	1246.38
327.686	1500.38
327.914	1020.38
328.143	729.38
328.372	640.38
328.6	588.38
328.829	577.38
329.058	593.38
329.287	582.38
329.515	567.38
329.744	524.38
329.972	541.38
330.201	552.38
330.43	603.38
330.658	606.38
330.887	607.38
331.115	601.38
331.344	540.38
331.572	517.38
331.801	540.38
332.03	523.38
332.258	503.38
332.486	486.38
332.715	520.38
332.943	515.38
333.172	506.38
333.4	508.38
333.629	544.38
333.857	533.38
334.085	570.38
334.314	588.38
334.542	587.38
334.771	601.38
334.999	576.38
335.227	559.38
335.455	509.38
335.684	511.38
335.912	519.38
336.14	502.38
336.369	486.38
336.597	529.38
336.825	496.38
337.053	491.38
337.281	481.38
337.51	468.38
337.738	480.38
337.966	503.38
338.194	511.38
338.422	488.38
338.65	481.38
338.878	505.38
339.106	479.38
339.334	486.38
339.562	465.38
339.79	461.38
340.018	465.38
340.246	452.38
340.474	461.38
340.702	463.38
340.93	465.38
341.158	468.38
341.386	447.38
341.614	451.38
341.842	461.38
342.07	443.38
342.298	455.38
342.526	453.38
342.754	441.38
342.981	460.38
343.209	468.38
343.437	475.38
343.665	469.38
343.893	501.38
344.12	509.38
344.348	504.38
344.576	496.38
344.804	477.38
345.031	487.38
345.259	487.38
345.487	486.38
345.714	458.38
345.942	466.38
346.17	440.38
346.397	443.38
346.625	444.38
346.853	433.38
347.08	434.38
347.308	455.38
347.535	466.38
347.763	469.38
347.99	453.38
348.218	443.38
348.445	467.38
348.673	482.38
348.9	429.38
349.128	449.38
349.355	453.38
349.583	408.38
349.81	438.38
350.037	443.38
350.265	439.38
350.492	432.38
350.72	429.38
350.947	456.38
351.174	429.38
351.402	460.38
351.629	457.38
351.856	451.38
352.083	441.38
352.311	455.38
352.538	447.38
352.765	461.38
352.992	439.38
353.22	426.38
353.447	453.38
353.674	444.38
353.901	410.38
354.128	427.38
354.355	436.38
354.583	416.38
354.81	437.38
355.037	403.38
355.264	435.38
355.491	409.38
355.718	420.38
355.945	417.38
356.172	437.38
356.399	421.38
356.626	404.38
356.853	421.38
357.08	410.38
357.307	419.38
357.534	407.38
357.761	440.38
357.988	428.38
358.215	404.38
358.441	421.38
358.668	415.38
358.895	423.38
359.122	419.38
359.349	445.38
359.576	429.38
359.802	459.38
360.029	481.38
360.256	490.38
360.483	476.38
360.709	444.38
360.936	454.38
361.163	429.38
361.39	439.38
361.616	447.38
361.843	435.38
362.07	428.38
362.296	428.38
362.523	435.38
362.749	426.38
362.976	436.38
363.203	431.38
363.429	415.38
363.656	407.38
363.882	397.38
364.109	421.38
364.335	423.38
364.562	420.38
364.788	431.38
365.015	429.38
365.241	420.38
365.468	429.38
365.694	404.38
365.92	432.38
366.147	431.38
366.373	414.38
366.599	418.38
366.826	421.38
367.052	411.38
367.278	432.38
367.505	432.38
367.731	404.38
367.957	434.38
368.184	423.38
368.41	427.38
368.636	437.38
368.862	439.38
369.089	432.38
369.315	442.38
369.541	439.38
369.767	432.38
369.993	403.38
370.219	421.38
370.445	411.38
370.672	432.38
370.898	414.38
371.124	437.38
371.35	411.38
371.576	416.38
371.802	413.38
372.028	433.38
372.254	418.38
372.48	425.38
372.706	415.38
372.932	425.38
373.158	429.38
373.384	424.38
373.61	425.38
373.835	424.38
374.061	442.38
374.287	434.38
374.513	415.38
374.739	425.38
374.965	447.38
375.191	456.38
375.416	452.38
375.642	417.38
375.868	433.38
376.094	420.38
376.319	419.38
376.545	415.38
376.771	426.38
376.997	425.38
377.222	404.38
377.448	418.38
377.674	394.38
377.899	411.38
378.125	415.38
378.35	423.38
378.576	417.38
378.802	416.38
379.027	412.38
379.253	411.38
379.478	412.38
379.704	424.38
379.929	414.38
380.155	405.38
380.38	419.38
380.606	427.38
380.831	433.38
381.057	433.38
381.282	405.38
381.507	414.38
381.733	411.38
381.958	417.38
382.184	408.38
382.409	424.38
382.634	416.38
382.86	425.38
383.085	438.38
383.31	432.38
383.535	432.38
383.761	452.38
383.986	448.38
384.211	436.38
384.436	449.38
384.662	447.38
384.887	467.38
385.112	467.38
385.337	477.38
385.562	455.38
385.787	452.38
386.013	481.38
386.238	469.38
386.463	466.38
386.688	470.38
386.913	478.38
387.138	468.38
387.363	454.38
387.588	496.38
387.813	476.38
388.038	465.38
388.263	456.38
388.488	460.38
388.713	460.38
388.938	454.38
389.163	465.38
389.387	470.38
389.612	452.38
389.837	479.38
390.062	462.38
390.287	461.38
390.512	461.38
390.736	453.38
390.961	468.38
391.186	484.38
391.411	472.38
391.636	467.38
391.86	471.38
392.085	469.38
392.31	478.38
392.534	471.38
392.759	496.38
392.984	485.38
393.208	471.38
393.433	465.38
393.658	461.38
393.882	481.38
394.107	460.38
394.331	477.38
394.556	477.38
394.78	464.38
395.005	499.38
395.229	495.38
395.454	466.38
395.678	498.38
395.903	514.38
396.127	510.38
396.352	512.38
396.576	492.38
396.801	494.38
397.025	466.38
397.249	469.38
397.474	487.38
397.698	497.38
397.922	497.38
398.147	515.38
398.371	525.38
398.595	526.38
398.82	542.38
399.044	564.38
399.268	587.38
399.492	619.38
399.717	667.38
399.941	693.38
400.165	674.38
400.389	665.38
400.613	608.38
400.837	578.38
401.062	551.38
401.286	551.38
401.51	560.38
401.734	543.38
401.958	541.38
402.182	571.38
402.406	561.38
402.63	561.38
402.854	544.38
403.078	577.38
403.302	568.38
403.526	572.38
403.75	579.38
403.974	584.38
404.198	553.38
404.422	590.38
404.645	578.38
404.869	593.38
405.093	630.38
405.317	628.38
405.541	667.38
405.765	639.38
405.988	605.38
406.212	595.38
406.436	630.38
406.66	625.38
406.883	604.38
407.107	637.38
407.331	692.38
407.555	727.38
407.778	737.38
408.002	677.38
408.226	621.38
408.449	631.38
408.673	623.38
408.896	632.38
409.12	670.38
409.344	628.38
409.567	578.38
409.791	588.38
410.014	567.38
410.238	552.38
410.461	568.38
410.685	581.38
410.908	581.38
411.132	619.38
411.355	630.38
411.578	601.38
411.802	559.38
412.025	561.38
412.249	572.38
412.472	593.38
412.695	623.38
412.919	614.38
413.142	555.38
413.365	559.38
413.589	546.38
413.812	533.38
414.035	519.38
414.258	554.38
414.482	524.38
414.705	535.38
414.928	535.38
415.151	515.38
415.374	522.38
415.597	533.38
415.821	513.38
416.044	527.38
416.267	525.38
416.49	531.38
416.713	510.38
416.936	539.38
417.159	533.38
417.382	524.38
417.605	523.38
417.828	523.38
418.051	536.38
418.274	540.38
418.497	546.38
418.72	554.38
418.943	522.38
419.166	535.38
419.389	581.38
419.611	566.38
419.834	551.38
420.057	556.38
420.28	543.38
420.503	551.38
420.726	555.38
420.948	559.38
421.171	584.38
421.394	609.38
421.617	563.38
421.839	529.38
422.062	542.38
422.285	545.38
422.507	605.38
422.73	655.38
422.953	631.38
423.175	579.38
423.398	550.38
423.621	562.38
423.843	607.38
424.066	576.38
424.288	588.38
424.511	614.38
424.733	642.38
424.956	688.38
425.178	655.38
425.401	665.38
425.623	700.38
425.846	601.38
426.068	591.38
426.291	583.38
426.513	552.38
426.735	568.38
426.958	609.38
427.18	691.38
427.402	802.38
427.625	879.38
427.847	787.38
428.069	657.38
428.292	576.38
428.514	556.38
428.736	528.38
428.958	531.38
429.181	525.38
429.403	501.38
429.625	554.38
429.847	555.38
430.069	603.38
430.292	610.38
430.514	532.38
430.736	493.38
430.958	515.38
431.18	515.38
431.402	492.38
431.624	507.38
431.846	487.38
432.068	501.38
432.29	499.38
432.512	505.38
432.734	499.38
432.956	501.38
433.178	485.38
433.4	517.38
433.622	517.38
433.844	504.38
434.066	506.38
434.287	509.38
434.509	509.38
434.731	523.38
434.953	529.38
435.175	535.38
435.397	550.38
435.618	555.38
435.84	596.38
436.062	692.38
436.284	720.38
436.505	620.38
436.727	571.38
436.949	524.38
437.17	531.38
437.392	522.38
437.614	533.38
437.835	554.38
438.057	657.38
438.278	717.38
438.5	752.38
438.721	791.38
438.943	741.38
439.165	593.38
439.386	586.38
439.608	565.38
439.829	569.38
440.05	576.38
440.272	617.38
440.493	576.38
440.715	543.38
440.936	542.38
441.158	539.38
441.379	525.38
441.6	528.38
441.822	573.38
442.043	611.38
442.264	668.38
442.486	693.38
442.707	608.38
442.928	594.38
443.149	606.38
443.371	609.38
443.592	649.38
443.813	724.38
444.034	793.38
444.255	674.38
444.476	581.38
444.698	597.38
444.919	604.38
445.14	737.38
445.361	647.38
445.582	601.38
445.803	657.38
446.024	753.38
446.245	763.38
446.466	679.38
446.687	584.38
446.908	563.38
447.129	517.38
447.35	509.38
447.571	535.38
447.792	505.38
448.013	525.38
448.234	533.38
448.455	567.38
448.675	683.38
448.896	791.38
449.117	649.38
449.338	597.38
449.559	737.38
449.779	795.38
450	653.38
450.221	543.38
450.442	505.38
450.662	517.38
450.883	506.38
451.104	505.38
451.324	487.38
451.545	474.38
451.766	472.38
451.986	459.38
452.207	473.38
452.428	463.38
452.648	457.38
452.869	480.38
453.089	472.38
453.31	490.38
453.53	467.38
453.751	474.38
453.971	461.38
454.192	476.38
454.412	478.38
454.633	470.38
454.853	464.38
455.073	443.38
455.294	482.38
455.514	547.38
455.734	502.38
455.955	450.38
456.175	426.38
456.395	429.38
456.616	423.38
456.836	451.38
457.056	455.38
457.276	442.38
457.497	452.38
457.717	425.38
457.937	443.38
458.157	440.38
458.377	455.38
458.598	457.38
458.818	525.38
459.038	600.38
459.258	594.38
459.478	561.38
459.698	515.38
459.918	494.38
460.138	536.38
460.358	527.38
460.578	515.38
460.798	532.38
461.018	541.38
461.238	544.38
461.458	546.38
461.678	520.38
461.898	540.38
462.118	545.38
462.338	558.38
462.558	575.38
462.777	567.38
462.997	589.38
463.217	612.38
463.437	634.38
463.657	582.38
463.876	544.38
464.096	565.38
464.316	588.38
464.536	573.38
464.755	556.38
464.975	581.38
465.195	593.38
465.414	635.38
465.634	562.38
465.854	534.38
466.073	496.38
466.293	482.38
466.512	511.38
466.732	505.38
466.951	473.38
467.171	466.38
467.391	488.38
467.61	483.38
467.829	519.38
468.049	479.38
468.268	498.38
468.488	476.38
468.707	458.38
468.927	463.38
469.146	474.38
469.365	454.38
469.585	462.38
469.804	487.38
470.023	476.38
470.243	520.38
470.462	495.38
470.681	511.38
470.901	512.38
471.12	482.38
471.339	490.38
471.558	474.38
471.777	490.38
471.997	484.38
472.216	492.38
472.435	529.38
472.654	519.38
472.873	474.38
473.092	496.38
473.311	485.38
473.53	488.38
473.749	489.38
473.968	518.38
474.187	625.38
474.406	627.38
474.625	519.38
474.844	509.38
475.063	464.38
475.282	492.38
475.501	475.38
475.72	492.38
475.939	522.38
476.158	491.38
476.377	487.38
476.596	485.38
476.814	498.38
477.033	498.38
477.252	514.38
477.471	505.38
477.69	525.38
477.908	535.38
478.127	557.38
478.346	519.38
478.564	564.38
478.783	535.38
479.002	554.38
479.22	548.38
479.439	568.38
479.658	581.38
479.876	597.38
480.095	602.38
480.313	624.38
480.532	618.38
480.751	610.38
480.969	617.38
481.188	662.38
481.406	693.38
481.624	615.38
481.843	577.38
482.061	571.38
482.28	587.38
482.498	552.38
482.717	542.38
482.935	563.38
483.153	551.38
483.372	560.38
483.59	548.38
483.808	541.38
484.027	557.38
484.245	578.38
484.463	563.38
484.681	571.38
484.9	581.38
485.118	579.38
485.336	562.38
485.554	578.38
485.772	575.38
485.99	583.38
486.209	555.38
486.427	574.38
486.645	595.38
486.863	620.38
487.081	594.38
487.299	581.38
487.517	595.38
487.735	593.38
487.953	591.38
488.171	570.38
488.389	620.38
488.607	612.38
488.825	597.38
489.043	588.38
489.261	577.38
489.479	603.38
489.696	594.38
489.914	608.38
490.132	620.38
490.35	627.38
490.568	652.38
490.786	643.38
491.003	659.38
491.221	651.38
491.439	691.38
491.657	666.38
491.874	657.38
492.092	684.38
492.31	708.38
492.527	697.38
492.745	697.38
492.963	704.38
493.18	723.38
493.398	689.38
493.615	716.38
493.833	705.38
494.05	693.38
494.268	717.38
494.485	730.38
494.703	696.38
494.92	714.38
495.138	680.38
495.355	696.38
495.573	708.38
495.79	709.38
496.008	711.38
496.225	721.38
496.442	706.38
496.66	732.38
496.877	725.38
497.094	739.38
497.312	714.38
497.529	721.38
497.746	751.38
497.963	769.38
498.181	777.38
498.398	778.38
498.615	800.38
498.832	849.38
499.049	865.38
499.267	930.38
499.484	927.38
499.701	983.38
499.918	1030.38
500.135	1105.38
500.352	1183.38
500.569	1198.38
500.786	1215.38
501.003	1180.38
501.22	1149.38
501.437	1046.38
501.654	1001.38
501.871	962.38
