Data from 1985.PennyLincolnUp.Lamp.En5.5.200Scan.071819.P1_HRD10591_17-03-35-974.txt Node
Date: Thu Jul 18 17:03:35 EDT 2019
User: cochatt
Spectrometer: HR+D1059
Trigger mode: 1
Integration Time (sec): 1.000000E-1
Scans to average: 1
Electric dark correction enabled: true
Nonlinearity correction enabled: false
Boxcar width: 0
XAxis mode: Wavelengths
Number of Pixels in Spectrum: 2048
>>>>>Begin Spectral Data<<<<<
223.165	-15.75
223.4	-15.75
223.635	-15.75
223.869	-15.75
224.104	-28.75
224.338	-14.75
224.573	-12.75
224.808	-20.75
225.042	-3.75
225.277	-10.75
225.511	10.25
225.746	4.25
225.98	-3.75
226.215	0.25
226.449	12.25
226.683	30.25
226.918	37.25
227.152	32.25
227.387	34.25
227.621	21.25
227.856	43.25
228.09	34.25
228.324	52.25
228.559	69.25
228.793	68.25
229.027	93.25
229.262	87.25
229.496	110.25
229.73	140.25
229.964	134.25
230.199	100.25
230.433	122.25
230.667	122.25
230.901	116.25
231.136	114.25
231.37	104.25
231.604	92.25
231.838	110.25
232.072	105.25
232.306	105.25
232.541	119.25
232.775	105.25
233.009	114.25
233.243	122.25
233.477	119.25
233.711	118.25
233.945	105.25
234.179	115.25
234.413	130.25
234.647	118.25
234.881	121.25
235.115	130.25
235.349	122.25
235.583	119.25
235.817	118.25
236.051	135.25
236.285	137.25
236.519	125.25
236.753	141.25
236.987	145.25
237.221	174.25
237.455	219.25
237.689	198.25
237.922	130.25
238.156	136.25
238.39	138.25
238.624	125.25
238.858	110.25
239.091	124.25
239.325	133.25
239.559	133.25
239.793	121.25
240.027	145.25
240.26	141.25
240.494	150.25
240.728	138.25
240.961	141.25
241.195	153.25
241.429	151.25
241.662	140.25
241.896	129.25
242.13	128.25
242.363	132.25
242.597	137.25
242.83	140.25
243.064	138.25
243.298	125.25
243.531	128.25
243.765	137.25
243.998	148.25
244.232	145.25
244.465	130.25
244.699	142.25
244.932	143.25
245.166	150.25
245.399	141.25
245.633	142.25
245.866	149.25
246.099	156.25
246.333	135.25
246.566	152.25
246.8	169.25
247.033	153.25
247.266	167.25
247.5	167.25
247.733	169.25
247.966	166.25
248.2	178.25
248.433	185.25
248.666	182.25
248.899	192.25
249.133	199.25
249.366	192.25
249.599	182.25
249.832	200.25
250.066	189.25
250.299	178.25
250.532	209.25
250.765	210.25
250.998	228.25
251.231	238.25
251.465	205.25
251.698	209.25
251.931	203.25
252.164	203.25
252.397	185.25
252.63	204.25
252.863	210.25
253.096	223.25
253.329	242.25
253.562	216.25
253.795	209.25
254.028	223.25
254.261	210.25
254.494	240.25
254.727	247.25
254.96	257.25
255.193	274.25
255.426	235.25
255.659	228.25
255.892	232.25
256.124	241.25
256.357	228.25
256.59	253.25
256.823	233.25
257.056	216.25
257.289	203.25
257.521	202.25
257.754	214.25
257.987	216.25
258.22	215.25
258.452	203.25
258.685	200.25
258.918	209.25
259.151	225.25
259.383	231.25
259.616	218.25
259.849	222.25
260.081	223.25
260.314	257.25
260.547	272.25
260.779	250.25
261.012	244.25
261.244	211.25
261.477	225.25
261.71	223.25
261.942	246.25
262.175	244.25
262.407	222.25
262.64	225.25
262.872	219.25
263.105	228.25
263.337	213.25
263.57	205.25
263.802	218.25
264.035	227.25
264.267	224.25
264.499	213.25
264.732	218.25
264.964	211.25
265.197	214.25
265.429	223.25
265.661	224.25
265.894	199.25
266.126	236.25
266.358	241.25
266.591	227.25
266.823	231.25
267.055	236.25
267.287	236.25
267.52	236.25
267.752	261.25
267.984	227.25
268.216	236.25
268.448	244.25
268.681	233.25
268.913	263.25
269.145	260.25
269.377	283.25
269.609	288.25
269.841	298.25
270.073	288.25
270.306	300.25
270.538	335.25
270.77	310.25
271.002	292.25
271.234	306.25
271.466	301.25
271.698	298.25
271.93	302.25
272.162	339.25
272.394	326.25
272.626	310.25
272.858	287.25
273.09	268.25
273.322	277.25
273.553	286.25
273.785	276.25
274.017	279.25
274.249	276.25
274.481	282.25
274.713	281.25
274.945	253.25
275.176	299.25
275.408	288.25
275.64	286.25
275.872	287.25
276.104	303.25
276.335	282.25
276.567	293.25
276.799	300.25
277.031	329.25
277.262	342.25
277.494	327.25
277.726	298.25
277.957	293.25
278.189	293.25
278.421	289.25
278.652	300.25
278.884	297.25
279.115	300.25
279.347	282.25
279.579	296.25
279.81	291.25
280.042	308.25
280.273	288.25
280.505	283.25
280.736	294.25
280.968	301.25
281.199	285.25
281.431	308.25
281.662	301.25
281.894	298.25
282.125	298.25
282.356	292.25
282.588	321.25
282.819	328.25
283.051	306.25
283.282	306.25
283.513	313.25
283.745	294.25
283.976	314.25
284.207	313.25
284.439	311.25
284.67	322.25
284.901	307.25
285.132	306.25
285.364	293.25
285.595	309.25
285.826	306.25
286.057	311.25
286.288	315.25
286.52	319.25
286.751	310.25
286.982	317.25
287.213	310.25
287.444	312.25
287.675	322.25
287.906	337.25
288.138	326.25
288.369	323.25
288.6	334.25
288.831	329.25
289.062	313.25
289.293	332.25
289.524	310.25
289.755	309.25
289.986	311.25
290.217	326.25
290.448	322.25
290.679	321.25
290.91	318.25
291.141	322.25
291.371	328.25
291.602	322.25
291.833	326.25
292.064	327.25
292.295	317.25
292.526	339.25
292.757	301.25
292.987	321.25
293.218	324.25
293.449	357.25
293.68	321.25
293.91	348.25
294.141	318.25
294.372	330.25
294.603	336.25
294.833	331.25
295.064	337.25
295.295	320.25
295.525	322.25
295.756	354.25
295.987	331.25
296.217	350.25
296.448	363.25
296.679	334.25
296.909	342.25
297.14	317.25
297.37	327.25
297.601	350.25
297.831	341.25
298.062	335.25
298.292	329.25
298.523	338.25
298.753	353.25
298.984	344.25
299.214	340.25
299.445	349.25
299.675	359.25
299.905	363.25
300.136	342.25
300.366	351.25
300.597	353.25
300.827	356.25
301.057	357.25
301.288	366.25
301.518	358.25
301.748	369.25
301.979	365.25
302.209	369.25
302.439	379.25
302.669	363.25
302.9	369.25
303.13	372.25
303.36	373.25
303.59	387.25
303.82	386.25
304.051	393.25
304.281	387.25
304.511	389.25
304.741	378.25
304.971	366.25
305.201	363.25
305.431	370.25
305.661	376.25
305.891	374.25
306.121	363.25
306.352	386.25
306.582	374.25
306.812	373.25
307.042	375.25
307.272	362.25
307.502	354.25
307.731	374.25
307.961	372.25
308.191	364.25
308.421	358.25
308.651	347.25
308.881	379.25
309.111	358.25
309.341	370.25
309.571	380.25
309.8	409.25
310.03	407.25
310.26	421.25
310.49	404.25
310.72	417.25
310.949	425.25
311.179	412.25
311.409	435.25
311.639	403.25
311.868	421.25
312.098	397.25
312.328	406.25
312.557	428.25
312.787	412.25
313.017	435.25
313.246	430.25
313.476	412.25
313.706	404.25
313.935	417.25
314.165	438.25
314.394	436.25
314.624	438.25
314.853	417.25
315.083	429.25
315.312	436.25
315.542	416.25
315.771	422.25
316.001	406.25
316.23	421.25
316.46	402.25
316.689	413.25
316.919	418.25
317.148	455.25
317.377	416.25
317.607	422.25
317.836	407.25
318.065	409.25
318.295	422.25
318.524	406.25
318.753	408.25
318.983	429.25
319.212	418.25
319.441	437.25
319.67	404.25
319.9	434.25
320.129	446.25
320.358	409.25
320.587	425.25
320.816	441.25
321.046	433.25
321.275	429.25
321.504	432.25
321.733	434.25
321.962	456.25
322.191	452.25
322.42	459.25
322.649	455.25
322.878	482.25
323.108	488.25
323.337	487.25
323.566	518.25
323.795	562.25
324.024	586.25
324.253	686.25
324.482	970.25
324.71	1451.25
324.939	2071.25
325.168	1767.25
325.397	912.25
325.626	667.25
325.855	558.25
326.084	541.25
326.313	546.25
326.542	536.25
326.77	579.25
326.999	648.25
327.228	867.25
327.457	1284.25
327.686	1522.25
327.914	1013.25
328.143	712.25
328.372	650.25
328.6	622.25
328.829	591.25
329.058	584.25
329.287	598.25
329.515	582.25
329.744	524.25
329.972	529.25
330.201	540.25
330.43	596.25
330.658	599.25
330.887	637.25
331.115	636.25
331.344	577.25
331.572	542.25
331.801	538.25
332.03	544.25
332.258	516.25
332.486	496.25
332.715	520.25
332.943	535.25
333.172	521.25
333.4	526.25
333.629	532.25
333.857	564.25
334.085	563.25
334.314	567.25
334.542	605.25
334.771	609.25
334.999	565.25
335.227	529.25
335.455	542.25
335.684	514.25
335.912	505.25
336.14	488.25
336.369	486.25
336.597	527.25
336.825	534.25
337.053	513.25
337.281	481.25
337.51	496.25
337.738	489.25
337.966	485.25
338.194	485.25
338.422	487.25
338.65	487.25
338.878	466.25
339.106	448.25
339.334	476.25
339.562	468.25
339.79	461.25
340.018	475.25
340.246	492.25
340.474	465.25
340.702	472.25
340.93	489.25
341.158	471.25
341.386	462.25
341.614	468.25
341.842	478.25
342.07	477.25
342.298	444.25
342.526	470.25
342.754	481.25
342.981	437.25
343.209	456.25
343.437	473.25
343.665	484.25
343.893	509.25
344.12	533.25
344.348	483.25
344.576	481.25
344.804	483.25
345.031	488.25
345.259	474.25
345.487	491.25
345.714	462.25
345.942	460.25
346.17	472.25
346.397	449.25
346.625	455.25
346.853	453.25
347.08	451.25
347.308	456.25
347.535	458.25
347.763	468.25
347.99	458.25
348.218	460.25
348.445	474.25
348.673	458.25
348.9	465.25
349.128	442.25
349.355	423.25
349.583	428.25
349.81	425.25
350.037	445.25
350.265	446.25
350.492	444.25
350.72	441.25
350.947	436.25
351.174	458.25
351.402	461.25
351.629	457.25
351.856	437.25
352.083	466.25
352.311	467.25
352.538	439.25
352.765	446.25
352.992	422.25
353.22	444.25
353.447	437.25
353.674	422.25
353.901	422.25
354.128	439.25
354.355	434.25
354.583	426.25
354.81	427.25
355.037	427.25
355.264	422.25
355.491	422.25
355.718	433.25
355.945	428.25
356.172	434.25
356.399	404.25
356.626	392.25
356.853	403.25
357.08	399.25
357.307	424.25
357.534	412.25
357.761	428.25
357.988	419.25
358.215	418.25
358.441	435.25
358.668	437.25
358.895	426.25
359.122	427.25
359.349	461.25
359.576	437.25
359.802	454.25
360.029	458.25
360.256	486.25
360.483	463.25
360.709	452.25
360.936	437.25
361.163	438.25
361.39	457.25
361.616	453.25
361.843	441.25
362.07	436.25
362.296	452.25
362.523	443.25
362.749	428.25
362.976	434.25
363.203	425.25
363.429	440.25
363.656	422.25
363.882	436.25
364.109	427.25
364.335	413.25
364.562	429.25
364.788	435.25
365.015	450.25
365.241	439.25
365.468	410.25
365.694	436.25
365.92	452.25
366.147	430.25
366.373	437.25
366.599	450.25
366.826	446.25
367.052	433.25
367.278	420.25
367.505	399.25
367.731	437.25
367.957	407.25
368.184	424.25
368.41	420.25
368.636	445.25
368.862	434.25
369.089	438.25
369.315	418.25
369.541	431.25
369.767	422.25
369.993	433.25
370.219	412.25
370.445	434.25
370.672	443.25
370.898	411.25
371.124	435.25
371.35	424.25
371.576	432.25
371.802	421.25
372.028	421.25
372.254	427.25
372.48	435.25
372.706	434.25
372.932	455.25
373.158	433.25
373.384	439.25
373.61	454.25
373.835	423.25
374.061	449.25
374.287	438.25
374.513	444.25
374.739	437.25
374.965	438.25
375.191	449.25
375.416	441.25
375.642	451.25
375.868	450.25
376.094	426.25
376.319	423.25
376.545	418.25
376.771	434.25
376.997	417.25
377.222	424.25
377.448	427.25
377.674	411.25
377.899	410.25
378.125	399.25
378.35	416.25
378.576	429.25
378.802	416.25
379.027	420.25
379.253	425.25
379.478	412.25
379.704	404.25
379.929	414.25
380.155	425.25
380.38	415.25
380.606	410.25
380.831	404.25
381.057	417.25
381.282	420.25
381.507	426.25
381.733	435.25
381.958	420.25
382.184	429.25
382.409	414.25
382.634	447.25
382.86	434.25
383.085	435.25
383.31	437.25
383.535	444.25
383.761	427.25
383.986	461.25
384.211	464.25
384.436	462.25
384.662	464.25
384.887	458.25
385.112	482.25
385.337	474.25
385.562	496.25
385.787	463.25
386.013	474.25
386.238	494.25
386.463	492.25
386.688	462.25
386.913	458.25
387.138	453.25
387.363	464.25
387.588	474.25
387.813	470.25
388.038	472.25
388.263	462.25
388.488	448.25
388.713	464.25
388.938	457.25
389.163	456.25
389.387	477.25
389.612	478.25
389.837	465.25
390.062	481.25
390.287	477.25
390.512	478.25
390.736	470.25
390.961	459.25
391.186	474.25
391.411	471.25
391.636	483.25
391.86	485.25
392.085	486.25
392.31	490.25
392.534	496.25
392.759	498.25
392.984	489.25
393.208	462.25
393.433	495.25
393.658	494.25
393.882	485.25
394.107	473.25
394.331	491.25
394.556	474.25
394.78	491.25
395.005	471.25
395.229	474.25
395.454	488.25
395.678	511.25
395.903	534.25
396.127	506.25
396.352	517.25
396.576	507.25
396.801	482.25
397.025	488.25
397.249	491.25
397.474	503.25
397.698	493.25
397.922	512.25
398.147	517.25
398.371	555.25
398.595	544.25
398.82	544.25
399.044	567.25
399.268	607.25
399.492	632.25
399.717	679.25
399.941	697.25
400.165	701.25
400.389	685.25
400.613	618.25
400.837	570.25
401.062	552.25
401.286	565.25
401.51	548.25
401.734	568.25
401.958	551.25
402.182	563.25
402.406	562.25
402.63	567.25
402.854	568.25
403.078	581.25
403.302	596.25
403.526	581.25
403.75	584.25
403.974	573.25
404.198	600.25
404.422	586.25
404.645	589.25
404.869	566.25
405.093	614.25
405.317	661.25
405.541	712.25
405.765	645.25
405.988	586.25
406.212	613.25
406.436	636.25
406.66	642.25
406.883	656.25
407.107	660.25
407.331	662.25
407.555	772.25
407.778	739.25
408.002	681.25
408.226	639.25
408.449	636.25
408.673	603.25
408.896	630.25
409.12	681.25
409.344	661.25
409.567	571.25
409.791	562.25
410.014	571.25
410.238	549.25
410.461	557.25
410.685	578.25
410.908	566.25
411.132	627.25
411.355	631.25
411.578	621.25
411.802	552.25
412.025	565.25
412.249	606.25
412.472	585.25
412.695	635.25
412.919	603.25
413.142	577.25
413.365	565.25
413.589	550.25
413.812	546.25
414.035	542.25
414.258	529.25
414.482	526.25
414.705	533.25
414.928	523.25
415.151	547.25
415.374	546.25
415.597	539.25
415.821	521.25
416.044	538.25
416.267	520.25
416.49	523.25
416.713	503.25
416.936	521.25
417.159	550.25
417.382	542.25
417.605	529.25
417.828	535.25
418.051	547.25
418.274	565.25
418.497	538.25
418.72	541.25
418.943	537.25
419.166	540.25
419.389	569.25
419.611	570.25
419.834	568.25
420.057	580.25
420.28	579.25
420.503	553.25
420.726	545.25
420.948	551.25
421.171	586.25
421.394	624.25
421.617	562.25
421.839	564.25
422.062	557.25
422.285	561.25
422.507	623.25
422.73	669.25
422.953	678.25
423.175	598.25
423.398	580.25
423.621	554.25
423.843	596.25
424.066	592.25
424.288	555.25
424.511	604.25
424.733	640.25
424.956	736.25
425.178	713.25
425.401	682.25
425.623	701.25
425.846	603.25
426.068	582.25
426.291	580.25
426.513	563.25
426.735	567.25
426.958	629.25
427.18	673.25
427.402	793.25
427.625	903.25
427.847	760.25
428.069	655.25
428.292	589.25
428.514	541.25
428.736	537.25
428.958	537.25
429.181	529.25
429.403	516.25
429.625	522.25
429.847	547.25
430.069	610.25
430.292	602.25
430.514	533.25
430.736	532.25
430.958	528.25
431.18	497.25
431.402	489.25
431.624	474.25
431.846	501.25
432.068	501.25
432.29	509.25
432.512	489.25
432.734	512.25
432.956	497.25
433.178	513.25
433.4	524.25
433.622	494.25
433.844	508.25
434.066	512.25
434.287	522.25
434.509	500.25
434.731	510.25
434.953	527.25
435.175	544.25
435.397	574.25
435.618	585.25
435.84	597.25
436.062	685.25
436.284	761.25
436.505	624.25
436.727	556.25
436.949	522.25
437.17	535.25
437.392	524.25
437.614	536.25
437.835	582.25
438.057	616.25
438.278	748.25
438.5	738.25
438.721	822.25
438.943	797.25
439.165	611.25
439.386	562.25
439.608	550.25
439.829	554.25
440.05	582.25
440.272	626.25
440.493	583.25
440.715	558.25
440.936	532.25
441.158	533.25
441.379	542.25
441.6	563.25
441.822	583.25
442.043	610.25
442.264	666.25
442.486	715.25
442.707	611.25
442.928	589.25
443.149	591.25
443.371	614.25
443.592	656.25
443.813	728.25
444.034	807.25
444.255	676.25
444.476	602.25
444.698	609.25
444.919	612.25
445.14	734.25
445.361	636.25
445.582	625.25
445.803	673.25
446.024	734.25
446.245	791.25
446.466	705.25
446.687	612.25
446.908	559.25
447.129	561.25
447.35	502.25
447.571	514.25
447.792	492.25
448.013	548.25
448.234	562.25
448.455	572.25
448.675	701.25
448.896	802.25
449.117	682.25
449.338	642.25
449.559	717.25
449.779	841.25
450	666.25
450.221	564.25
450.442	530.25
450.662	515.25
450.883	515.25
451.104	544.25
451.324	506.25
451.545	493.25
451.766	475.25
451.986	480.25
452.207	451.25
452.428	459.25
452.648	443.25
452.869	465.25
453.089	468.25
453.31	479.25
453.53	486.25
453.751	464.25
453.971	475.25
454.192	500.25
454.412	466.25
454.633	453.25
454.853	462.25
455.073	442.25
455.294	485.25
455.514	541.25
455.734	535.25
455.955	449.25
456.175	430.25
456.395	449.25
456.616	440.25
456.836	438.25
457.056	449.25
457.276	442.25
457.497	447.25
457.717	449.25
457.937	441.25
458.157	447.25
458.377	460.25
458.598	498.25
458.818	526.25
459.038	595.25
459.258	635.25
459.478	526.25
459.698	511.25
459.918	524.25
460.138	499.25
460.358	519.25
460.578	536.25
460.798	517.25
461.018	528.25
461.238	533.25
461.458	516.25
461.678	516.25
461.898	530.25
462.118	527.25
462.338	566.25
462.558	549.25
462.777	578.25
462.997	602.25
463.217	605.25
463.437	601.25
463.657	599.25
463.876	568.25
464.096	577.25
464.316	580.25
464.536	548.25
464.755	571.25
464.975	575.25
465.195	600.25
465.414	659.25
465.634	583.25
465.854	530.25
466.073	535.25
466.293	502.25
466.512	508.25
466.732	493.25
466.951	524.25
467.171	497.25
467.391	485.25
467.61	481.25
467.829	498.25
468.049	500.25
468.268	486.25
468.488	486.25
468.707	478.25
468.927	477.25
469.146	456.25
469.365	461.25
469.585	495.25
469.804	486.25
470.023	502.25
470.243	492.25
470.462	484.25
470.681	524.25
470.901	514.25
471.12	505.25
471.339	470.25
471.558	494.25
471.777	486.25
471.997	481.25
472.216	480.25
472.435	518.25
472.654	515.25
472.873	489.25
473.092	473.25
473.311	477.25
473.53	486.25
473.749	492.25
473.968	534.25
474.187	612.25
474.406	626.25
474.625	543.25
474.844	490.25
475.063	484.25
475.282	478.25
475.501	481.25
475.72	485.25
475.939	491.25
476.158	508.25
476.377	497.25
476.596	502.25
476.814	504.25
477.033	510.25
477.252	518.25
477.471	504.25
477.69	509.25
477.908	539.25
478.127	535.25
478.346	553.25
478.564	554.25
478.783	537.25
479.002	564.25
479.22	592.25
479.439	582.25
479.658	603.25
479.876	615.25
480.095	601.25
480.313	636.25
480.532	634.25
480.751	591.25
480.969	624.25
481.188	650.25
481.406	673.25
481.624	617.25
481.843	594.25
482.061	557.25
482.28	558.25
482.498	576.25
482.717	572.25
482.935	545.25
483.153	544.25
483.372	544.25
483.59	572.25
483.808	578.25
484.027	548.25
484.245	558.25
484.463	571.25
484.681	558.25
484.9	571.25
485.118	575.25
485.336	584.25
485.554	588.25
485.772	594.25
485.99	592.25
486.209	560.25
486.427	561.25
486.645	596.25
486.863	619.25
487.081	593.25
487.299	595.25
487.517	615.25
487.735	603.25
487.953	608.25
488.171	622.25
488.389	586.25
488.607	609.25
488.825	591.25
489.043	612.25
489.261	622.25
489.479	612.25
489.696	636.25
489.914	640.25
490.132	620.25
490.35	631.25
490.568	649.25
490.786	667.25
491.003	648.25
491.221	683.25
491.439	662.25
491.657	680.25
491.874	689.25
492.092	682.25
492.31	690.25
492.527	683.25
492.745	708.25
492.963	695.25
493.18	695.25
493.398	714.25
493.615	705.25
493.833	702.25
494.05	718.25
494.268	683.25
494.485	708.25
494.703	698.25
494.92	720.25
495.138	718.25
495.355	731.25
495.573	714.25
495.79	702.25
496.008	718.25
496.225	708.25
496.442	708.25
496.66	707.25
496.877	710.25
497.094	744.25
497.312	735.25
497.529	741.25
497.746	756.25
497.963	778.25
498.181	814.25
498.398	804.25
498.615	852.25
498.832	869.25
499.049	849.25
499.267	910.25
499.484	960.25
499.701	980.25
499.918	1034.25
500.135	1127.25
500.352	1185.25
500.569	1224.25
500.786	1222.25
501.003	1180.25
501.22	1123.25
501.437	1076.25
501.654	1014.25
501.871	972.25
