Data from 1985.PennyLincolnUp.Lamp.En5.5.200Scan.071819.P1_HRD10591_17-01-45-969.txt Node
Date: Thu Jul 18 17:01:45 EDT 2019
User: cochatt
Spectrometer: HR+D1059
Trigger mode: 1
Integration Time (sec): 1.000000E-1
Scans to average: 1
Electric dark correction enabled: true
Nonlinearity correction enabled: false
Boxcar width: 0
XAxis mode: Wavelengths
Number of Pixels in Spectrum: 2048
>>>>>Begin Spectral Data<<<<<
223.165	-15.69
223.4	-15.69
223.635	-15.69
223.869	-21.69
224.104	-19.69
224.338	-28.69
224.573	-10.69
224.808	-8.69
225.042	-7.69
225.277	2.31
225.511	-1.69
225.746	7.31
225.98	10.31
226.215	21.31
226.449	21.31
226.683	11.31
226.918	15.31
227.152	25.31
227.387	40.31
227.621	46.31
227.856	28.31
228.09	35.31
228.324	63.31
228.559	63.31
228.793	76.31
229.027	93.31
229.262	97.31
229.496	114.31
229.73	125.31
229.964	126.31
230.199	131.31
230.433	117.31
230.667	127.31
230.901	107.31
231.136	109.31
231.37	111.31
231.604	115.31
231.838	96.31
232.072	115.31
232.306	119.31
232.541	114.31
232.775	117.31
233.009	118.31
233.243	110.31
233.477	111.31
233.711	121.31
233.945	135.31
234.179	117.31
234.413	112.31
234.647	110.31
234.881	121.31
235.115	112.31
235.349	111.31
235.583	112.31
235.817	118.31
236.051	124.31
236.285	123.31
236.519	117.31
236.753	123.31
236.987	144.31
237.221	175.31
237.455	193.31
237.689	182.31
237.922	136.31
238.156	127.31
238.39	120.31
238.624	124.31
238.858	125.31
239.091	127.31
239.325	115.31
239.559	133.31
239.793	119.31
240.027	141.31
240.26	144.31
240.494	151.31
240.728	147.31
240.961	134.31
241.195	161.31
241.429	145.31
241.662	128.31
241.896	132.31
242.13	132.31
242.363	128.31
242.597	141.31
242.83	146.31
243.064	135.31
243.298	137.31
243.531	135.31
243.765	136.31
243.998	140.31
244.232	139.31
244.465	145.31
244.699	147.31
244.932	138.31
245.166	141.31
245.399	145.31
245.633	142.31
245.866	151.31
246.099	143.31
246.333	161.31
246.566	147.31
246.8	147.31
247.033	148.31
247.266	168.31
247.5	183.31
247.733	179.31
247.966	160.31
248.2	161.31
248.433	187.31
248.666	160.31
248.899	174.31
249.133	190.31
249.366	195.31
249.599	190.31
249.832	170.31
250.066	173.31
250.299	184.31
250.532	185.31
250.765	184.31
250.998	205.31
251.231	209.31
251.465	215.31
251.698	206.31
251.931	183.31
252.164	198.31
252.397	197.31
252.63	183.31
252.863	174.31
253.096	218.31
253.329	207.31
253.562	218.31
253.795	209.31
254.028	230.31
254.261	220.31
254.494	216.31
254.727	231.31
254.96	239.31
255.193	248.31
255.426	236.31
255.659	215.31
255.892	224.31
256.124	203.31
256.357	197.31
256.59	206.31
256.823	207.31
257.056	201.31
257.289	211.31
257.521	204.31
257.754	208.31
257.987	204.31
258.22	222.31
258.452	204.31
258.685	217.31
258.918	208.31
259.151	212.31
259.383	224.31
259.616	227.31
259.849	231.31
260.081	238.31
260.314	247.31
260.547	249.31
260.779	239.31
261.012	212.31
261.244	228.31
261.477	206.31
261.71	208.31
261.942	219.31
262.175	215.31
262.407	224.31
262.64	222.31
262.872	218.31
263.105	226.31
263.337	213.31
263.57	230.31
263.802	225.31
264.035	215.31
264.267	222.31
264.499	231.31
264.732	213.31
264.964	226.31
265.197	217.31
265.429	228.31
265.661	208.31
265.894	240.31
266.126	228.31
266.358	230.31
266.591	223.31
266.823	221.31
267.055	226.31
267.287	241.31
267.52	241.31
267.752	246.31
267.984	237.31
268.216	252.31
268.448	221.31
268.681	243.31
268.913	251.31
269.145	270.31
269.377	262.31
269.609	264.31
269.841	272.31
270.073	257.31
270.306	286.31
270.538	296.31
270.77	330.31
271.002	291.31
271.234	294.31
271.466	295.31
271.698	301.31
271.93	300.31
272.162	323.31
272.394	322.31
272.626	297.31
272.858	293.31
273.09	301.31
273.322	286.31
273.553	272.31
273.785	282.31
274.017	277.31
274.249	280.31
274.481	287.31
274.713	272.31
274.945	281.31
275.176	275.31
275.408	279.31
275.64	272.31
275.872	263.31
276.104	265.31
276.335	269.31
276.567	281.31
276.799	289.31
277.031	309.31
277.262	323.31
277.494	324.31
277.726	305.31
277.957	292.31
278.189	284.31
278.421	281.31
278.652	283.31
278.884	281.31
279.115	286.31
279.347	303.31
279.579	286.31
279.81	279.31
280.042	281.31
280.273	274.31
280.505	280.31
280.736	292.31
280.968	293.31
281.199	296.31
281.431	297.31
281.662	288.31
281.894	291.31
282.125	309.31
282.356	305.31
282.588	324.31
282.819	317.31
283.051	284.31
283.282	303.31
283.513	300.31
283.745	307.31
283.976	302.31
284.207	315.31
284.439	291.31
284.67	295.31
284.901	307.31
285.132	310.31
285.364	288.31
285.595	288.31
285.826	285.31
286.057	307.31
286.288	315.31
286.52	311.31
286.751	298.31
286.982	295.31
287.213	302.31
287.444	310.31
287.675	322.31
287.906	323.31
288.138	319.31
288.369	327.31
288.6	324.31
288.831	341.31
289.062	319.31
289.293	329.31
289.524	315.31
289.755	307.31
289.986	316.31
290.217	303.31
290.448	303.31
290.679	324.31
290.91	301.31
291.141	333.31
291.371	322.31
291.602	332.31
291.833	324.31
292.064	317.31
292.295	315.31
292.526	312.31
292.757	329.31
292.987	328.31
293.218	334.31
293.449	341.31
293.68	329.31
293.91	322.31
294.141	323.31
294.372	332.31
294.603	317.31
294.833	325.31
295.064	333.31
295.295	325.31
295.525	326.31
295.756	332.31
295.987	327.31
296.217	343.31
296.448	356.31
296.679	347.31
296.909	327.31
297.14	339.31
297.37	364.31
297.601	345.31
297.831	346.31
298.062	335.31
298.292	348.31
298.523	331.31
298.753	348.31
298.984	344.31
299.214	351.31
299.445	362.31
299.675	341.31
299.905	346.31
300.136	351.31
300.366	358.31
300.597	353.31
300.827	352.31
301.057	342.31
301.288	356.31
301.518	361.31
301.748	335.31
301.979	364.31
302.209	385.31
302.439	360.31
302.669	371.31
302.9	363.31
303.13	363.31
303.36	343.31
303.59	376.31
303.82	375.31
304.051	381.31
304.281	377.31
304.511	362.31
304.741	351.31
304.971	368.31
305.201	350.31
305.431	363.31
305.661	362.31
305.891	361.31
306.121	372.31
306.352	361.31
306.582	359.31
306.812	377.31
307.042	373.31
307.272	355.31
307.502	360.31
307.731	372.31
307.961	373.31
308.191	372.31
308.421	375.31
308.651	366.31
308.881	379.31
309.111	361.31
309.341	367.31
309.571	385.31
309.8	391.31
310.03	384.31
310.26	390.31
310.49	394.31
310.72	380.31
310.949	413.31
311.179	433.31
311.409	408.31
311.639	389.31
311.868	397.31
312.098	411.31
312.328	415.31
312.557	415.31
312.787	416.31
313.017	425.31
313.246	419.31
313.476	415.31
313.706	425.31
313.935	414.31
314.165	425.31
314.394	424.31
314.624	444.31
314.853	411.31
315.083	396.31
315.312	399.31
315.542	395.31
315.771	404.31
316.001	413.31
316.23	413.31
316.46	391.31
316.689	413.31
316.919	415.31
317.148	413.31
317.377	421.31
317.607	418.31
317.836	412.31
318.065	437.31
318.295	410.31
318.524	417.31
318.753	424.31
318.983	407.31
319.212	402.31
319.441	417.31
319.67	429.31
319.9	411.31
320.129	419.31
320.358	428.31
320.587	419.31
320.816	435.31
321.046	399.31
321.275	433.31
321.504	421.31
321.733	403.31
321.962	428.31
322.191	455.31
322.42	432.31
322.649	472.31
322.878	456.31
323.108	495.31
323.337	474.31
323.566	490.31
323.795	527.31
324.024	544.31
324.253	661.31
324.482	854.31
324.71	1271.31
324.939	1758.31
325.168	1489.31
325.397	811.31
325.626	607.31
325.855	535.31
326.084	520.31
326.313	512.31
326.542	504.31
326.77	544.31
326.999	587.31
327.228	779.31
327.457	1130.31
327.686	1312.31
327.914	903.31
328.143	654.31
328.372	608.31
328.6	559.31
328.829	555.31
329.058	554.31
329.287	560.31
329.515	537.31
329.744	502.31
329.972	516.31
330.201	518.31
330.43	516.31
330.658	538.31
330.887	579.31
331.115	565.31
331.344	524.31
331.572	489.31
331.801	513.31
332.03	492.31
332.258	510.31
332.486	506.31
332.715	472.31
332.943	487.31
333.172	499.31
333.4	505.31
333.629	504.31
333.857	539.31
334.085	522.31
334.314	524.31
334.542	524.31
334.771	517.31
334.999	528.31
335.227	519.31
335.455	499.31
335.684	511.31
335.912	510.31
336.14	494.31
336.369	480.31
336.597	499.31
336.825	488.31
337.053	486.31
337.281	478.31
337.51	479.31
337.738	492.31
337.966	499.31
338.194	467.31
338.422	503.31
338.65	476.31
338.878	485.31
339.106	454.31
339.334	470.31
339.562	482.31
339.79	458.31
340.018	471.31
340.246	465.31
340.474	466.31
340.702	467.31
340.93	445.31
341.158	465.31
341.386	448.31
341.614	476.31
341.842	463.31
342.07	437.31
342.298	443.31
342.526	444.31
342.754	459.31
342.981	447.31
343.209	445.31
343.437	472.31
343.665	479.31
343.893	488.31
344.12	475.31
344.348	494.31
344.576	485.31
344.804	485.31
345.031	469.31
345.259	491.31
345.487	478.31
345.714	463.31
345.942	466.31
346.17	444.31
346.397	456.31
346.625	434.31
346.853	447.31
347.08	439.31
347.308	447.31
347.535	442.31
347.763	429.31
347.99	451.31
348.218	440.31
348.445	442.31
348.673	445.31
348.9	459.31
349.128	440.31
349.355	429.31
349.583	430.31
349.81	433.31
350.037	423.31
350.265	427.31
350.492	427.31
350.72	422.31
350.947	421.31
351.174	426.31
351.402	439.31
351.629	438.31
351.856	447.31
352.083	449.31
352.311	442.31
352.538	461.31
352.765	467.31
352.992	440.31
353.22	432.31
353.447	431.31
353.674	419.31
353.901	431.31
354.128	435.31
354.355	411.31
354.583	429.31
354.81	420.31
355.037	427.31
355.264	420.31
355.491	427.31
355.718	430.31
355.945	425.31
356.172	424.31
356.399	417.31
356.626	405.31
356.853	416.31
357.08	404.31
357.307	412.31
357.534	413.31
357.761	415.31
357.988	415.31
358.215	437.31
358.441	443.31
358.668	421.31
358.895	441.31
359.122	448.31
359.349	420.31
359.576	423.31
359.802	445.31
360.029	455.31
360.256	468.31
360.483	457.31
360.709	426.31
360.936	443.31
361.163	440.31
361.39	432.31
361.616	417.31
361.843	419.31
362.07	421.31
362.296	410.31
362.523	415.31
362.749	432.31
362.976	427.31
363.203	423.31
363.429	406.31
363.656	431.31
363.882	401.31
364.109	415.31
364.335	421.31
364.562	424.31
364.788	414.31
365.015	415.31
365.241	440.31
365.468	426.31
365.694	421.31
365.92	430.31
366.147	433.31
366.373	420.31
366.599	423.31
366.826	411.31
367.052	400.31
367.278	406.31
367.505	423.31
367.731	428.31
367.957	435.31
368.184	415.31
368.41	426.31
368.636	438.31
368.862	442.31
369.089	409.31
369.315	426.31
369.541	415.31
369.767	405.31
369.993	412.31
370.219	432.31
370.445	437.31
370.672	427.31
370.898	430.31
371.124	419.31
371.35	427.31
371.576	432.31
371.802	431.31
372.028	435.31
372.254	439.31
372.48	415.31
372.706	421.31
372.932	430.31
373.158	419.31
373.384	424.31
373.61	443.31
373.835	433.31
374.061	444.31
374.287	435.31
374.513	441.31
374.739	452.31
374.965	424.31
375.191	433.31
375.416	450.31
375.642	437.31
375.868	421.31
376.094	422.31
376.319	433.31
376.545	431.31
376.771	413.31
376.997	409.31
377.222	423.31
377.448	414.31
377.674	421.31
377.899	419.31
378.125	418.31
378.35	415.31
378.576	401.31
378.802	414.31
379.027	415.31
379.253	422.31
379.478	427.31
379.704	395.31
379.929	421.31
380.155	408.31
380.38	403.31
380.606	427.31
380.831	407.31
381.057	423.31
381.282	425.31
381.507	424.31
381.733	420.31
381.958	416.31
382.184	405.31
382.409	417.31
382.634	448.31
382.86	446.31
383.085	436.31
383.31	443.31
383.535	443.31
383.761	439.31
383.986	446.31
384.211	442.31
384.436	452.31
384.662	452.31
384.887	461.31
385.112	448.31
385.337	469.31
385.562	483.31
385.787	465.31
386.013	477.31
386.238	469.31
386.463	485.31
386.688	473.31
386.913	494.31
387.138	474.31
387.363	475.31
387.588	456.31
387.813	475.31
388.038	461.31
388.263	485.31
388.488	472.31
388.713	478.31
388.938	454.31
389.163	466.31
389.387	463.31
389.612	458.31
389.837	463.31
390.062	441.31
390.287	461.31
390.512	468.31
390.736	455.31
390.961	456.31
391.186	456.31
391.411	464.31
391.636	491.31
391.86	495.31
392.085	493.31
392.31	491.31
392.534	502.31
392.759	485.31
392.984	480.31
393.208	471.31
393.433	480.31
393.658	471.31
393.882	504.31
394.107	463.31
394.331	478.31
394.556	476.31
394.78	490.31
395.005	486.31
395.229	477.31
395.454	495.31
395.678	477.31
395.903	499.31
396.127	534.31
396.352	486.31
396.576	492.31
396.801	491.31
397.025	501.31
397.249	481.31
397.474	494.31
397.698	482.31
397.922	521.31
398.147	504.31
398.371	527.31
398.595	536.31
398.82	533.31
399.044	563.31
399.268	591.31
399.492	643.31
399.717	683.31
399.941	696.31
400.165	691.31
400.389	699.31
400.613	640.31
400.837	564.31
401.062	575.31
401.286	555.31
401.51	558.31
401.734	530.31
401.958	558.31
402.182	533.31
402.406	569.31
402.63	552.31
402.854	567.31
403.078	562.31
403.302	556.31
403.526	575.31
403.75	597.31
403.974	607.31
404.198	587.31
404.422	594.31
404.645	568.31
404.869	573.31
405.093	579.31
405.317	599.31
405.541	626.31
405.765	584.31
405.988	570.31
406.212	585.31
406.436	613.31
406.66	619.31
406.883	620.31
407.107	641.31
407.331	689.31
407.555	739.31
407.778	727.31
408.002	694.31
408.226	639.31
408.449	645.31
408.673	607.31
408.896	632.31
409.12	678.31
409.344	643.31
409.567	599.31
409.791	566.31
410.014	549.31
410.238	576.31
410.461	549.31
410.685	559.31
410.908	575.31
411.132	596.31
411.355	618.31
411.578	595.31
411.802	550.31
412.025	556.31
412.249	575.31
412.472	541.31
412.695	551.31
412.919	559.31
413.142	530.31
413.365	523.31
413.589	522.31
413.812	522.31
414.035	528.31
414.258	540.31
414.482	537.31
414.705	537.31
414.928	540.31
415.151	531.31
415.374	537.31
415.597	526.31
415.821	529.31
416.044	545.31
416.267	527.31
416.49	545.31
416.713	515.31
416.936	524.31
417.159	513.31
417.382	525.31
417.605	534.31
417.828	540.31
418.051	550.31
418.274	549.31
418.497	531.31
418.72	540.31
418.943	517.31
419.166	557.31
419.389	567.31
419.611	563.31
419.834	563.31
420.057	536.31
420.28	560.31
420.503	551.31
420.726	529.31
420.948	571.31
421.171	595.31
421.394	609.31
421.617	544.31
421.839	555.31
422.062	535.31
422.285	537.31
422.507	617.31
422.73	670.31
422.953	649.31
423.175	593.31
423.398	565.31
423.621	581.31
423.843	593.31
424.066	583.31
424.288	592.31
424.511	592.31
424.733	643.31
424.956	723.31
425.178	655.31
425.401	689.31
425.623	669.31
425.846	597.31
426.068	567.31
426.291	581.31
426.513	566.31
426.735	575.31
426.958	615.31
427.18	689.31
427.402	773.31
427.625	862.31
427.847	699.31
428.069	635.31
428.292	573.31
428.514	535.31
428.736	512.31
428.958	525.31
429.181	527.31
429.403	516.31
429.625	508.31
429.847	550.31
430.069	586.31
430.292	599.31
430.514	539.31
430.736	527.31
430.958	508.31
431.18	503.31
431.402	499.31
431.624	493.31
431.846	495.31
432.068	496.31
432.29	498.31
432.512	503.31
432.734	505.31
432.956	519.31
433.178	526.31
433.4	525.31
433.622	506.31
433.844	487.31
434.066	496.31
434.287	507.31
434.509	511.31
434.731	529.31
434.953	537.31
435.175	537.31
435.397	588.31
435.618	552.31
435.84	599.31
436.062	676.31
436.284	729.31
436.505	616.31
436.727	573.31
436.949	538.31
437.17	523.31
437.392	517.31
437.614	531.31
437.835	547.31
438.057	617.31
438.278	732.31
438.5	696.31
438.721	788.31
438.943	726.31
439.165	623.31
439.386	558.31
439.608	546.31
439.829	536.31
440.05	570.31
440.272	604.31
440.493	607.31
440.715	544.31
440.936	541.31
441.158	544.31
441.379	520.31
441.6	542.31
441.822	552.31
442.043	599.31
442.264	678.31
442.486	694.31
442.707	605.31
442.928	575.31
443.149	576.31
443.371	618.31
443.592	621.31
443.813	710.31
444.034	765.31
444.255	654.31
444.476	598.31
444.698	588.31
444.919	603.31
445.14	694.31
445.361	629.31
445.582	610.31
445.803	641.31
446.024	727.31
446.245	743.31
446.466	643.31
446.687	587.31
446.908	533.31
447.129	492.31
447.35	515.31
447.571	499.31
447.792	494.31
448.013	509.31
448.234	511.31
448.455	561.31
448.675	667.31
448.896	771.31
449.117	650.31
449.338	613.31
449.559	713.31
449.779	809.31
450	635.31
450.221	539.31
450.442	513.31
450.662	486.31
450.883	501.31
451.104	495.31
451.324	497.31
451.545	478.31
451.766	468.31
451.986	451.31
452.207	459.31
452.428	441.31
452.648	459.31
452.869	465.31
453.089	463.31
453.31	476.31
453.53	469.31
453.751	484.31
453.971	454.31
454.192	468.31
454.412	472.31
454.633	468.31
454.853	454.31
455.073	450.31
455.294	451.31
455.514	535.31
455.734	498.31
455.955	455.31
456.175	428.31
456.395	430.31
456.616	436.31
456.836	435.31
457.056	419.31
457.276	426.31
457.497	452.31
457.717	442.31
457.937	458.31
458.157	450.31
458.377	454.31
458.598	453.31
458.818	524.31
459.038	577.31
459.258	587.31
459.478	526.31
459.698	524.31
459.918	529.31
460.138	523.31
460.358	518.31
460.578	548.31
460.798	543.31
461.018	556.31
461.238	529.31
461.458	545.31
461.678	515.31
461.898	517.31
462.118	530.31
462.338	553.31
462.558	567.31
462.777	547.31
462.997	597.31
463.217	617.31
463.437	638.31
463.657	598.31
463.876	592.31
464.096	590.31
464.316	570.31
464.536	588.31
464.755	586.31
464.975	589.31
465.195	613.31
465.414	614.31
465.634	577.31
465.854	532.31
466.073	499.31
466.293	488.31
466.512	474.31
466.732	473.31
466.951	481.31
467.171	473.31
467.391	477.31
467.61	514.31
467.829	493.31
468.049	489.31
468.268	490.31
468.488	484.31
468.707	467.31
468.927	451.31
469.146	471.31
469.365	474.31
469.585	460.31
469.804	472.31
470.023	498.31
470.243	480.31
470.462	466.31
470.681	515.31
470.901	477.31
471.12	486.31
471.339	468.31
471.558	493.31
471.777	492.31
471.997	481.31
472.216	476.31
472.435	468.31
472.654	471.31
472.873	458.31
473.092	480.31
473.311	445.31
473.53	463.31
473.749	475.31
473.968	517.31
474.187	577.31
474.406	638.31
474.625	524.31
474.844	492.31
475.063	472.31
475.282	483.31
475.501	488.31
475.72	472.31
475.939	482.31
476.158	513.31
476.377	503.31
476.596	475.31
476.814	490.31
477.033	495.31
477.252	485.31
477.471	521.31
477.69	519.31
477.908	525.31
478.127	515.31
478.346	560.31
478.564	559.31
478.783	538.31
479.002	578.31
479.22	573.31
479.439	544.31
479.658	573.31
479.876	580.31
480.095	592.31
480.313	619.31
480.532	617.31
480.751	583.31
480.969	587.31
481.188	581.31
481.406	580.31
481.624	559.31
481.843	546.31
482.061	583.31
482.28	553.31
482.498	553.31
482.717	584.31
482.935	550.31
483.153	548.31
483.372	532.31
483.59	541.31
483.808	540.31
484.027	564.31
484.245	550.31
484.463	567.31
484.681	583.31
484.9	571.31
485.118	587.31
485.336	558.31
485.554	590.31
485.772	583.31
485.99	572.31
486.209	585.31
486.427	592.31
486.645	589.31
486.863	596.31
487.081	609.31
487.299	632.31
487.517	569.31
487.735	552.31
487.953	599.31
488.171	580.31
488.389	587.31
488.607	567.31
488.825	592.31
489.043	592.31
489.261	600.31
489.479	599.31
489.696	592.31
489.914	568.31
490.132	612.31
490.35	632.31
490.568	605.31
490.786	611.31
491.003	629.31
491.221	636.31
491.439	642.31
491.657	646.31
491.874	655.31
492.092	653.31
492.31	662.31
492.527	665.31
492.745	659.31
492.963	651.31
493.18	674.31
493.398	666.31
493.615	686.31
493.833	685.31
494.05	661.31
494.268	672.31
494.485	665.31
494.703	674.31
494.92	672.31
495.138	646.31
495.355	698.31
495.573	675.31
495.79	699.31
496.008	701.31
496.225	671.31
496.442	679.31
496.66	705.31
496.877	696.31
497.094	720.31
497.312	734.31
497.529	725.31
497.746	746.31
497.963	755.31
498.181	800.31
498.398	777.31
498.615	816.31
498.832	834.31
499.049	872.31
499.267	876.31
499.484	932.31
499.701	992.31
499.918	1065.31
500.135	1106.31
500.352	1192.31
500.569	1184.31
500.786	1211.31
501.003	1160.31
501.22	1092.31
501.437	1047.31
501.654	1007.31
501.871	957.31
