Data from 1985.PennyLincolnUp.Lamp.En5.5.200Scan.071819.P1_HRD10591_17-01-55-970.txt Node
Date: Thu Jul 18 17:01:55 EDT 2019
User: cochatt
Spectrometer: HR+D1059
Trigger mode: 1
Integration Time (sec): 1.000000E-1
Scans to average: 1
Electric dark correction enabled: true
Nonlinearity correction enabled: false
Boxcar width: 0
XAxis mode: Wavelengths
Number of Pixels in Spectrum: 2048
>>>>>Begin Spectral Data<<<<<
223.165	-5.06
223.4	-5.06
223.635	-5.06
223.869	-0.06
224.104	-15.06
224.338	-18.06
224.573	-19.06
224.808	-6.06
225.042	-12.06
225.277	-3.06
225.511	-2.06
225.746	1.94
225.98	1.94
226.215	3.94
226.449	3.94
226.683	12.94
226.918	31.94
227.152	23.94
227.387	31.94
227.621	28.94
227.856	35.94
228.09	48.94
228.324	57.94
228.559	42.94
228.793	63.94
229.027	93.94
229.262	106.94
229.496	105.94
229.73	141.94
229.964	138.94
230.199	118.94
230.433	108.94
230.667	100.94
230.901	114.94
231.136	115.94
231.37	106.94
231.604	105.94
231.838	114.94
232.072	108.94
232.306	125.94
232.541	104.94
232.775	112.94
233.009	95.94
233.243	113.94
233.477	115.94
233.711	118.94
233.945	108.94
234.179	121.94
234.413	116.94
234.647	120.94
234.881	118.94
235.115	115.94
235.349	114.94
235.583	120.94
235.817	120.94
236.051	130.94
236.285	125.94
236.519	125.94
236.753	132.94
236.987	152.94
237.221	164.94
237.455	208.94
237.689	176.94
237.922	127.94
238.156	130.94
238.39	133.94
238.624	119.94
238.858	129.94
239.091	112.94
239.325	129.94
239.559	120.94
239.793	123.94
240.027	133.94
240.26	138.94
240.494	151.94
240.728	145.94
240.961	135.94
241.195	140.94
241.429	134.94
241.662	129.94
241.896	122.94
242.13	123.94
242.363	142.94
242.597	123.94
242.83	133.94
243.064	132.94
243.298	127.94
243.531	144.94
243.765	137.94
243.998	139.94
244.232	153.94
244.465	153.94
244.699	136.94
244.932	144.94
245.166	140.94
245.399	149.94
245.633	142.94
245.866	163.94
246.099	146.94
246.333	152.94
246.566	147.94
246.8	155.94
247.033	158.94
247.266	163.94
247.5	161.94
247.733	155.94
247.966	168.94
248.2	179.94
248.433	162.94
248.666	166.94
248.899	179.94
249.133	190.94
249.366	195.94
249.599	184.94
249.832	177.94
250.066	180.94
250.299	183.94
250.532	177.94
250.765	182.94
250.998	215.94
251.231	221.94
251.465	199.94
251.698	177.94
251.931	200.94
252.164	189.94
252.397	189.94
252.63	198.94
252.863	206.94
253.096	203.94
253.329	218.94
253.562	203.94
253.795	203.94
254.028	232.94
254.261	212.94
254.494	225.94
254.727	243.94
254.96	257.94
255.193	234.94
255.426	223.94
255.659	220.94
255.892	220.94
256.124	211.94
256.357	199.94
256.59	209.94
256.823	193.94
257.056	204.94
257.289	214.94
257.521	209.94
257.754	204.94
257.987	201.94
258.22	221.94
258.452	194.94
258.685	205.94
258.918	203.94
259.151	203.94
259.383	209.94
259.616	221.94
259.849	231.94
260.081	224.94
260.314	231.94
260.547	253.94
260.779	249.94
261.012	235.94
261.244	230.94
261.477	228.94
261.71	209.94
261.942	225.94
262.175	247.94
262.407	231.94
262.64	210.94
262.872	215.94
263.105	208.94
263.337	207.94
263.57	205.94
263.802	220.94
264.035	206.94
264.267	204.94
264.499	221.94
264.732	229.94
264.964	213.94
265.197	228.94
265.429	200.94
265.661	207.94
265.894	215.94
266.126	227.94
266.358	212.94
266.591	217.94
266.823	232.94
267.055	242.94
267.287	236.94
267.52	225.94
267.752	228.94
267.984	231.94
268.216	244.94
268.448	240.94
268.681	243.94
268.913	239.94
269.145	276.94
269.377	305.94
269.609	263.94
269.841	273.94
270.073	283.94
270.306	284.94
270.538	312.94
270.77	314.94
271.002	301.94
271.234	269.94
271.466	305.94
271.698	314.94
271.93	309.94
272.162	315.94
272.394	316.94
272.626	290.94
272.858	298.94
273.09	275.94
273.322	279.94
273.553	280.94
273.785	282.94
274.017	268.94
274.249	254.94
274.481	269.94
274.713	283.94
274.945	283.94
275.176	297.94
275.408	287.94
275.64	278.94
275.872	265.94
276.104	279.94
276.335	266.94
276.567	282.94
276.799	285.94
277.031	309.94
277.262	323.94
277.494	333.94
277.726	307.94
277.957	311.94
278.189	294.94
278.421	286.94
278.652	277.94
278.884	261.94
279.115	294.94
279.347	278.94
279.579	279.94
279.81	298.94
280.042	298.94
280.273	299.94
280.505	297.94
280.736	288.94
280.968	284.94
281.199	288.94
281.431	282.94
281.662	281.94
281.894	280.94
282.125	284.94
282.356	315.94
282.588	323.94
282.819	316.94
283.051	307.94
283.282	281.94
283.513	291.94
283.745	291.94
283.976	295.94
284.207	303.94
284.439	299.94
284.67	307.94
284.901	311.94
285.132	315.94
285.364	308.94
285.595	296.94
285.826	293.94
286.057	289.94
286.288	304.94
286.52	303.94
286.751	306.94
286.982	306.94
287.213	299.94
287.444	298.94
287.675	319.94
287.906	311.94
288.138	308.94
288.369	312.94
288.6	334.94
288.831	317.94
289.062	328.94
289.293	314.94
289.524	307.94
289.755	289.94
289.986	311.94
290.217	297.94
290.448	315.94
290.679	312.94
290.91	327.94
291.141	321.94
291.371	306.94
291.602	318.94
291.833	310.94
292.064	316.94
292.295	304.94
292.526	311.94
292.757	332.94
292.987	319.94
293.218	312.94
293.449	345.94
293.68	322.94
293.91	331.94
294.141	307.94
294.372	322.94
294.603	327.94
294.833	309.94
295.064	308.94
295.295	335.94
295.525	335.94
295.756	336.94
295.987	325.94
296.217	362.94
296.448	373.94
296.679	341.94
296.909	319.94
297.14	366.94
297.37	340.94
297.601	347.94
297.831	323.94
298.062	320.94
298.292	337.94
298.523	359.94
298.753	332.94
298.984	348.94
299.214	341.94
299.445	325.94
299.675	368.94
299.905	333.94
300.136	334.94
300.366	353.94
300.597	360.94
300.827	378.94
301.057	352.94
301.288	371.94
301.518	362.94
301.748	369.94
301.979	364.94
302.209	370.94
302.439	365.94
302.669	361.94
302.9	375.94
303.13	374.94
303.36	358.94
303.59	356.94
303.82	365.94
304.051	371.94
304.281	362.94
304.511	367.94
304.741	361.94
304.971	362.94
305.201	356.94
305.431	372.94
305.661	367.94
305.891	346.94
306.121	361.94
306.352	377.94
306.582	377.94
306.812	377.94
307.042	348.94
307.272	359.94
307.502	363.94
307.731	370.94
307.961	381.94
308.191	352.94
308.421	364.94
308.651	371.94
308.881	371.94
309.111	386.94
309.341	369.94
309.571	399.94
309.8	388.94
310.03	395.94
310.26	390.94
310.49	396.94
310.72	416.94
310.949	413.94
311.179	428.94
311.409	398.94
311.639	398.94
311.868	396.94
312.098	393.94
312.328	404.94
312.557	417.94
312.787	459.94
313.017	427.94
313.246	410.94
313.476	405.94
313.706	414.94
313.935	429.94
314.165	442.94
314.394	427.94
314.624	417.94
314.853	414.94
315.083	417.94
315.312	422.94
315.542	423.94
315.771	404.94
316.001	403.94
316.23	403.94
316.46	413.94
316.689	411.94
316.919	398.94
317.148	418.94
317.377	410.94
317.607	421.94
317.836	422.94
318.065	421.94
318.295	414.94
318.524	429.94
318.753	429.94
318.983	393.94
319.212	409.94
319.441	408.94
319.67	426.94
319.9	427.94
320.129	397.94
320.358	408.94
320.587	407.94
320.816	441.94
321.046	431.94
321.275	433.94
321.504	419.94
321.733	405.94
321.962	422.94
322.191	458.94
322.42	442.94
322.649	467.94
322.878	476.94
323.108	480.94
323.337	486.94
323.566	525.94
323.795	560.94
324.024	584.94
324.253	641.94
324.482	918.94
324.71	1364.94
324.939	1937.94
325.168	1621.94
325.397	870.94
325.626	597.94
325.855	547.94
326.084	496.94
326.313	517.94
326.542	489.94
326.77	563.94
326.999	647.94
327.228	832.94
327.457	1193.94
327.686	1397.94
327.914	968.94
328.143	677.94
328.372	614.94
328.6	572.94
328.829	564.94
329.058	592.94
329.287	577.94
329.515	573.94
329.744	513.94
329.972	505.94
330.201	506.94
330.43	529.94
330.658	567.94
330.887	595.94
331.115	588.94
331.344	534.94
331.572	513.94
331.801	502.94
332.03	543.94
332.258	509.94
332.486	510.94
332.715	497.94
332.943	498.94
333.172	509.94
333.4	501.94
333.629	531.94
333.857	535.94
334.085	519.94
334.314	539.94
334.542	524.94
334.771	529.94
334.999	511.94
335.227	520.94
335.455	511.94
335.684	501.94
335.912	520.94
336.14	495.94
336.369	483.94
336.597	497.94
336.825	496.94
337.053	503.94
337.281	501.94
337.51	491.94
337.738	497.94
337.966	496.94
338.194	488.94
338.422	488.94
338.65	466.94
338.878	468.94
339.106	479.94
339.334	484.94
339.562	453.94
339.79	458.94
340.018	449.94
340.246	473.94
340.474	442.94
340.702	470.94
340.93	456.94
341.158	472.94
341.386	477.94
341.614	425.94
341.842	483.94
342.07	448.94
342.298	440.94
342.526	461.94
342.754	450.94
342.981	456.94
343.209	460.94
343.437	452.94
343.665	476.94
343.893	481.94
344.12	497.94
344.348	465.94
344.576	480.94
344.804	458.94
345.031	475.94
345.259	495.94
345.487	479.94
345.714	448.94
345.942	465.94
346.17	431.94
346.397	454.94
346.625	428.94
346.853	433.94
347.08	443.94
347.308	444.94
347.535	439.94
347.763	461.94
347.99	446.94
348.218	449.94
348.445	454.94
348.673	464.94
348.9	436.94
349.128	426.94
349.355	415.94
349.583	427.94
349.81	438.94
350.037	429.94
350.265	423.94
350.492	439.94
350.72	422.94
350.947	434.94
351.174	468.94
351.402	448.94
351.629	454.94
351.856	431.94
352.083	461.94
352.311	462.94
352.538	451.94
352.765	475.94
352.992	445.94
353.22	439.94
353.447	440.94
353.674	432.94
353.901	414.94
354.128	428.94
354.355	422.94
354.583	407.94
354.81	407.94
355.037	409.94
355.264	418.94
355.491	405.94
355.718	413.94
355.945	405.94
356.172	416.94
356.399	409.94
356.626	384.94
356.853	420.94
357.08	383.94
357.307	423.94
357.534	418.94
357.761	411.94
357.988	411.94
358.215	409.94
358.441	408.94
358.668	405.94
358.895	415.94
359.122	421.94
359.349	415.94
359.576	448.94
359.802	439.94
360.029	466.94
360.256	483.94
360.483	449.94
360.709	444.94
360.936	447.94
361.163	444.94
361.39	433.94
361.616	429.94
361.843	426.94
362.07	438.94
362.296	423.94
362.523	421.94
362.749	435.94
362.976	412.94
363.203	438.94
363.429	411.94
363.656	424.94
363.882	434.94
364.109	413.94
364.335	411.94
364.562	436.94
364.788	420.94
365.015	415.94
365.241	433.94
365.468	407.94
365.694	431.94
365.92	423.94
366.147	401.94
366.373	417.94
366.599	426.94
366.826	415.94
367.052	407.94
367.278	418.94
367.505	417.94
367.731	430.94
367.957	386.94
368.184	422.94
368.41	434.94
368.636	419.94
368.862	443.94
369.089	423.94
369.315	440.94
369.541	437.94
369.767	409.94
369.993	406.94
370.219	415.94
370.445	429.94
370.672	424.94
370.898	416.94
371.124	421.94
371.35	419.94
371.576	421.94
371.802	424.94
372.028	439.94
372.254	436.94
372.48	444.94
372.706	410.94
372.932	407.94
373.158	435.94
373.384	418.94
373.61	420.94
373.835	415.94
374.061	411.94
374.287	415.94
374.513	440.94
374.739	424.94
374.965	432.94
375.191	415.94
375.416	431.94
375.642	430.94
375.868	432.94
376.094	428.94
376.319	431.94
376.545	413.94
376.771	424.94
376.997	433.94
377.222	409.94
377.448	424.94
377.674	402.94
377.899	434.94
378.125	405.94
378.35	408.94
378.576	396.94
378.802	411.94
379.027	418.94
379.253	426.94
379.478	433.94
379.704	379.94
379.929	408.94
380.155	405.94
380.38	420.94
380.606	429.94
380.831	423.94
381.057	417.94
381.282	407.94
381.507	425.94
381.733	426.94
381.958	422.94
382.184	425.94
382.409	419.94
382.634	418.94
382.86	438.94
383.085	421.94
383.31	423.94
383.535	438.94
383.761	437.94
383.986	436.94
384.211	459.94
384.436	460.94
384.662	459.94
384.887	444.94
385.112	467.94
385.337	471.94
385.562	435.94
385.787	477.94
386.013	487.94
386.238	484.94
386.463	482.94
386.688	463.94
386.913	477.94
387.138	467.94
387.363	463.94
387.588	481.94
387.813	488.94
388.038	473.94
388.263	471.94
388.488	480.94
388.713	470.94
388.938	457.94
389.163	482.94
389.387	469.94
389.612	461.94
389.837	463.94
390.062	444.94
390.287	453.94
390.512	471.94
390.736	451.94
390.961	459.94
391.186	490.94
391.411	480.94
391.636	470.94
391.86	468.94
392.085	467.94
392.31	468.94
392.534	495.94
392.759	469.94
392.984	475.94
393.208	478.94
393.433	460.94
393.658	482.94
393.882	465.94
394.107	451.94
394.331	490.94
394.556	484.94
394.78	470.94
395.005	487.94
395.229	479.94
395.454	501.94
395.678	503.94
395.903	493.94
396.127	507.94
396.352	537.94
396.576	490.94
396.801	487.94
397.025	496.94
397.249	501.94
397.474	518.94
397.698	506.94
397.922	515.94
398.147	506.94
398.371	533.94
398.595	525.94
398.82	562.94
399.044	543.94
399.268	586.94
399.492	628.94
399.717	674.94
399.941	677.94
400.165	696.94
400.389	677.94
400.613	623.94
400.837	592.94
401.062	563.94
401.286	553.94
401.51	556.94
401.734	524.94
401.958	540.94
402.182	557.94
402.406	581.94
402.63	570.94
402.854	551.94
403.078	552.94
403.302	559.94
403.526	559.94
403.75	569.94
403.974	576.94
404.198	585.94
404.422	580.94
404.645	553.94
404.869	579.94
405.093	597.94
405.317	626.94
405.541	623.94
405.765	612.94
405.988	586.94
406.212	611.94
406.436	600.94
406.66	629.94
406.883	599.94
407.107	663.94
407.331	664.94
407.555	750.94
407.778	721.94
408.002	646.94
408.226	637.94
408.449	604.94
408.673	596.94
408.896	653.94
409.12	674.94
409.344	639.94
409.567	594.94
409.791	589.94
410.014	568.94
410.238	563.94
410.461	566.94
410.685	574.94
410.908	577.94
411.132	602.94
411.355	637.94
411.578	594.94
411.802	576.94
412.025	563.94
412.249	539.94
412.472	538.94
412.695	550.94
412.919	544.94
413.142	531.94
413.365	535.94
413.589	551.94
413.812	545.94
414.035	528.94
414.258	522.94
414.482	511.94
414.705	511.94
414.928	534.94
415.151	541.94
415.374	523.94
415.597	534.94
415.821	523.94
416.044	525.94
416.267	522.94
416.49	527.94
416.713	484.94
416.936	533.94
417.159	505.94
417.382	536.94
417.605	544.94
417.828	502.94
418.051	544.94
418.274	554.94
418.497	518.94
418.72	522.94
418.943	540.94
419.166	543.94
419.389	587.94
419.611	563.94
419.834	553.94
420.057	521.94
420.28	529.94
420.503	537.94
420.726	530.94
420.948	525.94
421.171	581.94
421.394	595.94
421.617	554.94
421.839	537.94
422.062	547.94
422.285	555.94
422.507	598.94
422.73	672.94
422.953	663.94
423.175	609.94
423.398	577.94
423.621	552.94
423.843	579.94
424.066	595.94
424.288	575.94
424.511	576.94
424.733	632.94
424.956	721.94
425.178	667.94
425.401	671.94
425.623	691.94
425.846	596.94
426.068	583.94
426.291	553.94
426.513	581.94
426.735	571.94
426.958	592.94
427.18	678.94
427.402	796.94
427.625	869.94
427.847	742.94
428.069	623.94
428.292	593.94
428.514	548.94
428.736	522.94
428.958	526.94
429.181	527.94
429.403	510.94
429.625	522.94
429.847	556.94
430.069	629.94
430.292	606.94
430.514	535.94
430.736	512.94
430.958	525.94
431.18	498.94
431.402	490.94
431.624	485.94
431.846	475.94
432.068	472.94
432.29	511.94
432.512	500.94
432.734	502.94
432.956	500.94
433.178	486.94
433.4	492.94
433.622	497.94
433.844	491.94
434.066	499.94
434.287	489.94
434.509	499.94
434.731	522.94
434.953	522.94
435.175	537.94
435.397	555.94
435.618	564.94
435.84	592.94
436.062	658.94
436.284	733.94
436.505	606.94
436.727	563.94
436.949	527.94
437.17	524.94
437.392	516.94
437.614	521.94
437.835	538.94
438.057	634.94
438.278	723.94
438.5	724.94
438.721	807.94
438.943	768.94
439.165	623.94
439.386	567.94
439.608	575.94
439.829	545.94
440.05	552.94
440.272	603.94
440.493	578.94
440.715	546.94
440.936	525.94
441.158	546.94
441.379	521.94
441.6	551.94
441.822	568.94
442.043	608.94
442.264	674.94
442.486	707.94
442.707	627.94
442.928	569.94
443.149	615.94
443.371	605.94
443.592	636.94
443.813	727.94
444.034	795.94
444.255	668.94
444.476	598.94
444.698	580.94
444.919	594.94
445.14	691.94
445.361	610.94
445.582	628.94
445.803	669.94
446.024	747.94
446.245	745.94
446.466	678.94
446.687	573.94
446.908	556.94
447.129	529.94
447.35	503.94
447.571	497.94
447.792	501.94
448.013	503.94
448.234	527.94
448.455	568.94
448.675	680.94
448.896	761.94
449.117	657.94
449.338	616.94
449.559	707.94
449.779	822.94
450	651.94
450.221	545.94
450.442	488.94
450.662	507.94
450.883	488.94
451.104	517.94
451.324	515.94
451.545	477.94
451.766	466.94
451.986	459.94
452.207	461.94
452.428	458.94
452.648	437.94
452.869	461.94
453.089	478.94
453.31	468.94
453.53	471.94
453.751	467.94
453.971	460.94
454.192	471.94
454.412	458.94
454.633	467.94
454.853	442.94
455.073	470.94
455.294	456.94
455.514	539.94
455.734	516.94
455.955	457.94
456.175	437.94
456.395	455.94
456.616	430.94
456.836	435.94
457.056	437.94
457.276	435.94
457.497	419.94
457.717	434.94
457.937	459.94
458.157	440.94
458.377	442.94
458.598	477.94
458.818	512.94
459.038	607.94
459.258	593.94
459.478	512.94
459.698	513.94
459.918	492.94
460.138	516.94
460.358	503.94
460.578	511.94
460.798	535.94
461.018	532.94
461.238	524.94
461.458	519.94
461.678	531.94
461.898	522.94
462.118	524.94
462.338	548.94
462.558	555.94
462.777	574.94
462.997	588.94
463.217	599.94
463.437	602.94
463.657	598.94
463.876	580.94
464.096	577.94
464.316	592.94
464.536	570.94
464.755	579.94
464.975	559.94
465.195	585.94
465.414	640.94
465.634	583.94
465.854	546.94
466.073	498.94
466.293	504.94
466.512	485.94
466.732	478.94
466.951	496.94
467.171	481.94
467.391	489.94
467.61	499.94
467.829	502.94
468.049	464.94
468.268	475.94
468.488	454.94
468.707	437.94
468.927	470.94
469.146	453.94
469.365	475.94
469.585	461.94
469.804	463.94
470.023	484.94
470.243	517.94
470.462	493.94
470.681	545.94
470.901	513.94
471.12	521.94
471.339	476.94
471.558	480.94
471.777	489.94
471.997	487.94
472.216	473.94
472.435	447.94
472.654	468.94
472.873	481.94
473.092	474.94
473.311	477.94
473.53	463.94
473.749	479.94
473.968	484.94
474.187	588.94
474.406	616.94
474.625	518.94
474.844	496.94
475.063	475.94
475.282	466.94
475.501	492.94
475.72	501.94
475.939	471.94
476.158	493.94
476.377	506.94
476.596	460.94
476.814	516.94
477.033	513.94
477.252	513.94
477.471	506.94
477.69	516.94
477.908	534.94
478.127	531.94
478.346	530.94
478.564	549.94
478.783	547.94
479.002	535.94
479.22	561.94
479.439	572.94
479.658	565.94
479.876	602.94
480.095	593.94
480.313	631.94
480.532	603.94
480.751	620.94
480.969	599.94
481.188	601.94
481.406	585.94
481.624	603.94
481.843	555.94
482.061	555.94
482.28	560.94
482.498	540.94
482.717	552.94
482.935	559.94
483.153	535.94
483.372	546.94
483.59	555.94
483.808	547.94
484.027	552.94
484.245	549.94
484.463	541.94
484.681	552.94
484.9	549.94
485.118	572.94
485.336	568.94
485.554	595.94
485.772	557.94
485.99	578.94
486.209	579.94
486.427	591.94
486.645	577.94
486.863	611.94
487.081	602.94
487.299	618.94
487.517	603.94
487.735	572.94
487.953	593.94
488.171	563.94
488.389	586.94
488.607	592.94
488.825	593.94
489.043	598.94
489.261	607.94
489.479	594.94
489.696	625.94
489.914	616.94
490.132	612.94
490.35	596.94
490.568	587.94
490.786	635.94
491.003	645.94
491.221	607.94
491.439	627.94
491.657	641.94
491.874	676.94
492.092	652.94
492.31	659.94
492.527	641.94
492.745	673.94
492.963	665.94
493.18	684.94
493.398	678.94
493.615	695.94
493.833	700.94
494.05	691.94
494.268	690.94
494.485	673.94
494.703	691.94
494.92	666.94
495.138	696.94
495.355	696.94
495.573	676.94
495.79	669.94
496.008	712.94
496.225	673.94
496.442	701.94
496.66	692.94
496.877	697.94
497.094	690.94
497.312	730.94
497.529	748.94
497.746	736.94
497.963	748.94
498.181	782.94
498.398	791.94
498.615	817.94
498.832	817.94
499.049	860.94
499.267	897.94
499.484	945.94
499.701	1000.94
499.918	1012.94
500.135	1126.94
500.352	1172.94
500.569	1190.94
500.786	1197.94
501.003	1173.94
501.22	1102.94
501.437	1043.94
501.654	994.94
501.871	948.94
