Data from 1986.PennyLincolnUp.Lamp.En5.5.200Scan.071819.P2_HRD10591_17-12-17-974.txt Node
Date: Thu Jul 18 17:12:17 EDT 2019
User: cochatt
Spectrometer: HR+D1059
Trigger mode: 1
Integration Time (sec): 1.000000E-1
Scans to average: 1
Electric dark correction enabled: true
Nonlinearity correction enabled: false
Boxcar width: 0
XAxis mode: Wavelengths
Number of Pixels in Spectrum: 2048
>>>>>Begin Spectral Data<<<<<
223.165	-12.56
223.4	-12.56
223.635	-12.56
223.869	-19.56
224.104	-16.56
224.338	-4.56
224.573	-14.56
224.808	-14.56
225.042	-12.56
225.277	-4.56
225.511	2.44
225.746	0.44
225.98	5.44
226.215	13.44
226.449	17.44
226.683	21.44
226.918	13.44
227.152	25.44
227.387	23.44
227.621	23.44
227.856	29.44
228.09	31.44
228.324	47.44
228.559	56.44
228.793	72.44
229.027	97.44
229.262	107.44
229.496	130.44
229.73	155.44
229.964	147.44
230.199	136.44
230.433	132.44
230.667	103.44
230.901	113.44
231.136	110.44
231.37	112.44
231.604	131.44
231.838	107.44
232.072	117.44
232.306	105.44
232.541	119.44
232.775	103.44
233.009	127.44
233.243	103.44
233.477	120.44
233.711	124.44
233.945	119.44
234.179	103.44
234.413	127.44
234.647	109.44
234.881	100.44
235.115	122.44
235.349	101.44
235.583	111.44
235.817	132.44
236.051	127.44
236.285	131.44
236.519	119.44
236.753	135.44
236.987	147.44
237.221	181.44
237.455	236.44
237.689	197.44
237.922	138.44
238.156	132.44
238.39	139.44
238.624	125.44
238.858	124.44
239.091	134.44
239.325	134.44
239.559	133.44
239.793	117.44
240.027	140.44
240.26	163.44
240.494	155.44
240.728	149.44
240.961	140.44
241.195	150.44
241.429	134.44
241.662	139.44
241.896	146.44
242.13	146.44
242.363	135.44
242.597	137.44
242.83	136.44
243.064	123.44
243.298	142.44
243.531	165.44
243.765	140.44
243.998	136.44
244.232	153.44
244.465	163.44
244.699	141.44
244.932	151.44
245.166	157.44
245.399	152.44
245.633	141.44
245.866	153.44
246.099	167.44
246.333	141.44
246.566	149.44
246.8	153.44
247.033	173.44
247.266	162.44
247.5	156.44
247.733	165.44
247.966	184.44
248.2	181.44
248.433	178.44
248.666	173.44
248.899	207.44
249.133	204.44
249.366	228.44
249.599	193.44
249.832	210.44
250.066	183.44
250.299	203.44
250.532	224.44
250.765	249.44
250.998	249.44
251.231	264.44
251.465	242.44
251.698	230.44
251.931	227.44
252.164	213.44
252.397	204.44
252.63	223.44
252.863	226.44
253.096	220.44
253.329	236.44
253.562	246.44
253.795	218.44
254.028	259.44
254.261	231.44
254.494	248.44
254.727	275.44
254.96	290.44
255.193	303.44
255.426	287.44
255.659	282.44
255.892	294.44
256.124	327.44
256.357	355.44
256.59	329.44
256.823	279.44
257.056	266.44
257.289	257.44
257.521	251.44
257.754	233.44
257.987	244.44
258.22	219.44
258.452	233.44
258.685	236.44
258.918	227.44
259.151	238.44
259.383	233.44
259.616	220.44
259.849	223.44
260.081	232.44
260.314	255.44
260.547	270.44
260.779	262.44
261.012	225.44
261.244	246.44
261.477	226.44
261.71	228.44
261.942	252.44
262.175	233.44
262.407	250.44
262.64	225.44
262.872	220.44
263.105	214.44
263.337	220.44
263.57	240.44
263.802	214.44
264.035	222.44
264.267	215.44
264.499	225.44
264.732	195.44
264.964	219.44
265.197	207.44
265.429	208.44
265.661	216.44
265.894	214.44
266.126	227.44
266.358	216.44
266.591	227.44
266.823	230.44
267.055	239.44
267.287	228.44
267.52	227.44
267.752	227.44
267.984	237.44
268.216	227.44
268.448	216.44
268.681	225.44
268.913	230.44
269.145	268.44
269.377	282.44
269.609	275.44
269.841	276.44
270.073	269.44
270.306	299.44
270.538	310.44
270.77	321.44
271.002	297.44
271.234	307.44
271.466	312.44
271.698	311.44
271.93	319.44
272.162	338.44
272.394	333.44
272.626	314.44
272.858	277.44
273.09	280.44
273.322	270.44
273.553	288.44
273.785	262.44
274.017	267.44
274.249	258.44
274.481	263.44
274.713	276.44
274.945	271.44
275.176	261.44
275.408	250.44
275.64	270.44
275.872	255.44
276.104	264.44
276.335	284.44
276.567	277.44
276.799	294.44
277.031	319.44
277.262	327.44
277.494	329.44
277.726	324.44
277.957	298.44
278.189	279.44
278.421	295.44
278.652	267.44
278.884	284.44
279.115	277.44
279.347	270.44
279.579	262.44
279.81	272.44
280.042	247.44
280.273	288.44
280.505	290.44
280.736	276.44
280.968	265.44
281.199	286.44
281.431	275.44
281.662	267.44
281.894	262.44
282.125	284.44
282.356	296.44
282.588	303.44
282.819	320.44
283.051	279.44
283.282	278.44
283.513	283.44
283.745	261.44
283.976	271.44
284.207	263.44
284.439	277.44
284.67	263.44
284.901	263.44
285.132	284.44
285.364	267.44
285.595	284.44
285.826	283.44
286.057	284.44
286.288	280.44
286.52	274.44
286.751	272.44
286.982	270.44
287.213	273.44
287.444	279.44
287.675	284.44
287.906	311.44
288.138	307.44
288.369	286.44
288.6	284.44
288.831	284.44
289.062	282.44
289.293	282.44
289.524	277.44
289.755	300.44
289.986	289.44
290.217	264.44
290.448	301.44
290.679	298.44
290.91	284.44
291.141	275.44
291.371	277.44
291.602	280.44
291.833	272.44
292.064	280.44
292.295	274.44
292.526	270.44
292.757	264.44
292.987	265.44
293.218	276.44
293.449	271.44
293.68	270.44
293.91	284.44
294.141	266.44
294.372	275.44
294.603	265.44
294.833	283.44
295.064	285.44
295.295	289.44
295.525	305.44
295.756	290.44
295.987	292.44
296.217	309.44
296.448	325.44
296.679	316.44
296.909	280.44
297.14	285.44
297.37	301.44
297.601	288.44
297.831	290.44
298.062	280.44
298.292	277.44
298.523	287.44
298.753	285.44
298.984	263.44
299.214	279.44
299.445	289.44
299.675	300.44
299.905	298.44
300.136	295.44
300.366	287.44
300.597	289.44
300.827	288.44
301.057	298.44
301.288	298.44
301.518	312.44
301.748	304.44
301.979	331.44
302.209	318.44
302.439	312.44
302.669	330.44
302.9	295.44
303.13	327.44
303.36	303.44
303.59	305.44
303.82	336.44
304.051	318.44
304.281	311.44
304.511	310.44
304.741	301.44
304.971	297.44
305.201	307.44
305.431	312.44
305.661	309.44
305.891	307.44
306.121	308.44
306.352	319.44
306.582	312.44
306.812	307.44
307.042	314.44
307.272	319.44
307.502	335.44
307.731	345.44
307.961	321.44
308.191	326.44
308.421	324.44
308.651	320.44
308.881	316.44
309.111	331.44
309.341	337.44
309.571	339.44
309.8	340.44
310.03	371.44
310.26	348.44
310.49	375.44
310.72	375.44
310.949	395.44
311.179	377.44
311.409	369.44
311.639	362.44
311.868	373.44
312.098	362.44
312.328	385.44
312.557	389.44
312.787	412.44
313.017	401.44
313.246	378.44
313.476	351.44
313.706	351.44
313.935	379.44
314.165	376.44
314.394	378.44
314.624	396.44
314.853	382.44
315.083	352.44
315.312	371.44
315.542	370.44
315.771	356.44
316.001	354.44
316.23	361.44
316.46	363.44
316.689	365.44
316.919	378.44
317.148	363.44
317.377	372.44
317.607	381.44
317.836	383.44
318.065	371.44
318.295	371.44
318.524	372.44
318.753	396.44
318.983	373.44
319.212	366.44
319.441	396.44
319.67	368.44
319.9	351.44
320.129	380.44
320.358	373.44
320.587	387.44
320.816	398.44
321.046	362.44
321.275	415.44
321.504	409.44
321.733	408.44
321.962	397.44
322.191	428.44
322.42	423.44
322.649	442.44
322.878	448.44
323.108	436.44
323.337	496.44
323.566	511.44
323.795	536.44
324.024	602.44
324.253	692.44
324.482	1000.44
324.71	1547.44
324.939	2169.44
325.168	1953.44
325.397	1031.44
325.626	715.44
325.855	576.44
326.084	521.44
326.313	546.44
326.542	535.44
326.77	567.44
326.999	667.44
327.228	918.44
327.457	1369.44
327.686	1687.44
327.914	1210.44
328.143	833.44
328.372	724.44
328.6	711.44
328.829	631.44
329.058	647.44
329.287	660.44
329.515	621.44
329.744	618.44
329.972	658.44
330.201	713.44
330.43	835.44
330.658	779.44
330.887	730.44
331.115	664.44
331.344	593.44
331.572	546.44
331.801	534.44
332.03	537.44
332.258	511.44
332.486	467.44
332.715	494.44
332.943	500.44
333.172	501.44
333.4	511.44
333.629	513.44
333.857	543.44
334.085	629.44
334.314	715.44
334.542	866.44
334.771	908.44
334.999	710.44
335.227	580.44
335.455	501.44
335.684	490.44
335.912	456.44
336.14	472.44
336.369	457.44
336.597	440.44
336.825	443.44
337.053	445.44
337.281	411.44
337.51	425.44
337.738	440.44
337.966	432.44
338.194	448.44
338.422	441.44
338.65	418.44
338.878	397.44
339.106	411.44
339.334	411.44
339.562	408.44
339.79	410.44
340.018	420.44
340.246	423.44
340.474	415.44
340.702	392.44
340.93	413.44
341.158	380.44
341.386	397.44
341.614	374.44
341.842	411.44
342.07	436.44
342.298	392.44
342.526	396.44
342.754	406.44
342.981	400.44
343.209	392.44
343.437	366.44
343.665	375.44
343.893	403.44
344.12	405.44
344.348	393.44
344.576	403.44
344.804	400.44
345.031	420.44
345.259	426.44
345.487	424.44
345.714	394.44
345.942	403.44
346.17	388.44
346.397	386.44
346.625	397.44
346.853	387.44
347.08	392.44
347.308	378.44
347.535	396.44
347.763	414.44
347.99	405.44
348.218	417.44
348.445	403.44
348.673	407.44
348.9	395.44
349.128	405.44
349.355	392.44
349.583	373.44
349.81	377.44
350.037	373.44
350.265	379.44
350.492	375.44
350.72	379.44
350.947	389.44
351.174	391.44
351.402	390.44
351.629	407.44
351.856	412.44
352.083	405.44
352.311	407.44
352.538	408.44
352.765	404.44
352.992	388.44
353.22	397.44
353.447	396.44
353.674	379.44
353.901	376.44
354.128	362.44
354.355	375.44
354.583	346.44
354.81	356.44
355.037	364.44
355.264	358.44
355.491	357.44
355.718	357.44
355.945	338.44
356.172	349.44
356.399	350.44
356.626	347.44
356.853	340.44
357.08	343.44
357.307	344.44
357.534	348.44
357.761	368.44
357.988	374.44
358.215	361.44
358.441	360.44
358.668	372.44
358.895	363.44
359.122	355.44
359.349	375.44
359.576	375.44
359.802	413.44
360.029	417.44
360.256	435.44
360.483	435.44
360.709	402.44
360.936	409.44
361.163	379.44
361.39	399.44
361.616	399.44
361.843	397.44
362.07	395.44
362.296	386.44
362.523	369.44
362.749	373.44
362.976	367.44
363.203	364.44
363.429	375.44
363.656	378.44
363.882	383.44
364.109	355.44
364.335	359.44
364.562	370.44
364.788	366.44
365.015	361.44
365.241	383.44
365.468	362.44
365.694	379.44
365.92	381.44
366.147	382.44
366.373	369.44
366.599	342.44
366.826	344.44
367.052	376.44
367.278	353.44
367.505	363.44
367.731	380.44
367.957	365.44
368.184	369.44
368.41	373.44
368.636	373.44
368.862	384.44
369.089	355.44
369.315	358.44
369.541	361.44
369.767	377.44
369.993	377.44
370.219	363.44
370.445	347.44
370.672	359.44
370.898	359.44
371.124	343.44
371.35	371.44
371.576	359.44
371.802	369.44
372.028	341.44
372.254	340.44
372.48	355.44
372.706	340.44
372.932	364.44
373.158	363.44
373.384	357.44
373.61	355.44
373.835	367.44
374.061	371.44
374.287	370.44
374.513	354.44
374.739	378.44
374.965	355.44
375.191	339.44
375.416	364.44
375.642	367.44
375.868	359.44
376.094	361.44
376.319	346.44
376.545	358.44
376.771	346.44
376.997	352.44
377.222	359.44
377.448	340.44
377.674	349.44
377.899	329.44
378.125	328.44
378.35	339.44
378.576	361.44
378.802	351.44
379.027	354.44
379.253	353.44
379.478	335.44
379.704	355.44
379.929	332.44
380.155	350.44
380.38	363.44
380.606	347.44
380.831	340.44
381.057	352.44
381.282	370.44
381.507	348.44
381.733	347.44
381.958	354.44
382.184	346.44
382.409	377.44
382.634	369.44
382.86	371.44
383.085	360.44
383.31	331.44
383.535	356.44
383.761	360.44
383.986	376.44
384.211	375.44
384.436	360.44
384.662	353.44
384.887	343.44
385.112	357.44
385.337	357.44
385.562	338.44
385.787	343.44
386.013	371.44
386.238	380.44
386.463	351.44
386.688	389.44
386.913	349.44
387.138	369.44
387.363	356.44
387.588	376.44
387.813	362.44
388.038	375.44
388.263	383.44
388.488	362.44
388.713	352.44
388.938	352.44
389.163	375.44
389.387	374.44
389.612	368.44
389.837	346.44
390.062	367.44
390.287	355.44
390.512	377.44
390.736	360.44
390.961	355.44
391.186	360.44
391.411	370.44
391.636	377.44
391.86	385.44
392.085	374.44
392.31	368.44
392.534	381.44
392.759	372.44
392.984	375.44
393.208	379.44
393.433	386.44
393.658	374.44
393.882	371.44
394.107	363.44
394.331	371.44
394.556	377.44
394.78	375.44
395.005	354.44
395.229	357.44
395.454	371.44
395.678	374.44
395.903	402.44
396.127	398.44
396.352	417.44
396.576	397.44
396.801	386.44
397.025	393.44
397.249	383.44
397.474	381.44
397.698	386.44
397.922	383.44
398.147	441.44
398.371	414.44
398.595	388.44
398.82	376.44
399.044	435.44
399.268	425.44
399.492	435.44
399.717	447.44
399.941	474.44
400.165	499.44
400.389	485.44
400.613	470.44
400.837	447.44
401.062	419.44
401.286	416.44
401.51	408.44
401.734	412.44
401.958	408.44
402.182	420.44
402.406	412.44
402.63	402.44
402.854	425.44
403.078	432.44
403.302	434.44
403.526	431.44
403.75	441.44
403.974	441.44
404.198	435.44
404.422	445.44
404.645	466.44
404.869	490.44
405.093	519.44
405.317	583.44
405.541	594.44
405.765	554.44
405.988	483.44
406.212	472.44
406.436	492.44
406.66	503.44
406.883	496.44
407.107	491.44
407.331	526.44
407.555	580.44
407.778	562.44
408.002	516.44
408.226	499.44
408.449	450.44
408.673	496.44
408.896	516.44
409.12	533.44
409.344	514.44
409.567	469.44
409.791	465.44
410.014	446.44
410.238	431.44
410.461	434.44
410.685	452.44
410.908	445.44
411.132	508.44
411.355	521.44
411.578	519.44
411.802	465.44
412.025	464.44
412.249	484.44
412.472	521.44
412.695	583.44
412.919	584.44
413.142	523.44
413.365	492.44
413.589	455.44
413.812	443.44
414.035	443.44
414.258	439.44
414.482	425.44
414.705	430.44
414.928	425.44
415.151	401.44
415.374	410.44
415.597	411.44
415.821	409.44
416.044	422.44
416.267	438.44
416.49	401.44
416.713	404.44
416.936	424.44
417.159	413.44
417.382	436.44
417.605	424.44
417.828	449.44
418.051	462.44
418.274	455.44
418.497	432.44
418.72	415.44
418.943	411.44
419.166	426.44
419.389	440.44
419.611	456.44
419.834	456.44
420.057	464.44
420.28	511.44
420.503	505.44
420.726	497.44
420.948	503.44
421.171	535.44
421.394	517.44
421.617	485.44
421.839	437.44
422.062	450.44
422.285	484.44
422.507	516.44
422.73	594.44
422.953	562.44
423.175	491.44
423.398	447.44
423.621	464.44
423.843	485.44
424.066	476.44
424.288	470.44
424.511	483.44
424.733	514.44
424.956	595.44
425.178	599.44
425.401	579.44
425.623	584.44
425.846	509.44
426.068	485.44
426.291	495.44
426.513	485.44
426.735	496.44
426.958	530.44
427.18	591.44
427.402	719.44
427.625	791.44
427.847	725.44
428.069	677.44
428.292	604.44
428.514	515.44
428.736	491.44
428.958	458.44
429.181	451.44
429.403	452.44
429.625	454.44
429.847	491.44
430.069	542.44
430.292	562.44
430.514	475.44
430.736	457.44
430.958	451.44
431.18	441.44
431.402	410.44
431.624	421.44
431.846	426.44
432.068	415.44
432.29	400.44
432.512	395.44
432.734	426.44
432.956	415.44
433.178	448.44
433.4	441.44
433.622	442.44
433.844	417.44
434.066	409.44
434.287	409.44
434.509	437.44
434.731	416.44
434.953	413.44
435.175	440.44
435.397	451.44
435.618	474.44
435.84	536.44
436.062	591.44
436.284	661.44
436.505	569.44
436.727	501.44
436.949	451.44
437.17	444.44
437.392	429.44
437.614	469.44
437.835	519.44
438.057	590.44
438.278	685.44
438.5	681.44
438.721	721.44
438.943	699.44
439.165	584.44
439.386	517.44
439.608	474.44
439.829	495.44
440.05	523.44
440.272	582.44
440.493	532.44
440.715	492.44
440.936	461.44
441.158	440.44
441.379	459.44
441.6	460.44
441.822	489.44
442.043	514.44
442.264	599.44
442.486	631.44
442.707	547.44
442.928	513.44
443.149	512.44
443.371	520.44
443.592	551.44
443.813	649.44
444.034	684.44
444.255	578.44
444.476	497.44
444.698	488.44
444.919	479.44
445.14	589.44
445.361	530.44
445.582	500.44
445.803	594.44
446.024	676.44
446.245	693.44
446.466	624.44
446.687	531.44
446.908	487.44
447.129	470.44
447.35	450.44
447.571	453.44
447.792	457.44
448.013	448.44
448.234	472.44
448.455	525.44
448.675	621.44
448.896	740.44
449.117	633.44
449.338	567.44
449.559	668.44
449.779	749.44
450	617.44
450.221	513.44
450.442	472.44
450.662	456.44
450.883	469.44
451.104	456.44
451.324	473.44
451.545	447.44
451.766	420.44
451.986	408.44
452.207	383.44
452.428	388.44
452.648	399.44
452.869	391.44
453.089	414.44
453.31	421.44
453.53	421.44
453.751	423.44
453.971	411.44
454.192	413.44
454.412	409.44
454.633	412.44
454.853	391.44
455.073	409.44
455.294	418.44
455.514	487.44
455.734	488.44
455.955	429.44
456.175	386.44
456.395	375.44
456.616	380.44
456.836	380.44
457.056	376.44
457.276	373.44
457.497	382.44
457.717	389.44
457.937	379.44
458.157	375.44
458.377	405.44
458.598	440.44
458.818	481.44
459.038	540.44
459.258	575.44
459.478	480.44
459.698	431.44
459.918	407.44
460.138	398.44
460.358	406.44
460.578	408.44
460.798	416.44
461.018	411.44
461.238	392.44
461.458	405.44
461.678	403.44
461.898	415.44
462.118	410.44
462.338	417.44
462.558	428.44
462.777	412.44
462.997	418.44
463.217	416.44
463.437	415.44
463.657	428.44
463.876	427.44
464.096	427.44
464.316	405.44
464.536	418.44
464.755	427.44
464.975	435.44
465.195	494.44
465.414	552.44
465.634	497.44
465.854	458.44
466.073	431.44
466.293	433.44
466.512	400.44
466.732	395.44
466.951	433.44
467.171	403.44
467.391	395.44
467.61	408.44
467.829	425.44
468.049	447.44
468.268	522.44
468.488	457.44
468.707	421.44
468.927	418.44
469.146	412.44
469.365	405.44
469.585	437.44
469.804	420.44
470.023	409.44
470.243	426.44
470.462	421.44
470.681	445.44
470.901	460.44
471.12	426.44
471.339	423.44
471.558	438.44
471.777	446.44
471.997	460.44
472.216	499.44
472.435	685.44
472.654	625.44
472.873	498.44
473.092	471.44
473.311	458.44
473.53	458.44
473.749	444.44
473.968	495.44
474.187	585.44
474.406	605.44
474.625	482.44
474.844	467.44
475.063	448.44
475.282	426.44
475.501	436.44
475.72	433.44
475.939	450.44
476.158	433.44
476.377	425.44
476.596	431.44
476.814	467.44
477.033	452.44
477.252	453.44
477.471	449.44
477.69	458.44
477.908	457.44
478.127	465.44
478.346	447.44
478.564	479.44
478.783	465.44
479.002	461.44
479.22	488.44
479.439	509.44
479.658	521.44
479.876	504.44
480.095	514.44
480.313	551.44
480.532	535.44
480.751	535.44
480.969	607.44
481.188	845.44
481.406	1094.44
481.624	777.44
481.843	648.44
482.061	616.44
482.28	597.44
482.498	547.44
482.717	554.44
482.935	541.44
483.153	531.44
483.372	519.44
483.59	519.44
483.808	547.44
484.027	529.44
484.245	536.44
484.463	531.44
484.681	537.44
484.9	523.44
485.118	503.44
485.336	537.44
485.554	526.44
485.772	550.44
485.99	529.44
486.209	561.44
486.427	549.44
486.645	553.44
486.863	588.44
487.081	554.44
487.299	557.44
487.517	557.44
487.735	554.44
487.953	551.44
488.171	553.44
488.389	557.44
488.607	555.44
488.825	543.44
489.043	539.44
489.261	559.44
489.479	581.44
489.696	578.44
489.914	603.44
490.132	585.44
490.35	593.44
490.568	585.44
490.786	588.44
491.003	612.44
491.221	633.44
491.439	639.44
491.657	672.44
491.874	659.44
492.092	649.44
492.31	653.44
492.527	661.44
492.745	675.44
492.963	692.44
493.18	709.44
493.398	689.44
493.615	691.44
493.833	700.44
494.05	674.44
494.268	701.44
494.485	682.44
494.703	673.44
494.92	700.44
495.138	705.44
495.355	687.44
495.573	681.44
495.79	667.44
496.008	679.44
496.225	668.44
496.442	677.44
496.66	692.44
496.877	655.44
497.094	665.44
497.312	691.44
497.529	681.44
497.746	673.44
497.963	663.44
498.181	690.44
498.398	681.44
498.615	717.44
498.832	685.44
499.049	680.44
499.267	709.44
499.484	709.44
499.701	711.44
499.918	731.44
500.135	761.44
500.352	761.44
500.569	807.44
500.786	807.44
501.003	780.44
501.22	787.44
501.437	779.44
501.654	771.44
501.871	782.44
