Data from 1986.PennyLincolnUp.Lamp.En5.5.200Scan.071819.P2_HRD10591_17-12-37-972.txt Node
Date: Thu Jul 18 17:12:37 EDT 2019
User: cochatt
Spectrometer: HR+D1059
Trigger mode: 1
Integration Time (sec): 1.000000E-1
Scans to average: 1
Electric dark correction enabled: true
Nonlinearity correction enabled: false
Boxcar width: 0
XAxis mode: Wavelengths
Number of Pixels in Spectrum: 2048
>>>>>Begin Spectral Data<<<<<
223.165	2.44
223.4	2.44
223.635	2.44
223.869	-7.56
224.104	-25.56
224.338	-28.56
224.573	-19.56
224.808	-5.56
225.042	-2.56
225.277	-19.56
225.511	7.44
225.746	6.44
225.98	15.44
226.215	15.44
226.449	17.44
226.683	17.44
226.918	3.44
227.152	23.44
227.387	28.44
227.621	30.44
227.856	55.44
228.09	45.44
228.324	48.44
228.559	56.44
228.793	67.44
229.027	105.44
229.262	125.44
229.496	130.44
229.73	138.44
229.964	168.44
230.199	130.44
230.433	118.44
230.667	119.44
230.901	105.44
231.136	110.44
231.37	121.44
231.604	100.44
231.838	114.44
232.072	122.44
232.306	110.44
232.541	111.44
232.775	118.44
233.009	124.44
233.243	114.44
233.477	108.44
233.711	130.44
233.945	125.44
234.179	127.44
234.413	118.44
234.647	122.44
234.881	119.44
235.115	128.44
235.349	105.44
235.583	126.44
235.817	118.44
236.051	141.44
236.285	124.44
236.519	136.44
236.753	140.44
236.987	164.44
237.221	214.44
237.455	243.44
237.689	198.44
237.922	154.44
238.156	136.44
238.39	137.44
238.624	130.44
238.858	136.44
239.091	128.44
239.325	122.44
239.559	116.44
239.793	154.44
240.027	150.44
240.26	162.44
240.494	176.44
240.728	158.44
240.961	159.44
241.195	151.44
241.429	150.44
241.662	134.44
241.896	141.44
242.13	141.44
242.363	155.44
242.597	136.44
242.83	153.44
243.064	157.44
243.298	150.44
243.531	148.44
243.765	145.44
243.998	149.44
244.232	161.44
244.465	162.44
244.699	172.44
244.932	139.44
245.166	148.44
245.399	166.44
245.633	160.44
245.866	159.44
246.099	147.44
246.333	157.44
246.566	178.44
246.8	172.44
247.033	176.44
247.266	171.44
247.5	167.44
247.733	198.44
247.966	184.44
248.2	174.44
248.433	187.44
248.666	189.44
248.899	208.44
249.133	219.44
249.366	219.44
249.599	219.44
249.832	209.44
250.066	225.44
250.299	214.44
250.532	233.44
250.765	279.44
250.998	284.44
251.231	275.44
251.465	262.44
251.698	246.44
251.931	244.44
252.164	234.44
252.397	226.44
252.63	244.44
252.863	213.44
253.096	248.44
253.329	233.44
253.562	268.44
253.795	254.44
254.028	242.44
254.261	238.44
254.494	257.44
254.727	290.44
254.96	326.44
255.193	314.44
255.426	294.44
255.659	282.44
255.892	316.44
256.124	363.44
256.357	378.44
256.59	370.44
256.823	330.44
257.056	314.44
257.289	289.44
257.521	270.44
257.754	258.44
257.987	247.44
258.22	262.44
258.452	235.44
258.685	252.44
258.918	266.44
259.151	233.44
259.383	238.44
259.616	251.44
259.849	262.44
260.081	248.44
260.314	271.44
260.547	279.44
260.779	276.44
261.012	265.44
261.244	250.44
261.477	255.44
261.71	248.44
261.942	250.44
262.175	272.44
262.407	247.44
262.64	234.44
262.872	248.44
263.105	240.44
263.337	234.44
263.57	230.44
263.802	242.44
264.035	227.44
264.267	234.44
264.499	236.44
264.732	231.44
264.964	239.44
265.197	237.44
265.429	221.44
265.661	214.44
265.894	242.44
266.126	230.44
266.358	226.44
266.591	242.44
266.823	247.44
267.055	219.44
267.287	240.44
267.52	239.44
267.752	255.44
267.984	242.44
268.216	252.44
268.448	247.44
268.681	237.44
268.913	255.44
269.145	279.44
269.377	299.44
269.609	295.44
269.841	285.44
270.073	298.44
270.306	298.44
270.538	344.44
270.77	326.44
271.002	320.44
271.234	310.44
271.466	321.44
271.698	349.44
271.93	343.44
272.162	345.44
272.394	344.44
272.626	339.44
272.858	319.44
273.09	312.44
273.322	293.44
273.553	287.44
273.785	302.44
274.017	283.44
274.249	284.44
274.481	303.44
274.713	286.44
274.945	287.44
275.176	285.44
275.408	291.44
275.64	290.44
275.872	263.44
276.104	275.44
276.335	282.44
276.567	284.44
276.799	309.44
277.031	338.44
277.262	352.44
277.494	370.44
277.726	335.44
277.957	346.44
278.189	316.44
278.421	303.44
278.652	301.44
278.884	309.44
279.115	293.44
279.347	281.44
279.579	286.44
279.81	285.44
280.042	292.44
280.273	312.44
280.505	309.44
280.736	301.44
280.968	290.44
281.199	300.44
281.431	291.44
281.662	286.44
281.894	290.44
282.125	286.44
282.356	303.44
282.588	304.44
282.819	314.44
283.051	293.44
283.282	276.44
283.513	295.44
283.745	278.44
283.976	287.44
284.207	295.44
284.439	318.44
284.67	298.44
284.901	298.44
285.132	287.44
285.364	289.44
285.595	277.44
285.826	282.44
286.057	312.44
286.288	288.44
286.52	302.44
286.751	296.44
286.982	309.44
287.213	286.44
287.444	296.44
287.675	292.44
287.906	297.44
288.138	314.44
288.369	308.44
288.6	323.44
288.831	299.44
289.062	303.44
289.293	304.44
289.524	308.44
289.755	280.44
289.986	291.44
290.217	312.44
290.448	301.44
290.679	301.44
290.91	294.44
291.141	292.44
291.371	301.44
291.602	294.44
291.833	286.44
292.064	294.44
292.295	289.44
292.526	295.44
292.757	307.44
292.987	296.44
293.218	297.44
293.449	287.44
293.68	284.44
293.91	309.44
294.141	301.44
294.372	276.44
294.603	293.44
294.833	308.44
295.064	304.44
295.295	296.44
295.525	312.44
295.756	317.44
295.987	304.44
296.217	320.44
296.448	357.44
296.679	308.44
296.909	316.44
297.14	311.44
297.37	320.44
297.601	301.44
297.831	296.44
298.062	285.44
298.292	303.44
298.523	308.44
298.753	333.44
298.984	304.44
299.214	293.44
299.445	311.44
299.675	300.44
299.905	320.44
300.136	315.44
300.366	318.44
300.597	327.44
300.827	330.44
301.057	335.44
301.288	346.44
301.518	343.44
301.748	316.44
301.979	337.44
302.209	318.44
302.439	334.44
302.669	327.44
302.9	334.44
303.13	335.44
303.36	330.44
303.59	337.44
303.82	322.44
304.051	333.44
304.281	336.44
304.511	334.44
304.741	332.44
304.971	335.44
305.201	319.44
305.431	330.44
305.661	328.44
305.891	324.44
306.121	331.44
306.352	348.44
306.582	348.44
306.812	318.44
307.042	351.44
307.272	337.44
307.502	346.44
307.731	352.44
307.961	353.44
308.191	340.44
308.421	345.44
308.651	354.44
308.881	365.44
309.111	342.44
309.341	348.44
309.571	362.44
309.8	372.44
310.03	385.44
310.26	367.44
310.49	378.44
310.72	388.44
310.949	404.44
311.179	424.44
311.409	391.44
311.639	384.44
311.868	396.44
312.098	407.44
312.328	406.44
312.557	407.44
312.787	413.44
313.017	427.44
313.246	405.44
313.476	388.44
313.706	394.44
313.935	401.44
314.165	390.44
314.394	416.44
314.624	410.44
314.853	380.44
315.083	397.44
315.312	407.44
315.542	395.44
315.771	380.44
316.001	390.44
316.23	395.44
316.46	388.44
316.689	376.44
316.919	397.44
317.148	412.44
317.377	404.44
317.607	383.44
317.836	397.44
318.065	404.44
318.295	388.44
318.524	387.44
318.753	373.44
318.983	391.44
319.212	386.44
319.441	404.44
319.67	406.44
319.9	402.44
320.129	403.44
320.358	386.44
320.587	415.44
320.816	411.44
321.046	439.44
321.275	414.44
321.504	418.44
321.733	405.44
321.962	438.44
322.191	458.44
322.42	453.44
322.649	483.44
322.878	499.44
323.108	523.44
323.337	518.44
323.566	554.44
323.795	585.44
324.024	631.44
324.253	758.44
324.482	1074.44
324.71	1680.44
324.939	2420.44
325.168	2173.44
325.397	1107.44
325.626	760.44
325.855	645.44
326.084	600.44
326.313	557.44
326.542	574.44
326.77	633.44
326.999	752.44
327.228	1013.44
327.457	1541.44
327.686	1849.44
327.914	1294.44
328.143	902.44
328.372	836.44
328.6	790.44
328.829	700.44
329.058	713.44
329.287	700.44
329.515	661.44
329.744	671.44
329.972	731.44
330.201	844.44
330.43	977.44
330.658	888.44
330.887	784.44
331.115	747.44
331.344	634.44
331.572	596.44
331.801	576.44
332.03	559.44
332.258	547.44
332.486	530.44
332.715	553.44
332.943	524.44
333.172	543.44
333.4	533.44
333.629	583.44
333.857	613.44
334.085	718.44
334.314	814.44
334.542	998.44
334.771	1081.44
334.999	801.44
335.227	654.44
335.455	584.44
335.684	546.44
335.912	486.44
336.14	517.44
336.369	498.44
336.597	498.44
336.825	480.44
337.053	471.44
337.281	467.44
337.51	470.44
337.738	466.44
337.966	457.44
338.194	473.44
338.422	443.44
338.65	451.44
338.878	444.44
339.106	420.44
339.334	438.44
339.562	419.44
339.79	422.44
340.018	443.44
340.246	434.44
340.474	455.44
340.702	429.44
340.93	448.44
341.158	415.44
341.386	441.44
341.614	443.44
341.842	431.44
342.07	438.44
342.298	415.44
342.526	413.44
342.754	425.44
342.981	421.44
343.209	404.44
343.437	390.44
343.665	422.44
343.893	395.44
344.12	428.44
344.348	416.44
344.576	419.44
344.804	443.44
345.031	447.44
345.259	460.44
345.487	420.44
345.714	428.44
345.942	426.44
346.17	416.44
346.397	431.44
346.625	411.44
346.853	424.44
347.08	401.44
347.308	418.44
347.535	423.44
347.763	410.44
347.99	410.44
348.218	450.44
348.445	431.44
348.673	424.44
348.9	427.44
349.128	415.44
349.355	386.44
349.583	408.44
349.81	401.44
350.037	412.44
350.265	399.44
350.492	408.44
350.72	408.44
350.947	389.44
351.174	413.44
351.402	411.44
351.629	425.44
351.856	417.44
352.083	423.44
352.311	436.44
352.538	422.44
352.765	439.44
352.992	401.44
353.22	396.44
353.447	422.44
353.674	393.44
353.901	399.44
354.128	393.44
354.355	373.44
354.583	371.44
354.81	384.44
355.037	378.44
355.264	389.44
355.491	384.44
355.718	374.44
355.945	373.44
356.172	371.44
356.399	373.44
356.626	377.44
356.853	378.44
357.08	379.44
357.307	373.44
357.534	370.44
357.761	378.44
357.988	381.44
358.215	372.44
358.441	381.44
358.668	378.44
358.895	395.44
359.122	390.44
359.349	382.44
359.576	419.44
359.802	434.44
360.029	463.44
360.256	464.44
360.483	436.44
360.709	423.44
360.936	423.44
361.163	424.44
361.39	405.44
361.616	438.44
361.843	403.44
362.07	410.44
362.296	420.44
362.523	394.44
362.749	413.44
362.976	397.44
363.203	394.44
363.429	401.44
363.656	388.44
363.882	386.44
364.109	383.44
364.335	391.44
364.562	388.44
364.788	392.44
365.015	379.44
365.241	374.44
365.468	396.44
365.694	390.44
365.92	395.44
366.147	383.44
366.373	381.44
366.599	379.44
366.826	382.44
367.052	381.44
367.278	384.44
367.505	386.44
367.731	404.44
367.957	388.44
368.184	384.44
368.41	398.44
368.636	396.44
368.862	413.44
369.089	382.44
369.315	384.44
369.541	365.44
369.767	382.44
369.993	384.44
370.219	392.44
370.445	381.44
370.672	390.44
370.898	382.44
371.124	360.44
371.35	369.44
371.576	368.44
371.802	382.44
372.028	364.44
372.254	394.44
372.48	379.44
372.706	376.44
372.932	381.44
373.158	357.44
373.384	376.44
373.61	367.44
373.835	380.44
374.061	376.44
374.287	406.44
374.513	376.44
374.739	361.44
374.965	386.44
375.191	363.44
375.416	378.44
375.642	370.44
375.868	392.44
376.094	379.44
376.319	370.44
376.545	359.44
376.771	372.44
376.997	346.44
377.222	357.44
377.448	378.44
377.674	381.44
377.899	360.44
378.125	374.44
378.35	365.44
378.576	364.44
378.802	370.44
379.027	372.44
379.253	373.44
379.478	377.44
379.704	377.44
379.929	355.44
380.155	379.44
380.38	370.44
380.606	371.44
380.831	361.44
381.057	363.44
381.282	363.44
381.507	395.44
381.733	374.44
381.958	376.44
382.184	373.44
382.409	391.44
382.634	388.44
382.86	367.44
383.085	365.44
383.31	363.44
383.535	374.44
383.761	396.44
383.986	384.44
384.211	373.44
384.436	412.44
384.662	372.44
384.887	377.44
385.112	375.44
385.337	373.44
385.562	380.44
385.787	386.44
386.013	363.44
386.238	386.44
386.463	388.44
386.688	382.44
386.913	399.44
387.138	381.44
387.363	404.44
387.588	399.44
387.813	382.44
388.038	385.44
388.263	385.44
388.488	390.44
388.713	389.44
388.938	380.44
389.163	406.44
389.387	380.44
389.612	385.44
389.837	382.44
390.062	379.44
390.287	386.44
390.512	382.44
390.736	389.44
390.961	394.44
391.186	393.44
391.411	377.44
391.636	397.44
391.86	400.44
392.085	386.44
392.31	376.44
392.534	387.44
392.759	387.44
392.984	390.44
393.208	378.44
393.433	372.44
393.658	391.44
393.882	377.44
394.107	389.44
394.331	373.44
394.556	362.44
394.78	401.44
395.005	416.44
395.229	388.44
395.454	378.44
395.678	423.44
395.903	404.44
396.127	434.44
396.352	434.44
396.576	412.44
396.801	391.44
397.025	389.44
397.249	421.44
397.474	429.44
397.698	405.44
397.922	428.44
398.147	424.44
398.371	436.44
398.595	434.44
398.82	428.44
399.044	427.44
399.268	452.44
399.492	444.44
399.717	458.44
399.941	496.44
400.165	522.44
400.389	521.44
400.613	491.44
400.837	470.44
401.062	446.44
401.286	434.44
401.51	426.44
401.734	418.44
401.958	436.44
402.182	427.44
402.406	451.44
402.63	456.44
402.854	456.44
403.078	453.44
403.302	441.44
403.526	464.44
403.75	478.44
403.974	455.44
404.198	479.44
404.422	475.44
404.645	490.44
404.869	518.44
405.093	562.44
405.317	599.44
405.541	619.44
405.765	574.44
405.988	522.44
406.212	513.44
406.436	529.44
406.66	572.44
406.883	506.44
407.107	526.44
407.331	565.44
407.555	603.44
407.778	620.44
408.002	580.44
408.226	506.44
408.449	495.44
408.673	496.44
408.896	536.44
409.12	569.44
409.344	564.44
409.567	494.44
409.791	477.44
410.014	454.44
410.238	470.44
410.461	486.44
410.685	479.44
410.908	481.44
411.132	511.44
411.355	556.44
411.578	533.44
411.802	504.44
412.025	498.44
412.249	513.44
412.472	553.44
412.695	636.44
412.919	608.44
413.142	572.44
413.365	532.44
413.589	516.44
413.812	523.44
414.035	475.44
414.258	474.44
414.482	478.44
414.705	462.44
414.928	447.44
415.151	450.44
415.374	432.44
415.597	460.44
415.821	427.44
416.044	447.44
416.267	460.44
416.49	458.44
416.713	433.44
416.936	422.44
417.159	455.44
417.382	447.44
417.605	465.44
417.828	485.44
418.051	489.44
418.274	476.44
418.497	455.44
418.72	459.44
418.943	477.44
419.166	462.44
419.389	476.44
419.611	475.44
419.834	485.44
420.057	511.44
420.28	502.44
420.503	543.44
420.726	533.44
420.948	519.44
421.171	551.44
421.394	574.44
421.617	510.44
421.839	480.44
422.062	499.44
422.285	489.44
422.507	540.44
422.73	603.44
422.953	573.44
423.175	536.44
423.398	497.44
423.621	515.44
423.843	519.44
424.066	517.44
424.288	494.44
424.511	517.44
424.733	586.44
424.956	654.44
425.178	613.44
425.401	649.44
425.623	660.44
425.846	588.44
426.068	516.44
426.291	500.44
426.513	499.44
426.735	526.44
426.958	562.44
427.18	634.44
427.402	767.44
427.625	821.44
427.847	787.44
428.069	757.44
428.292	633.44
428.514	572.44
428.736	512.44
428.958	495.44
429.181	475.44
429.403	475.44
429.625	492.44
429.847	520.44
430.069	586.44
430.292	581.44
430.514	501.44
430.736	474.44
430.958	457.44
431.18	452.44
431.402	453.44
431.624	427.44
431.846	443.44
432.068	439.44
432.29	438.44
432.512	431.44
432.734	456.44
432.956	448.44
433.178	442.44
433.4	467.44
433.622	439.44
433.844	450.44
434.066	432.44
434.287	416.44
434.509	431.44
434.731	423.44
434.953	453.44
435.175	459.44
435.397	487.44
435.618	517.44
435.84	559.44
436.062	654.44
436.284	708.44
436.505	602.44
436.727	521.44
436.949	483.44
437.17	488.44
437.392	470.44
437.614	482.44
437.835	516.44
438.057	622.44
438.278	743.44
438.5	722.44
438.721	793.44
438.943	742.44
439.165	586.44
439.386	529.44
439.608	514.44
439.829	536.44
440.05	555.44
440.272	613.44
440.493	576.44
440.715	518.44
440.936	503.44
441.158	483.44
441.379	464.44
441.6	490.44
441.822	501.44
442.043	540.44
442.264	620.44
442.486	686.44
442.707	570.44
442.928	526.44
443.149	535.44
443.371	574.44
443.592	603.44
443.813	658.44
444.034	744.44
444.255	631.44
444.476	524.44
444.698	535.44
444.919	502.44
445.14	605.44
445.361	541.44
445.582	550.44
445.803	616.44
446.024	714.44
446.245	728.44
446.466	670.44
446.687	557.44
446.908	518.44
447.129	469.44
447.35	479.44
447.571	479.44
447.792	474.44
448.013	470.44
448.234	512.44
448.455	552.44
448.675	664.44
448.896	734.44
449.117	670.44
449.338	619.44
449.559	702.44
449.779	802.44
450	660.44
450.221	563.44
450.442	531.44
450.662	468.44
450.883	489.44
451.104	502.44
451.324	466.44
451.545	459.44
451.766	449.44
451.986	421.44
452.207	421.44
452.428	425.44
452.648	411.44
452.869	426.44
453.089	431.44
453.31	472.44
453.53	429.44
453.751	455.44
453.971	442.44
454.192	444.44
454.412	443.44
454.633	428.44
454.853	404.44
455.073	428.44
455.294	428.44
455.514	515.44
455.734	532.44
455.955	448.44
456.175	411.44
456.395	386.44
456.616	386.44
456.836	378.44
457.056	401.44
457.276	399.44
457.497	400.44
457.717	414.44
457.937	413.44
458.157	407.44
458.377	419.44
458.598	418.44
458.818	452.44
459.038	590.44
459.258	588.44
459.478	462.44
459.698	436.44
459.918	434.44
460.138	428.44
460.358	427.44
460.578	436.44
460.798	413.44
461.018	426.44
461.238	435.44
461.458	414.44
461.678	423.44
461.898	401.44
462.118	424.44
462.338	432.44
462.558	438.44
462.777	462.44
462.997	443.44
463.217	443.44
463.437	452.44
463.657	463.44
463.876	445.44
464.096	451.44
464.316	453.44
464.536	461.44
464.755	471.44
464.975	450.44
465.195	522.44
465.414	587.44
465.634	536.44
465.854	469.44
466.073	458.44
466.293	432.44
466.512	435.44
466.732	419.44
466.951	421.44
467.171	400.44
467.391	422.44
467.61	452.44
467.829	464.44
468.049	471.44
468.268	538.44
468.488	508.44
468.707	463.44
468.927	444.44
469.146	424.44
469.365	432.44
469.585	442.44
469.804	454.44
470.023	455.44
470.243	440.44
470.462	450.44
470.681	460.44
470.901	471.44
471.12	430.44
471.339	438.44
471.558	464.44
471.777	465.44
471.997	461.44
472.216	542.44
472.435	748.44
472.654	687.44
472.873	579.44
473.092	521.44
473.311	496.44
473.53	472.44
473.749	474.44
473.968	540.44
474.187	635.44
474.406	650.44
474.625	533.44
474.844	473.44
475.063	458.44
475.282	446.44
475.501	473.44
475.72	471.44
475.939	476.44
476.158	454.44
476.377	485.44
476.596	459.44
476.814	492.44
477.033	455.44
477.252	475.44
477.471	471.44
477.69	468.44
477.908	491.44
478.127	504.44
478.346	512.44
478.564	528.44
478.783	483.44
479.002	487.44
479.22	515.44
479.439	525.44
479.658	544.44
479.876	527.44
480.095	538.44
480.313	566.44
480.532	583.44
480.751	607.44
480.969	670.44
481.188	980.44
481.406	1264.44
481.624	871.44
481.843	725.44
482.061	672.44
482.28	603.44
482.498	604.44
482.717	588.44
482.935	603.44
483.153	562.44
483.372	558.44
483.59	572.44
483.808	566.44
484.027	571.44
484.245	570.44
484.463	558.44
484.681	557.44
484.9	552.44
485.118	553.44
485.336	570.44
485.554	571.44
485.772	555.44
485.99	583.44
486.209	596.44
486.427	570.44
486.645	578.44
486.863	577.44
487.081	615.44
487.299	589.44
487.517	618.44
487.735	611.44
487.953	591.44
488.171	588.44
488.389	614.44
488.607	584.44
488.825	606.44
489.043	591.44
489.261	600.44
489.479	591.44
489.696	603.44
489.914	617.44
490.132	626.44
490.35	629.44
490.568	651.44
490.786	646.44
491.003	651.44
491.221	697.44
491.439	686.44
491.657	706.44
491.874	746.44
492.092	727.44
492.31	702.44
492.527	736.44
492.745	739.44
492.963	763.44
493.18	761.44
493.398	760.44
493.615	751.44
493.833	758.44
494.05	748.44
494.268	746.44
494.485	753.44
494.703	755.44
494.92	732.44
495.138	732.44
495.355	704.44
495.573	741.44
495.79	722.44
496.008	736.44
496.225	720.44
496.442	718.44
496.66	710.44
496.877	709.44
497.094	718.44
497.312	737.44
497.529	716.44
497.746	700.44
497.963	726.44
498.181	726.44
498.398	751.44
498.615	744.44
498.832	760.44
499.049	755.44
499.267	743.44
499.484	755.44
499.701	803.44
499.918	790.44
500.135	806.44
500.352	828.44
500.569	832.44
500.786	854.44
501.003	884.44
501.22	818.44
501.437	836.44
501.654	837.44
501.871	807.44
