Data from 1986.PennyLincolnUp.Lamp.En5.5.200Scan.071819.P2_HRD10591_17-12-06-972.txt Node
Date: Thu Jul 18 17:12:06 EDT 2019
User: cochatt
Spectrometer: HR+D1059
Trigger mode: 1
Integration Time (sec): 1.000000E-1
Scans to average: 1
Electric dark correction enabled: true
Nonlinearity correction enabled: false
Boxcar width: 0
XAxis mode: Wavelengths
Number of Pixels in Spectrum: 2048
>>>>>Begin Spectral Data<<<<<
223.165	-21.75
223.4	-21.75
223.635	-21.75
223.869	-10.75
224.104	-19.75
224.338	1.25
224.573	-10.75
224.808	-4.75
225.042	-6.75
225.277	-8.75
225.511	-14.75
225.746	-9.75
225.98	2.25
226.215	14.25
226.449	21.25
226.683	21.25
226.918	8.25
227.152	39.25
227.387	20.25
227.621	24.25
227.856	37.25
228.09	59.25
228.324	52.25
228.559	52.25
228.793	63.25
229.027	103.25
229.262	101.25
229.496	126.25
229.73	134.25
229.964	161.25
230.199	146.25
230.433	116.25
230.667	123.25
230.901	96.25
231.136	122.25
231.37	120.25
231.604	107.25
231.838	110.25
232.072	113.25
232.306	104.25
232.541	112.25
232.775	122.25
233.009	117.25
233.243	118.25
233.477	112.25
233.711	104.25
233.945	106.25
234.179	107.25
234.413	117.25
234.647	116.25
234.881	132.25
235.115	109.25
235.349	136.25
235.583	128.25
235.817	112.25
236.051	117.25
236.285	117.25
236.519	118.25
236.753	131.25
236.987	147.25
237.221	181.25
237.455	247.25
237.689	198.25
237.922	158.25
238.156	121.25
238.39	128.25
238.624	123.25
238.858	115.25
239.091	120.25
239.325	133.25
239.559	132.25
239.793	121.25
240.027	146.25
240.26	147.25
240.494	154.25
240.728	140.25
240.961	150.25
241.195	146.25
241.429	143.25
241.662	152.25
241.896	124.25
242.13	147.25
242.363	134.25
242.597	140.25
242.83	157.25
243.064	138.25
243.298	139.25
243.531	136.25
243.765	145.25
243.998	142.25
244.232	140.25
244.465	136.25
244.699	148.25
244.932	145.25
245.166	150.25
245.399	150.25
245.633	153.25
245.866	152.25
246.099	140.25
246.333	148.25
246.566	148.25
246.8	149.25
247.033	162.25
247.266	171.25
247.5	152.25
247.733	166.25
247.966	182.25
248.2	173.25
248.433	171.25
248.666	178.25
248.899	188.25
249.133	222.25
249.366	248.25
249.599	215.25
249.832	202.25
250.066	198.25
250.299	214.25
250.532	231.25
250.765	254.25
250.998	264.25
251.231	256.25
251.465	247.25
251.698	237.25
251.931	225.25
252.164	198.25
252.397	227.25
252.63	227.25
252.863	216.25
253.096	222.25
253.329	257.25
253.562	254.25
253.795	224.25
254.028	230.25
254.261	226.25
254.494	259.25
254.727	273.25
254.96	308.25
255.193	290.25
255.426	288.25
255.659	283.25
255.892	305.25
256.124	333.25
256.357	326.25
256.59	314.25
256.823	266.25
257.056	267.25
257.289	264.25
257.521	268.25
257.754	249.25
257.987	238.25
258.22	235.25
258.452	237.25
258.685	217.25
258.918	229.25
259.151	221.25
259.383	229.25
259.616	225.25
259.849	241.25
260.081	266.25
260.314	290.25
260.547	276.25
260.779	278.25
261.012	245.25
261.244	230.25
261.477	258.25
261.71	244.25
261.942	242.25
262.175	260.25
262.407	257.25
262.64	232.25
262.872	224.25
263.105	232.25
263.337	217.25
263.57	213.25
263.802	217.25
264.035	220.25
264.267	218.25
264.499	241.25
264.732	216.25
264.964	222.25
265.197	218.25
265.429	221.25
265.661	231.25
265.894	228.25
266.126	217.25
266.358	227.25
266.591	232.25
266.823	242.25
267.055	217.25
267.287	233.25
267.52	237.25
267.752	231.25
267.984	234.25
268.216	244.25
268.448	233.25
268.681	234.25
268.913	260.25
269.145	276.25
269.377	286.25
269.609	288.25
269.841	280.25
270.073	283.25
270.306	312.25
270.538	323.25
270.77	350.25
271.002	330.25
271.234	311.25
271.466	311.25
271.698	311.25
271.93	331.25
272.162	321.25
272.394	339.25
272.626	340.25
272.858	296.25
273.09	296.25
273.322	295.25
273.553	281.25
273.785	258.25
274.017	269.25
274.249	286.25
274.481	264.25
274.713	272.25
274.945	266.25
275.176	266.25
275.408	264.25
275.64	286.25
275.872	283.25
276.104	279.25
276.335	269.25
276.567	286.25
276.799	315.25
277.031	318.25
277.262	336.25
277.494	354.25
277.726	328.25
277.957	295.25
278.189	317.25
278.421	291.25
278.652	284.25
278.884	272.25
279.115	275.25
279.347	282.25
279.579	282.25
279.81	280.25
280.042	292.25
280.273	309.25
280.505	300.25
280.736	283.25
280.968	288.25
281.199	267.25
281.431	276.25
281.662	275.25
281.894	283.25
282.125	289.25
282.356	276.25
282.588	330.25
282.819	329.25
283.051	279.25
283.282	255.25
283.513	284.25
283.745	280.25
283.976	272.25
284.207	292.25
284.439	285.25
284.67	285.25
284.901	299.25
285.132	276.25
285.364	269.25
285.595	272.25
285.826	286.25
286.057	277.25
286.288	285.25
286.52	276.25
286.751	296.25
286.982	296.25
287.213	281.25
287.444	276.25
287.675	291.25
287.906	306.25
288.138	299.25
288.369	299.25
288.6	291.25
288.831	307.25
289.062	311.25
289.293	293.25
289.524	300.25
289.755	284.25
289.986	273.25
290.217	292.25
290.448	293.25
290.679	299.25
290.91	279.25
291.141	285.25
291.371	278.25
291.602	282.25
291.833	276.25
292.064	298.25
292.295	282.25
292.526	283.25
292.757	288.25
292.987	301.25
293.218	278.25
293.449	298.25
293.68	285.25
293.91	279.25
294.141	292.25
294.372	276.25
294.603	283.25
294.833	291.25
295.064	280.25
295.295	298.25
295.525	289.25
295.756	291.25
295.987	318.25
296.217	317.25
296.448	345.25
296.679	314.25
296.909	290.25
297.14	286.25
297.37	296.25
297.601	284.25
297.831	282.25
298.062	284.25
298.292	284.25
298.523	291.25
298.753	316.25
298.984	298.25
299.214	304.25
299.445	308.25
299.675	298.25
299.905	298.25
300.136	288.25
300.366	300.25
300.597	297.25
300.827	323.25
301.057	310.25
301.288	324.25
301.518	318.25
301.748	308.25
301.979	319.25
302.209	312.25
302.439	317.25
302.669	323.25
302.9	312.25
303.13	298.25
303.36	324.25
303.59	323.25
303.82	347.25
304.051	341.25
304.281	317.25
304.511	329.25
304.741	327.25
304.971	311.25
305.201	317.25
305.431	310.25
305.661	315.25
305.891	312.25
306.121	333.25
306.352	337.25
306.582	324.25
306.812	336.25
307.042	313.25
307.272	312.25
307.502	326.25
307.731	320.25
307.961	326.25
308.191	324.25
308.421	323.25
308.651	348.25
308.881	338.25
309.111	352.25
309.341	368.25
309.571	348.25
309.8	366.25
310.03	371.25
310.26	382.25
310.49	372.25
310.72	376.25
310.949	402.25
311.179	398.25
311.409	385.25
311.639	381.25
311.868	372.25
312.098	382.25
312.328	396.25
312.557	419.25
312.787	426.25
313.017	405.25
313.246	402.25
313.476	377.25
313.706	368.25
313.935	392.25
314.165	386.25
314.394	402.25
314.624	399.25
314.853	385.25
315.083	386.25
315.312	376.25
315.542	369.25
315.771	374.25
316.001	362.25
316.23	356.25
316.46	352.25
316.689	372.25
316.919	395.25
317.148	408.25
317.377	392.25
317.607	397.25
317.836	397.25
318.065	384.25
318.295	384.25
318.524	391.25
318.753	380.25
318.983	365.25
319.212	364.25
319.441	390.25
319.67	402.25
319.9	378.25
320.129	378.25
320.358	375.25
320.587	384.25
320.816	405.25
321.046	413.25
321.275	406.25
321.504	404.25
321.733	427.25
321.962	419.25
322.191	450.25
322.42	459.25
322.649	457.25
322.878	461.25
323.108	482.25
323.337	518.25
323.566	544.25
323.795	574.25
324.024	664.25
324.253	796.25
324.482	1113.25
324.71	1714.25
324.939	2443.25
325.168	2180.25
325.397	1136.25
325.626	744.25
325.855	624.25
326.084	571.25
326.313	566.25
326.542	581.25
326.77	611.25
326.999	705.25
327.228	1002.25
327.457	1513.25
327.686	1872.25
327.914	1318.25
328.143	870.25
328.372	816.25
328.6	738.25
328.829	688.25
329.058	677.25
329.287	666.25
329.515	651.25
329.744	613.25
329.972	665.25
330.201	746.25
330.43	864.25
330.658	836.25
330.887	741.25
331.115	690.25
331.344	599.25
331.572	574.25
331.801	552.25
332.03	531.25
332.258	520.25
332.486	512.25
332.715	489.25
332.943	491.25
333.172	496.25
333.4	532.25
333.629	516.25
333.857	572.25
334.085	652.25
334.314	728.25
334.542	871.25
334.771	936.25
334.999	708.25
335.227	576.25
335.455	518.25
335.684	483.25
335.912	463.25
336.14	450.25
336.369	466.25
336.597	470.25
336.825	467.25
337.053	445.25
337.281	440.25
337.51	446.25
337.738	436.25
337.966	422.25
338.194	450.25
338.422	438.25
338.65	436.25
338.878	425.25
339.106	413.25
339.334	430.25
339.562	449.25
339.79	415.25
340.018	415.25
340.246	417.25
340.474	398.25
340.702	427.25
340.93	402.25
341.158	414.25
341.386	396.25
341.614	417.25
341.842	419.25
342.07	416.25
342.298	412.25
342.526	391.25
342.754	420.25
342.981	398.25
343.209	391.25
343.437	390.25
343.665	411.25
343.893	405.25
344.12	415.25
344.348	403.25
344.576	421.25
344.804	411.25
345.031	428.25
345.259	446.25
345.487	443.25
345.714	420.25
345.942	406.25
346.17	407.25
346.397	395.25
346.625	417.25
346.853	420.25
347.08	403.25
347.308	413.25
347.535	428.25
347.763	397.25
347.99	417.25
348.218	418.25
348.445	436.25
348.673	430.25
348.9	410.25
349.128	394.25
349.355	395.25
349.583	396.25
349.81	381.25
350.037	400.25
350.265	399.25
350.492	381.25
350.72	382.25
350.947	378.25
351.174	426.25
351.402	404.25
351.629	437.25
351.856	414.25
352.083	406.25
352.311	418.25
352.538	424.25
352.765	433.25
352.992	420.25
353.22	400.25
353.447	414.25
353.674	379.25
353.901	389.25
354.128	380.25
354.355	382.25
354.583	382.25
354.81	385.25
355.037	370.25
355.264	348.25
355.491	351.25
355.718	358.25
355.945	362.25
356.172	355.25
356.399	360.25
356.626	372.25
356.853	343.25
357.08	366.25
357.307	381.25
357.534	358.25
357.761	332.25
357.988	370.25
358.215	374.25
358.441	363.25
358.668	364.25
358.895	357.25
359.122	378.25
359.349	382.25
359.576	404.25
359.802	409.25
360.029	458.25
360.256	475.25
360.483	447.25
360.709	423.25
360.936	406.25
361.163	400.25
361.39	411.25
361.616	410.25
361.843	391.25
362.07	401.25
362.296	399.25
362.523	397.25
362.749	382.25
362.976	390.25
363.203	381.25
363.429	386.25
363.656	376.25
363.882	375.25
364.109	354.25
364.335	361.25
364.562	391.25
364.788	374.25
365.015	380.25
365.241	381.25
365.468	363.25
365.694	379.25
365.92	403.25
366.147	364.25
366.373	378.25
366.599	378.25
366.826	376.25
367.052	368.25
367.278	375.25
367.505	383.25
367.731	374.25
367.957	360.25
368.184	378.25
368.41	380.25
368.636	393.25
368.862	382.25
369.089	392.25
369.315	397.25
369.541	360.25
369.767	357.25
369.993	373.25
370.219	375.25
370.445	395.25
370.672	378.25
370.898	360.25
371.124	350.25
371.35	344.25
371.576	363.25
371.802	362.25
372.028	365.25
372.254	370.25
372.48	342.25
372.706	358.25
372.932	341.25
373.158	356.25
373.384	364.25
373.61	365.25
373.835	344.25
374.061	357.25
374.287	372.25
374.513	366.25
374.739	372.25
374.965	390.25
375.191	369.25
375.416	370.25
375.642	371.25
375.868	359.25
376.094	370.25
376.319	351.25
376.545	362.25
376.771	346.25
376.997	359.25
377.222	346.25
377.448	342.25
377.674	350.25
377.899	362.25
378.125	357.25
378.35	328.25
378.576	361.25
378.802	344.25
379.027	335.25
379.253	348.25
379.478	355.25
379.704	359.25
379.929	346.25
380.155	359.25
380.38	350.25
380.606	359.25
380.831	352.25
381.057	368.25
381.282	350.25
381.507	353.25
381.733	366.25
381.958	348.25
382.184	363.25
382.409	362.25
382.634	338.25
382.86	352.25
383.085	358.25
383.31	350.25
383.535	374.25
383.761	376.25
383.986	348.25
384.211	356.25
384.436	365.25
384.662	364.25
384.887	380.25
385.112	372.25
385.337	362.25
385.562	377.25
385.787	360.25
386.013	378.25
386.238	382.25
386.463	382.25
386.688	372.25
386.913	389.25
387.138	379.25
387.363	378.25
387.588	372.25
387.813	365.25
388.038	368.25
388.263	372.25
388.488	378.25
388.713	373.25
388.938	374.25
389.163	378.25
389.387	360.25
389.612	378.25
389.837	368.25
390.062	359.25
390.287	380.25
390.512	370.25
390.736	386.25
390.961	387.25
391.186	366.25
391.411	383.25
391.636	378.25
391.86	348.25
392.085	362.25
392.31	386.25
392.534	365.25
392.759	378.25
392.984	376.25
393.208	384.25
393.433	385.25
393.658	368.25
393.882	374.25
394.107	370.25
394.331	377.25
394.556	361.25
394.78	380.25
395.005	377.25
395.229	401.25
395.454	388.25
395.678	396.25
395.903	413.25
396.127	436.25
396.352	419.25
396.576	395.25
396.801	389.25
397.025	375.25
397.249	368.25
397.474	385.25
397.698	379.25
397.922	394.25
398.147	430.25
398.371	414.25
398.595	421.25
398.82	441.25
399.044	412.25
399.268	410.25
399.492	457.25
399.717	431.25
399.941	469.25
400.165	515.25
400.389	520.25
400.613	475.25
400.837	436.25
401.062	413.25
401.286	439.25
401.51	409.25
401.734	404.25
401.958	433.25
402.182	427.25
402.406	418.25
402.63	454.25
402.854	447.25
403.078	430.25
403.302	453.25
403.526	449.25
403.75	458.25
403.974	430.25
404.198	462.25
404.422	450.25
404.645	496.25
404.869	509.25
405.093	516.25
405.317	582.25
405.541	620.25
405.765	553.25
405.988	497.25
406.212	514.25
406.436	518.25
406.66	529.25
406.883	493.25
407.107	489.25
407.331	526.25
407.555	598.25
407.778	585.25
408.002	537.25
408.226	494.25
408.449	508.25
408.673	496.25
408.896	512.25
409.12	554.25
409.344	515.25
409.567	471.25
409.791	476.25
410.014	456.25
410.238	433.25
410.461	454.25
410.685	471.25
410.908	488.25
411.132	505.25
411.355	523.25
411.578	530.25
411.802	471.25
412.025	474.25
412.249	486.25
412.472	536.25
412.695	602.25
412.919	601.25
413.142	532.25
413.365	496.25
413.589	457.25
413.812	462.25
414.035	440.25
414.258	458.25
414.482	429.25
414.705	442.25
414.928	418.25
415.151	412.25
415.374	438.25
415.597	417.25
415.821	424.25
416.044	458.25
416.267	417.25
416.49	406.25
416.713	429.25
416.936	427.25
417.159	433.25
417.382	449.25
417.605	450.25
417.828	449.25
418.051	455.25
418.274	470.25
418.497	439.25
418.72	442.25
418.943	418.25
419.166	459.25
419.389	458.25
419.611	455.25
419.834	456.25
420.057	477.25
420.28	489.25
420.503	524.25
420.726	488.25
420.948	482.25
421.171	534.25
421.394	544.25
421.617	483.25
421.839	465.25
422.062	464.25
422.285	493.25
422.507	531.25
422.73	596.25
422.953	577.25
423.175	527.25
423.398	499.25
423.621	473.25
423.843	492.25
424.066	481.25
424.288	490.25
424.511	512.25
424.733	557.25
424.956	635.25
425.178	642.25
425.401	605.25
425.623	652.25
425.846	540.25
426.068	500.25
426.291	478.25
426.513	501.25
426.735	489.25
426.958	533.25
427.18	631.25
427.402	758.25
427.625	852.25
427.847	790.25
428.069	708.25
428.292	605.25
428.514	547.25
428.736	502.25
428.958	487.25
429.181	477.25
429.403	465.25
429.625	470.25
429.847	475.25
430.069	573.25
430.292	574.25
430.514	452.25
430.736	465.25
430.958	462.25
431.18	425.25
431.402	450.25
431.624	410.25
431.846	435.25
432.068	412.25
432.29	417.25
432.512	427.25
432.734	444.25
432.956	436.25
433.178	450.25
433.4	457.25
433.622	447.25
433.844	421.25
434.066	421.25
434.287	414.25
434.509	419.25
434.731	440.25
434.953	438.25
435.175	449.25
435.397	482.25
435.618	470.25
435.84	545.25
436.062	624.25
436.284	709.25
436.505	609.25
436.727	535.25
436.949	466.25
437.17	487.25
437.392	469.25
437.614	473.25
437.835	498.25
438.057	605.25
438.278	725.25
438.5	699.25
438.721	768.25
438.943	723.25
439.165	594.25
439.386	551.25
439.608	537.25
439.829	538.25
440.05	562.25
440.272	588.25
440.493	551.25
440.715	509.25
440.936	503.25
441.158	475.25
441.379	465.25
441.6	454.25
441.822	483.25
442.043	538.25
442.264	610.25
442.486	653.25
442.707	563.25
442.928	539.25
443.149	518.25
443.371	546.25
443.592	584.25
443.813	659.25
444.034	722.25
444.255	569.25
444.476	516.25
444.698	493.25
444.919	496.25
445.14	600.25
445.361	551.25
445.582	543.25
445.803	604.25
446.024	701.25
446.245	722.25
446.466	675.25
446.687	558.25
446.908	526.25
447.129	486.25
447.35	468.25
447.571	449.25
447.792	456.25
448.013	472.25
448.234	499.25
448.455	542.25
448.675	663.25
448.896	760.25
449.117	662.25
449.338	620.25
449.559	678.25
449.779	784.25
450	617.25
450.221	534.25
450.442	481.25
450.662	464.25
450.883	471.25
451.104	491.25
451.324	474.25
451.545	456.25
451.766	460.25
451.986	438.25
452.207	405.25
452.428	417.25
452.648	417.25
452.869	408.25
453.089	432.25
453.31	417.25
453.53	408.25
453.751	422.25
453.971	418.25
454.192	458.25
454.412	473.25
454.633	433.25
454.853	416.25
455.073	421.25
455.294	439.25
455.514	474.25
455.734	509.25
455.955	414.25
456.175	401.25
456.395	382.25
456.616	395.25
456.836	392.25
457.056	383.25
457.276	383.25
457.497	394.25
457.717	389.25
457.937	393.25
458.157	395.25
458.377	392.25
458.598	412.25
458.818	491.25
459.038	594.25
459.258	602.25
459.478	475.25
459.698	422.25
459.918	435.25
460.138	422.25
460.358	414.25
460.578	419.25
460.798	430.25
461.018	425.25
461.238	423.25
461.458	416.25
461.678	396.25
461.898	420.25
462.118	404.25
462.338	402.25
462.558	421.25
462.777	426.25
462.997	436.25
463.217	412.25
463.437	411.25
463.657	416.25
463.876	440.25
464.096	436.25
464.316	445.25
464.536	455.25
464.755	445.25
464.975	455.25
465.195	508.25
465.414	587.25
465.634	538.25
465.854	475.25
466.073	466.25
466.293	426.25
466.512	401.25
466.732	404.25
466.951	411.25
467.171	410.25
467.391	432.25
467.61	433.25
467.829	455.25
468.049	490.25
468.268	504.25
468.488	449.25
468.707	445.25
468.927	412.25
469.146	397.25
469.365	414.25
469.585	403.25
469.804	399.25
470.023	421.25
470.243	445.25
470.462	437.25
470.681	455.25
470.901	447.25
471.12	438.25
471.339	430.25
471.558	454.25
471.777	441.25
471.997	447.25
472.216	494.25
472.435	664.25
472.654	618.25
472.873	520.25
473.092	464.25
473.311	471.25
473.53	457.25
473.749	485.25
473.968	514.25
474.187	634.25
474.406	633.25
474.625	526.25
474.844	447.25
475.063	461.25
475.282	449.25
475.501	449.25
475.72	465.25
475.939	450.25
476.158	454.25
476.377	458.25
476.596	452.25
476.814	461.25
477.033	482.25
477.252	457.25
477.471	473.25
477.69	461.25
477.908	463.25
478.127	471.25
478.346	455.25
478.564	467.25
478.783	491.25
479.002	480.25
479.22	468.25
479.439	507.25
479.658	500.25
479.876	533.25
480.095	516.25
480.313	545.25
480.532	539.25
480.751	578.25
480.969	630.25
481.188	851.25
481.406	1067.25
481.624	776.25
481.843	671.25
482.061	592.25
482.28	578.25
482.498	568.25
482.717	552.25
482.935	526.25
483.153	540.25
483.372	544.25
483.59	547.25
483.808	536.25
484.027	520.25
484.245	526.25
484.463	545.25
484.681	538.25
484.9	545.25
485.118	547.25
485.336	525.25
485.554	529.25
485.772	526.25
485.99	526.25
486.209	555.25
486.427	562.25
486.645	590.25
486.863	580.25
487.081	576.25
487.299	556.25
487.517	551.25
487.735	561.25
487.953	580.25
488.171	555.25
488.389	573.25
488.607	559.25
488.825	570.25
489.043	567.25
489.261	569.25
489.479	587.25
489.696	593.25
489.914	597.25
490.132	605.25
490.35	600.25
490.568	642.25
490.786	618.25
491.003	631.25
491.221	646.25
491.439	653.25
491.657	676.25
491.874	694.25
492.092	685.25
492.31	678.25
492.527	701.25
492.745	688.25
492.963	715.25
493.18	729.25
493.398	704.25
493.615	706.25
493.833	715.25
494.05	698.25
494.268	705.25
494.485	679.25
494.703	692.25
494.92	712.25
495.138	700.25
495.355	717.25
495.573	700.25
495.79	670.25
496.008	702.25
496.225	696.25
496.442	692.25
496.66	694.25
496.877	698.25
497.094	669.25
497.312	652.25
497.529	680.25
497.746	680.25
497.963	689.25
498.181	691.25
498.398	709.25
498.615	693.25
498.832	742.25
499.049	724.25
499.267	737.25
499.484	728.25
499.701	733.25
499.918	734.25
500.135	761.25
500.352	782.25
500.569	773.25
500.786	833.25
501.003	807.25
501.22	805.25
501.437	803.25
501.654	778.25
501.871	791.25
