Data from 1986.PennyLincolnUp.Lamp.En5.5.200Scan.071819.P2_HRD10591_17-11-24-973.txt Node
Date: Thu Jul 18 17:11:24 EDT 2019
User: cochatt
Spectrometer: HR+D1059
Trigger mode: 1
Integration Time (sec): 1.000000E-1
Scans to average: 1
Electric dark correction enabled: true
Nonlinearity correction enabled: false
Boxcar width: 0
XAxis mode: Wavelengths
Number of Pixels in Spectrum: 2048
>>>>>Begin Spectral Data<<<<<
223.165	-18.75
223.4	-18.75
223.635	-18.75
223.869	-26.75
224.104	-19.75
224.338	-5.75
224.573	-16.75
224.808	-13.75
225.042	-7.75
225.277	-1.75
225.511	-13.75
225.746	16.25
225.98	8.25
226.215	-5.75
226.449	24.25
226.683	30.25
226.918	20.25
227.152	31.25
227.387	15.25
227.621	41.25
227.856	43.25
228.09	34.25
228.324	53.25
228.559	60.25
228.793	83.25
229.027	103.25
229.262	110.25
229.496	126.25
229.73	148.25
229.964	175.25
230.199	128.25
230.433	121.25
230.667	114.25
230.901	109.25
231.136	104.25
231.37	114.25
231.604	103.25
231.838	98.25
232.072	107.25
232.306	106.25
232.541	128.25
232.775	125.25
233.009	104.25
233.243	125.25
233.477	121.25
233.711	111.25
233.945	116.25
234.179	109.25
234.413	115.25
234.647	127.25
234.881	115.25
235.115	134.25
235.349	118.25
235.583	122.25
235.817	137.25
236.051	141.25
236.285	128.25
236.519	138.25
236.753	139.25
236.987	159.25
237.221	171.25
237.455	259.25
237.689	186.25
237.922	154.25
238.156	137.25
238.39	130.25
238.624	129.25
238.858	139.25
239.091	125.25
239.325	129.25
239.559	132.25
239.793	134.25
240.027	146.25
240.26	142.25
240.494	155.25
240.728	152.25
240.961	148.25
241.195	151.25
241.429	137.25
241.662	141.25
241.896	143.25
242.13	136.25
242.363	158.25
242.597	146.25
242.83	142.25
243.064	143.25
243.298	142.25
243.531	148.25
243.765	150.25
243.998	144.25
244.232	125.25
244.465	161.25
244.699	145.25
244.932	142.25
245.166	154.25
245.399	147.25
245.633	150.25
245.866	152.25
246.099	152.25
246.333	159.25
246.566	158.25
246.8	153.25
247.033	146.25
247.266	162.25
247.5	174.25
247.733	180.25
247.966	171.25
248.2	185.25
248.433	183.25
248.666	169.25
248.899	180.25
249.133	209.25
249.366	222.25
249.599	214.25
249.832	189.25
250.066	198.25
250.299	191.25
250.532	205.25
250.765	235.25
250.998	244.25
251.231	251.25
251.465	237.25
251.698	223.25
251.931	216.25
252.164	212.25
252.397	212.25
252.63	224.25
252.863	232.25
253.096	239.25
253.329	243.25
253.562	242.25
253.795	230.25
254.028	239.25
254.261	228.25
254.494	231.25
254.727	276.25
254.96	310.25
255.193	298.25
255.426	284.25
255.659	262.25
255.892	275.25
256.124	296.25
256.357	297.25
256.59	288.25
256.823	278.25
257.056	260.25
257.289	234.25
257.521	239.25
257.754	223.25
257.987	228.25
258.22	242.25
258.452	223.25
258.685	218.25
258.918	220.25
259.151	235.25
259.383	239.25
259.616	232.25
259.849	236.25
260.081	257.25
260.314	253.25
260.547	266.25
260.779	281.25
261.012	249.25
261.244	239.25
261.477	263.25
261.71	239.25
261.942	251.25
262.175	248.25
262.407	224.25
262.64	228.25
262.872	198.25
263.105	212.25
263.337	225.25
263.57	227.25
263.802	219.25
264.035	219.25
264.267	206.25
264.499	221.25
264.732	220.25
264.964	219.25
265.197	218.25
265.429	219.25
265.661	220.25
265.894	207.25
266.126	217.25
266.358	225.25
266.591	230.25
266.823	213.25
267.055	233.25
267.287	211.25
267.52	242.25
267.752	232.25
267.984	243.25
268.216	222.25
268.448	258.25
268.681	242.25
268.913	235.25
269.145	258.25
269.377	282.25
269.609	279.25
269.841	262.25
270.073	266.25
270.306	302.25
270.538	311.25
270.77	350.25
271.002	315.25
271.234	310.25
271.466	310.25
271.698	324.25
271.93	349.25
272.162	317.25
272.394	338.25
272.626	304.25
272.858	288.25
273.09	282.25
273.322	282.25
273.553	271.25
273.785	273.25
274.017	276.25
274.249	283.25
274.481	270.25
274.713	272.25
274.945	264.25
275.176	270.25
275.408	283.25
275.64	260.25
275.872	262.25
276.104	287.25
276.335	282.25
276.567	287.25
276.799	299.25
277.031	340.25
277.262	337.25
277.494	338.25
277.726	325.25
277.957	310.25
278.189	282.25
278.421	292.25
278.652	276.25
278.884	296.25
279.115	279.25
279.347	276.25
279.579	267.25
279.81	273.25
280.042	271.25
280.273	278.25
280.505	267.25
280.736	266.25
280.968	285.25
281.199	268.25
281.431	269.25
281.662	262.25
281.894	260.25
282.125	263.25
282.356	294.25
282.588	288.25
282.819	306.25
283.051	278.25
283.282	264.25
283.513	272.25
283.745	278.25
283.976	273.25
284.207	250.25
284.439	268.25
284.67	291.25
284.901	261.25
285.132	264.25
285.364	283.25
285.595	272.25
285.826	269.25
286.057	278.25
286.288	287.25
286.52	290.25
286.751	275.25
286.982	278.25
287.213	279.25
287.444	271.25
287.675	288.25
287.906	274.25
288.138	293.25
288.369	292.25
288.6	286.25
288.831	302.25
289.062	287.25
289.293	292.25
289.524	271.25
289.755	268.25
289.986	292.25
290.217	278.25
290.448	279.25
290.679	285.25
290.91	279.25
291.141	279.25
291.371	281.25
291.602	288.25
291.833	271.25
292.064	284.25
292.295	289.25
292.526	268.25
292.757	274.25
292.987	281.25
293.218	286.25
293.449	293.25
293.68	282.25
293.91	273.25
294.141	279.25
294.372	283.25
294.603	290.25
294.833	286.25
295.064	284.25
295.295	285.25
295.525	280.25
295.756	294.25
295.987	294.25
296.217	330.25
296.448	342.25
296.679	296.25
296.909	297.25
297.14	282.25
297.37	288.25
297.601	291.25
297.831	276.25
298.062	273.25
298.292	299.25
298.523	306.25
298.753	283.25
298.984	274.25
299.214	303.25
299.445	284.25
299.675	288.25
299.905	287.25
300.136	304.25
300.366	301.25
300.597	312.25
300.827	295.25
301.057	297.25
301.288	310.25
301.518	318.25
301.748	310.25
301.979	327.25
302.209	292.25
302.439	299.25
302.669	311.25
302.9	310.25
303.13	308.25
303.36	326.25
303.59	317.25
303.82	327.25
304.051	320.25
304.281	293.25
304.511	326.25
304.741	308.25
304.971	319.25
305.201	318.25
305.431	308.25
305.661	293.25
305.891	304.25
306.121	303.25
306.352	321.25
306.582	336.25
306.812	312.25
307.042	335.25
307.272	316.25
307.502	308.25
307.731	333.25
307.961	339.25
308.191	309.25
308.421	327.25
308.651	320.25
308.881	327.25
309.111	325.25
309.341	330.25
309.571	357.25
309.8	347.25
310.03	356.25
310.26	352.25
310.49	366.25
310.72	380.25
310.949	397.25
311.179	376.25
311.409	392.25
311.639	374.25
311.868	368.25
312.098	374.25
312.328	388.25
312.557	396.25
312.787	421.25
313.017	410.25
313.246	404.25
313.476	384.25
313.706	371.25
313.935	371.25
314.165	397.25
314.394	411.25
314.624	387.25
314.853	375.25
315.083	387.25
315.312	372.25
315.542	366.25
315.771	361.25
316.001	354.25
316.23	367.25
316.46	358.25
316.689	367.25
316.919	376.25
317.148	367.25
317.377	378.25
317.607	382.25
317.836	365.25
318.065	370.25
318.295	375.25
318.524	376.25
318.753	372.25
318.983	359.25
319.212	368.25
319.441	393.25
319.67	393.25
319.9	381.25
320.129	387.25
320.358	377.25
320.587	390.25
320.816	389.25
321.046	382.25
321.275	395.25
321.504	396.25
321.733	391.25
321.962	406.25
322.191	412.25
322.42	439.25
322.649	446.25
322.878	444.25
323.108	453.25
323.337	510.25
323.566	529.25
323.795	562.25
324.024	637.25
324.253	745.25
324.482	1065.25
324.71	1669.25
324.939	2362.25
325.168	2126.25
325.397	1115.25
325.626	742.25
325.855	603.25
326.084	557.25
326.313	551.25
326.542	532.25
326.77	601.25
326.999	692.25
327.228	935.25
327.457	1470.25
327.686	1767.25
327.914	1229.25
328.143	842.25
328.372	706.25
328.6	668.25
328.829	631.25
329.058	626.25
329.287	642.25
329.515	608.25
329.744	581.25
329.972	568.25
330.201	627.25
330.43	688.25
330.658	692.25
330.887	700.25
331.115	662.25
331.344	582.25
331.572	522.25
331.801	526.25
332.03	506.25
332.258	480.25
332.486	474.25
332.715	439.25
332.943	454.25
333.172	461.25
333.4	470.25
333.629	468.25
333.857	520.25
334.085	528.25
334.314	603.25
334.542	654.25
334.771	712.25
334.999	599.25
335.227	506.25
335.455	489.25
335.684	463.25
335.912	440.25
336.14	445.25
336.369	436.25
336.597	431.25
336.825	454.25
337.053	434.25
337.281	415.25
337.51	432.25
337.738	416.25
337.966	436.25
338.194	406.25
338.422	434.25
338.65	410.25
338.878	419.25
339.106	406.25
339.334	410.25
339.562	419.25
339.79	388.25
340.018	419.25
340.246	392.25
340.474	424.25
340.702	411.25
340.93	394.25
341.158	405.25
341.386	430.25
341.614	437.25
341.842	413.25
342.07	399.25
342.298	383.25
342.526	362.25
342.754	406.25
342.981	398.25
343.209	389.25
343.437	402.25
343.665	398.25
343.893	373.25
344.12	410.25
344.348	391.25
344.576	403.25
344.804	404.25
345.031	404.25
345.259	444.25
345.487	411.25
345.714	428.25
345.942	414.25
346.17	402.25
346.397	399.25
346.625	415.25
346.853	396.25
347.08	404.25
347.308	379.25
347.535	391.25
347.763	401.25
347.99	408.25
348.218	396.25
348.445	406.25
348.673	427.25
348.9	416.25
349.128	393.25
349.355	390.25
349.583	376.25
349.81	374.25
350.037	373.25
350.265	386.25
350.492	374.25
350.72	385.25
350.947	390.25
351.174	422.25
351.402	414.25
351.629	389.25
351.856	394.25
352.083	424.25
352.311	411.25
352.538	410.25
352.765	414.25
352.992	407.25
353.22	408.25
353.447	386.25
353.674	375.25
353.901	392.25
354.128	367.25
354.355	362.25
354.583	363.25
354.81	347.25
355.037	351.25
355.264	332.25
355.491	346.25
355.718	370.25
355.945	356.25
356.172	370.25
356.399	363.25
356.626	343.25
356.853	367.25
357.08	362.25
357.307	357.25
357.534	351.25
357.761	350.25
357.988	359.25
358.215	360.25
358.441	357.25
358.668	352.25
358.895	355.25
359.122	371.25
359.349	372.25
359.576	395.25
359.802	414.25
360.029	434.25
360.256	439.25
360.483	453.25
360.709	397.25
360.936	397.25
361.163	403.25
361.39	400.25
361.616	414.25
361.843	393.25
362.07	409.25
362.296	414.25
362.523	381.25
362.749	414.25
362.976	417.25
363.203	385.25
363.429	383.25
363.656	392.25
363.882	386.25
364.109	368.25
364.335	384.25
364.562	378.25
364.788	385.25
365.015	372.25
365.241	377.25
365.468	373.25
365.694	382.25
365.92	392.25
366.147	376.25
366.373	383.25
366.599	369.25
366.826	380.25
367.052	385.25
367.278	374.25
367.505	381.25
367.731	361.25
367.957	362.25
368.184	388.25
368.41	386.25
368.636	386.25
368.862	364.25
369.089	383.25
369.315	333.25
369.541	355.25
369.767	354.25
369.993	363.25
370.219	359.25
370.445	346.25
370.672	369.25
370.898	348.25
371.124	352.25
371.35	350.25
371.576	355.25
371.802	345.25
372.028	362.25
372.254	365.25
372.48	352.25
372.706	351.25
372.932	374.25
373.158	374.25
373.384	372.25
373.61	377.25
373.835	352.25
374.061	357.25
374.287	350.25
374.513	363.25
374.739	342.25
374.965	380.25
375.191	363.25
375.416	358.25
375.642	351.25
375.868	351.25
376.094	350.25
376.319	363.25
376.545	351.25
376.771	365.25
376.997	358.25
377.222	355.25
377.448	347.25
377.674	344.25
377.899	354.25
378.125	358.25
378.35	350.25
378.576	354.25
378.802	354.25
379.027	347.25
379.253	346.25
379.478	360.25
379.704	349.25
379.929	381.25
380.155	373.25
380.38	352.25
380.606	357.25
380.831	359.25
381.057	360.25
381.282	355.25
381.507	348.25
381.733	355.25
381.958	374.25
382.184	370.25
382.409	355.25
382.634	372.25
382.86	373.25
383.085	380.25
383.31	372.25
383.535	387.25
383.761	371.25
383.986	371.25
384.211	372.25
384.436	364.25
384.662	355.25
384.887	377.25
385.112	376.25
385.337	377.25
385.562	379.25
385.787	370.25
386.013	381.25
386.238	364.25
386.463	378.25
386.688	390.25
386.913	390.25
387.138	381.25
387.363	370.25
387.588	372.25
387.813	383.25
388.038	357.25
388.263	368.25
388.488	376.25
388.713	379.25
388.938	385.25
389.163	350.25
389.387	384.25
389.612	387.25
389.837	374.25
390.062	362.25
390.287	384.25
390.512	377.25
390.736	370.25
390.961	367.25
391.186	371.25
391.411	383.25
391.636	380.25
391.86	379.25
392.085	377.25
392.31	382.25
392.534	382.25
392.759	395.25
392.984	390.25
393.208	377.25
393.433	382.25
393.658	381.25
393.882	391.25
394.107	376.25
394.331	363.25
394.556	368.25
394.78	382.25
395.005	370.25
395.229	389.25
395.454	382.25
395.678	373.25
395.903	388.25
396.127	410.25
396.352	403.25
396.576	389.25
396.801	386.25
397.025	388.25
397.249	382.25
397.474	395.25
397.698	392.25
397.922	403.25
398.147	424.25
398.371	412.25
398.595	406.25
398.82	406.25
399.044	410.25
399.268	420.25
399.492	453.25
399.717	455.25
399.941	471.25
400.165	517.25
400.389	528.25
400.613	468.25
400.837	442.25
401.062	461.25
401.286	409.25
401.51	436.25
401.734	423.25
401.958	421.25
402.182	415.25
402.406	456.25
402.63	431.25
402.854	432.25
403.078	429.25
403.302	429.25
403.526	441.25
403.75	452.25
403.974	438.25
404.198	448.25
404.422	450.25
404.645	458.25
404.869	469.25
405.093	493.25
405.317	566.25
405.541	559.25
405.765	523.25
405.988	495.25
406.212	509.25
406.436	505.25
406.66	534.25
406.883	495.25
407.107	514.25
407.331	548.25
407.555	611.25
407.778	585.25
408.002	530.25
408.226	502.25
408.449	482.25
408.673	476.25
408.896	504.25
409.12	538.25
409.344	530.25
409.567	475.25
409.791	458.25
410.014	442.25
410.238	448.25
410.461	441.25
410.685	461.25
410.908	462.25
411.132	479.25
411.355	540.25
411.578	523.25
411.802	450.25
412.025	461.25
412.249	461.25
412.472	493.25
412.695	557.25
412.919	553.25
413.142	487.25
413.365	488.25
413.589	467.25
413.812	439.25
414.035	422.25
414.258	444.25
414.482	431.25
414.705	433.25
414.928	418.25
415.151	419.25
415.374	399.25
415.597	403.25
415.821	413.25
416.044	440.25
416.267	448.25
416.49	412.25
416.713	424.25
416.936	431.25
417.159	424.25
417.382	438.25
417.605	422.25
417.828	451.25
418.051	457.25
418.274	427.25
418.497	431.25
418.72	452.25
418.943	409.25
419.166	426.25
419.389	451.25
419.611	444.25
419.834	465.25
420.057	461.25
420.28	481.25
420.503	486.25
420.726	474.25
420.948	490.25
421.171	510.25
421.394	543.25
421.617	488.25
421.839	467.25
422.062	456.25
422.285	463.25
422.507	531.25
422.73	603.25
422.953	598.25
423.175	500.25
423.398	467.25
423.621	468.25
423.843	494.25
424.066	486.25
424.288	487.25
424.511	504.25
424.733	554.25
424.956	648.25
425.178	613.25
425.401	608.25
425.623	646.25
425.846	551.25
426.068	502.25
426.291	508.25
426.513	505.25
426.735	510.25
426.958	539.25
427.18	616.25
427.402	735.25
427.625	814.25
427.847	772.25
428.069	671.25
428.292	596.25
428.514	518.25
428.736	508.25
428.958	486.25
429.181	454.25
429.403	459.25
429.625	475.25
429.847	522.25
430.069	586.25
430.292	578.25
430.514	487.25
430.736	461.25
430.958	459.25
431.18	431.25
431.402	440.25
431.624	427.25
431.846	416.25
432.068	404.25
432.29	435.25
432.512	422.25
432.734	464.25
432.956	445.25
433.178	445.25
433.4	462.25
433.622	454.25
433.844	427.25
434.066	432.25
434.287	425.25
434.509	406.25
434.731	428.25
434.953	421.25
435.175	441.25
435.397	484.25
435.618	500.25
435.84	520.25
436.062	631.25
436.284	671.25
436.505	582.25
436.727	512.25
436.949	472.25
437.17	452.25
437.392	483.25
437.614	486.25
437.835	517.25
438.057	631.25
438.278	722.25
438.5	699.25
438.721	774.25
438.943	716.25
439.165	593.25
439.386	554.25
439.608	537.25
439.829	527.25
440.05	527.25
440.272	591.25
440.493	550.25
440.715	506.25
440.936	483.25
441.158	479.25
441.379	473.25
441.6	492.25
441.822	490.25
442.043	551.25
442.264	646.25
442.486	660.25
442.707	568.25
442.928	524.25
443.149	516.25
443.371	562.25
443.592	596.25
443.813	668.25
444.034	732.25
444.255	593.25
444.476	514.25
444.698	495.25
444.919	502.25
445.14	582.25
445.361	546.25
445.582	532.25
445.803	615.25
446.024	716.25
446.245	704.25
446.466	658.25
446.687	557.25
446.908	528.25
447.129	469.25
447.35	479.25
447.571	471.25
447.792	472.25
448.013	470.25
448.234	478.25
448.455	529.25
448.675	650.25
448.896	749.25
449.117	643.25
449.338	623.25
449.559	716.25
449.779	787.25
450	623.25
450.221	528.25
450.442	479.25
450.662	476.25
450.883	479.25
451.104	479.25
451.324	482.25
451.545	440.25
451.766	433.25
451.986	401.25
452.207	419.25
452.428	408.25
452.648	402.25
452.869	415.25
453.089	434.25
453.31	427.25
453.53	429.25
453.751	425.25
453.971	427.25
454.192	446.25
454.412	428.25
454.633	423.25
454.853	419.25
455.073	431.25
455.294	448.25
455.514	511.25
455.734	508.25
455.955	416.25
456.175	404.25
456.395	395.25
456.616	391.25
456.836	370.25
457.056	393.25
457.276	388.25
457.497	380.25
457.717	363.25
457.937	395.25
458.157	410.25
458.377	387.25
458.598	419.25
458.818	464.25
459.038	581.25
459.258	596.25
459.478	488.25
459.698	458.25
459.918	438.25
460.138	423.25
460.358	407.25
460.578	416.25
460.798	415.25
461.018	397.25
461.238	422.25
461.458	414.25
461.678	393.25
461.898	420.25
462.118	409.25
462.338	439.25
462.558	416.25
462.777	423.25
462.997	426.25
463.217	417.25
463.437	440.25
463.657	428.25
463.876	411.25
464.096	427.25
464.316	438.25
464.536	470.25
464.755	472.25
464.975	462.25
465.195	497.25
465.414	614.25
465.634	525.25
465.854	479.25
466.073	471.25
466.293	448.25
466.512	435.25
466.732	440.25
466.951	417.25
467.171	414.25
467.391	408.25
467.61	425.25
467.829	432.25
468.049	445.25
468.268	457.25
468.488	425.25
468.707	402.25
468.927	398.25
469.146	415.25
469.365	415.25
469.585	389.25
469.804	426.25
470.023	436.25
470.243	429.25
470.462	429.25
470.681	445.25
470.901	454.25
471.12	425.25
471.339	416.25
471.558	428.25
471.777	437.25
471.997	454.25
472.216	451.25
472.435	567.25
472.654	498.25
472.873	472.25
473.092	429.25
473.311	425.25
473.53	446.25
473.749	438.25
473.968	487.25
474.187	592.25
474.406	630.25
474.625	489.25
474.844	453.25
475.063	450.25
475.282	454.25
475.501	429.25
475.72	460.25
475.939	442.25
476.158	467.25
476.377	455.25
476.596	424.25
476.814	459.25
477.033	440.25
477.252	454.25
477.471	441.25
477.69	431.25
477.908	446.25
478.127	462.25
478.346	459.25
478.564	484.25
478.783	480.25
479.002	488.25
479.22	483.25
479.439	482.25
479.658	506.25
479.876	512.25
480.095	532.25
480.313	554.25
480.532	528.25
480.751	538.25
480.969	582.25
481.188	733.25
481.406	818.25
481.624	657.25
481.843	579.25
482.061	555.25
482.28	553.25
482.498	535.25
482.717	515.25
482.935	522.25
483.153	512.25
483.372	522.25
483.59	512.25
483.808	498.25
484.027	502.25
484.245	520.25
484.463	539.25
484.681	514.25
484.9	520.25
485.118	530.25
485.336	516.25
485.554	519.25
485.772	534.25
485.99	528.25
486.209	526.25
486.427	533.25
486.645	549.25
486.863	572.25
487.081	570.25
487.299	558.25
487.517	556.25
487.735	554.25
487.953	541.25
488.171	559.25
488.389	551.25
488.607	561.25
488.825	558.25
489.043	544.25
489.261	556.25
489.479	565.25
489.696	559.25
489.914	576.25
490.132	586.25
490.35	586.25
490.568	593.25
490.786	582.25
491.003	623.25
491.221	642.25
491.439	610.25
491.657	639.25
491.874	637.25
492.092	654.25
492.31	655.25
492.527	676.25
492.745	685.25
492.963	651.25
493.18	680.25
493.398	690.25
493.615	690.25
493.833	665.25
494.05	659.25
494.268	667.25
494.485	685.25
494.703	677.25
494.92	672.25
495.138	671.25
495.355	696.25
495.573	672.25
495.79	669.25
496.008	674.25
496.225	675.25
496.442	652.25
496.66	684.25
496.877	656.25
497.094	672.25
497.312	676.25
497.529	660.25
497.746	669.25
497.963	680.25
498.181	686.25
498.398	711.25
498.615	716.25
498.832	714.25
499.049	704.25
499.267	727.25
499.484	719.25
499.701	754.25
499.918	734.25
500.135	739.25
500.352	788.25
500.569	806.25
500.786	837.25
501.003	806.25
501.22	803.25
501.437	766.25
501.654	766.25
501.871	778.25
