Data from 1986.PennyLincolnUp.Lamp.En5.5.200Scan.071819.P2_HRD10591_17-12-15-972.txt Node
Date: Thu Jul 18 17:12:15 EDT 2019
User: cochatt
Spectrometer: HR+D1059
Trigger mode: 1
Integration Time (sec): 1.000000E-1
Scans to average: 1
Electric dark correction enabled: true
Nonlinearity correction enabled: false
Boxcar width: 0
XAxis mode: Wavelengths
Number of Pixels in Spectrum: 2048
>>>>>Begin Spectral Data<<<<<
223.165	-17.56
223.4	-17.56
223.635	-17.56
223.869	-21.56
224.104	-19.56
224.338	-14.56
224.573	-5.56
224.808	0.44
225.042	-11.56
225.277	1.44
225.511	-1.56
225.746	-5.56
225.98	-6.56
226.215	7.44
226.449	13.44
226.683	9.44
226.918	32.44
227.152	39.44
227.387	52.44
227.621	45.44
227.856	46.44
228.09	40.44
228.324	44.44
228.559	65.44
228.793	95.44
229.027	100.44
229.262	115.44
229.496	119.44
229.73	134.44
229.964	173.44
230.199	135.44
230.433	102.44
230.667	108.44
230.901	119.44
231.136	128.44
231.37	123.44
231.604	115.44
231.838	109.44
232.072	113.44
232.306	115.44
232.541	109.44
232.775	120.44
233.009	110.44
233.243	116.44
233.477	130.44
233.711	128.44
233.945	120.44
234.179	110.44
234.413	112.44
234.647	116.44
234.881	116.44
235.115	135.44
235.349	131.44
235.583	137.44
235.817	122.44
236.051	133.44
236.285	128.44
236.519	130.44
236.753	149.44
236.987	142.44
237.221	192.44
237.455	235.44
237.689	184.44
237.922	155.44
238.156	139.44
238.39	153.44
238.624	134.44
238.858	134.44
239.091	126.44
239.325	136.44
239.559	130.44
239.793	123.44
240.027	148.44
240.26	145.44
240.494	160.44
240.728	162.44
240.961	172.44
241.195	142.44
241.429	138.44
241.662	152.44
241.896	153.44
242.13	146.44
242.363	138.44
242.597	161.44
242.83	152.44
243.064	148.44
243.298	141.44
243.531	154.44
243.765	139.44
243.998	148.44
244.232	149.44
244.465	147.44
244.699	160.44
244.932	160.44
245.166	145.44
245.399	154.44
245.633	150.44
245.866	156.44
246.099	154.44
246.333	139.44
246.566	157.44
246.8	170.44
247.033	168.44
247.266	172.44
247.5	172.44
247.733	182.44
247.966	164.44
248.2	182.44
248.433	196.44
248.666	185.44
248.899	192.44
249.133	202.44
249.366	231.44
249.599	226.44
249.832	206.44
250.066	208.44
250.299	212.44
250.532	237.44
250.765	265.44
250.998	288.44
251.231	285.44
251.465	254.44
251.698	244.44
251.931	236.44
252.164	213.44
252.397	225.44
252.63	229.44
252.863	253.44
253.096	230.44
253.329	225.44
253.562	254.44
253.795	234.44
254.028	261.44
254.261	257.44
254.494	257.44
254.727	265.44
254.96	298.44
255.193	300.44
255.426	284.44
255.659	278.44
255.892	298.44
256.124	324.44
256.357	350.44
256.59	338.44
256.823	313.44
257.056	260.44
257.289	276.44
257.521	249.44
257.754	263.44
257.987	251.44
258.22	251.44
258.452	211.44
258.685	242.44
258.918	227.44
259.151	218.44
259.383	248.44
259.616	241.44
259.849	234.44
260.081	261.44
260.314	262.44
260.547	288.44
260.779	273.44
261.012	262.44
261.244	257.44
261.477	259.44
261.71	244.44
261.942	255.44
262.175	258.44
262.407	249.44
262.64	223.44
262.872	239.44
263.105	245.44
263.337	244.44
263.57	226.44
263.802	233.44
264.035	224.44
264.267	229.44
264.499	205.44
264.732	230.44
264.964	225.44
265.197	218.44
265.429	227.44
265.661	221.44
265.894	217.44
266.126	228.44
266.358	227.44
266.591	213.44
266.823	240.44
267.055	253.44
267.287	245.44
267.52	229.44
267.752	219.44
267.984	229.44
268.216	266.44
268.448	240.44
268.681	246.44
268.913	260.44
269.145	281.44
269.377	292.44
269.609	281.44
269.841	292.44
270.073	297.44
270.306	316.44
270.538	343.44
270.77	345.44
271.002	322.44
271.234	314.44
271.466	312.44
271.698	344.44
271.93	331.44
272.162	352.44
272.394	359.44
272.626	344.44
272.858	310.44
273.09	299.44
273.322	296.44
273.553	290.44
273.785	279.44
274.017	294.44
274.249	266.44
274.481	276.44
274.713	274.44
274.945	280.44
275.176	282.44
275.408	290.44
275.64	266.44
275.872	272.44
276.104	266.44
276.335	285.44
276.567	288.44
276.799	297.44
277.031	334.44
277.262	345.44
277.494	357.44
277.726	333.44
277.957	329.44
278.189	309.44
278.421	308.44
278.652	302.44
278.884	291.44
279.115	268.44
279.347	286.44
279.579	290.44
279.81	285.44
280.042	281.44
280.273	283.44
280.505	297.44
280.736	270.44
280.968	271.44
281.199	270.44
281.431	274.44
281.662	283.44
281.894	282.44
282.125	265.44
282.356	292.44
282.588	333.44
282.819	338.44
283.051	296.44
283.282	267.44
283.513	292.44
283.745	280.44
283.976	290.44
284.207	299.44
284.439	270.44
284.67	310.44
284.901	284.44
285.132	283.44
285.364	276.44
285.595	277.44
285.826	294.44
286.057	281.44
286.288	284.44
286.52	271.44
286.751	286.44
286.982	288.44
287.213	256.44
287.444	314.44
287.675	314.44
287.906	294.44
288.138	321.44
288.369	310.44
288.6	305.44
288.831	293.44
289.062	301.44
289.293	304.44
289.524	308.44
289.755	294.44
289.986	288.44
290.217	276.44
290.448	291.44
290.679	289.44
290.91	278.44
291.141	298.44
291.371	287.44
291.602	296.44
291.833	295.44
292.064	285.44
292.295	290.44
292.526	305.44
292.757	297.44
292.987	300.44
293.218	276.44
293.449	284.44
293.68	287.44
293.91	284.44
294.141	281.44
294.372	282.44
294.603	301.44
294.833	280.44
295.064	283.44
295.295	283.44
295.525	297.44
295.756	305.44
295.987	320.44
296.217	329.44
296.448	336.44
296.679	296.44
296.909	295.44
297.14	276.44
297.37	310.44
297.601	315.44
297.831	294.44
298.062	297.44
298.292	284.44
298.523	307.44
298.753	296.44
298.984	307.44
299.214	294.44
299.445	306.44
299.675	312.44
299.905	302.44
300.136	325.44
300.366	306.44
300.597	301.44
300.827	318.44
301.057	299.44
301.288	342.44
301.518	340.44
301.748	330.44
301.979	336.44
302.209	324.44
302.439	321.44
302.669	321.44
302.9	333.44
303.13	316.44
303.36	342.44
303.59	339.44
303.82	341.44
304.051	327.44
304.281	343.44
304.511	312.44
304.741	323.44
304.971	318.44
305.201	338.44
305.431	328.44
305.661	324.44
305.891	330.44
306.121	329.44
306.352	323.44
306.582	344.44
306.812	352.44
307.042	324.44
307.272	346.44
307.502	348.44
307.731	350.44
307.961	330.44
308.191	342.44
308.421	342.44
308.651	347.44
308.881	368.44
309.111	363.44
309.341	352.44
309.571	368.44
309.8	368.44
310.03	384.44
310.26	377.44
310.49	377.44
310.72	397.44
310.949	412.44
311.179	419.44
311.409	381.44
311.639	371.44
311.868	398.44
312.098	374.44
312.328	401.44
312.557	414.44
312.787	427.44
313.017	410.44
313.246	422.44
313.476	386.44
313.706	372.44
313.935	402.44
314.165	410.44
314.394	403.44
314.624	402.44
314.853	404.44
315.083	382.44
315.312	403.44
315.542	385.44
315.771	377.44
316.001	377.44
316.23	386.44
316.46	398.44
316.689	381.44
316.919	401.44
317.148	423.44
317.377	398.44
317.607	410.44
317.836	409.44
318.065	405.44
318.295	407.44
318.524	398.44
318.753	390.44
318.983	398.44
319.212	380.44
319.441	404.44
319.67	405.44
319.9	394.44
320.129	380.44
320.358	397.44
320.587	410.44
320.816	403.44
321.046	410.44
321.275	431.44
321.504	426.44
321.733	419.44
321.962	418.44
322.191	423.44
322.42	448.44
322.649	461.44
322.878	477.44
323.108	488.44
323.337	510.44
323.566	559.44
323.795	582.44
324.024	626.44
324.253	778.44
324.482	1133.44
324.71	1720.44
324.939	2452.44
325.168	2184.44
325.397	1153.44
325.626	789.44
325.855	620.44
326.084	596.44
326.313	565.44
326.542	568.44
326.77	641.44
326.999	768.44
327.228	999.44
327.457	1540.44
327.686	1915.44
327.914	1314.44
328.143	891.44
328.372	826.44
328.6	770.44
328.829	670.44
329.058	678.44
329.287	718.44
329.515	678.44
329.744	639.44
329.972	679.44
330.201	794.44
330.43	900.44
330.658	854.44
330.887	770.44
331.115	702.44
331.344	619.44
331.572	568.44
331.801	556.44
332.03	574.44
332.258	542.44
332.486	539.44
332.715	521.44
332.943	531.44
333.172	523.44
333.4	542.44
333.629	540.44
333.857	576.44
334.085	634.44
334.314	757.44
334.542	910.44
334.771	966.44
334.999	758.44
335.227	610.44
335.455	558.44
335.684	500.44
335.912	473.44
336.14	483.44
336.369	480.44
336.597	473.44
336.825	481.44
337.053	484.44
337.281	449.44
337.51	444.44
337.738	447.44
337.966	446.44
338.194	458.44
338.422	429.44
338.65	467.44
338.878	440.44
339.106	443.44
339.334	449.44
339.562	433.44
339.79	427.44
340.018	434.44
340.246	424.44
340.474	446.44
340.702	436.44
340.93	436.44
341.158	439.44
341.386	422.44
341.614	444.44
341.842	434.44
342.07	415.44
342.298	420.44
342.526	417.44
342.754	422.44
342.981	393.44
343.209	417.44
343.437	406.44
343.665	408.44
343.893	408.44
344.12	426.44
344.348	427.44
344.576	431.44
344.804	412.44
345.031	444.44
345.259	453.44
345.487	454.44
345.714	435.44
345.942	405.44
346.17	419.44
346.397	404.44
346.625	417.44
346.853	416.44
347.08	411.44
347.308	425.44
347.535	435.44
347.763	423.44
347.99	443.44
348.218	424.44
348.445	435.44
348.673	418.44
348.9	425.44
349.128	405.44
349.355	391.44
349.583	390.44
349.81	395.44
350.037	392.44
350.265	408.44
350.492	398.44
350.72	391.44
350.947	387.44
351.174	416.44
351.402	436.44
351.629	412.44
351.856	435.44
352.083	429.44
352.311	430.44
352.538	434.44
352.765	429.44
352.992	442.44
353.22	412.44
353.447	426.44
353.674	412.44
353.901	396.44
354.128	390.44
354.355	385.44
354.583	385.44
354.81	371.44
355.037	380.44
355.264	364.44
355.491	390.44
355.718	358.44
355.945	381.44
356.172	382.44
356.399	394.44
356.626	382.44
356.853	386.44
357.08	376.44
357.307	387.44
357.534	381.44
357.761	398.44
357.988	362.44
358.215	376.44
358.441	392.44
358.668	389.44
358.895	375.44
359.122	392.44
359.349	402.44
359.576	414.44
359.802	430.44
360.029	473.44
360.256	466.44
360.483	431.44
360.709	413.44
360.936	400.44
361.163	401.44
361.39	410.44
361.616	399.44
361.843	407.44
362.07	410.44
362.296	434.44
362.523	404.44
362.749	403.44
362.976	381.44
363.203	411.44
363.429	400.44
363.656	393.44
363.882	371.44
364.109	386.44
364.335	394.44
364.562	396.44
364.788	382.44
365.015	398.44
365.241	376.44
365.468	377.44
365.694	384.44
365.92	398.44
366.147	363.44
366.373	376.44
366.599	378.44
366.826	389.44
367.052	380.44
367.278	380.44
367.505	390.44
367.731	390.44
367.957	376.44
368.184	392.44
368.41	366.44
368.636	380.44
368.862	396.44
369.089	403.44
369.315	391.44
369.541	392.44
369.767	375.44
369.993	384.44
370.219	375.44
370.445	390.44
370.672	371.44
370.898	360.44
371.124	371.44
371.35	366.44
371.576	374.44
371.802	364.44
372.028	375.44
372.254	356.44
372.48	382.44
372.706	377.44
372.932	365.44
373.158	368.44
373.384	374.44
373.61	364.44
373.835	372.44
374.061	382.44
374.287	372.44
374.513	372.44
374.739	372.44
374.965	381.44
375.191	397.44
375.416	369.44
375.642	384.44
375.868	346.44
376.094	373.44
376.319	382.44
376.545	372.44
376.771	373.44
376.997	381.44
377.222	366.44
377.448	376.44
377.674	363.44
377.899	372.44
378.125	349.44
378.35	373.44
378.576	361.44
378.802	343.44
379.027	371.44
379.253	386.44
379.478	360.44
379.704	376.44
379.929	378.44
380.155	382.44
380.38	353.44
380.606	378.44
380.831	369.44
381.057	356.44
381.282	372.44
381.507	373.44
381.733	362.44
381.958	364.44
382.184	352.44
382.409	358.44
382.634	364.44
382.86	365.44
383.085	390.44
383.31	368.44
383.535	373.44
383.761	378.44
383.986	366.44
384.211	364.44
384.436	398.44
384.662	386.44
384.887	381.44
385.112	376.44
385.337	384.44
385.562	388.44
385.787	392.44
386.013	380.44
386.238	395.44
386.463	393.44
386.688	377.44
386.913	378.44
387.138	370.44
387.363	368.44
387.588	389.44
387.813	385.44
388.038	371.44
388.263	395.44
388.488	404.44
388.713	394.44
388.938	390.44
389.163	377.44
389.387	397.44
389.612	368.44
389.837	389.44
390.062	378.44
390.287	388.44
390.512	380.44
390.736	397.44
390.961	394.44
391.186	383.44
391.411	393.44
391.636	381.44
391.86	390.44
392.085	401.44
392.31	392.44
392.534	396.44
392.759	391.44
392.984	387.44
393.208	397.44
393.433	378.44
393.658	385.44
393.882	396.44
394.107	386.44
394.331	376.44
394.556	369.44
394.78	381.44
395.005	396.44
395.229	380.44
395.454	396.44
395.678	391.44
395.903	418.44
396.127	423.44
396.352	428.44
396.576	409.44
396.801	387.44
397.025	395.44
397.249	381.44
397.474	406.44
397.698	418.44
397.922	419.44
398.147	446.44
398.371	426.44
398.595	424.44
398.82	408.44
399.044	407.44
399.268	417.44
399.492	444.44
399.717	458.44
399.941	470.44
400.165	520.44
400.389	542.44
400.613	478.44
400.837	462.44
401.062	449.44
401.286	452.44
401.51	427.44
401.734	433.44
401.958	445.44
402.182	451.44
402.406	462.44
402.63	443.44
402.854	415.44
403.078	462.44
403.302	440.44
403.526	452.44
403.75	459.44
403.974	453.44
404.198	457.44
404.422	456.44
404.645	498.44
404.869	498.44
405.093	561.44
405.317	595.44
405.541	644.44
405.765	572.44
405.988	518.44
406.212	541.44
406.436	526.44
406.66	541.44
406.883	530.44
407.107	519.44
407.331	563.44
407.555	596.44
407.778	604.44
408.002	550.44
408.226	518.44
408.449	523.44
408.673	502.44
408.896	556.44
409.12	574.44
409.344	524.44
409.567	481.44
409.791	477.44
410.014	464.44
410.238	476.44
410.461	446.44
410.685	477.44
410.908	482.44
411.132	490.44
411.355	561.44
411.578	537.44
411.802	501.44
412.025	469.44
412.249	503.44
412.472	546.44
412.695	621.44
412.919	613.44
413.142	539.44
413.365	521.44
413.589	498.44
413.812	491.44
414.035	466.44
414.258	478.44
414.482	474.44
414.705	448.44
414.928	447.44
415.151	433.44
415.374	442.44
415.597	429.44
415.821	420.44
416.044	446.44
416.267	451.44
416.49	445.44
416.713	450.44
416.936	444.44
417.159	437.44
417.382	435.44
417.605	455.44
417.828	464.44
418.051	473.44
418.274	458.44
418.497	454.44
418.72	468.44
418.943	436.44
419.166	459.44
419.389	477.44
419.611	489.44
419.834	472.44
420.057	503.44
420.28	503.44
420.503	518.44
420.726	508.44
420.948	520.44
421.171	545.44
421.394	558.44
421.617	518.44
421.839	497.44
422.062	479.44
422.285	476.44
422.507	529.44
422.73	636.44
422.953	597.44
423.175	526.44
423.398	484.44
423.621	487.44
423.843	506.44
424.066	484.44
424.288	504.44
424.511	521.44
424.733	589.44
424.956	624.44
425.178	613.44
425.401	640.44
425.623	666.44
425.846	550.44
426.068	521.44
426.291	492.44
426.513	531.44
426.735	526.44
426.958	545.44
427.18	621.44
427.402	747.44
427.625	845.44
427.847	812.44
428.069	717.44
428.292	658.44
428.514	554.44
428.736	496.44
428.958	491.44
429.181	494.44
429.403	486.44
429.625	494.44
429.847	504.44
430.069	594.44
430.292	563.44
430.514	490.44
430.736	462.44
430.958	473.44
431.18	453.44
431.402	446.44
431.624	422.44
431.846	429.44
432.068	443.44
432.29	455.44
432.512	437.44
432.734	441.44
432.956	466.44
433.178	483.44
433.4	442.44
433.622	443.44
433.844	436.44
434.066	432.44
434.287	418.44
434.509	438.44
434.731	455.44
434.953	438.44
435.175	470.44
435.397	506.44
435.618	501.44
435.84	542.44
436.062	640.44
436.284	719.44
436.505	588.44
436.727	544.44
436.949	481.44
437.17	472.44
437.392	494.44
437.614	493.44
437.835	523.44
438.057	637.44
438.278	749.44
438.5	734.44
438.721	749.44
438.943	757.44
439.165	593.44
439.386	553.44
439.608	546.44
439.829	550.44
440.05	569.44
440.272	598.44
440.493	557.44
440.715	527.44
440.936	500.44
441.158	497.44
441.379	486.44
441.6	497.44
441.822	501.44
442.043	561.44
442.264	637.44
442.486	683.44
442.707	576.44
442.928	515.44
443.149	552.44
443.371	550.44
443.592	594.44
443.813	684.44
444.034	746.44
444.255	586.44
444.476	534.44
444.698	495.44
444.919	489.44
445.14	619.44
445.361	563.44
445.582	556.44
445.803	624.44
446.024	730.44
446.245	704.44
446.466	661.44
446.687	568.44
446.908	536.44
447.129	492.44
447.35	486.44
447.571	486.44
447.792	477.44
448.013	485.44
448.234	483.44
448.455	550.44
448.675	668.44
448.896	763.44
449.117	653.44
449.338	616.44
449.559	722.44
449.779	797.44
450	651.44
450.221	553.44
450.442	493.44
450.662	483.44
450.883	488.44
451.104	515.44
451.324	482.44
451.545	454.44
451.766	445.44
451.986	437.44
452.207	438.44
452.428	430.44
452.648	404.44
452.869	439.44
453.089	436.44
453.31	442.44
453.53	449.44
453.751	422.44
453.971	420.44
454.192	457.44
454.412	429.44
454.633	441.44
454.853	436.44
455.073	432.44
455.294	448.44
455.514	509.44
455.734	507.44
455.955	432.44
456.175	418.44
456.395	399.44
456.616	391.44
456.836	396.44
457.056	413.44
457.276	397.44
457.497	408.44
457.717	401.44
457.937	391.44
458.157	403.44
458.377	412.44
458.598	438.44
458.818	477.44
459.038	604.44
459.258	605.44
459.478	487.44
459.698	460.44
459.918	444.44
460.138	436.44
460.358	432.44
460.578	419.44
460.798	428.44
461.018	436.44
461.238	434.44
461.458	411.44
461.678	413.44
461.898	439.44
462.118	429.44
462.338	424.44
462.558	433.44
462.777	431.44
462.997	446.44
463.217	448.44
463.437	468.44
463.657	452.44
463.876	440.44
464.096	468.44
464.316	450.44
464.536	462.44
464.755	448.44
464.975	491.44
465.195	525.44
465.414	598.44
465.634	532.44
465.854	494.44
466.073	472.44
466.293	445.44
466.512	423.44
466.732	427.44
466.951	421.44
467.171	412.44
467.391	437.44
467.61	449.44
467.829	456.44
468.049	456.44
468.268	519.44
468.488	485.44
468.707	446.44
468.927	416.44
469.146	425.44
469.365	429.44
469.585	421.44
469.804	414.44
470.023	442.44
470.243	435.44
470.462	461.44
470.681	466.44
470.901	442.44
471.12	429.44
471.339	438.44
471.558	430.44
471.777	443.44
471.997	464.44
472.216	527.44
472.435	706.44
472.654	662.44
472.873	529.44
473.092	507.44
473.311	482.44
473.53	490.44
473.749	485.44
473.968	508.44
474.187	617.44
474.406	641.44
474.625	552.44
474.844	472.44
475.063	452.44
475.282	458.44
475.501	463.44
475.72	470.44
475.939	456.44
476.158	460.44
476.377	472.44
476.596	443.44
476.814	474.44
477.033	456.44
477.252	467.44
477.471	469.44
477.69	470.44
477.908	473.44
478.127	483.44
478.346	474.44
478.564	467.44
478.783	480.44
479.002	499.44
479.22	478.44
479.439	543.44
479.658	551.44
479.876	550.44
480.095	557.44
480.313	580.44
480.532	564.44
480.751	589.44
480.969	615.44
481.188	937.44
481.406	1113.44
481.624	798.44
481.843	695.44
482.061	638.44
482.28	611.44
482.498	614.44
482.717	556.44
482.935	549.44
483.153	556.44
483.372	571.44
483.59	539.44
483.808	542.44
484.027	547.44
484.245	543.44
484.463	534.44
484.681	546.44
484.9	574.44
485.118	562.44
485.336	544.44
485.554	570.44
485.772	553.44
485.99	563.44
486.209	583.44
486.427	557.44
486.645	579.44
486.863	596.44
487.081	594.44
487.299	599.44
487.517	580.44
487.735	585.44
487.953	592.44
488.171	595.44
488.389	566.44
488.607	573.44
488.825	582.44
489.043	613.44
489.261	588.44
489.479	596.44
489.696	598.44
489.914	629.44
490.132	618.44
490.35	622.44
490.568	620.44
490.786	640.44
491.003	688.44
491.221	654.44
491.439	679.44
491.657	670.44
491.874	688.44
492.092	712.44
492.31	726.44
492.527	722.44
492.745	726.44
492.963	731.44
493.18	742.44
493.398	712.44
493.615	718.44
493.833	718.44
494.05	711.44
494.268	732.44
494.485	711.44
494.703	733.44
494.92	729.44
495.138	682.44
495.355	714.44
495.573	718.44
495.79	733.44
496.008	730.44
496.225	725.44
496.442	706.44
496.66	694.44
496.877	709.44
497.094	712.44
497.312	729.44
497.529	709.44
497.746	727.44
497.963	760.44
498.181	754.44
498.398	741.44
498.615	731.44
498.832	736.44
499.049	726.44
499.267	736.44
499.484	728.44
499.701	748.44
499.918	765.44
500.135	800.44
500.352	820.44
500.569	814.44
500.786	833.44
501.003	828.44
501.22	823.44
501.437	812.44
501.654	819.44
501.871	820.44
