Data from 1986.PennyLincolnUp.Lamp.En5.5.200Scan.071819.P2_HRD10591_17-12-01-972.txt Node
Date: Thu Jul 18 17:12:01 EDT 2019
User: cochatt
Spectrometer: HR+D1059
Trigger mode: 1
Integration Time (sec): 1.000000E-1
Scans to average: 1
Electric dark correction enabled: true
Nonlinearity correction enabled: false
Boxcar width: 0
XAxis mode: Wavelengths
Number of Pixels in Spectrum: 2048
>>>>>Begin Spectral Data<<<<<
223.165	-10.94
223.4	-10.94
223.635	-10.94
223.869	-8.94
224.104	-22.94
224.338	-16.94
224.573	-18.94
224.808	-18.94
225.042	-14.94
225.277	-8.94
225.511	-7.94
225.746	3.06
225.98	13.06
226.215	16.06
226.449	22.06
226.683	25.06
226.918	29.06
227.152	21.06
227.387	37.06
227.621	47.06
227.856	50.06
228.09	46.06
228.324	46.06
228.559	70.06
228.793	76.06
229.027	106.06
229.262	118.06
229.496	145.06
229.73	142.06
229.964	151.06
230.199	141.06
230.433	121.06
230.667	119.06
230.901	128.06
231.136	118.06
231.37	123.06
231.604	112.06
231.838	100.06
232.072	123.06
232.306	109.06
232.541	124.06
232.775	113.06
233.009	129.06
233.243	129.06
233.477	127.06
233.711	112.06
233.945	129.06
234.179	119.06
234.413	134.06
234.647	138.06
234.881	128.06
235.115	116.06
235.349	112.06
235.583	131.06
235.817	119.06
236.051	128.06
236.285	125.06
236.519	130.06
236.753	133.06
236.987	150.06
237.221	195.06
237.455	265.06
237.689	184.06
237.922	157.06
238.156	145.06
238.39	137.06
238.624	132.06
238.858	141.06
239.091	130.06
239.325	126.06
239.559	147.06
239.793	139.06
240.027	131.06
240.26	170.06
240.494	159.06
240.728	153.06
240.961	157.06
241.195	159.06
241.429	147.06
241.662	155.06
241.896	131.06
242.13	151.06
242.363	136.06
242.597	160.06
242.83	150.06
243.064	125.06
243.298	146.06
243.531	143.06
243.765	139.06
243.998	147.06
244.232	146.06
244.465	150.06
244.699	161.06
244.932	162.06
245.166	163.06
245.399	143.06
245.633	154.06
245.866	147.06
246.099	174.06
246.333	156.06
246.566	163.06
246.8	158.06
247.033	159.06
247.266	165.06
247.5	173.06
247.733	175.06
247.966	175.06
248.2	177.06
248.433	176.06
248.666	175.06
248.899	190.06
249.133	216.06
249.366	217.06
249.599	227.06
249.832	212.06
250.066	196.06
250.299	209.06
250.532	215.06
250.765	251.06
250.998	276.06
251.231	273.06
251.465	249.06
251.698	232.06
251.931	227.06
252.164	216.06
252.397	227.06
252.63	213.06
252.863	239.06
253.096	230.06
253.329	252.06
253.562	252.06
253.795	252.06
254.028	244.06
254.261	247.06
254.494	249.06
254.727	285.06
254.96	298.06
255.193	319.06
255.426	275.06
255.659	277.06
255.892	302.06
256.124	330.06
256.357	322.06
256.59	284.06
256.823	299.06
257.056	281.06
257.289	273.06
257.521	262.06
257.754	226.06
257.987	243.06
258.22	217.06
258.452	232.06
258.685	243.06
258.918	238.06
259.151	232.06
259.383	226.06
259.616	247.06
259.849	242.06
260.081	251.06
260.314	291.06
260.547	277.06
260.779	277.06
261.012	250.06
261.244	244.06
261.477	253.06
261.71	243.06
261.942	228.06
262.175	259.06
262.407	263.06
262.64	252.06
262.872	232.06
263.105	223.06
263.337	222.06
263.57	218.06
263.802	228.06
264.035	211.06
264.267	214.06
264.499	197.06
264.732	222.06
264.964	220.06
265.197	220.06
265.429	221.06
265.661	239.06
265.894	237.06
266.126	222.06
266.358	214.06
266.591	232.06
266.823	233.06
267.055	227.06
267.287	233.06
267.52	235.06
267.752	258.06
267.984	232.06
268.216	258.06
268.448	231.06
268.681	235.06
268.913	244.06
269.145	276.06
269.377	297.06
269.609	287.06
269.841	284.06
270.073	275.06
270.306	307.06
270.538	317.06
270.77	328.06
271.002	316.06
271.234	313.06
271.466	314.06
271.698	325.06
271.93	345.06
272.162	346.06
272.394	364.06
272.626	329.06
272.858	303.06
273.09	301.06
273.322	291.06
273.553	281.06
273.785	272.06
274.017	283.06
274.249	279.06
274.481	279.06
274.713	288.06
274.945	275.06
275.176	278.06
275.408	269.06
275.64	282.06
275.872	277.06
276.104	272.06
276.335	268.06
276.567	289.06
276.799	294.06
277.031	313.06
277.262	341.06
277.494	332.06
277.726	329.06
277.957	291.06
278.189	296.06
278.421	284.06
278.652	283.06
278.884	276.06
279.115	285.06
279.347	284.06
279.579	272.06
279.81	277.06
280.042	284.06
280.273	290.06
280.505	289.06
280.736	273.06
280.968	268.06
281.199	286.06
281.431	287.06
281.662	292.06
281.894	289.06
282.125	289.06
282.356	287.06
282.588	332.06
282.819	326.06
283.051	307.06
283.282	269.06
283.513	295.06
283.745	292.06
283.976	284.06
284.207	302.06
284.439	283.06
284.67	278.06
284.901	274.06
285.132	293.06
285.364	286.06
285.595	282.06
285.826	296.06
286.057	287.06
286.288	279.06
286.52	302.06
286.751	295.06
286.982	271.06
287.213	266.06
287.444	286.06
287.675	307.06
287.906	291.06
288.138	305.06
288.369	317.06
288.6	302.06
288.831	301.06
289.062	288.06
289.293	291.06
289.524	303.06
289.755	286.06
289.986	281.06
290.217	280.06
290.448	301.06
290.679	294.06
290.91	296.06
291.141	290.06
291.371	289.06
291.602	311.06
291.833	299.06
292.064	302.06
292.295	296.06
292.526	296.06
292.757	286.06
292.987	288.06
293.218	291.06
293.449	285.06
293.68	291.06
293.91	282.06
294.141	288.06
294.372	294.06
294.603	295.06
294.833	293.06
295.064	285.06
295.295	293.06
295.525	291.06
295.756	297.06
295.987	299.06
296.217	308.06
296.448	352.06
296.679	305.06
296.909	292.06
297.14	317.06
297.37	311.06
297.601	310.06
297.831	305.06
298.062	301.06
298.292	301.06
298.523	296.06
298.753	309.06
298.984	302.06
299.214	297.06
299.445	306.06
299.675	311.06
299.905	316.06
300.136	319.06
300.366	296.06
300.597	332.06
300.827	324.06
301.057	319.06
301.288	325.06
301.518	304.06
301.748	320.06
301.979	327.06
302.209	334.06
302.439	322.06
302.669	325.06
302.9	315.06
303.13	324.06
303.36	332.06
303.59	325.06
303.82	339.06
304.051	336.06
304.281	311.06
304.511	325.06
304.741	327.06
304.971	321.06
305.201	329.06
305.431	299.06
305.661	339.06
305.891	304.06
306.121	319.06
306.352	335.06
306.582	345.06
306.812	332.06
307.042	323.06
307.272	330.06
307.502	333.06
307.731	347.06
307.961	347.06
308.191	337.06
308.421	329.06
308.651	340.06
308.881	349.06
309.111	337.06
309.341	341.06
309.571	365.06
309.8	365.06
310.03	373.06
310.26	387.06
310.49	365.06
310.72	393.06
310.949	401.06
311.179	393.06
311.409	379.06
311.639	389.06
311.868	401.06
312.098	367.06
312.328	387.06
312.557	403.06
312.787	428.06
313.017	417.06
313.246	409.06
313.476	368.06
313.706	394.06
313.935	405.06
314.165	407.06
314.394	417.06
314.624	380.06
314.853	384.06
315.083	383.06
315.312	375.06
315.542	381.06
315.771	375.06
316.001	377.06
316.23	373.06
316.46	384.06
316.689	389.06
316.919	416.06
317.148	402.06
317.377	403.06
317.607	399.06
317.836	390.06
318.065	392.06
318.295	375.06
318.524	406.06
318.753	381.06
318.983	378.06
319.212	400.06
319.441	395.06
319.67	420.06
319.9	406.06
320.129	393.06
320.358	371.06
320.587	410.06
320.816	410.06
321.046	407.06
321.275	410.06
321.504	406.06
321.733	419.06
321.962	445.06
322.191	431.06
322.42	448.06
322.649	477.06
322.878	478.06
323.108	518.06
323.337	529.06
323.566	538.06
323.795	593.06
324.024	643.06
324.253	780.06
324.482	1093.06
324.71	1726.06
324.939	2408.06
325.168	2119.06
325.397	1126.06
325.626	729.06
325.855	633.06
326.084	568.06
326.313	565.06
326.542	567.06
326.77	601.06
326.999	737.06
327.228	992.06
327.457	1475.06
327.686	1832.06
327.914	1271.06
328.143	864.06
328.372	793.06
328.6	723.06
328.829	657.06
329.058	655.06
329.287	678.06
329.515	639.06
329.744	616.06
329.972	657.06
330.201	727.06
330.43	832.06
330.658	782.06
330.887	744.06
331.115	699.06
331.344	618.06
331.572	565.06
331.801	555.06
332.03	533.06
332.258	516.06
332.486	497.06
332.715	499.06
332.943	490.06
333.172	494.06
333.4	521.06
333.629	529.06
333.857	580.06
334.085	609.06
334.314	715.06
334.542	829.06
334.771	894.06
334.999	708.06
335.227	564.06
335.455	509.06
335.684	506.06
335.912	477.06
336.14	482.06
336.369	481.06
336.597	468.06
336.825	475.06
337.053	449.06
337.281	440.06
337.51	444.06
337.738	435.06
337.966	469.06
338.194	463.06
338.422	435.06
338.65	446.06
338.878	436.06
339.106	435.06
339.334	427.06
339.562	441.06
339.79	407.06
340.018	421.06
340.246	440.06
340.474	418.06
340.702	432.06
340.93	433.06
341.158	426.06
341.386	441.06
341.614	444.06
341.842	422.06
342.07	391.06
342.298	429.06
342.526	405.06
342.754	429.06
342.981	398.06
343.209	417.06
343.437	416.06
343.665	409.06
343.893	410.06
344.12	427.06
344.348	443.06
344.576	417.06
344.804	402.06
345.031	435.06
345.259	437.06
345.487	429.06
345.714	421.06
345.942	424.06
346.17	438.06
346.397	409.06
346.625	399.06
346.853	397.06
347.08	407.06
347.308	415.06
347.535	414.06
347.763	408.06
347.99	417.06
348.218	433.06
348.445	416.06
348.673	404.06
348.9	408.06
349.128	401.06
349.355	405.06
349.583	409.06
349.81	421.06
350.037	406.06
350.265	394.06
350.492	393.06
350.72	395.06
350.947	409.06
351.174	407.06
351.402	432.06
351.629	409.06
351.856	412.06
352.083	406.06
352.311	412.06
352.538	427.06
352.765	435.06
352.992	406.06
353.22	418.06
353.447	419.06
353.674	404.06
353.901	400.06
354.128	400.06
354.355	388.06
354.583	389.06
354.81	377.06
355.037	375.06
355.264	376.06
355.491	381.06
355.718	362.06
355.945	373.06
356.172	364.06
356.399	377.06
356.626	356.06
356.853	377.06
357.08	381.06
357.307	369.06
357.534	355.06
357.761	375.06
357.988	379.06
358.215	368.06
358.441	389.06
358.668	395.06
358.895	381.06
359.122	382.06
359.349	392.06
359.576	394.06
359.802	445.06
360.029	460.06
360.256	492.06
360.483	463.06
360.709	427.06
360.936	405.06
361.163	382.06
361.39	417.06
361.616	402.06
361.843	380.06
362.07	421.06
362.296	427.06
362.523	406.06
362.749	400.06
362.976	404.06
363.203	397.06
363.429	371.06
363.656	399.06
363.882	380.06
364.109	398.06
364.335	358.06
364.562	383.06
364.788	379.06
365.015	385.06
365.241	385.06
365.468	407.06
365.694	412.06
365.92	396.06
366.147	364.06
366.373	365.06
366.599	373.06
366.826	365.06
367.052	371.06
367.278	371.06
367.505	380.06
367.731	379.06
367.957	388.06
368.184	378.06
368.41	393.06
368.636	403.06
368.862	401.06
369.089	388.06
369.315	379.06
369.541	385.06
369.767	371.06
369.993	381.06
370.219	376.06
370.445	364.06
370.672	375.06
370.898	385.06
371.124	359.06
371.35	374.06
371.576	355.06
371.802	372.06
372.028	368.06
372.254	371.06
372.48	368.06
372.706	371.06
372.932	385.06
373.158	379.06
373.384	363.06
373.61	357.06
373.835	357.06
374.061	358.06
374.287	377.06
374.513	373.06
374.739	380.06
374.965	374.06
375.191	377.06
375.416	382.06
375.642	372.06
375.868	376.06
376.094	379.06
376.319	388.06
376.545	379.06
376.771	360.06
376.997	363.06
377.222	348.06
377.448	361.06
377.674	353.06
377.899	360.06
378.125	348.06
378.35	364.06
378.576	365.06
378.802	360.06
379.027	374.06
379.253	375.06
379.478	378.06
379.704	368.06
379.929	373.06
380.155	350.06
380.38	355.06
380.606	363.06
380.831	374.06
381.057	375.06
381.282	358.06
381.507	348.06
381.733	378.06
381.958	367.06
382.184	367.06
382.409	371.06
382.634	359.06
382.86	335.06
383.085	360.06
383.31	372.06
383.535	346.06
383.761	379.06
383.986	385.06
384.211	380.06
384.436	386.06
384.662	383.06
384.887	388.06
385.112	363.06
385.337	372.06
385.562	375.06
385.787	381.06
386.013	377.06
386.238	391.06
386.463	390.06
386.688	376.06
386.913	374.06
387.138	385.06
387.363	385.06
387.588	378.06
387.813	382.06
388.038	395.06
388.263	392.06
388.488	401.06
388.713	396.06
388.938	389.06
389.163	390.06
389.387	374.06
389.612	378.06
389.837	376.06
390.062	395.06
390.287	379.06
390.512	372.06
390.736	401.06
390.961	382.06
391.186	362.06
391.411	371.06
391.636	400.06
391.86	385.06
392.085	385.06
392.31	387.06
392.534	390.06
392.759	394.06
392.984	404.06
393.208	408.06
393.433	365.06
393.658	371.06
393.882	384.06
394.107	382.06
394.331	382.06
394.556	380.06
394.78	356.06
395.005	387.06
395.229	402.06
395.454	384.06
395.678	389.06
395.903	402.06
396.127	438.06
396.352	443.06
396.576	391.06
396.801	395.06
397.025	397.06
397.249	390.06
397.474	409.06
397.698	430.06
397.922	410.06
398.147	437.06
398.371	413.06
398.595	424.06
398.82	399.06
399.044	428.06
399.268	426.06
399.492	426.06
399.717	462.06
399.941	487.06
400.165	518.06
400.389	517.06
400.613	511.06
400.837	472.06
401.062	450.06
401.286	442.06
401.51	428.06
401.734	435.06
401.958	445.06
402.182	432.06
402.406	452.06
402.63	467.06
402.854	453.06
403.078	439.06
403.302	441.06
403.526	449.06
403.75	440.06
403.974	471.06
404.198	448.06
404.422	496.06
404.645	485.06
404.869	514.06
405.093	530.06
405.317	576.06
405.541	620.06
405.765	569.06
405.988	556.06
406.212	514.06
406.436	539.06
406.66	540.06
406.883	509.06
407.107	523.06
407.331	549.06
407.555	612.06
407.778	613.06
408.002	565.06
408.226	523.06
408.449	484.06
408.673	495.06
408.896	544.06
409.12	589.06
409.344	529.06
409.567	499.06
409.791	471.06
410.014	449.06
410.238	459.06
410.461	461.06
410.685	484.06
410.908	483.06
411.132	524.06
411.355	541.06
411.578	525.06
411.802	470.06
412.025	473.06
412.249	494.06
412.472	541.06
412.695	610.06
412.919	575.06
413.142	533.06
413.365	499.06
413.589	487.06
413.812	485.06
414.035	449.06
414.258	448.06
414.482	452.06
414.705	451.06
414.928	437.06
415.151	431.06
415.374	423.06
415.597	429.06
415.821	423.06
416.044	439.06
416.267	446.06
416.49	420.06
416.713	432.06
416.936	455.06
417.159	428.06
417.382	425.06
417.605	455.06
417.828	477.06
418.051	455.06
418.274	456.06
418.497	436.06
418.72	433.06
418.943	415.06
419.166	439.06
419.389	485.06
419.611	494.06
419.834	482.06
420.057	484.06
420.28	492.06
420.503	514.06
420.726	501.06
420.948	528.06
421.171	572.06
421.394	553.06
421.617	500.06
421.839	463.06
422.062	473.06
422.285	488.06
422.507	542.06
422.73	612.06
422.953	559.06
423.175	521.06
423.398	493.06
423.621	479.06
423.843	527.06
424.066	496.06
424.288	521.06
424.511	512.06
424.733	587.06
424.956	655.06
425.178	637.06
425.401	628.06
425.623	640.06
425.846	584.06
426.068	517.06
426.291	506.06
426.513	506.06
426.735	525.06
426.958	556.06
427.18	643.06
427.402	751.06
427.625	829.06
427.847	793.06
428.069	709.06
428.292	629.06
428.514	535.06
428.736	494.06
428.958	496.06
429.181	487.06
429.403	468.06
429.625	470.06
429.847	519.06
430.069	571.06
430.292	586.06
430.514	503.06
430.736	470.06
430.958	483.06
431.18	462.06
431.402	446.06
431.624	450.06
431.846	438.06
432.068	441.06
432.29	436.06
432.512	452.06
432.734	455.06
432.956	460.06
433.178	452.06
433.4	463.06
433.622	446.06
433.844	436.06
434.066	432.06
434.287	431.06
434.509	449.06
434.731	472.06
434.953	456.06
435.175	483.06
435.397	482.06
435.618	497.06
435.84	549.06
436.062	628.06
436.284	709.06
436.505	603.06
436.727	565.06
436.949	474.06
437.17	460.06
437.392	457.06
437.614	489.06
437.835	520.06
438.057	633.06
438.278	718.06
438.5	709.06
438.721	767.06
438.943	748.06
439.165	575.06
439.386	545.06
439.608	542.06
439.829	552.06
440.05	542.06
440.272	601.06
440.493	567.06
440.715	520.06
440.936	511.06
441.158	481.06
441.379	484.06
441.6	483.06
441.822	490.06
442.043	543.06
442.264	629.06
442.486	663.06
442.707	577.06
442.928	531.06
443.149	539.06
443.371	561.06
443.592	585.06
443.813	660.06
444.034	717.06
444.255	618.06
444.476	535.06
444.698	503.06
444.919	506.06
445.14	622.06
445.361	591.06
445.582	563.06
445.803	646.06
446.024	718.06
446.245	733.06
446.466	693.06
446.687	590.06
446.908	527.06
447.129	470.06
447.35	462.06
447.571	472.06
447.792	492.06
448.013	477.06
448.234	504.06
448.455	559.06
448.675	653.06
448.896	783.06
449.117	647.06
449.338	615.06
449.559	706.06
449.779	785.06
450	654.06
450.221	527.06
450.442	493.06
450.662	489.06
450.883	462.06
451.104	490.06
451.324	486.06
451.545	456.06
451.766	423.06
451.986	436.06
452.207	395.06
452.428	395.06
452.648	410.06
452.869	429.06
453.089	428.06
453.31	436.06
453.53	428.06
453.751	439.06
453.971	437.06
454.192	432.06
454.412	424.06
454.633	434.06
454.853	420.06
455.073	416.06
455.294	432.06
455.514	512.06
455.734	497.06
455.955	426.06
456.175	420.06
456.395	404.06
456.616	393.06
456.836	408.06
457.056	391.06
457.276	383.06
457.497	400.06
457.717	400.06
457.937	402.06
458.157	414.06
458.377	392.06
458.598	445.06
458.818	483.06
459.038	605.06
459.258	600.06
459.478	491.06
459.698	441.06
459.918	439.06
460.138	435.06
460.358	417.06
460.578	423.06
460.798	419.06
461.018	429.06
461.238	433.06
461.458	418.06
461.678	416.06
461.898	429.06
462.118	432.06
462.338	416.06
462.558	414.06
462.777	425.06
462.997	438.06
463.217	440.06
463.437	446.06
463.657	447.06
463.876	427.06
464.096	440.06
464.316	450.06
464.536	451.06
464.755	459.06
464.975	481.06
465.195	496.06
465.414	588.06
465.634	531.06
465.854	483.06
466.073	452.06
466.293	456.06
466.512	421.06
466.732	437.06
466.951	435.06
467.171	430.06
467.391	423.06
467.61	445.06
467.829	454.06
468.049	477.06
468.268	495.06
468.488	458.06
468.707	460.06
468.927	412.06
469.146	430.06
469.365	425.06
469.585	432.06
469.804	426.06
470.023	432.06
470.243	433.06
470.462	432.06
470.681	456.06
470.901	448.06
471.12	440.06
471.339	439.06
471.558	435.06
471.777	451.06
471.997	458.06
472.216	485.06
472.435	659.06
472.654	607.06
472.873	499.06
473.092	490.06
473.311	461.06
473.53	460.06
473.749	469.06
473.968	517.06
474.187	614.06
474.406	642.06
474.625	524.06
474.844	460.06
475.063	462.06
475.282	445.06
475.501	433.06
475.72	440.06
475.939	456.06
476.158	479.06
476.377	447.06
476.596	438.06
476.814	462.06
477.033	474.06
477.252	466.06
477.471	469.06
477.69	491.06
477.908	462.06
478.127	459.06
478.346	474.06
478.564	493.06
478.783	478.06
479.002	468.06
479.22	517.06
479.439	524.06
479.658	530.06
479.876	533.06
480.095	517.06
480.313	582.06
480.532	587.06
480.751	577.06
480.969	628.06
481.188	848.06
481.406	1008.06
481.624	760.06
481.843	643.06
482.061	620.06
482.28	568.06
482.498	556.06
482.717	562.06
482.935	539.06
483.153	546.06
483.372	544.06
483.59	546.06
483.808	545.06
484.027	537.06
484.245	537.06
484.463	561.06
484.681	548.06
484.9	563.06
485.118	568.06
485.336	554.06
485.554	535.06
485.772	506.06
485.99	539.06
486.209	565.06
486.427	556.06
486.645	568.06
486.863	599.06
487.081	580.06
487.299	578.06
487.517	573.06
487.735	571.06
487.953	568.06
488.171	576.06
488.389	580.06
488.607	594.06
488.825	567.06
489.043	582.06
489.261	589.06
489.479	599.06
489.696	593.06
489.914	585.06
490.132	614.06
490.35	609.06
490.568	615.06
490.786	623.06
491.003	621.06
491.221	638.06
491.439	676.06
491.657	697.06
491.874	683.06
492.092	684.06
492.31	665.06
492.527	695.06
492.745	700.06
492.963	727.06
493.18	718.06
493.398	699.06
493.615	729.06
493.833	704.06
494.05	734.06
494.268	695.06
494.485	688.06
494.703	713.06
494.92	693.06
495.138	699.06
495.355	685.06
495.573	713.06
495.79	707.06
496.008	679.06
496.225	709.06
496.442	685.06
496.66	676.06
496.877	677.06
497.094	686.06
497.312	683.06
497.529	686.06
497.746	697.06
497.963	707.06
498.181	734.06
498.398	733.06
498.615	701.06
498.832	725.06
499.049	703.06
499.267	731.06
499.484	749.06
499.701	732.06
499.918	780.06
500.135	786.06
500.352	807.06
500.569	822.06
500.786	837.06
501.003	835.06
501.22	822.06
501.437	802.06
501.654	811.06
501.871	803.06
