Data from 1986.PennyLincolnUp.Lamp.En5.5.200Scan.071819.P2_HRD10591_17-12-08-972.txt Node
Date: Thu Jul 18 17:12:08 EDT 2019
User: cochatt
Spectrometer: HR+D1059
Trigger mode: 1
Integration Time (sec): 1.000000E-1
Scans to average: 1
Electric dark correction enabled: true
Nonlinearity correction enabled: false
Boxcar width: 0
XAxis mode: Wavelengths
Number of Pixels in Spectrum: 2048
>>>>>Begin Spectral Data<<<<<
223.165	-20.31
223.4	-20.31
223.635	-20.31
223.869	-21.31
224.104	-20.31
224.338	-7.31
224.573	-24.31
224.808	-10.31
225.042	-4.31
225.277	3.69
225.511	5.69
225.746	-8.31
225.98	-5.31
226.215	15.69
226.449	13.69
226.683	15.69
226.918	21.69
227.152	45.69
227.387	46.69
227.621	37.69
227.856	54.69
228.09	56.69
228.324	41.69
228.559	49.69
228.793	76.69
229.027	103.69
229.262	106.69
229.496	131.69
229.73	147.69
229.964	162.69
230.199	136.69
230.433	121.69
230.667	119.69
230.901	109.69
231.136	121.69
231.37	123.69
231.604	100.69
231.838	117.69
232.072	128.69
232.306	128.69
232.541	120.69
232.775	131.69
233.009	118.69
233.243	116.69
233.477	134.69
233.711	119.69
233.945	114.69
234.179	118.69
234.413	110.69
234.647	123.69
234.881	115.69
235.115	137.69
235.349	123.69
235.583	108.69
235.817	115.69
236.051	127.69
236.285	137.69
236.519	140.69
236.753	131.69
236.987	158.69
237.221	202.69
237.455	261.69
237.689	187.69
237.922	143.69
238.156	149.69
238.39	141.69
238.624	127.69
238.858	134.69
239.091	127.69
239.325	105.69
239.559	130.69
239.793	119.69
240.027	136.69
240.26	149.69
240.494	185.69
240.728	163.69
240.961	141.69
241.195	148.69
241.429	142.69
241.662	139.69
241.896	139.69
242.13	133.69
242.363	136.69
242.597	135.69
242.83	130.69
243.064	131.69
243.298	157.69
243.531	136.69
243.765	143.69
243.998	154.69
244.232	146.69
244.465	153.69
244.699	143.69
244.932	162.69
245.166	147.69
245.399	144.69
245.633	167.69
245.866	168.69
246.099	130.69
246.333	152.69
246.566	169.69
246.8	169.69
247.033	174.69
247.266	163.69
247.5	184.69
247.733	186.69
247.966	174.69
248.2	161.69
248.433	181.69
248.666	180.69
248.899	203.69
249.133	213.69
249.366	230.69
249.599	207.69
249.832	201.69
250.066	203.69
250.299	210.69
250.532	238.69
250.765	235.69
250.998	259.69
251.231	281.69
251.465	252.69
251.698	230.69
251.931	233.69
252.164	217.69
252.397	225.69
252.63	236.69
252.863	221.69
253.096	234.69
253.329	255.69
253.562	259.69
253.795	219.69
254.028	239.69
254.261	247.69
254.494	244.69
254.727	266.69
254.96	312.69
255.193	301.69
255.426	305.69
255.659	281.69
255.892	295.69
256.124	327.69
256.357	331.69
256.59	318.69
256.823	295.69
257.056	278.69
257.289	273.69
257.521	249.69
257.754	238.69
257.987	239.69
258.22	255.69
258.452	231.69
258.685	223.69
258.918	227.69
259.151	242.69
259.383	236.69
259.616	234.69
259.849	251.69
260.081	261.69
260.314	271.69
260.547	268.69
260.779	274.69
261.012	269.69
261.244	249.69
261.477	237.69
261.71	247.69
261.942	243.69
262.175	249.69
262.407	256.69
262.64	220.69
262.872	228.69
263.105	230.69
263.337	224.69
263.57	215.69
263.802	242.69
264.035	209.69
264.267	220.69
264.499	213.69
264.732	220.69
264.964	229.69
265.197	230.69
265.429	229.69
265.661	215.69
265.894	227.69
266.126	227.69
266.358	210.69
266.591	229.69
266.823	237.69
267.055	235.69
267.287	245.69
267.52	225.69
267.752	229.69
267.984	212.69
268.216	237.69
268.448	244.69
268.681	243.69
268.913	239.69
269.145	260.69
269.377	306.69
269.609	301.69
269.841	291.69
270.073	278.69
270.306	302.69
270.538	313.69
270.77	342.69
271.002	311.69
271.234	312.69
271.466	319.69
271.698	322.69
271.93	340.69
272.162	335.69
272.394	342.69
272.626	320.69
272.858	320.69
273.09	299.69
273.322	283.69
273.553	291.69
273.785	290.69
274.017	264.69
274.249	272.69
274.481	280.69
274.713	281.69
274.945	264.69
275.176	286.69
275.408	283.69
275.64	295.69
275.872	278.69
276.104	250.69
276.335	290.69
276.567	278.69
276.799	326.69
277.031	320.69
277.262	347.69
277.494	337.69
277.726	325.69
277.957	305.69
278.189	293.69
278.421	294.69
278.652	282.69
278.884	277.69
279.115	279.69
279.347	283.69
279.579	272.69
279.81	277.69
280.042	276.69
280.273	281.69
280.505	300.69
280.736	285.69
280.968	271.69
281.199	282.69
281.431	271.69
281.662	277.69
281.894	278.69
282.125	290.69
282.356	281.69
282.588	327.69
282.819	307.69
283.051	299.69
283.282	292.69
283.513	280.69
283.745	285.69
283.976	279.69
284.207	295.69
284.439	281.69
284.67	290.69
284.901	295.69
285.132	282.69
285.364	282.69
285.595	273.69
285.826	272.69
286.057	282.69
286.288	281.69
286.52	297.69
286.751	301.69
286.982	301.69
287.213	275.69
287.444	281.69
287.675	291.69
287.906	305.69
288.138	286.69
288.369	316.69
288.6	321.69
288.831	307.69
289.062	320.69
289.293	298.69
289.524	295.69
289.755	296.69
289.986	301.69
290.217	289.69
290.448	281.69
290.679	283.69
290.91	282.69
291.141	288.69
291.371	292.69
291.602	312.69
291.833	289.69
292.064	301.69
292.295	294.69
292.526	288.69
292.757	284.69
292.987	274.69
293.218	281.69
293.449	296.69
293.68	297.69
293.91	288.69
294.141	288.69
294.372	278.69
294.603	278.69
294.833	289.69
295.064	283.69
295.295	302.69
295.525	303.69
295.756	301.69
295.987	307.69
296.217	333.69
296.448	327.69
296.679	311.69
296.909	297.69
297.14	295.69
297.37	310.69
297.601	293.69
297.831	286.69
298.062	305.69
298.292	310.69
298.523	311.69
298.753	295.69
298.984	300.69
299.214	305.69
299.445	308.69
299.675	291.69
299.905	323.69
300.136	302.69
300.366	309.69
300.597	308.69
300.827	321.69
301.057	311.69
301.288	334.69
301.518	326.69
301.748	320.69
301.979	305.69
302.209	320.69
302.439	323.69
302.669	317.69
302.9	317.69
303.13	316.69
303.36	324.69
303.59	346.69
303.82	324.69
304.051	345.69
304.281	323.69
304.511	337.69
304.741	312.69
304.971	318.69
305.201	312.69
305.431	325.69
305.661	339.69
305.891	337.69
306.121	334.69
306.352	317.69
306.582	340.69
306.812	346.69
307.042	322.69
307.272	329.69
307.502	341.69
307.731	341.69
307.961	329.69
308.191	321.69
308.421	325.69
308.651	337.69
308.881	342.69
309.111	345.69
309.341	353.69
309.571	339.69
309.8	369.69
310.03	378.69
310.26	373.69
310.49	379.69
310.72	398.69
310.949	379.69
311.179	412.69
311.409	394.69
311.639	375.69
311.868	373.69
312.098	379.69
312.328	401.69
312.557	389.69
312.787	405.69
313.017	403.69
313.246	381.69
313.476	380.69
313.706	381.69
313.935	384.69
314.165	398.69
314.394	419.69
314.624	422.69
314.853	413.69
315.083	382.69
315.312	393.69
315.542	354.69
315.771	375.69
316.001	377.69
316.23	380.69
316.46	375.69
316.689	375.69
316.919	386.69
317.148	407.69
317.377	403.69
317.607	398.69
317.836	383.69
318.065	389.69
318.295	378.69
318.524	378.69
318.753	374.69
318.983	378.69
319.212	380.69
319.441	391.69
319.67	393.69
319.9	386.69
320.129	374.69
320.358	396.69
320.587	367.69
320.816	389.69
321.046	396.69
321.275	397.69
321.504	397.69
321.733	406.69
321.962	411.69
322.191	426.69
322.42	450.69
322.649	464.69
322.878	492.69
323.108	493.69
323.337	509.69
323.566	527.69
323.795	593.69
324.024	625.69
324.253	731.69
324.482	1086.69
324.71	1631.69
324.939	2401.69
325.168	2114.69
325.397	1101.69
325.626	733.69
325.855	621.69
326.084	566.69
326.313	533.69
326.542	538.69
326.77	601.69
326.999	723.69
327.228	965.69
327.457	1482.69
327.686	1803.69
327.914	1270.69
328.143	866.69
328.372	781.69
328.6	738.69
328.829	668.69
329.058	644.69
329.287	656.69
329.515	641.69
329.744	628.69
329.972	663.69
330.201	738.69
330.43	845.69
330.658	826.69
330.887	733.69
331.115	706.69
331.344	584.69
331.572	539.69
331.801	547.69
332.03	535.69
332.258	516.69
332.486	496.69
332.715	494.69
332.943	476.69
333.172	498.69
333.4	504.69
333.629	551.69
333.857	566.69
334.085	632.69
334.314	712.69
334.542	867.69
334.771	892.69
334.999	709.69
335.227	590.69
335.455	519.69
335.684	495.69
335.912	490.69
336.14	467.69
336.369	472.69
336.597	453.69
336.825	475.69
337.053	463.69
337.281	466.69
337.51	449.69
337.738	440.69
337.966	447.69
338.194	428.69
338.422	419.69
338.65	440.69
338.878	421.69
339.106	428.69
339.334	426.69
339.562	419.69
339.79	428.69
340.018	430.69
340.246	455.69
340.474	423.69
340.702	418.69
340.93	438.69
341.158	427.69
341.386	446.69
341.614	428.69
341.842	418.69
342.07	418.69
342.298	409.69
342.526	413.69
342.754	406.69
342.981	404.69
343.209	419.69
343.437	405.69
343.665	410.69
343.893	405.69
344.12	435.69
344.348	404.69
344.576	415.69
344.804	426.69
345.031	429.69
345.259	430.69
345.487	443.69
345.714	422.69
345.942	412.69
346.17	420.69
346.397	419.69
346.625	405.69
346.853	409.69
347.08	395.69
347.308	406.69
347.535	421.69
347.763	421.69
347.99	421.69
348.218	400.69
348.445	424.69
348.673	417.69
348.9	404.69
349.128	413.69
349.355	390.69
349.583	395.69
349.81	374.69
350.037	397.69
350.265	383.69
350.492	386.69
350.72	412.69
350.947	402.69
351.174	401.69
351.402	430.69
351.629	427.69
351.856	409.69
352.083	433.69
352.311	409.69
352.538	438.69
352.765	434.69
352.992	413.69
353.22	405.69
353.447	383.69
353.674	394.69
353.901	391.69
354.128	380.69
354.355	376.69
354.583	389.69
354.81	388.69
355.037	373.69
355.264	375.69
355.491	370.69
355.718	386.69
355.945	362.69
356.172	351.69
356.399	369.69
356.626	366.69
356.853	371.69
357.08	361.69
357.307	358.69
357.534	375.69
357.761	377.69
357.988	364.69
358.215	375.69
358.441	358.69
358.668	379.69
358.895	379.69
359.122	387.69
359.349	392.69
359.576	397.69
359.802	415.69
360.029	437.69
360.256	464.69
360.483	462.69
360.709	411.69
360.936	422.69
361.163	417.69
361.39	401.69
361.616	404.69
361.843	393.69
362.07	407.69
362.296	409.69
362.523	395.69
362.749	403.69
362.976	394.69
363.203	387.69
363.429	378.69
363.656	398.69
363.882	381.69
364.109	398.69
364.335	371.69
364.562	373.69
364.788	383.69
365.015	399.69
365.241	386.69
365.468	382.69
365.694	404.69
365.92	399.69
366.147	388.69
366.373	382.69
366.599	390.69
366.826	377.69
367.052	375.69
367.278	389.69
367.505	383.69
367.731	387.69
367.957	389.69
368.184	374.69
368.41	387.69
368.636	399.69
368.862	377.69
369.089	402.69
369.315	381.69
369.541	381.69
369.767	350.69
369.993	373.69
370.219	367.69
370.445	371.69
370.672	369.69
370.898	380.69
371.124	377.69
371.35	370.69
371.576	365.69
371.802	350.69
372.028	364.69
372.254	365.69
372.48	382.69
372.706	387.69
372.932	372.69
373.158	353.69
373.384	362.69
373.61	376.69
373.835	381.69
374.061	375.69
374.287	374.69
374.513	372.69
374.739	383.69
374.965	367.69
375.191	369.69
375.416	365.69
375.642	372.69
375.868	369.69
376.094	355.69
376.319	357.69
376.545	366.69
376.771	370.69
376.997	362.69
377.222	353.69
377.448	375.69
377.674	351.69
377.899	372.69
378.125	375.69
378.35	356.69
378.576	353.69
378.802	353.69
379.027	350.69
379.253	376.69
379.478	369.69
379.704	363.69
379.929	370.69
380.155	377.69
380.38	365.69
380.606	360.69
380.831	378.69
381.057	360.69
381.282	377.69
381.507	360.69
381.733	372.69
381.958	379.69
382.184	372.69
382.409	355.69
382.634	372.69
382.86	342.69
383.085	377.69
383.31	371.69
383.535	379.69
383.761	387.69
383.986	386.69
384.211	374.69
384.436	387.69
384.662	355.69
384.887	376.69
385.112	362.69
385.337	372.69
385.562	366.69
385.787	387.69
386.013	385.69
386.238	375.69
386.463	424.69
386.688	378.69
386.913	379.69
387.138	382.69
387.363	375.69
387.588	385.69
387.813	382.69
388.038	377.69
388.263	382.69
388.488	365.69
388.713	378.69
388.938	393.69
389.163	377.69
389.387	395.69
389.612	407.69
389.837	377.69
390.062	373.69
390.287	381.69
390.512	367.69
390.736	393.69
390.961	383.69
391.186	386.69
391.411	382.69
391.636	387.69
391.86	397.69
392.085	368.69
392.31	373.69
392.534	391.69
392.759	385.69
392.984	373.69
393.208	377.69
393.433	395.69
393.658	400.69
393.882	382.69
394.107	381.69
394.331	364.69
394.556	369.69
394.78	384.69
395.005	401.69
395.229	374.69
395.454	385.69
395.678	400.69
395.903	398.69
396.127	415.69
396.352	426.69
396.576	395.69
396.801	379.69
397.025	402.69
397.249	382.69
397.474	403.69
397.698	411.69
397.922	406.69
398.147	417.69
398.371	436.69
398.595	423.69
398.82	424.69
399.044	414.69
399.268	437.69
399.492	452.69
399.717	466.69
399.941	502.69
400.165	518.69
400.389	541.69
400.613	471.69
400.837	454.69
401.062	442.69
401.286	442.69
401.51	438.69
401.734	432.69
401.958	426.69
402.182	458.69
402.406	454.69
402.63	457.69
402.854	425.69
403.078	449.69
403.302	435.69
403.526	444.69
403.75	454.69
403.974	452.69
404.198	448.69
404.422	458.69
404.645	480.69
404.869	506.69
405.093	536.69
405.317	606.69
405.541	634.69
405.765	555.69
405.988	531.69
406.212	520.69
406.436	514.69
406.66	518.69
406.883	498.69
407.107	523.69
407.331	559.69
407.555	606.69
407.778	611.69
408.002	563.69
408.226	501.69
408.449	525.69
408.673	509.69
408.896	515.69
409.12	572.69
409.344	531.69
409.567	490.69
409.791	461.69
410.014	449.69
410.238	448.69
410.461	469.69
410.685	457.69
410.908	475.69
411.132	509.69
411.355	531.69
411.578	518.69
411.802	486.69
412.025	475.69
412.249	511.69
412.472	550.69
412.695	601.69
412.919	581.69
413.142	536.69
413.365	498.69
413.589	471.69
413.812	466.69
414.035	451.69
414.258	455.69
414.482	462.69
414.705	459.69
414.928	445.69
415.151	454.69
415.374	430.69
415.597	406.69
415.821	443.69
416.044	434.69
416.267	453.69
416.49	429.69
416.713	426.69
416.936	413.69
417.159	427.69
417.382	450.69
417.605	460.69
417.828	478.69
418.051	473.69
418.274	440.69
418.497	440.69
418.72	440.69
418.943	414.69
419.166	457.69
419.389	489.69
419.611	468.69
419.834	474.69
420.057	485.69
420.28	519.69
420.503	525.69
420.726	511.69
420.948	504.69
421.171	537.69
421.394	577.69
421.617	501.69
421.839	469.69
422.062	467.69
422.285	491.69
422.507	548.69
422.73	595.69
422.953	601.69
423.175	521.69
423.398	497.69
423.621	473.69
423.843	502.69
424.066	515.69
424.288	489.69
424.511	530.69
424.733	591.69
424.956	642.69
425.178	609.69
425.401	625.69
425.623	641.69
425.846	555.69
426.068	509.69
426.291	516.69
426.513	509.69
426.735	544.69
426.958	558.69
427.18	632.69
427.402	765.69
427.625	806.69
427.847	745.69
428.069	674.69
428.292	611.69
428.514	547.69
428.736	501.69
428.958	484.69
429.181	487.69
429.403	471.69
429.625	470.69
429.847	502.69
430.069	558.69
430.292	587.69
430.514	494.69
430.736	443.69
430.958	459.69
431.18	454.69
431.402	448.69
431.624	439.69
431.846	442.69
432.068	427.69
432.29	436.69
432.512	439.69
432.734	450.69
432.956	428.69
433.178	475.69
433.4	469.69
433.622	439.69
433.844	428.69
434.066	443.69
434.287	451.69
434.509	447.69
434.731	459.69
434.953	444.69
435.175	468.69
435.397	481.69
435.618	515.69
435.84	549.69
436.062	630.69
436.284	691.69
436.505	597.69
436.727	536.69
436.949	503.69
437.17	475.69
437.392	473.69
437.614	475.69
437.835	540.69
438.057	619.69
438.278	722.69
438.5	711.69
438.721	790.69
438.943	739.69
439.165	590.69
439.386	559.69
439.608	519.69
439.829	520.69
440.05	556.69
440.272	616.69
440.493	595.69
440.715	534.69
440.936	491.69
441.158	476.69
441.379	488.69
441.6	479.69
441.822	508.69
442.043	539.69
442.264	626.69
442.486	649.69
442.707	562.69
442.928	532.69
443.149	547.69
443.371	582.69
443.592	597.69
443.813	646.69
444.034	712.69
444.255	613.69
444.476	517.69
444.698	504.69
444.919	507.69
445.14	618.69
445.361	546.69
445.582	566.69
445.803	618.69
446.024	726.69
446.245	714.69
446.466	665.69
446.687	547.69
446.908	523.69
447.129	495.69
447.35	489.69
447.571	469.69
447.792	477.69
448.013	507.69
448.234	498.69
448.455	566.69
448.675	633.69
448.896	751.69
449.117	649.69
449.338	619.69
449.559	694.69
449.779	771.69
450	625.69
450.221	534.69
450.442	490.69
450.662	475.69
450.883	462.69
451.104	499.69
451.324	488.69
451.545	452.69
451.766	442.69
451.986	428.69
452.207	407.69
452.428	428.69
452.648	418.69
452.869	427.69
453.089	430.69
453.31	442.69
453.53	441.69
453.751	413.69
453.971	414.69
454.192	447.69
454.412	438.69
454.633	419.69
454.853	426.69
455.073	414.69
455.294	457.69
455.514	529.69
455.734	506.69
455.955	433.69
456.175	426.69
456.395	402.69
456.616	392.69
456.836	398.69
457.056	389.69
457.276	398.69
457.497	400.69
457.717	400.69
457.937	392.69
458.157	407.69
458.377	406.69
458.598	427.69
458.818	502.69
459.038	576.69
459.258	596.69
459.478	508.69
459.698	456.69
459.918	434.69
460.138	427.69
460.358	428.69
460.578	406.69
460.798	429.69
461.018	425.69
461.238	436.69
461.458	441.69
461.678	413.69
461.898	438.69
462.118	422.69
462.338	407.69
462.558	428.69
462.777	453.69
462.997	443.69
463.217	438.69
463.437	435.69
463.657	458.69
463.876	440.69
464.096	444.69
464.316	449.69
464.536	447.69
464.755	446.69
464.975	457.69
465.195	504.69
465.414	591.69
465.634	509.69
465.854	476.69
466.073	462.69
466.293	434.69
466.512	424.69
466.732	413.69
466.951	409.69
467.171	425.69
467.391	446.69
467.61	437.69
467.829	439.69
468.049	487.69
468.268	518.69
468.488	476.69
468.707	441.69
468.927	410.69
469.146	413.69
469.365	437.69
469.585	410.69
469.804	425.69
470.023	469.69
470.243	442.69
470.462	444.69
470.681	456.69
470.901	463.69
471.12	445.69
471.339	438.69
471.558	448.69
471.777	451.69
471.997	453.69
472.216	484.69
472.435	670.69
472.654	621.69
472.873	523.69
473.092	493.69
473.311	479.69
473.53	472.69
473.749	470.69
473.968	499.69
474.187	595.69
474.406	634.69
474.625	533.69
474.844	465.69
475.063	469.69
475.282	435.69
475.501	454.69
475.72	471.69
475.939	470.69
476.158	458.69
476.377	457.69
476.596	456.69
476.814	483.69
477.033	468.69
477.252	483.69
477.471	486.69
477.69	471.69
477.908	463.69
478.127	476.69
478.346	469.69
478.564	475.69
478.783	471.69
479.002	489.69
479.22	499.69
479.439	521.69
479.658	532.69
479.876	543.69
480.095	543.69
480.313	591.69
480.532	565.69
480.751	574.69
480.969	634.69
481.188	873.69
481.406	1061.69
481.624	784.69
481.843	648.69
482.061	638.69
482.28	595.69
482.498	559.69
482.717	561.69
482.935	553.69
483.153	534.69
483.372	533.69
483.59	554.69
483.808	563.69
484.027	544.69
484.245	533.69
484.463	517.69
484.681	562.69
484.9	553.69
485.118	565.69
485.336	569.69
485.554	538.69
485.772	564.69
485.99	555.69
486.209	571.69
486.427	562.69
486.645	585.69
486.863	554.69
487.081	575.69
487.299	579.69
487.517	575.69
487.735	572.69
487.953	557.69
488.171	573.69
488.389	584.69
488.607	587.69
488.825	585.69
489.043	593.69
489.261	590.69
489.479	601.69
489.696	598.69
489.914	616.69
490.132	616.69
490.35	618.69
490.568	648.69
490.786	641.69
491.003	635.69
491.221	673.69
491.439	692.69
491.657	667.69
491.874	699.69
492.092	725.69
492.31	706.69
492.527	728.69
492.745	709.69
492.963	707.69
493.18	719.69
493.398	731.69
493.615	725.69
493.833	718.69
494.05	705.69
494.268	687.69
494.485	690.69
494.703	695.69
494.92	687.69
495.138	733.69
495.355	734.69
495.573	695.69
495.79	707.69
496.008	698.69
496.225	710.69
496.442	707.69
496.66	703.69
496.877	714.69
497.094	703.69
497.312	690.69
497.529	702.69
497.746	726.69
497.963	710.69
498.181	726.69
498.398	721.69
498.615	720.69
498.832	728.69
499.049	745.69
499.267	750.69
499.484	738.69
499.701	753.69
499.918	752.69
500.135	773.69
500.352	790.69
500.569	810.69
500.786	847.69
501.003	841.69
501.22	836.69
501.437	823.69
501.654	806.69
501.871	820.69
