Data from 1986.PennyLincolnUp.Lamp.En5.5.200Scan.071819.P2_HRD10591_17-12-42-972.txt Node
Date: Thu Jul 18 17:12:42 EDT 2019
User: cochatt
Spectrometer: HR+D1059
Trigger mode: 1
Integration Time (sec): 1.000000E-1
Scans to average: 1
Electric dark correction enabled: true
Nonlinearity correction enabled: false
Boxcar width: 0
XAxis mode: Wavelengths
Number of Pixels in Spectrum: 2048
>>>>>Begin Spectral Data<<<<<
223.165	-17.12
223.4	-17.12
223.635	-17.12
223.869	-25.12
224.104	-11.12
224.338	-12.12
224.573	-17.12
224.808	-9.12
225.042	-12.12
225.277	-13.12
225.511	-0.12
225.746	-8.12
225.98	11.88
226.215	9.88
226.449	19.88
226.683	24.88
226.918	25.88
227.152	32.88
227.387	31.88
227.621	42.88
227.856	47.88
228.09	53.88
228.324	43.88
228.559	47.88
228.793	76.88
229.027	90.88
229.262	106.88
229.496	122.88
229.73	142.88
229.964	159.88
230.199	138.88
230.433	122.88
230.667	132.88
230.901	118.88
231.136	119.88
231.37	118.88
231.604	119.88
231.838	128.88
232.072	124.88
232.306	117.88
232.541	104.88
232.775	110.88
233.009	124.88
233.243	113.88
233.477	117.88
233.711	139.88
233.945	123.88
234.179	137.88
234.413	108.88
234.647	115.88
234.881	109.88
235.115	127.88
235.349	117.88
235.583	116.88
235.817	126.88
236.051	129.88
236.285	139.88
236.519	130.88
236.753	128.88
236.987	134.88
237.221	195.88
237.455	235.88
237.689	208.88
237.922	148.88
238.156	135.88
238.39	143.88
238.624	129.88
238.858	126.88
239.091	125.88
239.325	119.88
239.559	143.88
239.793	132.88
240.027	156.88
240.26	140.88
240.494	166.88
240.728	153.88
240.961	168.88
241.195	158.88
241.429	159.88
241.662	138.88
241.896	151.88
242.13	142.88
242.363	134.88
242.597	140.88
242.83	158.88
243.064	146.88
243.298	150.88
243.531	136.88
243.765	152.88
243.998	150.88
244.232	151.88
244.465	133.88
244.699	166.88
244.932	151.88
245.166	174.88
245.399	162.88
245.633	154.88
245.866	160.88
246.099	149.88
246.333	183.88
246.566	158.88
246.8	173.88
247.033	170.88
247.266	181.88
247.5	176.88
247.733	182.88
247.966	184.88
248.2	196.88
248.433	174.88
248.666	187.88
248.899	204.88
249.133	204.88
249.366	221.88
249.599	216.88
249.832	216.88
250.066	213.88
250.299	239.88
250.532	246.88
250.765	277.88
250.998	290.88
251.231	286.88
251.465	263.88
251.698	240.88
251.931	239.88
252.164	239.88
252.397	230.88
252.63	224.88
252.863	227.88
253.096	234.88
253.329	246.88
253.562	247.88
253.795	234.88
254.028	236.88
254.261	256.88
254.494	256.88
254.727	288.88
254.96	318.88
255.193	328.88
255.426	315.88
255.659	296.88
255.892	331.88
256.124	366.88
256.357	410.88
256.59	372.88
256.823	327.88
257.056	308.88
257.289	273.88
257.521	262.88
257.754	248.88
257.987	243.88
258.22	260.88
258.452	239.88
258.685	234.88
258.918	239.88
259.151	247.88
259.383	229.88
259.616	242.88
259.849	270.88
260.081	272.88
260.314	272.88
260.547	269.88
260.779	290.88
261.012	251.88
261.244	251.88
261.477	256.88
261.71	245.88
261.942	242.88
262.175	270.88
262.407	277.88
262.64	266.88
262.872	259.88
263.105	231.88
263.337	231.88
263.57	228.88
263.802	250.88
264.035	226.88
264.267	221.88
264.499	232.88
264.732	219.88
264.964	235.88
265.197	219.88
265.429	251.88
265.661	237.88
265.894	229.88
266.126	240.88
266.358	237.88
266.591	224.88
266.823	264.88
267.055	256.88
267.287	251.88
267.52	243.88
267.752	227.88
267.984	246.88
268.216	236.88
268.448	244.88
268.681	269.88
268.913	266.88
269.145	272.88
269.377	302.88
269.609	293.88
269.841	276.88
270.073	296.88
270.306	310.88
270.538	330.88
270.77	320.88
271.002	320.88
271.234	326.88
271.466	343.88
271.698	339.88
271.93	338.88
272.162	344.88
272.394	332.88
272.626	333.88
272.858	307.88
273.09	300.88
273.322	287.88
273.553	295.88
273.785	283.88
274.017	288.88
274.249	310.88
274.481	292.88
274.713	284.88
274.945	290.88
275.176	271.88
275.408	285.88
275.64	282.88
275.872	284.88
276.104	288.88
276.335	286.88
276.567	282.88
276.799	327.88
277.031	324.88
277.262	361.88
277.494	359.88
277.726	338.88
277.957	326.88
278.189	301.88
278.421	295.88
278.652	296.88
278.884	306.88
279.115	287.88
279.347	302.88
279.579	303.88
279.81	311.88
280.042	283.88
280.273	310.88
280.505	302.88
280.736	291.88
280.968	293.88
281.199	294.88
281.431	295.88
281.662	289.88
281.894	288.88
282.125	304.88
282.356	315.88
282.588	333.88
282.819	341.88
283.051	296.88
283.282	275.88
283.513	292.88
283.745	281.88
283.976	291.88
284.207	313.88
284.439	288.88
284.67	287.88
284.901	286.88
285.132	300.88
285.364	300.88
285.595	303.88
285.826	314.88
286.057	294.88
286.288	306.88
286.52	288.88
286.751	303.88
286.982	291.88
287.213	287.88
287.444	302.88
287.675	298.88
287.906	309.88
288.138	332.88
288.369	316.88
288.6	329.88
288.831	327.88
289.062	294.88
289.293	318.88
289.524	296.88
289.755	290.88
289.986	307.88
290.217	309.88
290.448	316.88
290.679	299.88
290.91	299.88
291.141	307.88
291.371	287.88
291.602	299.88
291.833	304.88
292.064	311.88
292.295	295.88
292.526	300.88
292.757	284.88
292.987	292.88
293.218	278.88
293.449	292.88
293.68	287.88
293.91	285.88
294.141	310.88
294.372	294.88
294.603	303.88
294.833	308.88
295.064	306.88
295.295	286.88
295.525	298.88
295.756	301.88
295.987	309.88
296.217	347.88
296.448	346.88
296.679	333.88
296.909	302.88
297.14	281.88
297.37	311.88
297.601	308.88
297.831	303.88
298.062	330.88
298.292	310.88
298.523	303.88
298.753	306.88
298.984	312.88
299.214	314.88
299.445	310.88
299.675	319.88
299.905	319.88
300.136	305.88
300.366	322.88
300.597	327.88
300.827	324.88
301.057	335.88
301.288	326.88
301.518	319.88
301.748	333.88
301.979	331.88
302.209	329.88
302.439	338.88
302.669	340.88
302.9	316.88
303.13	333.88
303.36	340.88
303.59	336.88
303.82	358.88
304.051	347.88
304.281	346.88
304.511	329.88
304.741	321.88
304.971	320.88
305.201	336.88
305.431	334.88
305.661	318.88
305.891	327.88
306.121	343.88
306.352	354.88
306.582	347.88
306.812	351.88
307.042	324.88
307.272	350.88
307.502	379.88
307.731	356.88
307.961	344.88
308.191	328.88
308.421	353.88
308.651	345.88
308.881	344.88
309.111	361.88
309.341	354.88
309.571	371.88
309.8	376.88
310.03	383.88
310.26	385.88
310.49	394.88
310.72	400.88
310.949	400.88
311.179	405.88
311.409	402.88
311.639	406.88
311.868	386.88
312.098	392.88
312.328	396.88
312.557	388.88
312.787	429.88
313.017	442.88
313.246	412.88
313.476	394.88
313.706	406.88
313.935	398.88
314.165	428.88
314.394	444.88
314.624	401.88
314.853	400.88
315.083	422.88
315.312	387.88
315.542	396.88
315.771	390.88
316.001	383.88
316.23	413.88
316.46	385.88
316.689	402.88
316.919	381.88
317.148	390.88
317.377	393.88
317.607	400.88
317.836	397.88
318.065	409.88
318.295	386.88
318.524	394.88
318.753	389.88
318.983	401.88
319.212	384.88
319.441	391.88
319.67	412.88
319.9	415.88
320.129	393.88
320.358	395.88
320.587	414.88
320.816	408.88
321.046	407.88
321.275	435.88
321.504	418.88
321.733	436.88
321.962	432.88
322.191	461.88
322.42	478.88
322.649	456.88
322.878	492.88
323.108	516.88
323.337	550.88
323.566	568.88
323.795	601.88
324.024	659.88
324.253	810.88
324.482	1110.88
324.71	1685.88
324.939	2484.88
325.168	2178.88
325.397	1148.88
325.626	776.88
325.855	623.88
326.084	595.88
326.313	607.88
326.542	603.88
326.77	646.88
326.999	764.88
327.228	1003.88
327.457	1519.88
327.686	1908.88
327.914	1327.88
328.143	932.88
328.372	859.88
328.6	790.88
328.829	730.88
329.058	715.88
329.287	735.88
329.515	691.88
329.744	690.88
329.972	735.88
330.201	876.88
330.43	975.88
330.658	941.88
330.887	845.88
331.115	732.88
331.344	626.88
331.572	593.88
331.801	566.88
332.03	576.88
332.258	594.88
332.486	536.88
332.715	514.88
332.943	545.88
333.172	514.88
333.4	548.88
333.629	604.88
333.857	656.88
334.085	729.88
334.314	864.88
334.542	1056.88
334.771	1123.88
334.999	831.88
335.227	632.88
335.455	578.88
335.684	537.88
335.912	505.88
336.14	522.88
336.369	491.88
336.597	489.88
336.825	520.88
337.053	475.88
337.281	476.88
337.51	451.88
337.738	454.88
337.966	450.88
338.194	476.88
338.422	462.88
338.65	442.88
338.878	455.88
339.106	453.88
339.334	444.88
339.562	446.88
339.79	415.88
340.018	433.88
340.246	427.88
340.474	458.88
340.702	452.88
340.93	438.88
341.158	418.88
341.386	432.88
341.614	439.88
341.842	443.88
342.07	429.88
342.298	443.88
342.526	417.88
342.754	422.88
342.981	406.88
343.209	415.88
343.437	408.88
343.665	409.88
343.893	410.88
344.12	433.88
344.348	439.88
344.576	444.88
344.804	437.88
345.031	457.88
345.259	444.88
345.487	466.88
345.714	438.88
345.942	444.88
346.17	426.88
346.397	424.88
346.625	414.88
346.853	424.88
347.08	409.88
347.308	434.88
347.535	429.88
347.763	435.88
347.99	434.88
348.218	436.88
348.445	435.88
348.673	411.88
348.9	406.88
349.128	420.88
349.355	406.88
349.583	414.88
349.81	404.88
350.037	409.88
350.265	405.88
350.492	408.88
350.72	428.88
350.947	410.88
351.174	412.88
351.402	419.88
351.629	427.88
351.856	430.88
352.083	434.88
352.311	462.88
352.538	445.88
352.765	465.88
352.992	419.88
353.22	440.88
353.447	424.88
353.674	403.88
353.901	397.88
354.128	388.88
354.355	379.88
354.583	393.88
354.81	410.88
355.037	388.88
355.264	384.88
355.491	376.88
355.718	381.88
355.945	385.88
356.172	372.88
356.399	381.88
356.626	381.88
356.853	383.88
357.08	356.88
357.307	367.88
357.534	386.88
357.761	371.88
357.988	395.88
358.215	406.88
358.441	386.88
358.668	389.88
358.895	408.88
359.122	400.88
359.349	406.88
359.576	415.88
359.802	456.88
360.029	455.88
360.256	461.88
360.483	432.88
360.709	423.88
360.936	421.88
361.163	409.88
361.39	420.88
361.616	420.88
361.843	411.88
362.07	424.88
362.296	431.88
362.523	418.88
362.749	416.88
362.976	419.88
363.203	396.88
363.429	381.88
363.656	396.88
363.882	384.88
364.109	373.88
364.335	378.88
364.562	390.88
364.788	399.88
365.015	383.88
365.241	381.88
365.468	388.88
365.694	405.88
365.92	390.88
366.147	399.88
366.373	390.88
366.599	400.88
366.826	400.88
367.052	377.88
367.278	387.88
367.505	379.88
367.731	404.88
367.957	411.88
368.184	387.88
368.41	381.88
368.636	406.88
368.862	404.88
369.089	390.88
369.315	379.88
369.541	377.88
369.767	375.88
369.993	391.88
370.219	381.88
370.445	398.88
370.672	395.88
370.898	379.88
371.124	371.88
371.35	380.88
371.576	384.88
371.802	367.88
372.028	380.88
372.254	374.88
372.48	375.88
372.706	380.88
372.932	357.88
373.158	374.88
373.384	380.88
373.61	380.88
373.835	381.88
374.061	378.88
374.287	377.88
374.513	367.88
374.739	374.88
374.965	356.88
375.191	366.88
375.416	383.88
375.642	386.88
375.868	384.88
376.094	379.88
376.319	387.88
376.545	370.88
376.771	361.88
376.997	381.88
377.222	378.88
377.448	365.88
377.674	374.88
377.899	364.88
378.125	356.88
378.35	381.88
378.576	378.88
378.802	359.88
379.027	380.88
379.253	376.88
379.478	347.88
379.704	366.88
379.929	362.88
380.155	371.88
380.38	375.88
380.606	375.88
380.831	371.88
381.057	386.88
381.282	360.88
381.507	374.88
381.733	383.88
381.958	369.88
382.184	382.88
382.409	398.88
382.634	369.88
382.86	371.88
383.085	352.88
383.31	380.88
383.535	372.88
383.761	382.88
383.986	387.88
384.211	383.88
384.436	392.88
384.662	381.88
384.887	386.88
385.112	378.88
385.337	377.88
385.562	395.88
385.787	394.88
386.013	422.88
386.238	418.88
386.463	409.88
386.688	396.88
386.913	364.88
387.138	384.88
387.363	380.88
387.588	387.88
387.813	400.88
388.038	384.88
388.263	399.88
388.488	396.88
388.713	387.88
388.938	392.88
389.163	390.88
389.387	390.88
389.612	399.88
389.837	398.88
390.062	413.88
390.287	393.88
390.512	398.88
390.736	406.88
390.961	364.88
391.186	386.88
391.411	394.88
391.636	402.88
391.86	390.88
392.085	387.88
392.31	381.88
392.534	388.88
392.759	406.88
392.984	425.88
393.208	392.88
393.433	388.88
393.658	387.88
393.882	390.88
394.107	394.88
394.331	403.88
394.556	399.88
394.78	382.88
395.005	396.88
395.229	383.88
395.454	387.88
395.678	384.88
395.903	415.88
396.127	426.88
396.352	452.88
396.576	391.88
396.801	395.88
397.025	398.88
397.249	414.88
397.474	422.88
397.698	406.88
397.922	415.88
398.147	426.88
398.371	442.88
398.595	438.88
398.82	432.88
399.044	423.88
399.268	442.88
399.492	471.88
399.717	496.88
399.941	504.88
400.165	528.88
400.389	533.88
400.613	498.88
400.837	461.88
401.062	464.88
401.286	438.88
401.51	442.88
401.734	435.88
401.958	464.88
402.182	451.88
402.406	469.88
402.63	460.88
402.854	479.88
403.078	473.88
403.302	475.88
403.526	460.88
403.75	459.88
403.974	453.88
404.198	464.88
404.422	491.88
404.645	486.88
404.869	509.88
405.093	562.88
405.317	626.88
405.541	635.88
405.765	585.88
405.988	549.88
406.212	536.88
406.436	542.88
406.66	547.88
406.883	522.88
407.107	540.88
407.331	568.88
407.555	614.88
407.778	608.88
408.002	551.88
408.226	512.88
408.449	512.88
408.673	526.88
408.896	540.88
409.12	597.88
409.344	534.88
409.567	496.88
409.791	480.88
410.014	443.88
410.238	458.88
410.461	484.88
410.685	502.88
410.908	479.88
411.132	527.88
411.355	561.88
411.578	517.88
411.802	499.88
412.025	498.88
412.249	537.88
412.472	580.88
412.695	648.88
412.919	636.88
413.142	590.88
413.365	543.88
413.589	514.88
413.812	487.88
414.035	486.88
414.258	485.88
414.482	482.88
414.705	436.88
414.928	445.88
415.151	440.88
415.374	442.88
415.597	450.88
415.821	430.88
416.044	459.88
416.267	444.88
416.49	456.88
416.713	442.88
416.936	448.88
417.159	481.88
417.382	459.88
417.605	479.88
417.828	482.88
418.051	493.88
418.274	474.88
418.497	451.88
418.72	420.88
418.943	450.88
419.166	449.88
419.389	472.88
419.611	506.88
419.834	491.88
420.057	508.88
420.28	530.88
420.503	544.88
420.726	534.88
420.948	552.88
421.171	558.88
421.394	579.88
421.617	523.88
421.839	488.88
422.062	476.88
422.285	510.88
422.507	570.88
422.73	610.88
422.953	586.88
423.175	534.88
423.398	495.88
423.621	498.88
423.843	510.88
424.066	515.88
424.288	498.88
424.511	542.88
424.733	579.88
424.956	667.88
425.178	624.88
425.401	621.88
425.623	652.88
425.846	566.88
426.068	550.88
426.291	524.88
426.513	541.88
426.735	523.88
426.958	564.88
427.18	637.88
427.402	756.88
427.625	861.88
427.847	799.88
428.069	735.88
428.292	658.88
428.514	560.88
428.736	529.88
428.958	482.88
429.181	480.88
429.403	474.88
429.625	481.88
429.847	517.88
430.069	576.88
430.292	586.88
430.514	490.88
430.736	506.88
430.958	465.88
431.18	464.88
431.402	457.88
431.624	444.88
431.846	434.88
432.068	437.88
432.29	445.88
432.512	443.88
432.734	450.88
432.956	427.88
433.178	465.88
433.4	450.88
433.622	432.88
433.844	440.88
434.066	440.88
434.287	450.88
434.509	435.88
434.731	454.88
434.953	461.88
435.175	495.88
435.397	494.88
435.618	533.88
435.84	566.88
436.062	639.88
436.284	729.88
436.505	597.88
436.727	551.88
436.949	495.88
437.17	517.88
437.392	472.88
437.614	482.88
437.835	522.88
438.057	618.88
438.278	761.88
438.5	719.88
438.721	775.88
438.943	762.88
439.165	587.88
439.386	566.88
439.608	553.88
439.829	522.88
440.05	587.88
440.272	599.88
440.493	558.88
440.715	535.88
440.936	503.88
441.158	482.88
441.379	483.88
441.6	470.88
441.822	506.88
442.043	528.88
442.264	620.88
442.486	691.88
442.707	598.88
442.928	520.88
443.149	520.88
443.371	585.88
443.592	604.88
443.813	698.88
444.034	750.88
444.255	615.88
444.476	520.88
444.698	524.88
444.919	502.88
445.14	608.88
445.361	529.88
445.582	560.88
445.803	609.88
446.024	719.88
446.245	757.88
446.466	686.88
446.687	569.88
446.908	525.88
447.129	502.88
447.35	506.88
447.571	481.88
447.792	471.88
448.013	475.88
448.234	515.88
448.455	556.88
448.675	654.88
448.896	775.88
449.117	660.88
449.338	621.88
449.559	705.88
449.779	808.88
450	668.88
450.221	548.88
450.442	496.88
450.662	483.88
450.883	491.88
451.104	503.88
451.324	485.88
451.545	452.88
451.766	464.88
451.986	445.88
452.207	433.88
452.428	441.88
452.648	419.88
452.869	428.88
453.089	434.88
453.31	456.88
453.53	442.88
453.751	430.88
453.971	427.88
454.192	453.88
454.412	454.88
454.633	436.88
454.853	419.88
455.073	418.88
455.294	451.88
455.514	519.88
455.734	511.88
455.955	434.88
456.175	427.88
456.395	388.88
456.616	384.88
456.836	417.88
457.056	396.88
457.276	394.88
457.497	406.88
457.717	394.88
457.937	407.88
458.157	436.88
458.377	412.88
458.598	442.88
458.818	482.88
459.038	589.88
459.258	592.88
459.478	516.88
459.698	443.88
459.918	437.88
460.138	429.88
460.358	431.88
460.578	415.88
460.798	449.88
461.018	416.88
461.238	421.88
461.458	436.88
461.678	409.88
461.898	426.88
462.118	430.88
462.338	432.88
462.558	434.88
462.777	434.88
462.997	443.88
463.217	446.88
463.437	453.88
463.657	450.88
463.876	436.88
464.096	464.88
464.316	457.88
464.536	466.88
464.755	472.88
464.975	477.88
465.195	511.88
465.414	598.88
465.634	550.88
465.854	480.88
466.073	452.88
466.293	446.88
466.512	421.88
466.732	412.88
466.951	428.88
467.171	439.88
467.391	438.88
467.61	454.88
467.829	468.88
468.049	493.88
468.268	548.88
468.488	505.88
468.707	462.88
468.927	463.88
469.146	453.88
469.365	454.88
469.585	435.88
469.804	451.88
470.023	472.88
470.243	462.88
470.462	453.88
470.681	453.88
470.901	451.88
471.12	462.88
471.339	460.88
471.558	463.88
471.777	475.88
471.997	472.88
472.216	534.88
472.435	772.88
472.654	715.88
472.873	574.88
473.092	542.88
473.311	482.88
473.53	486.88
473.749	515.88
473.968	518.88
474.187	638.88
474.406	664.88
474.625	546.88
474.844	486.88
475.063	461.88
475.282	470.88
475.501	482.88
475.72	467.88
475.939	460.88
476.158	469.88
476.377	498.88
476.596	498.88
476.814	478.88
477.033	468.88
477.252	470.88
477.471	474.88
477.69	471.88
477.908	491.88
478.127	506.88
478.346	522.88
478.564	495.88
478.783	506.88
479.002	493.88
479.22	513.88
479.439	539.88
479.658	543.88
479.876	555.88
480.095	566.88
480.313	592.88
480.532	606.88
480.751	592.88
480.969	674.88
481.188	976.88
481.406	1282.88
481.624	858.88
481.843	726.88
482.061	680.88
482.28	648.88
482.498	613.88
482.717	622.88
482.935	586.88
483.153	583.88
483.372	585.88
483.59	569.88
483.808	555.88
484.027	572.88
484.245	564.88
484.463	582.88
484.681	585.88
484.9	566.88
485.118	562.88
485.336	536.88
485.554	582.88
485.772	557.88
485.99	578.88
486.209	558.88
486.427	589.88
486.645	596.88
486.863	594.88
487.081	611.88
487.299	605.88
487.517	591.88
487.735	586.88
487.953	584.88
488.171	611.88
488.389	627.88
488.607	601.88
488.825	606.88
489.043	590.88
489.261	600.88
489.479	603.88
489.696	623.88
489.914	606.88
490.132	631.88
490.35	644.88
490.568	640.88
490.786	650.88
491.003	672.88
491.221	717.88
491.439	703.88
491.657	726.88
491.874	714.88
492.092	712.88
492.31	749.88
492.527	737.88
492.745	740.88
492.963	748.88
493.18	762.88
493.398	746.88
493.615	744.88
493.833	743.88
494.05	770.88
494.268	734.88
494.485	724.88
494.703	746.88
494.92	736.88
495.138	754.88
495.355	744.88
495.573	728.88
495.79	714.88
496.008	730.88
496.225	716.88
496.442	711.88
496.66	729.88
496.877	717.88
497.094	710.88
497.312	726.88
497.529	724.88
497.746	726.88
497.963	715.88
498.181	758.88
498.398	742.88
498.615	750.88
498.832	731.88
499.049	784.88
499.267	756.88
499.484	782.88
499.701	775.88
499.918	790.88
500.135	810.88
500.352	838.88
500.569	830.88
500.786	843.88
501.003	846.88
501.22	840.88
501.437	820.88
501.654	835.88
501.871	850.88
