Data from 1986.PennyLincolnUp.Lamp.En5.5.200Scan.071819.P2_HRD10591_17-12-45-972.txt Node
Date: Thu Jul 18 17:12:45 EDT 2019
User: cochatt
Spectrometer: HR+D1059
Trigger mode: 1
Integration Time (sec): 1.000000E-1
Scans to average: 1
Electric dark correction enabled: true
Nonlinearity correction enabled: false
Boxcar width: 0
XAxis mode: Wavelengths
Number of Pixels in Spectrum: 2048
>>>>>Begin Spectral Data<<<<<
223.165	-0.56
223.4	-0.56
223.635	-0.56
223.869	-19.56
224.104	-20.56
224.338	-22.56
224.573	-14.56
224.808	-18.56
225.042	-13.56
225.277	-2.56
225.511	3.44
225.746	11.44
225.98	12.44
226.215	7.44
226.449	17.44
226.683	15.44
226.918	15.44
227.152	29.44
227.387	24.44
227.621	25.44
227.856	35.44
228.09	40.44
228.324	39.44
228.559	56.44
228.793	68.44
229.027	86.44
229.262	111.44
229.496	129.44
229.73	132.44
229.964	152.44
230.199	133.44
230.433	111.44
230.667	119.44
230.901	101.44
231.136	91.44
231.37	113.44
231.604	104.44
231.838	104.44
232.072	95.44
232.306	105.44
232.541	127.44
232.775	108.44
233.009	115.44
233.243	108.44
233.477	107.44
233.711	114.44
233.945	106.44
234.179	115.44
234.413	105.44
234.647	106.44
234.881	116.44
235.115	105.44
235.349	108.44
235.583	120.44
235.817	114.44
236.051	126.44
236.285	127.44
236.519	122.44
236.753	139.44
236.987	144.44
237.221	179.44
237.455	254.44
237.689	188.44
237.922	146.44
238.156	133.44
238.39	146.44
238.624	137.44
238.858	123.44
239.091	130.44
239.325	131.44
239.559	136.44
239.793	136.44
240.027	136.44
240.26	147.44
240.494	165.44
240.728	160.44
240.961	164.44
241.195	162.44
241.429	149.44
241.662	127.44
241.896	140.44
242.13	149.44
242.363	132.44
242.597	154.44
242.83	151.44
243.064	145.44
243.298	155.44
243.531	139.44
243.765	146.44
243.998	155.44
244.232	134.44
244.465	137.44
244.699	160.44
244.932	142.44
245.166	156.44
245.399	149.44
245.633	143.44
245.866	173.44
246.099	170.44
246.333	162.44
246.566	151.44
246.8	147.44
247.033	161.44
247.266	151.44
247.5	165.44
247.733	157.44
247.966	194.44
248.2	183.44
248.433	193.44
248.666	190.44
248.899	202.44
249.133	210.44
249.366	212.44
249.599	211.44
249.832	194.44
250.066	225.44
250.299	213.44
250.532	237.44
250.765	295.44
250.998	291.44
251.231	272.44
251.465	250.44
251.698	240.44
251.931	229.44
252.164	218.44
252.397	211.44
252.63	234.44
252.863	229.44
253.096	242.44
253.329	255.44
253.562	253.44
253.795	234.44
254.028	231.44
254.261	255.44
254.494	267.44
254.727	285.44
254.96	299.44
255.193	309.44
255.426	291.44
255.659	303.44
255.892	299.44
256.124	381.44
256.357	400.44
256.59	372.44
256.823	328.44
257.056	290.44
257.289	286.44
257.521	278.44
257.754	265.44
257.987	256.44
258.22	243.44
258.452	247.44
258.685	245.44
258.918	232.44
259.151	243.44
259.383	231.44
259.616	247.44
259.849	251.44
260.081	270.44
260.314	279.44
260.547	267.44
260.779	266.44
261.012	258.44
261.244	264.44
261.477	247.44
261.71	234.44
261.942	269.44
262.175	245.44
262.407	235.44
262.64	236.44
262.872	243.44
263.105	232.44
263.337	243.44
263.57	227.44
263.802	245.44
264.035	241.44
264.267	215.44
264.499	223.44
264.732	218.44
264.964	227.44
265.197	225.44
265.429	235.44
265.661	239.44
265.894	210.44
266.126	244.44
266.358	232.44
266.591	247.44
266.823	225.44
267.055	217.44
267.287	238.44
267.52	250.44
267.752	245.44
267.984	239.44
268.216	240.44
268.448	243.44
268.681	258.44
268.913	273.44
269.145	291.44
269.377	296.44
269.609	275.44
269.841	290.44
270.073	294.44
270.306	312.44
270.538	324.44
270.77	325.44
271.002	333.44
271.234	310.44
271.466	338.44
271.698	333.44
271.93	345.44
272.162	350.44
272.394	335.44
272.626	314.44
272.858	312.44
273.09	312.44
273.322	290.44
273.553	285.44
273.785	286.44
274.017	278.44
274.249	285.44
274.481	293.44
274.713	293.44
274.945	283.44
275.176	268.44
275.408	272.44
275.64	284.44
275.872	289.44
276.104	294.44
276.335	287.44
276.567	287.44
276.799	317.44
277.031	324.44
277.262	333.44
277.494	365.44
277.726	327.44
277.957	328.44
278.189	310.44
278.421	300.44
278.652	295.44
278.884	292.44
279.115	285.44
279.347	311.44
279.579	289.44
279.81	292.44
280.042	295.44
280.273	324.44
280.505	319.44
280.736	297.44
280.968	313.44
281.199	288.44
281.431	298.44
281.662	270.44
281.894	294.44
282.125	293.44
282.356	292.44
282.588	343.44
282.819	325.44
283.051	305.44
283.282	289.44
283.513	277.44
283.745	273.44
283.976	280.44
284.207	300.44
284.439	275.44
284.67	269.44
284.901	277.44
285.132	304.44
285.364	307.44
285.595	289.44
285.826	285.44
286.057	298.44
286.288	299.44
286.52	296.44
286.751	288.44
286.982	294.44
287.213	303.44
287.444	309.44
287.675	294.44
287.906	301.44
288.138	319.44
288.369	312.44
288.6	296.44
288.831	313.44
289.062	289.44
289.293	292.44
289.524	303.44
289.755	282.44
289.986	324.44
290.217	294.44
290.448	290.44
290.679	295.44
290.91	290.44
291.141	288.44
291.371	307.44
291.602	307.44
291.833	298.44
292.064	297.44
292.295	290.44
292.526	284.44
292.757	282.44
292.987	295.44
293.218	300.44
293.449	296.44
293.68	280.44
293.91	285.44
294.141	303.44
294.372	297.44
294.603	309.44
294.833	301.44
295.064	303.44
295.295	288.44
295.525	297.44
295.756	297.44
295.987	325.44
296.217	336.44
296.448	341.44
296.679	306.44
296.909	282.44
297.14	289.44
297.37	309.44
297.601	302.44
297.831	283.44
298.062	318.44
298.292	288.44
298.523	304.44
298.753	290.44
298.984	296.44
299.214	331.44
299.445	310.44
299.675	318.44
299.905	326.44
300.136	328.44
300.366	315.44
300.597	318.44
300.827	333.44
301.057	330.44
301.288	333.44
301.518	331.44
301.748	315.44
301.979	323.44
302.209	315.44
302.439	318.44
302.669	330.44
302.9	327.44
303.13	332.44
303.36	333.44
303.59	353.44
303.82	364.44
304.051	351.44
304.281	330.44
304.511	300.44
304.741	324.44
304.971	338.44
305.201	312.44
305.431	328.44
305.661	331.44
305.891	336.44
306.121	338.44
306.352	325.44
306.582	333.44
306.812	341.44
307.042	341.44
307.272	345.44
307.502	344.44
307.731	346.44
307.961	356.44
308.191	338.44
308.421	341.44
308.651	345.44
308.881	341.44
309.111	361.44
309.341	333.44
309.571	346.44
309.8	370.44
310.03	375.44
310.26	399.44
310.49	394.44
310.72	403.44
310.949	416.44
311.179	410.44
311.409	406.44
311.639	374.44
311.868	386.44
312.098	392.44
312.328	410.44
312.557	435.44
312.787	433.44
313.017	428.44
313.246	397.44
313.476	374.44
313.706	390.44
313.935	403.44
314.165	403.44
314.394	390.44
314.624	413.44
314.853	389.44
315.083	407.44
315.312	393.44
315.542	399.44
315.771	373.44
316.001	374.44
316.23	371.44
316.46	362.44
316.689	387.44
316.919	393.44
317.148	400.44
317.377	391.44
317.607	408.44
317.836	409.44
318.065	419.44
318.295	394.44
318.524	389.44
318.753	383.44
318.983	393.44
319.212	397.44
319.441	387.44
319.67	396.44
319.9	393.44
320.129	385.44
320.358	391.44
320.587	398.44
320.816	417.44
321.046	431.44
321.275	424.44
321.504	394.44
321.733	417.44
321.962	429.44
322.191	480.44
322.42	459.44
322.649	483.44
322.878	492.44
323.108	503.44
323.337	498.44
323.566	548.44
323.795	601.44
324.024	647.44
324.253	790.44
324.482	1095.44
324.71	1707.44
324.939	2431.44
325.168	2183.44
325.397	1131.44
325.626	735.44
325.855	635.44
326.084	597.44
326.313	584.44
326.542	580.44
326.77	624.44
326.999	725.44
327.228	1028.44
327.457	1494.44
327.686	1871.44
327.914	1349.44
328.143	915.44
328.372	817.44
328.6	796.44
328.829	724.44
329.058	712.44
329.287	728.44
329.515	714.44
329.744	689.44
329.972	744.44
330.201	885.44
330.43	987.44
330.658	959.44
330.887	835.44
331.115	757.44
331.344	644.44
331.572	598.44
331.801	587.44
332.03	599.44
332.258	569.44
332.486	548.44
332.715	505.44
332.943	525.44
333.172	546.44
333.4	569.44
333.629	604.44
333.857	651.44
334.085	718.44
334.314	870.44
334.542	1045.44
334.771	1131.44
334.999	868.44
335.227	667.44
335.455	583.44
335.684	556.44
335.912	531.44
336.14	513.44
336.369	497.44
336.597	497.44
336.825	503.44
337.053	476.44
337.281	479.44
337.51	456.44
337.738	471.44
337.966	429.44
338.194	465.44
338.422	443.44
338.65	449.44
338.878	452.44
339.106	435.44
339.334	451.44
339.562	438.44
339.79	419.44
340.018	423.44
340.246	445.44
340.474	447.44
340.702	455.44
340.93	443.44
341.158	439.44
341.386	420.44
341.614	447.44
341.842	452.44
342.07	415.44
342.298	429.44
342.526	418.44
342.754	431.44
342.981	422.44
343.209	392.44
343.437	424.44
343.665	415.44
343.893	423.44
344.12	420.44
344.348	426.44
344.576	434.44
344.804	445.44
345.031	455.44
345.259	436.44
345.487	423.44
345.714	414.44
345.942	428.44
346.17	432.44
346.397	406.44
346.625	418.44
346.853	432.44
347.08	411.44
347.308	415.44
347.535	441.44
347.763	421.44
347.99	413.44
348.218	415.44
348.445	434.44
348.673	425.44
348.9	420.44
349.128	411.44
349.355	393.44
349.583	415.44
349.81	407.44
350.037	396.44
350.265	411.44
350.492	403.44
350.72	383.44
350.947	405.44
351.174	419.44
351.402	435.44
351.629	417.44
351.856	425.44
352.083	423.44
352.311	430.44
352.538	447.44
352.765	431.44
352.992	435.44
353.22	419.44
353.447	408.44
353.674	419.44
353.901	409.44
354.128	396.44
354.355	382.44
354.583	395.44
354.81	373.44
355.037	404.44
355.264	378.44
355.491	378.44
355.718	369.44
355.945	376.44
356.172	379.44
356.399	372.44
356.626	374.44
356.853	364.44
357.08	373.44
357.307	367.44
357.534	377.44
357.761	409.44
357.988	368.44
358.215	367.44
358.441	372.44
358.668	360.44
358.895	381.44
359.122	388.44
359.349	394.44
359.576	403.44
359.802	427.44
360.029	468.44
360.256	474.44
360.483	450.44
360.709	414.44
360.936	415.44
361.163	384.44
361.39	433.44
361.616	420.44
361.843	417.44
362.07	415.44
362.296	433.44
362.523	403.44
362.749	389.44
362.976	397.44
363.203	413.44
363.429	387.44
363.656	413.44
363.882	376.44
364.109	373.44
364.335	382.44
364.562	371.44
364.788	371.44
365.015	377.44
365.241	352.44
365.468	385.44
365.694	383.44
365.92	413.44
366.147	381.44
366.373	365.44
366.599	377.44
366.826	371.44
367.052	387.44
367.278	361.44
367.505	389.44
367.731	394.44
367.957	391.44
368.184	381.44
368.41	388.44
368.636	404.44
368.862	379.44
369.089	385.44
369.315	379.44
369.541	365.44
369.767	369.44
369.993	382.44
370.219	394.44
370.445	381.44
370.672	375.44
370.898	378.44
371.124	379.44
371.35	373.44
371.576	376.44
371.802	377.44
372.028	375.44
372.254	375.44
372.48	366.44
372.706	359.44
372.932	359.44
373.158	379.44
373.384	345.44
373.61	371.44
373.835	369.44
374.061	370.44
374.287	378.44
374.513	378.44
374.739	377.44
374.965	373.44
375.191	372.44
375.416	376.44
375.642	378.44
375.868	379.44
376.094	377.44
376.319	365.44
376.545	371.44
376.771	377.44
376.997	352.44
377.222	379.44
377.448	380.44
377.674	354.44
377.899	367.44
378.125	374.44
378.35	372.44
378.576	367.44
378.802	359.44
379.027	355.44
379.253	365.44
379.478	352.44
379.704	361.44
379.929	354.44
380.155	375.44
380.38	369.44
380.606	383.44
380.831	368.44
381.057	370.44
381.282	376.44
381.507	363.44
381.733	373.44
381.958	379.44
382.184	367.44
382.409	372.44
382.634	368.44
382.86	365.44
383.085	391.44
383.31	376.44
383.535	370.44
383.761	377.44
383.986	376.44
384.211	407.44
384.436	387.44
384.662	382.44
384.887	367.44
385.112	389.44
385.337	387.44
385.562	400.44
385.787	397.44
386.013	395.44
386.238	396.44
386.463	389.44
386.688	397.44
386.913	397.44
387.138	384.44
387.363	381.44
387.588	379.44
387.813	389.44
388.038	389.44
388.263	391.44
388.488	397.44
388.713	364.44
388.938	389.44
389.163	385.44
389.387	384.44
389.612	364.44
389.837	382.44
390.062	373.44
390.287	376.44
390.512	369.44
390.736	403.44
390.961	377.44
391.186	380.44
391.411	388.44
391.636	379.44
391.86	383.44
392.085	395.44
392.31	387.44
392.534	379.44
392.759	368.44
392.984	392.44
393.208	383.44
393.433	378.44
393.658	377.44
393.882	375.44
394.107	390.44
394.331	379.44
394.556	384.44
394.78	385.44
395.005	383.44
395.229	390.44
395.454	399.44
395.678	411.44
395.903	416.44
396.127	435.44
396.352	424.44
396.576	411.44
396.801	416.44
397.025	387.44
397.249	396.44
397.474	395.44
397.698	407.44
397.922	415.44
398.147	445.44
398.371	443.44
398.595	426.44
398.82	422.44
399.044	452.44
399.268	455.44
399.492	462.44
399.717	480.44
399.941	484.44
400.165	530.44
400.389	520.44
400.613	487.44
400.837	445.44
401.062	459.44
401.286	426.44
401.51	435.44
401.734	444.44
401.958	446.44
402.182	443.44
402.406	447.44
402.63	462.44
402.854	453.44
403.078	427.44
403.302	461.44
403.526	451.44
403.75	467.44
403.974	443.44
404.198	492.44
404.422	469.44
404.645	473.44
404.869	508.44
405.093	557.44
405.317	603.44
405.541	632.44
405.765	565.44
405.988	517.44
406.212	524.44
406.436	531.44
406.66	512.44
406.883	532.44
407.107	533.44
407.331	550.44
407.555	626.44
407.778	609.44
408.002	550.44
408.226	517.44
408.449	504.44
408.673	531.44
408.896	525.44
409.12	577.44
409.344	548.44
409.567	486.44
409.791	480.44
410.014	462.44
410.238	445.44
410.461	455.44
410.685	458.44
410.908	483.44
411.132	530.44
411.355	561.44
411.578	521.44
411.802	495.44
412.025	481.44
412.249	498.44
412.472	537.44
412.695	636.44
412.919	647.44
413.142	566.44
413.365	519.44
413.589	495.44
413.812	468.44
414.035	487.44
414.258	457.44
414.482	461.44
414.705	438.44
414.928	441.44
415.151	447.44
415.374	424.44
415.597	437.44
415.821	452.44
416.044	440.44
416.267	451.44
416.49	441.44
416.713	439.44
416.936	468.44
417.159	448.44
417.382	437.44
417.605	473.44
417.828	464.44
418.051	487.44
418.274	458.44
418.497	457.44
418.72	439.44
418.943	424.44
419.166	466.44
419.389	489.44
419.611	474.44
419.834	486.44
420.057	498.44
420.28	539.44
420.503	541.44
420.726	531.44
420.948	520.44
421.171	563.44
421.394	573.44
421.617	528.44
421.839	480.44
422.062	474.44
422.285	464.44
422.507	539.44
422.73	620.44
422.953	588.44
423.175	500.44
423.398	502.44
423.621	477.44
423.843	504.44
424.066	507.44
424.288	498.44
424.511	532.44
424.733	580.44
424.956	637.44
425.178	614.44
425.401	623.44
425.623	643.44
425.846	520.44
426.068	543.44
426.291	498.44
426.513	505.44
426.735	545.44
426.958	583.44
427.18	635.44
427.402	756.44
427.625	833.44
427.847	777.44
428.069	714.44
428.292	646.44
428.514	567.44
428.736	547.44
428.958	511.44
429.181	476.44
429.403	485.44
429.625	489.44
429.847	534.44
430.069	584.44
430.292	573.44
430.514	508.44
430.736	472.44
430.958	468.44
431.18	463.44
431.402	442.44
431.624	451.44
431.846	445.44
432.068	443.44
432.29	423.44
432.512	427.44
432.734	453.44
432.956	453.44
433.178	460.44
433.4	455.44
433.622	443.44
433.844	424.44
434.066	427.44
434.287	436.44
434.509	420.44
434.731	443.44
434.953	448.44
435.175	469.44
435.397	490.44
435.618	500.44
435.84	555.44
436.062	656.44
436.284	733.44
436.505	596.44
436.727	523.44
436.949	497.44
437.17	472.44
437.392	471.44
437.614	507.44
437.835	528.44
438.057	577.44
438.278	719.44
438.5	728.44
438.721	765.44
438.943	742.44
439.165	608.44
439.386	539.44
439.608	526.44
439.829	519.44
440.05	563.44
440.272	587.44
440.493	572.44
440.715	515.44
440.936	499.44
441.158	473.44
441.379	469.44
441.6	496.44
441.822	499.44
442.043	566.44
442.264	627.44
442.486	656.44
442.707	551.44
442.928	541.44
443.149	525.44
443.371	560.44
443.592	590.44
443.813	682.44
444.034	724.44
444.255	589.44
444.476	532.44
444.698	518.44
444.919	499.44
445.14	584.44
445.361	569.44
445.582	535.44
445.803	618.44
446.024	711.44
446.245	736.44
446.466	663.44
446.687	569.44
446.908	524.44
447.129	490.44
447.35	476.44
447.571	483.44
447.792	460.44
448.013	477.44
448.234	505.44
448.455	576.44
448.675	647.44
448.896	741.44
449.117	659.44
449.338	608.44
449.559	724.44
449.779	796.44
450	652.44
450.221	538.44
450.442	477.44
450.662	463.44
450.883	467.44
451.104	491.44
451.324	470.44
451.545	470.44
451.766	437.44
451.986	435.44
452.207	426.44
452.428	441.44
452.648	412.44
452.869	415.44
453.089	424.44
453.31	443.44
453.53	437.44
453.751	422.44
453.971	433.44
454.192	436.44
454.412	428.44
454.633	447.44
454.853	419.44
455.073	410.44
455.294	443.44
455.514	513.44
455.734	520.44
455.955	436.44
456.175	432.44
456.395	404.44
456.616	385.44
456.836	401.44
457.056	383.44
457.276	371.44
457.497	385.44
457.717	403.44
457.937	415.44
458.157	416.44
458.377	418.44
458.598	412.44
458.818	475.44
459.038	562.44
459.258	589.44
459.478	488.44
459.698	457.44
459.918	440.44
460.138	441.44
460.358	431.44
460.578	420.44
460.798	423.44
461.018	418.44
461.238	421.44
461.458	440.44
461.678	421.44
461.898	451.44
462.118	441.44
462.338	420.44
462.558	429.44
462.777	432.44
462.997	465.44
463.217	447.44
463.437	463.44
463.657	451.44
463.876	450.44
464.096	448.44
464.316	435.44
464.536	464.44
464.755	446.44
464.975	443.44
465.195	492.44
465.414	589.44
465.634	516.44
465.854	467.44
466.073	466.44
466.293	436.44
466.512	421.44
466.732	441.44
466.951	425.44
467.171	433.44
467.391	428.44
467.61	456.44
467.829	459.44
468.049	491.44
468.268	560.44
468.488	491.44
468.707	457.44
468.927	456.44
469.146	441.44
469.365	423.44
469.585	418.44
469.804	453.44
470.023	460.44
470.243	464.44
470.462	455.44
470.681	469.44
470.901	456.44
471.12	447.44
471.339	452.44
471.558	488.44
471.777	449.44
471.997	464.44
472.216	541.44
472.435	773.44
472.654	730.44
472.873	564.44
473.092	529.44
473.311	511.44
473.53	493.44
473.749	509.44
473.968	533.44
474.187	627.44
474.406	647.44
474.625	536.44
474.844	490.44
475.063	482.44
475.282	450.44
475.501	471.44
475.72	484.44
475.939	471.44
476.158	447.44
476.377	451.44
476.596	462.44
476.814	481.44
477.033	469.44
477.252	477.44
477.471	486.44
477.69	483.44
477.908	466.44
478.127	478.44
478.346	478.44
478.564	478.44
478.783	492.44
479.002	501.44
479.22	529.44
479.439	523.44
479.658	541.44
479.876	549.44
480.095	551.44
480.313	579.44
480.532	596.44
480.751	596.44
480.969	650.44
481.188	1039.44
481.406	1319.44
481.624	902.44
481.843	723.44
482.061	661.44
482.28	640.44
482.498	599.44
482.717	578.44
482.935	568.44
483.153	579.44
483.372	556.44
483.59	563.44
483.808	565.44
484.027	557.44
484.245	553.44
484.463	553.44
484.681	559.44
484.9	554.44
485.118	547.44
485.336	543.44
485.554	559.44
485.772	551.44
485.99	561.44
486.209	577.44
486.427	570.44
486.645	607.44
486.863	612.44
487.081	607.44
487.299	599.44
487.517	592.44
487.735	599.44
487.953	595.44
488.171	580.44
488.389	583.44
488.607	599.44
488.825	614.44
489.043	579.44
489.261	595.44
489.479	599.44
489.696	617.44
489.914	612.44
490.132	634.44
490.35	627.44
490.568	654.44
490.786	648.44
491.003	665.44
491.221	682.44
491.439	695.44
491.657	717.44
491.874	737.44
492.092	732.44
492.31	740.44
492.527	747.44
492.745	771.44
492.963	758.44
493.18	768.44
493.398	740.44
493.615	745.44
493.833	741.44
494.05	728.44
494.268	730.44
494.485	735.44
494.703	721.44
494.92	724.44
495.138	745.44
495.355	733.44
495.573	713.44
495.79	717.44
496.008	736.44
496.225	735.44
496.442	725.44
496.66	719.44
496.877	713.44
497.094	733.44
497.312	699.44
497.529	728.44
497.746	725.44
497.963	732.44
498.181	746.44
498.398	736.44
498.615	736.44
498.832	730.44
499.049	727.44
499.267	745.44
499.484	760.44
499.701	777.44
499.918	776.44
500.135	803.44
500.352	823.44
500.569	824.44
500.786	839.44
501.003	858.44
501.22	825.44
501.437	839.44
501.654	786.44
501.871	789.44
