Data from 1986.PennyLincolnUp.Lamp.En5.5.200Scan.071819.P2_HRD10591_17-09-51-973.txt Node
Date: Thu Jul 18 17:09:51 EDT 2019
User: cochatt
Spectrometer: HR+D1059
Trigger mode: 1
Integration Time (sec): 1.000000E-1
Scans to average: 1
Electric dark correction enabled: true
Nonlinearity correction enabled: false
Boxcar width: 0
XAxis mode: Wavelengths
Number of Pixels in Spectrum: 2048
>>>>>Begin Spectral Data<<<<<
223.165	-10.94
223.4	-10.94
223.635	-10.94
223.869	-14.94
224.104	-13.94
224.338	-15.94
224.573	-18.94
224.808	-16.94
225.042	-4.94
225.277	2.06
225.511	2.06
225.746	1.06
225.98	15.06
226.215	-0.94
226.449	19.06
226.683	22.06
226.918	15.06
227.152	21.06
227.387	19.06
227.621	45.06
227.856	51.06
228.09	55.06
228.324	48.06
228.559	43.06
228.793	78.06
229.027	86.06
229.262	99.06
229.496	91.06
229.73	127.06
229.964	140.06
230.199	130.06
230.433	121.06
230.667	99.06
230.901	114.06
231.136	105.06
231.37	110.06
231.604	120.06
231.838	112.06
232.072	116.06
232.306	109.06
232.541	116.06
232.775	114.06
233.009	123.06
233.243	102.06
233.477	112.06
233.711	117.06
233.945	108.06
234.179	127.06
234.413	124.06
234.647	110.06
234.881	120.06
235.115	125.06
235.349	128.06
235.583	131.06
235.817	127.06
236.051	122.06
236.285	118.06
236.519	123.06
236.753	115.06
236.987	154.06
237.221	172.06
237.455	235.06
237.689	187.06
237.922	147.06
238.156	138.06
238.39	117.06
238.624	122.06
238.858	130.06
239.091	116.06
239.325	126.06
239.559	124.06
239.793	127.06
240.027	143.06
240.26	135.06
240.494	142.06
240.728	143.06
240.961	130.06
241.195	150.06
241.429	131.06
241.662	128.06
241.896	130.06
242.13	146.06
242.363	142.06
242.597	127.06
242.83	128.06
243.064	124.06
243.298	141.06
243.531	136.06
243.765	133.06
243.998	134.06
244.232	143.06
244.465	159.06
244.699	132.06
244.932	143.06
245.166	135.06
245.399	148.06
245.633	148.06
245.866	162.06
246.099	138.06
246.333	153.06
246.566	146.06
246.8	145.06
247.033	141.06
247.266	136.06
247.5	160.06
247.733	167.06
247.966	161.06
248.2	180.06
248.433	180.06
248.666	160.06
248.899	191.06
249.133	194.06
249.366	211.06
249.599	186.06
249.832	184.06
250.066	176.06
250.299	166.06
250.532	185.06
250.765	188.06
250.998	210.06
251.231	225.06
251.465	216.06
251.698	213.06
251.931	187.06
252.164	200.06
252.397	193.06
252.63	200.06
252.863	204.06
253.096	218.06
253.329	218.06
253.562	211.06
253.795	206.06
254.028	227.06
254.261	223.06
254.494	225.06
254.727	231.06
254.96	284.06
255.193	275.06
255.426	253.06
255.659	235.06
255.892	228.06
256.124	234.06
256.357	215.06
256.59	205.06
256.823	199.06
257.056	201.06
257.289	214.06
257.521	204.06
257.754	194.06
257.987	201.06
258.22	201.06
258.452	207.06
258.685	196.06
258.918	192.06
259.151	198.06
259.383	211.06
259.616	223.06
259.849	218.06
260.081	228.06
260.314	246.06
260.547	249.06
260.779	252.06
261.012	235.06
261.244	231.06
261.477	227.06
261.71	216.06
261.942	221.06
262.175	215.06
262.407	234.06
262.64	202.06
262.872	220.06
263.105	191.06
263.337	197.06
263.57	198.06
263.802	197.06
264.035	202.06
264.267	194.06
264.499	210.06
264.732	200.06
264.964	202.06
265.197	197.06
265.429	216.06
265.661	207.06
265.894	191.06
266.126	214.06
266.358	194.06
266.591	203.06
266.823	209.06
267.055	228.06
267.287	214.06
267.52	208.06
267.752	213.06
267.984	198.06
268.216	219.06
268.448	208.06
268.681	230.06
268.913	230.06
269.145	261.06
269.377	266.06
269.609	271.06
269.841	269.06
270.073	239.06
270.306	282.06
270.538	311.06
270.77	315.06
271.002	301.06
271.234	275.06
271.466	285.06
271.698	338.06
271.93	315.06
272.162	305.06
272.394	303.06
272.626	303.06
272.858	280.06
273.09	265.06
273.322	260.06
273.553	262.06
273.785	245.06
274.017	258.06
274.249	244.06
274.481	263.06
274.713	251.06
274.945	252.06
275.176	243.06
275.408	244.06
275.64	255.06
275.872	251.06
276.104	253.06
276.335	252.06
276.567	265.06
276.799	284.06
277.031	295.06
277.262	300.06
277.494	316.06
277.726	300.06
277.957	268.06
278.189	264.06
278.421	261.06
278.652	244.06
278.884	261.06
279.115	243.06
279.347	255.06
279.579	254.06
279.81	253.06
280.042	250.06
280.273	239.06
280.505	235.06
280.736	253.06
280.968	253.06
281.199	234.06
281.431	261.06
281.662	247.06
281.894	238.06
282.125	240.06
282.356	255.06
282.588	290.06
282.819	292.06
283.051	243.06
283.282	251.06
283.513	257.06
283.745	252.06
283.976	237.06
284.207	250.06
284.439	250.06
284.67	247.06
284.901	256.06
285.132	267.06
285.364	242.06
285.595	248.06
285.826	238.06
286.057	236.06
286.288	260.06
286.52	265.06
286.751	244.06
286.982	243.06
287.213	254.06
287.444	259.06
287.675	256.06
287.906	249.06
288.138	267.06
288.369	282.06
288.6	268.06
288.831	262.06
289.062	286.06
289.293	262.06
289.524	256.06
289.755	249.06
289.986	270.06
290.217	262.06
290.448	261.06
290.679	244.06
290.91	258.06
291.141	237.06
291.371	260.06
291.602	235.06
291.833	246.06
292.064	255.06
292.295	262.06
292.526	254.06
292.757	244.06
292.987	269.06
293.218	254.06
293.449	259.06
293.68	265.06
293.91	254.06
294.141	258.06
294.372	259.06
294.603	269.06
294.833	255.06
295.064	258.06
295.295	270.06
295.525	265.06
295.756	253.06
295.987	284.06
296.217	291.06
296.448	307.06
296.679	280.06
296.909	281.06
297.14	268.06
297.37	265.06
297.601	272.06
297.831	280.06
298.062	254.06
298.292	270.06
298.523	261.06
298.753	268.06
298.984	258.06
299.214	268.06
299.445	272.06
299.675	286.06
299.905	243.06
300.136	288.06
300.366	263.06
300.597	285.06
300.827	272.06
301.057	290.06
301.288	292.06
301.518	283.06
301.748	291.06
301.979	272.06
302.209	285.06
302.439	278.06
302.669	293.06
302.9	265.06
303.13	288.06
303.36	294.06
303.59	301.06
303.82	298.06
304.051	301.06
304.281	285.06
304.511	288.06
304.741	300.06
304.971	289.06
305.201	305.06
305.431	302.06
305.661	296.06
305.891	288.06
306.121	290.06
306.352	301.06
306.582	314.06
306.812	300.06
307.042	291.06
307.272	280.06
307.502	298.06
307.731	301.06
307.961	294.06
308.191	281.06
308.421	289.06
308.651	285.06
308.881	302.06
309.111	306.06
309.341	290.06
309.571	310.06
309.8	313.06
310.03	320.06
310.26	345.06
310.49	334.06
310.72	339.06
310.949	363.06
311.179	364.06
311.409	351.06
311.639	338.06
311.868	341.06
312.098	342.06
312.328	348.06
312.557	365.06
312.787	378.06
313.017	375.06
313.246	359.06
313.476	353.06
313.706	331.06
313.935	334.06
314.165	357.06
314.394	374.06
314.624	354.06
314.853	357.06
315.083	345.06
315.312	330.06
315.542	354.06
315.771	318.06
316.001	315.06
316.23	344.06
316.46	333.06
316.689	329.06
316.919	341.06
317.148	343.06
317.377	360.06
317.607	337.06
317.836	342.06
318.065	327.06
318.295	335.06
318.524	347.06
318.753	331.06
318.983	321.06
319.212	327.06
319.441	331.06
319.67	353.06
319.9	351.06
320.129	339.06
320.358	332.06
320.587	354.06
320.816	376.06
321.046	354.06
321.275	363.06
321.504	356.06
321.733	354.06
321.962	379.06
322.191	383.06
322.42	392.06
322.649	409.06
322.878	434.06
323.108	418.06
323.337	422.06
323.566	463.06
323.795	503.06
324.024	546.06
324.253	649.06
324.482	952.06
324.71	1417.06
324.939	1951.06
325.168	1764.06
325.397	950.06
325.626	605.06
325.855	540.06
326.084	485.06
326.313	474.06
326.542	467.06
326.77	503.06
326.999	597.06
327.228	827.06
327.457	1238.06
327.686	1513.06
327.914	1026.06
328.143	688.06
328.372	598.06
328.6	562.06
328.829	524.06
329.058	540.06
329.287	550.06
329.515	499.06
329.744	476.06
329.972	462.06
330.201	440.06
330.43	480.06
330.658	534.06
330.887	560.06
331.115	554.06
331.344	480.06
331.572	446.06
331.801	435.06
332.03	435.06
332.258	420.06
332.486	390.06
332.715	403.06
332.943	399.06
333.172	389.06
333.4	399.06
333.629	426.06
333.857	406.06
334.085	420.06
334.314	384.06
334.542	378.06
334.771	394.06
334.999	375.06
335.227	392.06
335.455	391.06
335.684	387.06
335.912	373.06
336.14	378.06
336.369	360.06
336.597	390.06
336.825	397.06
337.053	380.06
337.281	381.06
337.51	375.06
337.738	387.06
337.966	403.06
338.194	380.06
338.422	378.06
338.65	377.06
338.878	366.06
339.106	384.06
339.334	369.06
339.562	370.06
339.79	371.06
340.018	394.06
340.246	386.06
340.474	386.06
340.702	382.06
340.93	375.06
341.158	348.06
341.386	385.06
341.614	367.06
341.842	368.06
342.07	377.06
342.298	377.06
342.526	352.06
342.754	340.06
342.981	356.06
343.209	379.06
343.437	380.06
343.665	363.06
343.893	374.06
344.12	386.06
344.348	381.06
344.576	381.06
344.804	391.06
345.031	391.06
345.259	402.06
345.487	360.06
345.714	384.06
345.942	370.06
346.17	368.06
346.397	372.06
346.625	353.06
346.853	357.06
347.08	364.06
347.308	357.06
347.535	345.06
347.763	382.06
347.99	386.06
348.218	382.06
348.445	386.06
348.673	379.06
348.9	353.06
349.128	370.06
349.355	357.06
349.583	346.06
349.81	345.06
350.037	341.06
350.265	342.06
350.492	367.06
350.72	364.06
350.947	360.06
351.174	359.06
351.402	371.06
351.629	382.06
351.856	358.06
352.083	376.06
352.311	390.06
352.538	386.06
352.765	406.06
352.992	357.06
353.22	380.06
353.447	355.06
353.674	380.06
353.901	336.06
354.128	356.06
354.355	347.06
354.583	348.06
354.81	339.06
355.037	323.06
355.264	332.06
355.491	323.06
355.718	335.06
355.945	325.06
356.172	324.06
356.399	318.06
356.626	342.06
356.853	312.06
357.08	323.06
357.307	329.06
357.534	327.06
357.761	339.06
357.988	352.06
358.215	326.06
358.441	322.06
358.668	333.06
358.895	346.06
359.122	340.06
359.349	350.06
359.576	346.06
359.802	390.06
360.029	406.06
360.256	422.06
360.483	419.06
360.709	385.06
360.936	366.06
361.163	370.06
361.39	372.06
361.616	362.06
361.843	357.06
362.07	354.06
362.296	373.06
362.523	358.06
362.749	369.06
362.976	377.06
363.203	355.06
363.429	356.06
363.656	362.06
363.882	354.06
364.109	351.06
364.335	340.06
364.562	343.06
364.788	348.06
365.015	344.06
365.241	334.06
365.468	349.06
365.694	360.06
365.92	340.06
366.147	349.06
366.373	337.06
366.599	332.06
366.826	342.06
367.052	342.06
367.278	333.06
367.505	341.06
367.731	357.06
367.957	342.06
368.184	335.06
368.41	356.06
368.636	354.06
368.862	375.06
369.089	366.06
369.315	333.06
369.541	340.06
369.767	350.06
369.993	350.06
370.219	343.06
370.445	355.06
370.672	344.06
370.898	346.06
371.124	337.06
371.35	334.06
371.576	333.06
371.802	340.06
372.028	342.06
372.254	321.06
372.48	333.06
372.706	359.06
372.932	350.06
373.158	333.06
373.384	365.06
373.61	329.06
373.835	355.06
374.061	333.06
374.287	351.06
374.513	338.06
374.739	338.06
374.965	351.06
375.191	346.06
375.416	350.06
375.642	342.06
375.868	348.06
376.094	313.06
376.319	340.06
376.545	345.06
376.771	342.06
376.997	322.06
377.222	322.06
377.448	354.06
377.674	340.06
377.899	317.06
378.125	324.06
378.35	326.06
378.576	343.06
378.802	320.06
379.027	320.06
379.253	325.06
379.478	330.06
379.704	331.06
379.929	335.06
380.155	346.06
380.38	360.06
380.606	354.06
380.831	317.06
381.057	335.06
381.282	322.06
381.507	328.06
381.733	336.06
381.958	331.06
382.184	352.06
382.409	344.06
382.634	336.06
382.86	326.06
383.085	346.06
383.31	350.06
383.535	372.06
383.761	350.06
383.986	322.06
384.211	325.06
384.436	341.06
384.662	362.06
384.887	361.06
385.112	354.06
385.337	335.06
385.562	341.06
385.787	351.06
386.013	360.06
386.238	374.06
386.463	355.06
386.688	367.06
386.913	360.06
387.138	355.06
387.363	357.06
387.588	349.06
387.813	345.06
388.038	347.06
388.263	352.06
388.488	350.06
388.713	359.06
388.938	364.06
389.163	344.06
389.387	360.06
389.612	355.06
389.837	341.06
390.062	326.06
390.287	355.06
390.512	352.06
390.736	349.06
390.961	349.06
391.186	349.06
391.411	348.06
391.636	358.06
391.86	347.06
392.085	349.06
392.31	365.06
392.534	371.06
392.759	365.06
392.984	351.06
393.208	363.06
393.433	383.06
393.658	384.06
393.882	343.06
394.107	363.06
394.331	364.06
394.556	352.06
394.78	356.06
395.005	358.06
395.229	346.06
395.454	350.06
395.678	373.06
395.903	380.06
396.127	376.06
396.352	415.06
396.576	377.06
396.801	380.06
397.025	363.06
397.249	358.06
397.474	379.06
397.698	370.06
397.922	382.06
398.147	403.06
398.371	395.06
398.595	380.06
398.82	376.06
399.044	412.06
399.268	407.06
399.492	414.06
399.717	443.06
399.941	436.06
400.165	475.06
400.389	504.06
400.613	445.06
400.837	431.06
401.062	399.06
401.286	406.06
401.51	404.06
401.734	392.06
401.958	398.06
402.182	383.06
402.406	406.06
402.63	407.06
402.854	403.06
403.078	412.06
403.302	411.06
403.526	410.06
403.75	410.06
403.974	391.06
404.198	399.06
404.422	403.06
404.645	387.06
404.869	391.06
405.093	416.06
405.317	440.06
405.541	489.06
405.765	439.06
405.988	415.06
406.212	438.06
406.436	459.06
406.66	485.06
406.883	475.06
407.107	469.06
407.331	467.06
407.555	565.06
407.778	558.06
408.002	506.06
408.226	462.06
408.449	459.06
408.673	468.06
408.896	488.06
409.12	533.06
409.344	483.06
409.567	430.06
409.791	425.06
410.014	420.06
410.238	407.06
410.461	410.06
410.685	437.06
410.908	428.06
411.132	456.06
411.355	492.06
411.578	480.06
411.802	444.06
412.025	410.06
412.249	396.06
412.472	395.06
412.695	395.06
412.919	395.06
413.142	426.06
413.365	374.06
413.589	378.06
413.812	386.06
414.035	395.06
414.258	387.06
414.482	377.06
414.705	390.06
414.928	380.06
415.151	376.06
415.374	372.06
415.597	392.06
415.821	395.06
416.044	386.06
416.267	393.06
416.49	380.06
416.713	404.06
416.936	383.06
417.159	399.06
417.382	397.06
417.605	395.06
417.828	380.06
418.051	406.06
418.274	428.06
418.497	396.06
418.72	391.06
418.943	377.06
419.166	421.06
419.389	420.06
419.611	406.06
419.834	419.06
420.057	423.06
420.28	432.06
420.503	409.06
420.726	391.06
420.948	403.06
421.171	457.06
421.394	502.06
421.617	442.06
421.839	414.06
422.062	412.06
422.285	443.06
422.507	486.06
422.73	540.06
422.953	546.06
423.175	469.06
423.398	446.06
423.621	444.06
423.843	443.06
424.066	479.06
424.288	477.06
424.511	473.06
424.733	522.06
424.956	596.06
425.178	574.06
425.401	550.06
425.623	584.06
425.846	519.06
426.068	484.06
426.291	453.06
426.513	482.06
426.735	474.06
426.958	499.06
427.18	599.06
427.402	686.06
427.625	782.06
427.847	664.06
428.069	602.06
428.292	508.06
428.514	472.06
428.736	468.06
428.958	439.06
429.181	440.06
429.403	428.06
429.625	420.06
429.847	456.06
430.069	534.06
430.292	514.06
430.514	449.06
430.736	446.06
430.958	420.06
431.18	406.06
431.402	412.06
431.624	398.06
431.846	389.06
432.068	392.06
432.29	403.06
432.512	407.06
432.734	411.06
432.956	408.06
433.178	441.06
433.4	423.06
433.622	399.06
433.844	412.06
434.066	414.06
434.287	395.06
434.509	389.06
434.731	401.06
434.953	415.06
435.175	433.06
435.397	473.06
435.618	456.06
435.84	520.06
436.062	590.06
436.284	646.06
436.505	534.06
436.727	478.06
436.949	445.06
437.17	440.06
437.392	436.06
437.614	443.06
437.835	494.06
438.057	583.06
438.278	670.06
438.5	666.06
438.721	716.06
438.943	668.06
439.165	560.06
439.386	504.06
439.608	486.06
439.829	471.06
440.05	515.06
440.272	548.06
440.493	493.06
440.715	451.06
440.936	451.06
441.158	432.06
441.379	445.06
441.6	436.06
441.822	463.06
442.043	502.06
442.264	568.06
442.486	626.06
442.707	521.06
442.928	495.06
443.149	482.06
443.371	512.06
443.592	564.06
443.813	626.06
444.034	678.06
444.255	548.06
444.476	509.06
444.698	486.06
444.919	466.06
445.14	606.06
445.361	519.06
445.582	508.06
445.803	539.06
446.024	631.06
446.245	698.06
446.466	616.06
446.687	507.06
446.908	483.06
447.129	454.06
447.35	439.06
447.571	422.06
447.792	434.06
448.013	438.06
448.234	453.06
448.455	504.06
448.675	611.06
448.896	679.06
449.117	588.06
449.338	562.06
449.559	666.06
449.779	735.06
450	587.06
450.221	504.06
450.442	456.06
450.662	435.06
450.883	449.06
451.104	448.06
451.324	454.06
451.545	416.06
451.766	416.06
451.986	388.06
452.207	383.06
452.428	381.06
452.648	393.06
452.869	388.06
453.089	406.06
453.31	419.06
453.53	392.06
453.751	397.06
453.971	398.06
454.192	401.06
454.412	398.06
454.633	398.06
454.853	401.06
455.073	379.06
455.294	424.06
455.514	472.06
455.734	468.06
455.955	380.06
456.175	377.06
456.395	365.06
456.616	342.06
456.836	356.06
457.056	357.06
457.276	365.06
457.497	356.06
457.717	353.06
457.937	370.06
458.157	357.06
458.377	378.06
458.598	401.06
458.818	449.06
459.038	522.06
459.258	521.06
459.478	469.06
459.698	401.06
459.918	410.06
460.138	371.06
460.358	385.06
460.578	378.06
460.798	410.06
461.018	402.06
461.238	376.06
461.458	377.06
461.678	380.06
461.898	404.06
462.118	379.06
462.338	399.06
462.558	417.06
462.777	394.06
462.997	397.06
463.217	412.06
463.437	419.06
463.657	425.06
463.876	407.06
464.096	436.06
464.316	404.06
464.536	416.06
464.755	409.06
464.975	418.06
465.195	467.06
465.414	565.06
465.634	455.06
465.854	439.06
466.073	405.06
466.293	395.06
466.512	363.06
466.732	389.06
466.951	392.06
467.171	378.06
467.391	394.06
467.61	396.06
467.829	404.06
468.049	407.06
468.268	382.06
468.488	381.06
468.707	379.06
468.927	379.06
469.146	391.06
469.365	379.06
469.585	396.06
469.804	392.06
470.023	399.06
470.243	412.06
470.462	386.06
470.681	408.06
470.901	409.06
471.12	401.06
471.339	394.06
471.558	398.06
471.777	399.06
471.997	381.06
472.216	379.06
472.435	379.06
472.654	396.06
472.873	374.06
473.092	389.06
473.311	381.06
473.53	392.06
473.749	407.06
473.968	452.06
474.187	554.06
474.406	554.06
474.625	461.06
474.844	420.06
475.063	405.06
475.282	410.06
475.501	414.06
475.72	383.06
475.939	390.06
476.158	419.06
476.377	397.06
476.596	402.06
476.814	414.06
477.033	423.06
477.252	419.06
477.471	423.06
477.69	430.06
477.908	428.06
478.127	420.06
478.346	442.06
478.564	434.06
478.783	453.06
479.002	440.06
479.22	449.06
479.439	468.06
479.658	459.06
479.876	479.06
480.095	463.06
480.313	503.06
480.532	480.06
480.751	467.06
480.969	491.06
481.188	463.06
481.406	483.06
481.624	454.06
481.843	473.06
482.061	456.06
482.28	460.06
482.498	459.06
482.717	427.06
482.935	473.06
483.153	466.06
483.372	467.06
483.59	461.06
483.808	464.06
484.027	457.06
484.245	478.06
484.463	455.06
484.681	464.06
484.9	482.06
485.118	463.06
485.336	450.06
485.554	476.06
485.772	481.06
485.99	484.06
486.209	489.06
486.427	494.06
486.645	481.06
486.863	501.06
487.081	504.06
487.299	499.06
487.517	503.06
487.735	485.06
487.953	501.06
488.171	495.06
488.389	516.06
488.607	500.06
488.825	523.06
489.043	480.06
489.261	486.06
489.479	508.06
489.696	489.06
489.914	519.06
490.132	523.06
490.35	522.06
490.568	510.06
490.786	523.06
491.003	557.06
491.221	542.06
491.439	568.06
491.657	565.06
491.874	547.06
492.092	583.06
492.31	595.06
492.527	584.06
492.745	593.06
492.963	586.06
493.18	583.06
493.398	604.06
493.615	589.06
493.833	576.06
494.05	591.06
494.268	573.06
494.485	605.06
494.703	597.06
494.92	587.06
495.138	612.06
495.355	603.06
495.573	599.06
495.79	617.06
496.008	604.06
496.225	603.06
496.442	606.06
496.66	591.06
496.877	606.06
497.094	612.06
497.312	598.06
497.529	626.06
497.746	628.06
497.963	647.06
498.181	655.06
498.398	663.06
498.615	629.06
498.832	677.06
499.049	642.06
499.267	649.06
499.484	686.06
499.701	702.06
499.918	699.06
500.135	707.06
500.352	735.06
500.569	740.06
500.786	756.06
501.003	739.06
501.22	774.06
501.437	772.06
501.654	722.06
501.871	702.06
502.088	711.06
