Data from 1986.PennyLincolnUp.Lamp.En5.5.200Scan.071819.P1_HRD10591_17-08-30-973.txt Node
Date: Thu Jul 18 17:08:30 EDT 2019
User: cochatt
Spectrometer: HR+D1059
Trigger mode: 1
Integration Time (sec): 1.000000E-1
Scans to average: 1
Electric dark correction enabled: true
Nonlinearity correction enabled: false
Boxcar width: 0
XAxis mode: Wavelengths
Number of Pixels in Spectrum: 2048
>>>>>Begin Spectral Data<<<<<
223.165	-4.81
223.4	-4.81
223.635	-4.81
223.869	-15.81
224.104	-7.81
224.338	-32.81
224.573	-11.81
224.808	-19.81
225.042	-0.81
225.277	7.19
225.511	-6.81
225.746	10.19
225.98	7.19
226.215	13.19
226.449	17.19
226.683	4.19
226.918	22.19
227.152	19.19
227.387	34.19
227.621	28.19
227.856	40.19
228.09	27.19
228.324	57.19
228.559	54.19
228.793	64.19
229.027	73.19
229.262	99.19
229.496	95.19
229.73	107.19
229.964	118.19
230.199	104.19
230.433	120.19
230.667	113.19
230.901	103.19
231.136	109.19
231.37	104.19
231.604	113.19
231.838	91.19
232.072	93.19
232.306	112.19
232.541	102.19
232.775	115.19
233.009	88.19
233.243	122.19
233.477	113.19
233.711	88.19
233.945	111.19
234.179	98.19
234.413	106.19
234.647	115.19
234.881	105.19
235.115	95.19
235.349	102.19
235.583	100.19
235.817	115.19
236.051	123.19
236.285	121.19
236.519	96.19
236.753	115.19
236.987	110.19
237.221	139.19
237.455	175.19
237.689	132.19
237.922	127.19
238.156	116.19
238.39	111.19
238.624	117.19
238.858	109.19
239.091	96.19
239.325	110.19
239.559	115.19
239.793	110.19
240.027	111.19
240.26	121.19
240.494	121.19
240.728	127.19
240.961	126.19
241.195	113.19
241.429	124.19
241.662	107.19
241.896	118.19
242.13	123.19
242.363	120.19
242.597	109.19
242.83	126.19
243.064	116.19
243.298	119.19
243.531	107.19
243.765	110.19
243.998	111.19
244.232	129.19
244.465	125.19
244.699	124.19
244.932	137.19
245.166	123.19
245.399	128.19
245.633	123.19
245.866	132.19
246.099	135.19
246.333	128.19
246.566	132.19
246.8	143.19
247.033	139.19
247.266	131.19
247.5	139.19
247.733	145.19
247.966	145.19
248.2	149.19
248.433	135.19
248.666	150.19
248.899	156.19
249.133	158.19
249.366	181.19
249.599	160.19
249.832	148.19
250.066	144.19
250.299	145.19
250.532	159.19
250.765	159.19
250.998	152.19
251.231	172.19
251.465	166.19
251.698	159.19
251.931	148.19
252.164	147.19
252.397	148.19
252.63	171.19
252.863	167.19
253.096	159.19
253.329	168.19
253.562	170.19
253.795	178.19
254.028	176.19
254.261	181.19
254.494	182.19
254.727	188.19
254.96	217.19
255.193	184.19
255.426	184.19
255.659	169.19
255.892	175.19
256.124	182.19
256.357	174.19
256.59	180.19
256.823	169.19
257.056	171.19
257.289	181.19
257.521	175.19
257.754	164.19
257.987	169.19
258.22	177.19
258.452	175.19
258.685	176.19
258.918	167.19
259.151	171.19
259.383	199.19
259.616	180.19
259.849	172.19
260.081	196.19
260.314	191.19
260.547	195.19
260.779	185.19
261.012	196.19
261.244	187.19
261.477	186.19
261.71	188.19
261.942	172.19
262.175	182.19
262.407	195.19
262.64	170.19
262.872	172.19
263.105	170.19
263.337	175.19
263.57	166.19
263.802	165.19
264.035	179.19
264.267	171.19
264.499	183.19
264.732	166.19
264.964	179.19
265.197	167.19
265.429	184.19
265.661	181.19
265.894	183.19
266.126	179.19
266.358	162.19
266.591	185.19
266.823	188.19
267.055	192.19
267.287	183.19
267.52	185.19
267.752	202.19
267.984	191.19
268.216	187.19
268.448	194.19
268.681	195.19
268.913	197.19
269.145	197.19
269.377	226.19
269.609	212.19
269.841	200.19
270.073	212.19
270.306	219.19
270.538	248.19
270.77	236.19
271.002	228.19
271.234	213.19
271.466	229.19
271.698	236.19
271.93	225.19
272.162	237.19
272.394	218.19
272.626	231.19
272.858	195.19
273.09	222.19
273.322	223.19
273.553	193.19
273.785	199.19
274.017	201.19
274.249	205.19
274.481	205.19
274.713	208.19
274.945	203.19
275.176	215.19
275.408	208.19
275.64	216.19
275.872	220.19
276.104	219.19
276.335	219.19
276.567	225.19
276.799	237.19
277.031	243.19
277.262	246.19
277.494	247.19
277.726	253.19
277.957	225.19
278.189	246.19
278.421	197.19
278.652	209.19
278.884	216.19
279.115	211.19
279.347	229.19
279.579	187.19
279.81	209.19
280.042	226.19
280.273	223.19
280.505	227.19
280.736	233.19
280.968	210.19
281.199	213.19
281.431	208.19
281.662	205.19
281.894	212.19
282.125	212.19
282.356	223.19
282.588	244.19
282.819	229.19
283.051	222.19
283.282	223.19
283.513	227.19
283.745	227.19
283.976	236.19
284.207	236.19
284.439	215.19
284.67	223.19
284.901	243.19
285.132	235.19
285.364	232.19
285.595	230.19
285.826	218.19
286.057	235.19
286.288	231.19
286.52	225.19
286.751	249.19
286.982	231.19
287.213	233.19
287.444	237.19
287.675	224.19
287.906	246.19
288.138	251.19
288.369	232.19
288.6	247.19
288.831	236.19
289.062	225.19
289.293	238.19
289.524	254.19
289.755	238.19
289.986	231.19
290.217	238.19
290.448	226.19
290.679	220.19
290.91	247.19
291.141	223.19
291.371	247.19
291.602	228.19
291.833	263.19
292.064	246.19
292.295	244.19
292.526	259.19
292.757	264.19
292.987	239.19
293.218	232.19
293.449	238.19
293.68	245.19
293.91	231.19
294.141	236.19
294.372	226.19
294.603	237.19
294.833	245.19
295.064	213.19
295.295	267.19
295.525	243.19
295.756	257.19
295.987	265.19
296.217	269.19
296.448	279.19
296.679	251.19
296.909	239.19
297.14	236.19
297.37	247.19
297.601	257.19
297.831	244.19
298.062	238.19
298.292	246.19
298.523	273.19
298.753	257.19
298.984	239.19
299.214	249.19
299.445	256.19
299.675	271.19
299.905	261.19
300.136	252.19
300.366	272.19
300.597	274.19
300.827	273.19
301.057	277.19
301.288	271.19
301.518	269.19
301.748	279.19
301.979	268.19
302.209	269.19
302.439	285.19
302.669	269.19
302.9	277.19
303.13	281.19
303.36	277.19
303.59	267.19
303.82	267.19
304.051	280.19
304.281	265.19
304.511	276.19
304.741	289.19
304.971	290.19
305.201	261.19
305.431	280.19
305.661	273.19
305.891	241.19
306.121	264.19
306.352	271.19
306.582	277.19
306.812	271.19
307.042	283.19
307.272	287.19
307.502	287.19
307.731	289.19
307.961	279.19
308.191	272.19
308.421	283.19
308.651	298.19
308.881	285.19
309.111	285.19
309.341	292.19
309.571	299.19
309.8	299.19
310.03	301.19
310.26	299.19
310.49	315.19
310.72	297.19
310.949	316.19
311.179	307.19
311.409	306.19
311.639	299.19
311.868	291.19
312.098	295.19
312.328	300.19
312.557	293.19
312.787	300.19
313.017	317.19
313.246	315.19
313.476	305.19
313.706	307.19
313.935	297.19
314.165	324.19
314.394	297.19
314.624	315.19
314.853	310.19
315.083	319.19
315.312	316.19
315.542	302.19
315.771	323.19
316.001	297.19
316.23	305.19
316.46	305.19
316.689	305.19
316.919	310.19
317.148	311.19
317.377	304.19
317.607	313.19
317.836	295.19
318.065	310.19
318.295	291.19
318.524	295.19
318.753	318.19
318.983	289.19
319.212	295.19
319.441	291.19
319.67	313.19
319.9	327.19
320.129	286.19
320.358	329.19
320.587	319.19
320.816	324.19
321.046	323.19
321.275	313.19
321.504	327.19
321.733	334.19
321.962	323.19
322.191	325.19
322.42	341.19
322.649	351.19
322.878	358.19
323.108	355.19
323.337	347.19
323.566	366.19
323.795	407.19
324.024	416.19
324.253	474.19
324.482	652.19
324.71	955.19
324.939	1349.19
325.168	1126.19
325.397	615.19
325.626	430.19
325.855	388.19
326.084	375.19
326.313	378.19
326.542	379.19
326.77	416.19
326.999	456.19
327.228	628.19
327.457	858.19
327.686	1035.19
327.914	683.19
328.143	505.19
328.372	459.19
328.6	425.19
328.829	421.19
329.058	411.19
329.287	417.19
329.515	424.19
329.744	379.19
329.972	396.19
330.201	413.19
330.43	465.19
330.658	463.19
330.887	461.19
331.115	438.19
331.344	389.19
331.572	389.19
331.801	377.19
332.03	384.19
332.258	396.19
332.486	378.19
332.715	360.19
332.943	346.19
333.172	385.19
333.4	377.19
333.629	397.19
333.857	387.19
334.085	427.19
334.314	443.19
334.542	472.19
334.771	455.19
334.999	429.19
335.227	408.19
335.455	373.19
335.684	371.19
335.912	377.19
336.14	359.19
336.369	352.19
336.597	372.19
336.825	356.19
337.053	345.19
337.281	340.19
337.51	339.19
337.738	337.19
337.966	361.19
338.194	353.19
338.422	343.19
338.65	366.19
338.878	351.19
339.106	360.19
339.334	364.19
339.562	352.19
339.79	347.19
340.018	342.19
340.246	350.19
340.474	366.19
340.702	348.19
340.93	349.19
341.158	334.19
341.386	337.19
341.614	330.19
341.842	338.19
342.07	364.19
342.298	341.19
342.526	336.19
342.754	323.19
342.981	325.19
343.209	331.19
343.437	350.19
343.665	336.19
343.893	362.19
344.12	370.19
344.348	343.19
344.576	366.19
344.804	349.19
345.031	341.19
345.259	336.19
345.487	349.19
345.714	343.19
345.942	336.19
346.17	336.19
346.397	325.19
346.625	323.19
346.853	320.19
347.08	329.19
347.308	305.19
347.535	341.19
347.763	341.19
347.99	331.19
348.218	331.19
348.445	352.19
348.673	329.19
348.9	335.19
349.128	312.19
349.355	334.19
349.583	319.19
349.81	319.19
350.037	336.19
350.265	331.19
350.492	318.19
350.72	313.19
350.947	324.19
351.174	323.19
351.402	337.19
351.629	337.19
351.856	345.19
352.083	311.19
352.311	345.19
352.538	318.19
352.765	336.19
352.992	342.19
353.22	333.19
353.447	326.19
353.674	315.19
353.901	313.19
354.128	318.19
354.355	325.19
354.583	312.19
354.81	316.19
355.037	304.19
355.264	321.19
355.491	318.19
355.718	319.19
355.945	308.19
356.172	303.19
356.399	313.19
356.626	307.19
356.853	300.19
357.08	298.19
357.307	315.19
357.534	320.19
357.761	318.19
357.988	316.19
358.215	317.19
358.441	307.19
358.668	315.19
358.895	311.19
359.122	317.19
359.349	315.19
359.576	326.19
359.802	341.19
360.029	336.19
360.256	359.19
360.483	356.19
360.709	327.19
360.936	320.19
361.163	316.19
361.39	330.19
361.616	346.19
361.843	304.19
362.07	307.19
362.296	329.19
362.523	304.19
362.749	298.19
362.976	313.19
363.203	298.19
363.429	315.19
363.656	317.19
363.882	305.19
364.109	321.19
364.335	319.19
364.562	331.19
364.788	304.19
365.015	320.19
365.241	304.19
365.468	302.19
365.694	326.19
365.92	317.19
366.147	320.19
366.373	321.19
366.599	307.19
366.826	324.19
367.052	313.19
367.278	325.19
367.505	329.19
367.731	324.19
367.957	328.19
368.184	310.19
368.41	332.19
368.636	317.19
368.862	325.19
369.089	325.19
369.315	311.19
369.541	310.19
369.767	315.19
369.993	312.19
370.219	311.19
370.445	313.19
370.672	310.19
370.898	307.19
371.124	325.19
371.35	317.19
371.576	329.19
371.802	308.19
372.028	330.19
372.254	316.19
372.48	314.19
372.706	320.19
372.932	329.19
373.158	296.19
373.384	320.19
373.61	311.19
373.835	329.19
374.061	326.19
374.287	315.19
374.513	310.19
374.739	333.19
374.965	320.19
375.191	308.19
375.416	327.19
375.642	283.19
375.868	310.19
376.094	323.19
376.319	320.19
376.545	319.19
376.771	296.19
376.997	336.19
377.222	317.19
377.448	314.19
377.674	328.19
377.899	314.19
378.125	305.19
378.35	313.19
378.576	321.19
378.802	309.19
379.027	321.19
379.253	326.19
379.478	307.19
379.704	318.19
379.929	323.19
380.155	313.19
380.38	296.19
380.606	312.19
380.831	318.19
381.057	323.19
381.282	328.19
381.507	313.19
381.733	324.19
381.958	317.19
382.184	310.19
382.409	314.19
382.634	301.19
382.86	311.19
383.085	319.19
383.31	319.19
383.535	339.19
383.761	342.19
383.986	307.19
384.211	325.19
384.436	337.19
384.662	331.19
384.887	329.19
385.112	338.19
385.337	323.19
385.562	356.19
385.787	351.19
386.013	368.19
386.238	349.19
386.463	362.19
386.688	341.19
386.913	344.19
387.138	336.19
387.363	344.19
387.588	334.19
387.813	329.19
388.038	364.19
388.263	329.19
388.488	360.19
388.713	343.19
388.938	353.19
389.163	367.19
389.387	347.19
389.612	345.19
389.837	358.19
390.062	333.19
390.287	354.19
390.512	347.19
390.736	351.19
390.961	337.19
391.186	349.19
391.411	347.19
391.636	358.19
391.86	358.19
392.085	360.19
392.31	356.19
392.534	353.19
392.759	365.19
392.984	333.19
393.208	337.19
393.433	347.19
393.658	361.19
393.882	361.19
394.107	356.19
394.331	355.19
394.556	361.19
394.78	349.19
395.005	339.19
395.229	345.19
395.454	345.19
395.678	351.19
395.903	381.19
396.127	356.19
396.352	375.19
396.576	383.19
396.801	389.19
397.025	377.19
397.249	367.19
397.474	383.19
397.698	377.19
397.922	364.19
398.147	393.19
398.371	381.19
398.595	397.19
398.82	391.19
399.044	407.19
399.268	460.19
399.492	445.19
399.717	477.19
399.941	505.19
400.165	464.19
400.389	511.19
400.613	452.19
400.837	437.19
401.062	411.19
401.286	396.19
401.51	401.19
401.734	405.19
401.958	411.19
402.182	412.19
402.406	428.19
402.63	403.19
402.854	420.19
403.078	404.19
403.302	416.19
403.526	438.19
403.75	425.19
403.974	419.19
404.198	432.19
404.422	419.19
404.645	422.19
404.869	449.19
405.093	463.19
405.317	436.19
405.541	459.19
405.765	441.19
405.988	435.19
406.212	447.19
406.436	460.19
406.66	459.19
406.883	455.19
407.107	470.19
407.331	480.19
407.555	538.19
407.778	518.19
408.002	495.19
408.226	443.19
408.449	470.19
408.673	450.19
408.896	447.19
409.12	483.19
409.344	470.19
409.567	428.19
409.791	423.19
410.014	432.19
410.238	398.19
410.461	421.19
410.685	422.19
410.908	429.19
411.132	455.19
411.355	475.19
411.578	445.19
411.802	439.19
412.025	433.19
412.249	421.19
412.472	439.19
412.695	427.19
412.919	429.19
413.142	413.19
413.365	406.19
413.589	416.19
413.812	417.19
414.035	417.19
414.258	413.19
414.482	412.19
414.705	424.19
414.928	413.19
415.151	407.19
415.374	412.19
415.597	379.19
415.821	406.19
416.044	405.19
416.267	423.19
416.49	416.19
416.713	398.19
416.936	409.19
417.159	389.19
417.382	400.19
417.605	402.19
417.828	417.19
418.051	428.19
418.274	408.19
418.497	401.19
418.72	412.19
418.943	411.19
419.166	447.19
419.389	453.19
419.611	441.19
419.834	426.19
420.057	419.19
420.28	438.19
420.503	421.19
420.726	420.19
420.948	433.19
421.171	464.19
421.394	480.19
421.617	443.19
421.839	426.19
422.062	427.19
422.285	425.19
422.507	460.19
422.73	493.19
422.953	499.19
423.175	451.19
423.398	449.19
423.621	453.19
423.843	464.19
424.066	450.19
424.288	468.19
424.511	465.19
424.733	510.19
424.956	527.19
425.178	547.19
425.401	511.19
425.623	513.19
425.846	443.19
426.068	458.19
426.291	436.19
426.513	431.19
426.735	473.19
426.958	470.19
427.18	521.19
427.402	580.19
427.625	632.19
427.847	539.19
428.069	504.19
428.292	470.19
428.514	445.19
428.736	437.19
428.958	419.19
429.181	423.19
429.403	398.19
429.625	431.19
429.847	420.19
430.069	477.19
430.292	457.19
430.514	441.19
430.736	414.19
430.958	393.19
431.18	401.19
431.402	400.19
431.624	422.19
431.846	411.19
432.068	380.19
432.29	405.19
432.512	407.19
432.734	381.19
432.956	383.19
433.178	398.19
433.4	411.19
433.622	406.19
433.844	396.19
434.066	387.19
434.287	402.19
434.509	413.19
434.731	403.19
434.953	417.19
435.175	420.19
435.397	426.19
435.618	450.19
435.84	465.19
436.062	522.19
436.284	547.19
436.505	472.19
436.727	447.19
436.949	422.19
437.17	421.19
437.392	432.19
437.614	418.19
437.835	430.19
438.057	491.19
438.278	530.19
438.5	531.19
438.721	552.19
438.943	575.19
439.165	482.19
439.386	462.19
439.608	448.19
439.829	451.19
440.05	443.19
440.272	476.19
440.493	439.19
440.715	423.19
440.936	407.19
441.158	408.19
441.379	433.19
441.6	430.19
441.822	465.19
442.043	472.19
442.264	497.19
442.486	535.19
442.707	478.19
442.928	430.19
443.149	462.19
443.371	476.19
443.592	461.19
443.813	550.19
444.034	579.19
444.255	494.19
444.476	465.19
444.698	453.19
444.919	467.19
445.14	555.19
445.361	499.19
445.582	484.19
445.803	525.19
446.024	566.19
446.245	553.19
446.466	509.19
446.687	447.19
446.908	429.19
447.129	427.19
447.35	406.19
447.571	411.19
447.792	415.19
448.013	381.19
448.234	405.19
448.455	441.19
448.675	499.19
448.896	550.19
449.117	482.19
449.338	469.19
449.559	534.19
449.779	575.19
450	486.19
450.221	417.19
450.442	411.19
450.662	399.19
450.883	408.19
451.104	409.19
451.324	385.19
451.545	377.19
451.766	368.19
451.986	359.19
452.207	358.19
452.428	363.19
452.648	365.19
452.869	384.19
453.089	377.19
453.31	366.19
453.53	385.19
453.751	360.19
453.971	377.19
454.192	380.19
454.412	376.19
454.633	373.19
454.853	364.19
455.073	362.19
455.294	401.19
455.514	375.19
455.734	411.19
455.955	354.19
456.175	343.19
456.395	350.19
456.616	350.19
456.836	368.19
457.056	352.19
457.276	344.19
457.497	346.19
457.717	346.19
457.937	366.19
458.157	350.19
458.377	361.19
458.598	381.19
458.818	407.19
459.038	447.19
459.258	474.19
459.478	406.19
459.698	389.19
459.918	388.19
460.138	413.19
460.358	412.19
460.578	413.19
460.798	419.19
461.018	425.19
461.238	401.19
461.458	414.19
461.678	413.19
461.898	425.19
462.118	414.19
462.338	441.19
462.558	420.19
462.777	430.19
462.997	452.19
463.217	454.19
463.437	456.19
463.657	447.19
463.876	414.19
464.096	448.19
464.316	422.19
464.536	443.19
464.755	449.19
464.975	415.19
465.195	475.19
465.414	526.19
465.634	465.19
465.854	442.19
466.073	407.19
466.293	405.19
466.512	394.19
466.732	392.19
466.951	372.19
467.171	388.19
467.391	379.19
467.61	400.19
467.829	396.19
468.049	420.19
468.268	408.19
468.488	397.19
468.707	361.19
468.927	360.19
469.146	390.19
469.365	399.19
469.585	387.19
469.804	377.19
470.023	400.19
470.243	387.19
470.462	419.19
470.681	405.19
470.901	413.19
471.12	397.19
471.339	404.19
471.558	410.19
471.777	391.19
471.997	395.19
472.216	409.19
472.435	481.19
472.654	453.19
472.873	396.19
473.092	374.19
473.311	401.19
473.53	391.19
473.749	404.19
473.968	427.19
474.187	472.19
474.406	471.19
474.625	427.19
474.844	400.19
475.063	378.19
475.282	396.19
475.501	391.19
475.72	401.19
475.939	396.19
476.158	379.19
476.377	391.19
476.596	405.19
476.814	397.19
477.033	405.19
477.252	421.19
477.471	408.19
477.69	428.19
477.908	409.19
478.127	435.19
478.346	439.19
478.564	429.19
478.783	434.19
479.002	428.19
479.22	442.19
479.439	436.19
479.658	458.19
479.876	472.19
480.095	457.19
480.313	477.19
480.532	463.19
480.751	473.19
480.969	494.19
481.188	592.19
481.406	650.19
481.624	526.19
481.843	489.19
482.061	443.19
482.28	450.19
482.498	460.19
482.717	435.19
482.935	440.19
483.153	448.19
483.372	453.19
483.59	459.19
483.808	445.19
484.027	405.19
484.245	447.19
484.463	456.19
484.681	455.19
484.9	451.19
485.118	446.19
485.336	445.19
485.554	475.19
485.772	460.19
485.99	463.19
486.209	470.19
486.427	478.19
486.645	477.19
486.863	481.19
487.081	486.19
487.299	472.19
487.517	488.19
487.735	479.19
487.953	479.19
488.171	479.19
488.389	463.19
488.607	483.19
488.825	487.19
489.043	460.19
489.261	485.19
489.479	469.19
489.696	484.19
489.914	496.19
490.132	493.19
490.35	486.19
490.568	478.19
490.786	486.19
491.003	538.19
491.221	528.19
491.439	540.19
491.657	504.19
491.874	537.19
492.092	535.19
492.31	554.19
492.527	532.19
492.745	547.19
492.963	527.19
493.18	533.19
493.398	539.19
493.615	541.19
493.833	552.19
494.05	562.19
494.268	571.19
494.485	547.19
494.703	548.19
494.92	552.19
495.138	534.19
495.355	529.19
495.573	539.19
495.79	565.19
496.008	575.19
496.225	565.19
496.442	543.19
496.66	551.19
496.877	538.19
497.094	557.19
497.312	576.19
497.529	563.19
497.746	566.19
497.963	561.19
498.181	602.19
498.398	617.19
498.615	631.19
498.832	638.19
499.049	643.19
499.267	666.19
499.484	702.19
499.701	708.19
499.918	727.19
500.135	791.19
500.352	856.19
500.569	845.19
500.786	888.19
501.003	835.19
501.22	782.19
501.437	762.19
501.654	729.19
501.871	736.19
502.088	709.19
