Data from 1986.PennyLincolnUp.Lamp.En5.5.200Scan.071819.P2_HRD10591_17-10-35-974.txt Node
Date: Thu Jul 18 17:10:35 EDT 2019
User: cochatt
Spectrometer: HR+D1059
Trigger mode: 1
Integration Time (sec): 1.000000E-1
Scans to average: 1
Electric dark correction enabled: true
Nonlinearity correction enabled: false
Boxcar width: 0
XAxis mode: Wavelengths
Number of Pixels in Spectrum: 2048
>>>>>Begin Spectral Data<<<<<
223.165	-25.62
223.4	-25.62
223.635	-25.62
223.869	-16.62
224.104	-27.62
224.338	-20.62
224.573	-7.62
224.808	-10.62
225.042	-1.62
225.277	-1.62
225.511	9.38
225.746	2.38
225.98	13.38
226.215	2.38
226.449	18.38
226.683	17.38
226.918	17.38
227.152	31.38
227.387	43.38
227.621	35.38
227.856	47.38
228.09	42.38
228.324	54.38
228.559	44.38
228.793	61.38
229.027	102.38
229.262	114.38
229.496	126.38
229.73	126.38
229.964	170.38
230.199	134.38
230.433	117.38
230.667	99.38
230.901	104.38
231.136	103.38
231.37	103.38
231.604	100.38
231.838	111.38
232.072	106.38
232.306	114.38
232.541	126.38
232.775	105.38
233.009	120.38
233.243	102.38
233.477	105.38
233.711	103.38
233.945	119.38
234.179	123.38
234.413	122.38
234.647	130.38
234.881	114.38
235.115	121.38
235.349	113.38
235.583	116.38
235.817	121.38
236.051	120.38
236.285	127.38
236.519	128.38
236.753	138.38
236.987	140.38
237.221	201.38
237.455	238.38
237.689	194.38
237.922	151.38
238.156	145.38
238.39	129.38
238.624	117.38
238.858	145.38
239.091	130.38
239.325	123.38
239.559	130.38
239.793	127.38
240.027	141.38
240.26	144.38
240.494	138.38
240.728	155.38
240.961	157.38
241.195	148.38
241.429	121.38
241.662	128.38
241.896	145.38
242.13	134.38
242.363	134.38
242.597	141.38
242.83	140.38
243.064	130.38
243.298	145.38
243.531	160.38
243.765	142.38
243.998	134.38
244.232	140.38
244.465	138.38
244.699	136.38
244.932	148.38
245.166	153.38
245.399	152.38
245.633	154.38
245.866	136.38
246.099	146.38
246.333	159.38
246.566	159.38
246.8	151.38
247.033	156.38
247.266	155.38
247.5	158.38
247.733	173.38
247.966	162.38
248.2	189.38
248.433	179.38
248.666	186.38
248.899	186.38
249.133	210.38
249.366	204.38
249.599	187.38
249.832	203.38
250.066	180.38
250.299	192.38
250.532	200.38
250.765	207.38
250.998	228.38
251.231	253.38
251.465	220.38
251.698	222.38
251.931	211.38
252.164	222.38
252.397	195.38
252.63	208.38
252.863	212.38
253.096	228.38
253.329	253.38
253.562	224.38
253.795	229.38
254.028	223.38
254.261	233.38
254.494	244.38
254.727	254.38
254.96	282.38
255.193	295.38
255.426	280.38
255.659	246.38
255.892	241.38
256.124	239.38
256.357	236.38
256.59	232.38
256.823	211.38
257.056	226.38
257.289	215.38
257.521	207.38
257.754	212.38
257.987	214.38
258.22	208.38
258.452	214.38
258.685	229.38
258.918	207.38
259.151	215.38
259.383	228.38
259.616	234.38
259.849	220.38
260.081	247.38
260.314	260.38
260.547	271.38
260.779	266.38
261.012	228.38
261.244	237.38
261.477	232.38
261.71	237.38
261.942	236.38
262.175	259.38
262.407	228.38
262.64	218.38
262.872	221.38
263.105	204.38
263.337	208.38
263.57	211.38
263.802	213.38
264.035	197.38
264.267	205.38
264.499	202.38
264.732	189.38
264.964	235.38
265.197	204.38
265.429	207.38
265.661	207.38
265.894	199.38
266.126	203.38
266.358	194.38
266.591	217.38
266.823	210.38
267.055	202.38
267.287	229.38
267.52	208.38
267.752	234.38
267.984	240.38
268.216	228.38
268.448	219.38
268.681	238.38
268.913	247.38
269.145	264.38
269.377	281.38
269.609	269.38
269.841	292.38
270.073	272.38
270.306	302.38
270.538	326.38
270.77	332.38
271.002	311.38
271.234	299.38
271.466	312.38
271.698	313.38
271.93	331.38
272.162	315.38
272.394	335.38
272.626	311.38
272.858	311.38
273.09	295.38
273.322	286.38
273.553	265.38
273.785	264.38
274.017	252.38
274.249	272.38
274.481	267.38
274.713	268.38
274.945	277.38
275.176	256.38
275.408	252.38
275.64	254.38
275.872	252.38
276.104	251.38
276.335	260.38
276.567	268.38
276.799	273.38
277.031	316.38
277.262	326.38
277.494	293.38
277.726	292.38
277.957	308.38
278.189	285.38
278.421	272.38
278.652	266.38
278.884	263.38
279.115	270.38
279.347	263.38
279.579	230.38
279.81	240.38
280.042	258.38
280.273	264.38
280.505	235.38
280.736	264.38
280.968	266.38
281.199	243.38
281.431	257.38
281.662	229.38
281.894	238.38
282.125	273.38
282.356	281.38
282.588	281.38
282.819	304.38
283.051	280.38
283.282	267.38
283.513	267.38
283.745	243.38
283.976	265.38
284.207	269.38
284.439	248.38
284.67	258.38
284.901	270.38
285.132	265.38
285.364	262.38
285.595	290.38
285.826	242.38
286.057	257.38
286.288	253.38
286.52	274.38
286.751	267.38
286.982	258.38
287.213	264.38
287.444	263.38
287.675	262.38
287.906	272.38
288.138	279.38
288.369	275.38
288.6	290.38
288.831	289.38
289.062	278.38
289.293	262.38
289.524	264.38
289.755	257.38
289.986	268.38
290.217	269.38
290.448	265.38
290.679	272.38
290.91	248.38
291.141	267.38
291.371	262.38
291.602	261.38
291.833	276.38
292.064	247.38
292.295	272.38
292.526	263.38
292.757	279.38
292.987	246.38
293.218	266.38
293.449	275.38
293.68	272.38
293.91	273.38
294.141	262.38
294.372	283.38
294.603	274.38
294.833	286.38
295.064	272.38
295.295	284.38
295.525	272.38
295.756	266.38
295.987	281.38
296.217	306.38
296.448	318.38
296.679	288.38
296.909	269.38
297.14	258.38
297.37	266.38
297.601	284.38
297.831	265.38
298.062	290.38
298.292	279.38
298.523	276.38
298.753	276.38
298.984	281.38
299.214	282.38
299.445	272.38
299.675	296.38
299.905	283.38
300.136	273.38
300.366	293.38
300.597	270.38
300.827	289.38
301.057	307.38
301.288	313.38
301.518	286.38
301.748	301.38
301.979	265.38
302.209	289.38
302.439	311.38
302.669	297.38
302.9	292.38
303.13	287.38
303.36	302.38
303.59	310.38
303.82	306.38
304.051	296.38
304.281	312.38
304.511	308.38
304.741	286.38
304.971	294.38
305.201	302.38
305.431	304.38
305.661	307.38
305.891	293.38
306.121	310.38
306.352	309.38
306.582	315.38
306.812	308.38
307.042	312.38
307.272	303.38
307.502	308.38
307.731	299.38
307.961	322.38
308.191	309.38
308.421	317.38
308.651	315.38
308.881	317.38
309.111	314.38
309.341	333.38
309.571	336.38
309.8	354.38
310.03	354.38
310.26	356.38
310.49	367.38
310.72	354.38
310.949	392.38
311.179	378.38
311.409	374.38
311.639	350.38
311.868	374.38
312.098	351.38
312.328	351.38
312.557	399.38
312.787	398.38
313.017	399.38
313.246	375.38
313.476	362.38
313.706	370.38
313.935	356.38
314.165	383.38
314.394	374.38
314.624	372.38
314.853	361.38
315.083	358.38
315.312	352.38
315.542	351.38
315.771	349.38
316.001	344.38
316.23	341.38
316.46	348.38
316.689	361.38
316.919	342.38
317.148	359.38
317.377	365.38
317.607	364.38
317.836	347.38
318.065	347.38
318.295	342.38
318.524	358.38
318.753	352.38
318.983	356.38
319.212	360.38
319.441	370.38
319.67	361.38
319.9	363.38
320.129	352.38
320.358	363.38
320.587	373.38
320.816	374.38
321.046	368.38
321.275	402.38
321.504	386.38
321.733	395.38
321.962	407.38
322.191	389.38
322.42	443.38
322.649	428.38
322.878	445.38
323.108	463.38
323.337	482.38
323.566	529.38
323.795	548.38
324.024	611.38
324.253	733.38
324.482	1034.38
324.71	1596.38
324.939	2286.38
325.168	2013.38
325.397	1053.38
325.626	734.38
325.855	594.38
326.084	546.38
326.313	511.38
326.542	519.38
326.77	557.38
326.999	674.38
327.228	925.38
327.457	1368.38
327.686	1769.38
327.914	1168.38
328.143	763.38
328.372	695.38
328.6	636.38
328.829	594.38
329.058	613.38
329.287	608.38
329.515	555.38
329.744	512.38
329.972	489.38
330.201	532.38
330.43	572.38
330.658	588.38
330.887	661.38
331.115	626.38
331.344	518.38
331.572	490.38
331.801	489.38
332.03	478.38
332.258	451.38
332.486	425.38
332.715	420.38
332.943	405.38
333.172	400.38
333.4	409.38
333.629	436.38
333.857	454.38
334.085	457.38
334.314	477.38
334.542	480.38
334.771	500.38
334.999	464.38
335.227	432.38
335.455	394.38
335.684	383.38
335.912	412.38
336.14	408.38
336.369	398.38
336.597	436.38
336.825	435.38
337.053	394.38
337.281	396.38
337.51	396.38
337.738	405.38
337.966	400.38
338.194	401.38
338.422	392.38
338.65	388.38
338.878	400.38
339.106	384.38
339.334	390.38
339.562	383.38
339.79	384.38
340.018	393.38
340.246	392.38
340.474	391.38
340.702	419.38
340.93	392.38
341.158	399.38
341.386	383.38
341.614	396.38
341.842	416.38
342.07	396.38
342.298	378.38
342.526	393.38
342.754	363.38
342.981	378.38
343.209	382.38
343.437	377.38
343.665	390.38
343.893	383.38
344.12	383.38
344.348	390.38
344.576	406.38
344.804	398.38
345.031	388.38
345.259	427.38
345.487	400.38
345.714	410.38
345.942	396.38
346.17	384.38
346.397	376.38
346.625	375.38
346.853	384.38
347.08	388.38
347.308	393.38
347.535	368.38
347.763	398.38
347.99	387.38
348.218	387.38
348.445	412.38
348.673	398.38
348.9	375.38
349.128	385.38
349.355	370.38
349.583	386.38
349.81	370.38
350.037	368.38
350.265	382.38
350.492	370.38
350.72	370.38
350.947	378.38
351.174	390.38
351.402	402.38
351.629	372.38
351.856	388.38
352.083	404.38
352.311	416.38
352.538	409.38
352.765	418.38
352.992	395.38
353.22	400.38
353.447	404.38
353.674	377.38
353.901	384.38
354.128	355.38
354.355	372.38
354.583	343.38
354.81	364.38
355.037	354.38
355.264	346.38
355.491	355.38
355.718	336.38
355.945	346.38
356.172	331.38
356.399	333.38
356.626	349.38
356.853	348.38
357.08	339.38
357.307	354.38
357.534	338.38
357.761	344.38
357.988	336.38
358.215	354.38
358.441	334.38
358.668	356.38
358.895	336.38
359.122	350.38
359.349	384.38
359.576	386.38
359.802	418.38
360.029	437.38
360.256	450.38
360.483	428.38
360.709	394.38
360.936	366.38
361.163	383.38
361.39	380.38
361.616	390.38
361.843	390.38
362.07	390.38
362.296	391.38
362.523	391.38
362.749	377.38
362.976	363.38
363.203	353.38
363.429	346.38
363.656	348.38
363.882	363.38
364.109	374.38
364.335	348.38
364.562	349.38
364.788	364.38
365.015	343.38
365.241	349.38
365.468	359.38
365.694	363.38
365.92	334.38
366.147	387.38
366.373	356.38
366.599	361.38
366.826	342.38
367.052	361.38
367.278	349.38
367.505	355.38
367.731	342.38
367.957	349.38
368.184	362.38
368.41	360.38
368.636	356.38
368.862	361.38
369.089	361.38
369.315	347.38
369.541	356.38
369.767	366.38
369.993	339.38
370.219	376.38
370.445	357.38
370.672	348.38
370.898	337.38
371.124	346.38
371.35	339.38
371.576	354.38
371.802	350.38
372.028	347.38
372.254	346.38
372.48	339.38
372.706	350.38
372.932	334.38
373.158	337.38
373.384	356.38
373.61	332.38
373.835	365.38
374.061	346.38
374.287	357.38
374.513	345.38
374.739	343.38
374.965	346.38
375.191	350.38
375.416	351.38
375.642	332.38
375.868	357.38
376.094	363.38
376.319	363.38
376.545	348.38
376.771	336.38
376.997	330.38
377.222	344.38
377.448	328.38
377.674	334.38
377.899	347.38
378.125	332.38
378.35	352.38
378.576	338.38
378.802	339.38
379.027	343.38
379.253	341.38
379.478	332.38
379.704	343.38
379.929	348.38
380.155	334.38
380.38	348.38
380.606	318.38
380.831	345.38
381.057	355.38
381.282	348.38
381.507	332.38
381.733	348.38
381.958	338.38
382.184	342.38
382.409	353.38
382.634	356.38
382.86	351.38
383.085	332.38
383.31	350.38
383.535	341.38
383.761	337.38
383.986	368.38
384.211	354.38
384.436	358.38
384.662	360.38
384.887	354.38
385.112	359.38
385.337	351.38
385.562	357.38
385.787	360.38
386.013	388.38
386.238	382.38
386.463	368.38
386.688	353.38
386.913	349.38
387.138	355.38
387.363	347.38
387.588	362.38
387.813	347.38
388.038	375.38
388.263	363.38
388.488	366.38
388.713	376.38
388.938	365.38
389.163	366.38
389.387	383.38
389.612	337.38
389.837	353.38
390.062	337.38
390.287	370.38
390.512	372.38
390.736	350.38
390.961	364.38
391.186	366.38
391.411	373.38
391.636	351.38
391.86	373.38
392.085	360.38
392.31	383.38
392.534	375.38
392.759	365.38
392.984	345.38
393.208	356.38
393.433	351.38
393.658	379.38
393.882	362.38
394.107	356.38
394.331	356.38
394.556	353.38
394.78	356.38
395.005	361.38
395.229	359.38
395.454	371.38
395.678	372.38
395.903	377.38
396.127	411.38
396.352	409.38
396.576	383.38
396.801	366.38
397.025	376.38
397.249	382.38
397.474	383.38
397.698	380.38
397.922	395.38
398.147	404.38
398.371	399.38
398.595	410.38
398.82	395.38
399.044	395.38
399.268	394.38
399.492	408.38
399.717	442.38
399.941	456.38
400.165	488.38
400.389	504.38
400.613	463.38
400.837	446.38
401.062	417.38
401.286	413.38
401.51	436.38
401.734	392.38
401.958	407.38
402.182	404.38
402.406	429.38
402.63	431.38
402.854	413.38
403.078	418.38
403.302	405.38
403.526	411.38
403.75	422.38
403.974	416.38
404.198	412.38
404.422	436.38
404.645	418.38
404.869	443.38
405.093	448.38
405.317	518.38
405.541	533.38
405.765	464.38
405.988	450.38
406.212	466.38
406.436	511.38
406.66	491.38
406.883	488.38
407.107	476.38
407.331	532.38
407.555	580.38
407.778	580.38
408.002	516.38
408.226	482.38
408.449	455.38
408.673	466.38
408.896	496.38
409.12	567.38
409.344	510.38
409.567	459.38
409.791	440.38
410.014	444.38
410.238	415.38
410.461	427.38
410.685	423.38
410.908	453.38
411.132	491.38
411.355	524.38
411.578	487.38
411.802	439.38
412.025	431.38
412.249	424.38
412.472	431.38
412.695	475.38
412.919	475.38
413.142	451.38
413.365	437.38
413.589	431.38
413.812	406.38
414.035	399.38
414.258	400.38
414.482	404.38
414.705	394.38
414.928	390.38
415.151	398.38
415.374	386.38
415.597	387.38
415.821	390.38
416.044	390.38
416.267	399.38
416.49	410.38
416.713	379.38
416.936	393.38
417.159	389.38
417.382	404.38
417.605	418.38
417.828	405.38
418.051	449.38
418.274	428.38
418.497	407.38
418.72	404.38
418.943	390.38
419.166	429.38
419.389	453.38
419.611	437.38
419.834	412.38
420.057	423.38
420.28	433.38
420.503	434.38
420.726	439.38
420.948	417.38
421.171	503.38
421.394	504.38
421.617	439.38
421.839	445.38
422.062	422.38
422.285	450.38
422.507	484.38
422.73	569.38
422.953	568.38
423.175	483.38
423.398	436.38
423.621	457.38
423.843	473.38
424.066	487.38
424.288	472.38
424.511	499.38
424.733	554.38
424.956	627.38
425.178	622.38
425.401	579.38
425.623	610.38
425.846	529.38
426.068	505.38
426.291	475.38
426.513	462.38
426.735	482.38
426.958	541.38
427.18	612.38
427.402	715.38
427.625	782.38
427.847	743.38
428.069	608.38
428.292	530.38
428.514	479.38
428.736	475.38
428.958	444.38
429.181	460.38
429.403	455.38
429.625	444.38
429.847	468.38
430.069	570.38
430.292	552.38
430.514	459.38
430.736	441.38
430.958	460.38
431.18	415.38
431.402	411.38
431.624	405.38
431.846	397.38
432.068	398.38
432.29	401.38
432.512	416.38
432.734	423.38
432.956	410.38
433.178	424.38
433.4	444.38
433.622	430.38
433.844	419.38
434.066	409.38
434.287	415.38
434.509	411.38
434.731	443.38
434.953	444.38
435.175	434.38
435.397	468.38
435.618	494.38
435.84	511.38
436.062	606.38
436.284	662.38
436.505	559.38
436.727	509.38
436.949	463.38
437.17	446.38
437.392	464.38
437.614	470.38
437.835	488.38
438.057	592.38
438.278	683.38
438.5	661.38
438.721	750.38
438.943	715.38
439.165	564.38
439.386	524.38
439.608	520.38
439.829	504.38
440.05	538.38
440.272	562.38
440.493	552.38
440.715	492.38
440.936	465.38
441.158	445.38
441.379	452.38
441.6	449.38
441.822	474.38
442.043	518.38
442.264	614.38
442.486	656.38
442.707	533.38
442.928	482.38
443.149	497.38
443.371	518.38
443.592	560.38
443.813	650.38
444.034	701.38
444.255	579.38
444.476	506.38
444.698	493.38
444.919	482.38
445.14	572.38
445.361	514.38
445.582	516.38
445.803	588.38
446.024	691.38
446.245	696.38
446.466	630.38
446.687	535.38
446.908	493.38
447.129	462.38
447.35	463.38
447.571	453.38
447.792	452.38
448.013	450.38
448.234	469.38
448.455	536.38
448.675	626.38
448.896	729.38
449.117	626.38
449.338	596.38
449.559	693.38
449.779	767.38
450	616.38
450.221	515.38
450.442	463.38
450.662	457.38
450.883	463.38
451.104	479.38
451.324	445.38
451.545	424.38
451.766	394.38
451.986	412.38
452.207	395.38
452.428	400.38
452.648	386.38
452.869	398.38
453.089	409.38
453.31	433.38
453.53	404.38
453.751	423.38
453.971	414.38
454.192	427.38
454.412	444.38
454.633	410.38
454.853	404.38
455.073	405.38
455.294	429.38
455.514	501.38
455.734	510.38
455.955	421.38
456.175	386.38
456.395	363.38
456.616	386.38
456.836	396.38
457.056	369.38
457.276	371.38
457.497	361.38
457.717	363.38
457.937	375.38
458.157	372.38
458.377	411.38
458.598	419.38
458.818	454.38
459.038	559.38
459.258	580.38
459.478	490.38
459.698	404.38
459.918	407.38
460.138	409.38
460.358	421.38
460.578	397.38
460.798	416.38
461.018	412.38
461.238	414.38
461.458	401.38
461.678	386.38
461.898	403.38
462.118	396.38
462.338	387.38
462.558	405.38
462.777	408.38
462.997	412.38
463.217	398.38
463.437	427.38
463.657	421.38
463.876	431.38
464.096	435.38
464.316	400.38
464.536	409.38
464.755	434.38
464.975	436.38
465.195	492.38
465.414	602.38
465.634	494.38
465.854	452.38
466.073	431.38
466.293	414.38
466.512	387.38
466.732	402.38
466.951	391.38
467.171	386.38
467.391	388.38
467.61	411.38
467.829	429.38
468.049	425.38
468.268	432.38
468.488	386.38
468.707	378.38
468.927	390.38
469.146	403.38
469.365	401.38
469.585	400.38
469.804	386.38
470.023	410.38
470.243	435.38
470.462	404.38
470.681	423.38
470.901	443.38
471.12	399.38
471.339	380.38
471.558	398.38
471.777	398.38
471.997	405.38
472.216	413.38
472.435	446.38
472.654	445.38
472.873	407.38
473.092	399.38
473.311	416.38
473.53	422.38
473.749	436.38
473.968	462.38
474.187	573.38
474.406	592.38
474.625	485.38
474.844	438.38
475.063	419.38
475.282	407.38
475.501	411.38
475.72	422.38
475.939	414.38
476.158	421.38
476.377	415.38
476.596	430.38
476.814	440.38
477.033	417.38
477.252	450.38
477.471	420.38
477.69	419.38
477.908	426.38
478.127	438.38
478.346	447.38
478.564	457.38
478.783	446.38
479.002	461.38
479.22	469.38
479.439	497.38
479.658	484.38
479.876	490.38
480.095	491.38
480.313	518.38
480.532	514.38
480.751	495.38
480.969	508.38
481.188	580.38
481.406	607.38
481.624	529.38
481.843	497.38
482.061	464.38
482.28	493.38
482.498	486.38
482.717	476.38
482.935	486.38
483.153	474.38
483.372	505.38
483.59	475.38
483.808	481.38
484.027	478.38
484.245	480.38
484.463	488.38
484.681	495.38
484.9	483.38
485.118	488.38
485.336	487.38
485.554	511.38
485.772	505.38
485.99	488.38
486.209	519.38
486.427	522.38
486.645	516.38
486.863	530.38
487.081	547.38
487.299	537.38
487.517	532.38
487.735	503.38
487.953	510.38
488.171	516.38
488.389	518.38
488.607	523.38
488.825	532.38
489.043	502.38
489.261	533.38
489.479	533.38
489.696	550.38
489.914	538.38
490.132	526.38
490.35	554.38
490.568	555.38
490.786	567.38
491.003	559.38
491.221	574.38
491.439	570.38
491.657	594.38
491.874	590.38
492.092	599.38
492.31	638.38
492.527	627.38
492.745	620.38
492.963	623.38
493.18	618.38
493.398	603.38
493.615	619.38
493.833	617.38
494.05	646.38
494.268	639.38
494.485	641.38
494.703	628.38
494.92	615.38
495.138	631.38
495.355	631.38
495.573	621.38
495.79	633.38
496.008	628.38
496.225	620.38
496.442	628.38
496.66	619.38
496.877	642.38
497.094	647.38
497.312	635.38
497.529	650.38
497.746	664.38
497.963	648.38
498.181	675.38
498.398	662.38
498.615	662.38
498.832	676.38
499.049	655.38
499.267	679.38
499.484	696.38
499.701	706.38
499.918	743.38
500.135	755.38
500.352	748.38
500.569	750.38
500.786	747.38
501.003	761.38
501.22	742.38
501.437	736.38
501.654	729.38
501.871	748.38
