Data from 1986.PennyLincolnUp.Lamp.En5.5.200Scan.071819.P2_HRD10591_17-10-52-974.txt Node
Date: Thu Jul 18 17:10:52 EDT 2019
User: cochatt
Spectrometer: HR+D1059
Trigger mode: 1
Integration Time (sec): 1.000000E-1
Scans to average: 1
Electric dark correction enabled: true
Nonlinearity correction enabled: false
Boxcar width: 0
XAxis mode: Wavelengths
Number of Pixels in Spectrum: 2048
>>>>>Begin Spectral Data<<<<<
223.165	-12.88
223.4	-12.88
223.635	-12.88
223.869	-24.88
224.104	-23.88
224.338	1.12
224.573	-10.88
224.808	-21.88
225.042	5.12
225.277	4.12
225.511	4.12
225.746	-5.88
225.98	-6.88
226.215	11.12
226.449	14.12
226.683	9.12
226.918	25.12
227.152	33.12
227.387	43.12
227.621	34.12
227.856	38.12
228.09	29.12
228.324	54.12
228.559	57.12
228.793	68.12
229.027	101.12
229.262	95.12
229.496	115.12
229.73	151.12
229.964	166.12
230.199	124.12
230.433	124.12
230.667	124.12
230.901	109.12
231.136	105.12
231.37	105.12
231.604	115.12
231.838	105.12
232.072	109.12
232.306	126.12
232.541	101.12
232.775	110.12
233.009	106.12
233.243	119.12
233.477	106.12
233.711	103.12
233.945	118.12
234.179	113.12
234.413	119.12
234.647	127.12
234.881	108.12
235.115	126.12
235.349	116.12
235.583	131.12
235.817	109.12
236.051	125.12
236.285	127.12
236.519	128.12
236.753	133.12
236.987	148.12
237.221	200.12
237.455	242.12
237.689	198.12
237.922	159.12
238.156	147.12
238.39	144.12
238.624	118.12
238.858	130.12
239.091	130.12
239.325	136.12
239.559	147.12
239.793	144.12
240.027	137.12
240.26	150.12
240.494	153.12
240.728	159.12
240.961	167.12
241.195	141.12
241.429	151.12
241.662	146.12
241.896	140.12
242.13	127.12
242.363	134.12
242.597	131.12
242.83	143.12
243.064	145.12
243.298	148.12
243.531	123.12
243.765	133.12
243.998	133.12
244.232	127.12
244.465	143.12
244.699	143.12
244.932	122.12
245.166	137.12
245.399	131.12
245.633	132.12
245.866	151.12
246.099	157.12
246.333	161.12
246.566	151.12
246.8	165.12
247.033	167.12
247.266	164.12
247.5	169.12
247.733	169.12
247.966	181.12
248.2	168.12
248.433	181.12
248.666	179.12
248.899	201.12
249.133	198.12
249.366	236.12
249.599	207.12
249.832	198.12
250.066	202.12
250.299	180.12
250.532	184.12
250.765	211.12
250.998	234.12
251.231	229.12
251.465	246.12
251.698	232.12
251.931	214.12
252.164	206.12
252.397	211.12
252.63	206.12
252.863	218.12
253.096	226.12
253.329	238.12
253.562	226.12
253.795	231.12
254.028	227.12
254.261	221.12
254.494	252.12
254.727	264.12
254.96	296.12
255.193	280.12
255.426	283.12
255.659	253.12
255.892	246.12
256.124	253.12
256.357	269.12
256.59	239.12
256.823	231.12
257.056	201.12
257.289	226.12
257.521	229.12
257.754	228.12
257.987	226.12
258.22	213.12
258.452	214.12
258.685	217.12
258.918	215.12
259.151	222.12
259.383	233.12
259.616	228.12
259.849	231.12
260.081	250.12
260.314	273.12
260.547	271.12
260.779	259.12
261.012	237.12
261.244	220.12
261.477	254.12
261.71	218.12
261.942	231.12
262.175	247.12
262.407	249.12
262.64	232.12
262.872	213.12
263.105	199.12
263.337	224.12
263.57	220.12
263.802	215.12
264.035	210.12
264.267	219.12
264.499	227.12
264.732	219.12
264.964	207.12
265.197	216.12
265.429	193.12
265.661	206.12
265.894	209.12
266.126	211.12
266.358	206.12
266.591	220.12
266.823	218.12
267.055	213.12
267.287	208.12
267.52	213.12
267.752	221.12
267.984	206.12
268.216	230.12
268.448	227.12
268.681	236.12
268.913	240.12
269.145	263.12
269.377	285.12
269.609	271.12
269.841	268.12
270.073	260.12
270.306	293.12
270.538	336.12
270.77	342.12
271.002	306.12
271.234	292.12
271.466	320.12
271.698	317.12
271.93	323.12
272.162	329.12
272.394	324.12
272.626	302.12
272.858	292.12
273.09	275.12
273.322	280.12
273.553	280.12
273.785	245.12
274.017	236.12
274.249	259.12
274.481	269.12
274.713	271.12
274.945	265.12
275.176	257.12
275.408	280.12
275.64	255.12
275.872	264.12
276.104	264.12
276.335	262.12
276.567	266.12
276.799	292.12
277.031	313.12
277.262	303.12
277.494	313.12
277.726	301.12
277.957	285.12
278.189	277.12
278.421	275.12
278.652	280.12
278.884	279.12
279.115	266.12
279.347	256.12
279.579	266.12
279.81	265.12
280.042	247.12
280.273	261.12
280.505	260.12
280.736	246.12
280.968	261.12
281.199	257.12
281.431	255.12
281.662	253.12
281.894	249.12
282.125	260.12
282.356	277.12
282.588	308.12
282.819	308.12
283.051	263.12
283.282	265.12
283.513	270.12
283.745	261.12
283.976	272.12
284.207	271.12
284.439	263.12
284.67	269.12
284.901	269.12
285.132	271.12
285.364	255.12
285.595	258.12
285.826	245.12
286.057	276.12
286.288	260.12
286.52	254.12
286.751	267.12
286.982	263.12
287.213	266.12
287.444	263.12
287.675	272.12
287.906	274.12
288.138	274.12
288.369	266.12
288.6	285.12
288.831	265.12
289.062	264.12
289.293	289.12
289.524	261.12
289.755	260.12
289.986	266.12
290.217	264.12
290.448	266.12
290.679	269.12
290.91	268.12
291.141	277.12
291.371	262.12
291.602	266.12
291.833	267.12
292.064	261.12
292.295	263.12
292.526	272.12
292.757	261.12
292.987	261.12
293.218	272.12
293.449	252.12
293.68	266.12
293.91	243.12
294.141	265.12
294.372	251.12
294.603	266.12
294.833	275.12
295.064	278.12
295.295	253.12
295.525	275.12
295.756	268.12
295.987	293.12
296.217	299.12
296.448	320.12
296.679	297.12
296.909	285.12
297.14	272.12
297.37	285.12
297.601	277.12
297.831	272.12
298.062	281.12
298.292	280.12
298.523	280.12
298.753	274.12
298.984	286.12
299.214	296.12
299.445	281.12
299.675	276.12
299.905	287.12
300.136	287.12
300.366	290.12
300.597	287.12
300.827	284.12
301.057	301.12
301.288	288.12
301.518	286.12
301.748	302.12
301.979	286.12
302.209	290.12
302.439	302.12
302.669	306.12
302.9	306.12
303.13	291.12
303.36	304.12
303.59	290.12
303.82	315.12
304.051	313.12
304.281	294.12
304.511	303.12
304.741	293.12
304.971	295.12
305.201	272.12
305.431	297.12
305.661	311.12
305.891	307.12
306.121	303.12
306.352	300.12
306.582	306.12
306.812	318.12
307.042	315.12
307.272	307.12
307.502	308.12
307.731	307.12
307.961	325.12
308.191	309.12
308.421	321.12
308.651	305.12
308.881	302.12
309.111	323.12
309.341	325.12
309.571	357.12
309.8	347.12
310.03	351.12
310.26	373.12
310.49	371.12
310.72	366.12
310.949	388.12
311.179	390.12
311.409	375.12
311.639	354.12
311.868	355.12
312.098	350.12
312.328	377.12
312.557	393.12
312.787	425.12
313.017	400.12
313.246	381.12
313.476	357.12
313.706	342.12
313.935	365.12
314.165	393.12
314.394	379.12
314.624	402.12
314.853	366.12
315.083	381.12
315.312	362.12
315.542	352.12
315.771	326.12
316.001	336.12
316.23	349.12
316.46	361.12
316.689	344.12
316.919	355.12
317.148	357.12
317.377	365.12
317.607	369.12
317.836	363.12
318.065	358.12
318.295	369.12
318.524	336.12
318.753	363.12
318.983	347.12
319.212	348.12
319.441	362.12
319.67	358.12
319.9	369.12
320.129	349.12
320.358	349.12
320.587	362.12
320.816	375.12
321.046	392.12
321.275	379.12
321.504	391.12
321.733	377.12
321.962	395.12
322.191	417.12
322.42	425.12
322.649	437.12
322.878	441.12
323.108	457.12
323.337	515.12
323.566	532.12
323.795	573.12
324.024	605.12
324.253	765.12
324.482	1075.12
324.71	1667.12
324.939	2360.12
325.168	2047.12
325.397	1096.12
325.626	729.12
325.855	585.12
326.084	538.12
326.313	519.12
326.542	525.12
326.77	608.12
326.999	710.12
327.228	955.12
327.457	1441.12
327.686	1789.12
327.914	1241.12
328.143	793.12
328.372	686.12
328.6	653.12
328.829	622.12
329.058	619.12
329.287	622.12
329.515	568.12
329.744	535.12
329.972	529.12
330.201	559.12
330.43	625.12
330.658	630.12
330.887	653.12
331.115	635.12
331.344	526.12
331.572	488.12
331.801	500.12
332.03	509.12
332.258	452.12
332.486	442.12
332.715	439.12
332.943	445.12
333.172	441.12
333.4	433.12
333.629	452.12
333.857	456.12
334.085	454.12
334.314	507.12
334.542	541.12
334.771	551.12
334.999	517.12
335.227	470.12
335.455	444.12
335.684	417.12
335.912	409.12
336.14	405.12
336.369	421.12
336.597	416.12
336.825	435.12
337.053	406.12
337.281	400.12
337.51	382.12
337.738	381.12
337.966	407.12
338.194	410.12
338.422	418.12
338.65	399.12
338.878	393.12
339.106	390.12
339.334	409.12
339.562	406.12
339.79	387.12
340.018	387.12
340.246	388.12
340.474	393.12
340.702	394.12
340.93	389.12
341.158	385.12
341.386	389.12
341.614	393.12
341.842	410.12
342.07	397.12
342.298	388.12
342.526	372.12
342.754	354.12
342.981	380.12
343.209	367.12
343.437	365.12
343.665	377.12
343.893	369.12
344.12	389.12
344.348	389.12
344.576	391.12
344.804	405.12
345.031	418.12
345.259	447.12
345.487	412.12
345.714	399.12
345.942	400.12
346.17	392.12
346.397	395.12
346.625	381.12
346.853	379.12
347.08	378.12
347.308	397.12
347.535	400.12
347.763	400.12
347.99	384.12
348.218	406.12
348.445	416.12
348.673	411.12
348.9	403.12
349.128	395.12
349.355	349.12
349.583	373.12
349.81	376.12
350.037	370.12
350.265	356.12
350.492	359.12
350.72	371.12
350.947	378.12
351.174	390.12
351.402	370.12
351.629	402.12
351.856	387.12
352.083	383.12
352.311	406.12
352.538	407.12
352.765	408.12
352.992	391.12
353.22	390.12
353.447	379.12
353.674	376.12
353.901	357.12
354.128	363.12
354.355	358.12
354.583	361.12
354.81	355.12
355.037	364.12
355.264	349.12
355.491	338.12
355.718	331.12
355.945	326.12
356.172	343.12
356.399	353.12
356.626	344.12
356.853	349.12
357.08	345.12
357.307	334.12
357.534	334.12
357.761	365.12
357.988	347.12
358.215	353.12
358.441	337.12
358.668	350.12
358.895	362.12
359.122	359.12
359.349	375.12
359.576	406.12
359.802	419.12
360.029	437.12
360.256	458.12
360.483	426.12
360.709	388.12
360.936	383.12
361.163	397.12
361.39	395.12
361.616	382.12
361.843	386.12
362.07	363.12
362.296	380.12
362.523	377.12
362.749	371.12
362.976	374.12
363.203	372.12
363.429	355.12
363.656	360.12
363.882	367.12
364.109	364.12
364.335	359.12
364.562	353.12
364.788	348.12
365.015	356.12
365.241	379.12
365.468	349.12
365.694	385.12
365.92	369.12
366.147	346.12
366.373	366.12
366.599	364.12
366.826	345.12
367.052	337.12
367.278	345.12
367.505	369.12
367.731	355.12
367.957	362.12
368.184	356.12
368.41	369.12
368.636	369.12
368.862	381.12
369.089	361.12
369.315	353.12
369.541	350.12
369.767	355.12
369.993	338.12
370.219	329.12
370.445	331.12
370.672	342.12
370.898	358.12
371.124	349.12
371.35	341.12
371.576	316.12
371.802	341.12
372.028	318.12
372.254	340.12
372.48	334.12
372.706	360.12
372.932	361.12
373.158	327.12
373.384	369.12
373.61	352.12
373.835	359.12
374.061	347.12
374.287	334.12
374.513	329.12
374.739	351.12
374.965	349.12
375.191	353.12
375.416	341.12
375.642	342.12
375.868	370.12
376.094	334.12
376.319	327.12
376.545	340.12
376.771	330.12
376.997	341.12
377.222	337.12
377.448	327.12
377.674	335.12
377.899	330.12
378.125	335.12
378.35	341.12
378.576	339.12
378.802	331.12
379.027	347.12
379.253	338.12
379.478	328.12
379.704	336.12
379.929	353.12
380.155	338.12
380.38	364.12
380.606	335.12
380.831	339.12
381.057	350.12
381.282	359.12
381.507	325.12
381.733	316.12
381.958	345.12
382.184	350.12
382.409	356.12
382.634	349.12
382.86	333.12
383.085	334.12
383.31	335.12
383.535	357.12
383.761	359.12
383.986	353.12
384.211	354.12
384.436	356.12
384.662	343.12
384.887	362.12
385.112	343.12
385.337	358.12
385.562	350.12
385.787	373.12
386.013	364.12
386.238	367.12
386.463	375.12
386.688	361.12
386.913	353.12
387.138	372.12
387.363	355.12
387.588	366.12
387.813	364.12
388.038	371.12
388.263	349.12
388.488	348.12
388.713	369.12
388.938	356.12
389.163	354.12
389.387	369.12
389.612	356.12
389.837	361.12
390.062	363.12
390.287	351.12
390.512	353.12
390.736	358.12
390.961	354.12
391.186	360.12
391.411	349.12
391.636	364.12
391.86	348.12
392.085	352.12
392.31	363.12
392.534	372.12
392.759	361.12
392.984	369.12
393.208	372.12
393.433	372.12
393.658	374.12
393.882	358.12
394.107	373.12
394.331	363.12
394.556	364.12
394.78	364.12
395.005	355.12
395.229	366.12
395.454	353.12
395.678	362.12
395.903	393.12
396.127	399.12
396.352	411.12
396.576	377.12
396.801	366.12
397.025	379.12
397.249	379.12
397.474	393.12
397.698	385.12
397.922	386.12
398.147	396.12
398.371	431.12
398.595	411.12
398.82	413.12
399.044	396.12
399.268	415.12
399.492	434.12
399.717	436.12
399.941	452.12
400.165	467.12
400.389	520.12
400.613	467.12
400.837	437.12
401.062	420.12
401.286	394.12
401.51	409.12
401.734	387.12
401.958	421.12
402.182	425.12
402.406	418.12
402.63	415.12
402.854	401.12
403.078	407.12
403.302	423.12
403.526	397.12
403.75	437.12
403.974	399.12
404.198	405.12
404.422	401.12
404.645	448.12
404.869	437.12
405.093	470.12
405.317	499.12
405.541	528.12
405.765	490.12
405.988	471.12
406.212	477.12
406.436	486.12
406.66	506.12
406.883	463.12
407.107	492.12
407.331	509.12
407.555	573.12
407.778	556.12
408.002	525.12
408.226	483.12
408.449	458.12
408.673	480.12
408.896	488.12
409.12	539.12
409.344	503.12
409.567	444.12
409.791	435.12
410.014	405.12
410.238	422.12
410.461	414.12
410.685	429.12
410.908	428.12
411.132	483.12
411.355	526.12
411.578	481.12
411.802	451.12
412.025	423.12
412.249	437.12
412.472	474.12
412.695	491.12
412.919	485.12
413.142	445.12
413.365	424.12
413.589	417.12
413.812	399.12
414.035	395.12
414.258	411.12
414.482	397.12
414.705	403.12
414.928	409.12
415.151	399.12
415.374	395.12
415.597	390.12
415.821	387.12
416.044	412.12
416.267	415.12
416.49	394.12
416.713	400.12
416.936	399.12
417.159	398.12
417.382	405.12
417.605	397.12
417.828	405.12
418.051	446.12
418.274	437.12
418.497	393.12
418.72	401.12
418.943	406.12
419.166	411.12
419.389	426.12
419.611	441.12
419.834	442.12
420.057	437.12
420.28	423.12
420.503	415.12
420.726	425.12
420.948	451.12
421.171	497.12
421.394	524.12
421.617	484.12
421.839	461.12
422.062	437.12
422.285	454.12
422.507	489.12
422.73	555.12
422.953	559.12
423.175	485.12
423.398	454.12
423.621	446.12
423.843	475.12
424.066	481.12
424.288	445.12
424.511	485.12
424.733	531.12
424.956	619.12
425.178	597.12
425.401	599.12
425.623	621.12
425.846	533.12
426.068	500.12
426.291	466.12
426.513	483.12
426.735	481.12
426.958	525.12
427.18	613.12
427.402	730.12
427.625	798.12
427.847	762.12
428.069	640.12
428.292	537.12
428.514	493.12
428.736	478.12
428.958	466.12
429.181	447.12
429.403	447.12
429.625	467.12
429.847	489.12
430.069	573.12
430.292	550.12
430.514	481.12
430.736	445.12
430.958	441.12
431.18	422.12
431.402	415.12
431.624	403.12
431.846	391.12
432.068	397.12
432.29	418.12
432.512	414.12
432.734	418.12
432.956	419.12
433.178	428.12
433.4	426.12
433.622	412.12
433.844	405.12
434.066	411.12
434.287	406.12
434.509	411.12
434.731	436.12
434.953	415.12
435.175	442.12
435.397	460.12
435.618	503.12
435.84	497.12
436.062	612.12
436.284	649.12
436.505	540.12
436.727	489.12
436.949	469.12
437.17	459.12
437.392	450.12
437.614	436.12
437.835	502.12
438.057	610.12
438.278	711.12
438.5	675.12
438.721	731.12
438.943	702.12
439.165	578.12
439.386	514.12
439.608	534.12
439.829	486.12
440.05	524.12
440.272	556.12
440.493	539.12
440.715	497.12
440.936	467.12
441.158	460.12
441.379	465.12
441.6	472.12
441.822	467.12
442.043	513.12
442.264	594.12
442.486	616.12
442.707	533.12
442.928	518.12
443.149	517.12
443.371	524.12
443.592	546.12
443.813	654.12
444.034	703.12
444.255	582.12
444.476	532.12
444.698	487.12
444.919	484.12
445.14	551.12
445.361	545.12
445.582	540.12
445.803	593.12
446.024	698.12
446.245	676.12
446.466	647.12
446.687	539.12
446.908	486.12
447.129	473.12
447.35	449.12
447.571	437.12
447.792	426.12
448.013	465.12
448.234	468.12
448.455	515.12
448.675	627.12
448.896	740.12
449.117	607.12
449.338	602.12
449.559	668.12
449.779	751.12
450	633.12
450.221	503.12
450.442	459.12
450.662	459.12
450.883	458.12
451.104	480.12
451.324	457.12
451.545	431.12
451.766	428.12
451.986	424.12
452.207	404.12
452.428	415.12
452.648	395.12
452.869	394.12
453.089	406.12
453.31	446.12
453.53	400.12
453.751	420.12
453.971	402.12
454.192	406.12
454.412	406.12
454.633	401.12
454.853	411.12
455.073	380.12
455.294	433.12
455.514	507.12
455.734	474.12
455.955	407.12
456.175	398.12
456.395	367.12
456.616	373.12
456.836	384.12
457.056	369.12
457.276	347.12
457.497	368.12
457.717	377.12
457.937	381.12
458.157	372.12
458.377	385.12
458.598	410.12
458.818	494.12
459.038	551.12
459.258	579.12
459.478	490.12
459.698	424.12
459.918	417.12
460.138	394.12
460.358	389.12
460.578	393.12
460.798	425.12
461.018	415.12
461.238	389.12
461.458	405.12
461.678	396.12
461.898	365.12
462.118	391.12
462.338	398.12
462.558	390.12
462.777	416.12
462.997	393.12
463.217	390.12
463.437	417.12
463.657	422.12
463.876	421.12
464.096	431.12
464.316	441.12
464.536	428.12
464.755	413.12
464.975	448.12
465.195	491.12
465.414	582.12
465.634	509.12
465.854	448.12
466.073	438.12
466.293	410.12
466.512	414.12
466.732	404.12
466.951	385.12
467.171	394.12
467.391	385.12
467.61	415.12
467.829	427.12
468.049	409.12
468.268	423.12
468.488	405.12
468.707	395.12
468.927	397.12
469.146	380.12
469.365	393.12
469.585	397.12
469.804	408.12
470.023	415.12
470.243	408.12
470.462	417.12
470.681	439.12
470.901	430.12
471.12	413.12
471.339	399.12
471.558	402.12
471.777	434.12
471.997	407.12
472.216	410.12
472.435	486.12
472.654	472.12
472.873	421.12
473.092	419.12
473.311	421.12
473.53	409.12
473.749	412.12
473.968	473.12
474.187	579.12
474.406	588.12
474.625	465.12
474.844	451.12
475.063	409.12
475.282	421.12
475.501	421.12
475.72	399.12
475.939	416.12
476.158	391.12
476.377	425.12
476.596	424.12
476.814	438.12
477.033	445.12
477.252	429.12
477.471	430.12
477.69	417.12
477.908	424.12
478.127	438.12
478.346	445.12
478.564	464.12
478.783	464.12
479.002	453.12
479.22	487.12
479.439	485.12
479.658	460.12
479.876	495.12
480.095	507.12
480.313	531.12
480.532	498.12
480.751	494.12
480.969	520.12
481.188	598.12
481.406	672.12
481.624	555.12
481.843	516.12
482.061	477.12
482.28	485.12
482.498	487.12
482.717	477.12
482.935	487.12
483.153	473.12
483.372	491.12
483.59	498.12
483.808	486.12
484.027	509.12
484.245	465.12
484.463	480.12
484.681	506.12
484.9	490.12
485.118	490.12
485.336	494.12
485.554	513.12
485.772	493.12
485.99	502.12
486.209	505.12
486.427	513.12
486.645	519.12
486.863	550.12
487.081	552.12
487.299	528.12
487.517	511.12
487.735	513.12
487.953	526.12
488.171	526.12
488.389	551.12
488.607	533.12
488.825	525.12
489.043	534.12
489.261	535.12
489.479	516.12
489.696	556.12
489.914	533.12
490.132	556.12
490.35	551.12
490.568	535.12
490.786	563.12
491.003	544.12
491.221	579.12
491.439	612.12
491.657	588.12
491.874	621.12
492.092	615.12
492.31	626.12
492.527	623.12
492.745	624.12
492.963	647.12
493.18	622.12
493.398	639.12
493.615	627.12
493.833	622.12
494.05	617.12
494.268	646.12
494.485	615.12
494.703	615.12
494.92	615.12
495.138	621.12
495.355	646.12
495.573	637.12
495.79	652.12
496.008	630.12
496.225	626.12
496.442	657.12
496.66	639.12
496.877	625.12
497.094	645.12
497.312	633.12
497.529	639.12
497.746	643.12
497.963	679.12
498.181	641.12
498.398	674.12
498.615	668.12
498.832	685.12
499.049	661.12
499.267	664.12
499.484	695.12
499.701	696.12
499.918	689.12
500.135	732.12
500.352	757.12
500.569	752.12
500.786	781.12
501.003	758.12
501.22	747.12
501.437	732.12
501.654	757.12
501.871	752.12
