Data from 1986.PennyLincolnUp.Lamp.En5.5.200Scan.071819.P2_HRD10591_17-10-30-974.txt Node
Date: Thu Jul 18 17:10:30 EDT 2019
User: cochatt
Spectrometer: HR+D1059
Trigger mode: 1
Integration Time (sec): 1.000000E-1
Scans to average: 1
Electric dark correction enabled: true
Nonlinearity correction enabled: false
Boxcar width: 0
XAxis mode: Wavelengths
Number of Pixels in Spectrum: 2048
>>>>>Begin Spectral Data<<<<<
223.165	-13.5
223.4	-13.5
223.635	-13.5
223.869	-33.5
224.104	-19.5
224.338	-19.5
224.573	-13.5
224.808	-10.5
225.042	-21.5
225.277	-5.5
225.511	5.5
225.746	19.5
225.98	14.5
226.215	15.5
226.449	12.5
226.683	26.5
226.918	11.5
227.152	31.5
227.387	35.5
227.621	26.5
227.856	42.5
228.09	40.5
228.324	54.5
228.559	48.5
228.793	68.5
229.027	91.5
229.262	101.5
229.496	133.5
229.73	141.5
229.964	151.5
230.199	126.5
230.433	113.5
230.667	116.5
230.901	114.5
231.136	93.5
231.37	103.5
231.604	108.5
231.838	109.5
232.072	109.5
232.306	104.5
232.541	101.5
232.775	114.5
233.009	129.5
233.243	121.5
233.477	127.5
233.711	125.5
233.945	122.5
234.179	99.5
234.413	114.5
234.647	114.5
234.881	118.5
235.115	117.5
235.349	128.5
235.583	122.5
235.817	106.5
236.051	117.5
236.285	126.5
236.519	112.5
236.753	134.5
236.987	138.5
237.221	181.5
237.455	228.5
237.689	189.5
237.922	157.5
238.156	143.5
238.39	120.5
238.624	119.5
238.858	121.5
239.091	117.5
239.325	131.5
239.559	119.5
239.793	127.5
240.027	126.5
240.26	141.5
240.494	160.5
240.728	160.5
240.961	136.5
241.195	151.5
241.429	140.5
241.662	147.5
241.896	130.5
242.13	128.5
242.363	125.5
242.597	133.5
242.83	151.5
243.064	128.5
243.298	143.5
243.531	152.5
243.765	140.5
243.998	148.5
244.232	146.5
244.465	144.5
244.699	134.5
244.932	152.5
245.166	155.5
245.399	141.5
245.633	161.5
245.866	144.5
246.099	158.5
246.333	148.5
246.566	170.5
246.8	176.5
247.033	149.5
247.266	152.5
247.5	149.5
247.733	171.5
247.966	184.5
248.2	176.5
248.433	192.5
248.666	177.5
248.899	208.5
249.133	192.5
249.366	214.5
249.599	214.5
249.832	178.5
250.066	178.5
250.299	168.5
250.532	187.5
250.765	203.5
250.998	217.5
251.231	229.5
251.465	230.5
251.698	206.5
251.931	209.5
252.164	204.5
252.397	184.5
252.63	226.5
252.863	206.5
253.096	217.5
253.329	242.5
253.562	229.5
253.795	237.5
254.028	216.5
254.261	216.5
254.494	233.5
254.727	240.5
254.96	270.5
255.193	273.5
255.426	235.5
255.659	250.5
255.892	235.5
256.124	252.5
256.357	240.5
256.59	225.5
256.823	212.5
257.056	218.5
257.289	206.5
257.521	220.5
257.754	219.5
257.987	201.5
258.22	220.5
258.452	212.5
258.685	188.5
258.918	202.5
259.151	219.5
259.383	219.5
259.616	214.5
259.849	223.5
260.081	234.5
260.314	261.5
260.547	274.5
260.779	247.5
261.012	242.5
261.244	230.5
261.477	232.5
261.71	223.5
261.942	241.5
262.175	243.5
262.407	254.5
262.64	231.5
262.872	202.5
263.105	206.5
263.337	215.5
263.57	212.5
263.802	201.5
264.035	207.5
264.267	212.5
264.499	214.5
264.732	211.5
264.964	220.5
265.197	187.5
265.429	206.5
265.661	214.5
265.894	196.5
266.126	208.5
266.358	210.5
266.591	203.5
266.823	204.5
267.055	223.5
267.287	228.5
267.52	219.5
267.752	226.5
267.984	214.5
268.216	226.5
268.448	221.5
268.681	245.5
268.913	229.5
269.145	257.5
269.377	276.5
269.609	258.5
269.841	281.5
270.073	270.5
270.306	291.5
270.538	311.5
270.77	310.5
271.002	314.5
271.234	296.5
271.466	320.5
271.698	321.5
271.93	310.5
272.162	324.5
272.394	317.5
272.626	313.5
272.858	289.5
273.09	281.5
273.322	300.5
273.553	275.5
273.785	269.5
274.017	258.5
274.249	257.5
274.481	253.5
274.713	250.5
274.945	250.5
275.176	260.5
275.408	269.5
275.64	268.5
275.872	260.5
276.104	254.5
276.335	259.5
276.567	285.5
276.799	290.5
277.031	298.5
277.262	323.5
277.494	306.5
277.726	299.5
277.957	278.5
278.189	273.5
278.421	256.5
278.652	245.5
278.884	263.5
279.115	259.5
279.347	229.5
279.579	255.5
279.81	264.5
280.042	265.5
280.273	243.5
280.505	256.5
280.736	264.5
280.968	254.5
281.199	235.5
281.431	262.5
281.662	246.5
281.894	257.5
282.125	258.5
282.356	291.5
282.588	298.5
282.819	310.5
283.051	270.5
283.282	275.5
283.513	250.5
283.745	258.5
283.976	258.5
284.207	270.5
284.439	253.5
284.67	258.5
284.901	262.5
285.132	252.5
285.364	246.5
285.595	265.5
285.826	256.5
286.057	283.5
286.288	274.5
286.52	280.5
286.751	261.5
286.982	256.5
287.213	258.5
287.444	268.5
287.675	274.5
287.906	283.5
288.138	267.5
288.369	290.5
288.6	292.5
288.831	278.5
289.062	285.5
289.293	273.5
289.524	269.5
289.755	261.5
289.986	259.5
290.217	278.5
290.448	280.5
290.679	283.5
290.91	258.5
291.141	268.5
291.371	268.5
291.602	267.5
291.833	269.5
292.064	257.5
292.295	274.5
292.526	268.5
292.757	271.5
292.987	254.5
293.218	269.5
293.449	253.5
293.68	280.5
293.91	272.5
294.141	270.5
294.372	261.5
294.603	270.5
294.833	253.5
295.064	268.5
295.295	276.5
295.525	271.5
295.756	276.5
295.987	269.5
296.217	294.5
296.448	306.5
296.679	284.5
296.909	258.5
297.14	278.5
297.37	252.5
297.601	262.5
297.831	280.5
298.062	279.5
298.292	252.5
298.523	252.5
298.753	294.5
298.984	294.5
299.214	299.5
299.445	288.5
299.675	303.5
299.905	292.5
300.136	269.5
300.366	283.5
300.597	282.5
300.827	284.5
301.057	290.5
301.288	294.5
301.518	305.5
301.748	299.5
301.979	298.5
302.209	312.5
302.439	288.5
302.669	295.5
302.9	310.5
303.13	300.5
303.36	301.5
303.59	289.5
303.82	306.5
304.051	310.5
304.281	307.5
304.511	294.5
304.741	297.5
304.971	276.5
305.201	274.5
305.431	288.5
305.661	326.5
305.891	294.5
306.121	315.5
306.352	312.5
306.582	307.5
306.812	304.5
307.042	294.5
307.272	290.5
307.502	307.5
307.731	316.5
307.961	317.5
308.191	300.5
308.421	299.5
308.651	323.5
308.881	320.5
309.111	326.5
309.341	322.5
309.571	322.5
309.8	338.5
310.03	341.5
310.26	341.5
310.49	363.5
310.72	355.5
310.949	368.5
311.179	388.5
311.409	357.5
311.639	368.5
311.868	357.5
312.098	357.5
312.328	365.5
312.557	377.5
312.787	392.5
313.017	381.5
313.246	363.5
313.476	353.5
313.706	352.5
313.935	370.5
314.165	387.5
314.394	398.5
314.624	378.5
314.853	353.5
315.083	354.5
315.312	353.5
315.542	354.5
315.771	344.5
316.001	335.5
316.23	353.5
316.46	339.5
316.689	358.5
316.919	353.5
317.148	359.5
317.377	353.5
317.607	364.5
317.836	353.5
318.065	370.5
318.295	330.5
318.524	354.5
318.753	349.5
318.983	369.5
319.212	356.5
319.441	362.5
319.67	363.5
319.9	350.5
320.129	361.5
320.358	346.5
320.587	342.5
320.816	385.5
321.046	399.5
321.275	373.5
321.504	370.5
321.733	383.5
321.962	396.5
322.191	414.5
322.42	419.5
322.649	444.5
322.878	448.5
323.108	454.5
323.337	481.5
323.566	493.5
323.795	555.5
324.024	611.5
324.253	728.5
324.482	1055.5
324.71	1554.5
324.939	2255.5
325.168	1982.5
325.397	1069.5
325.626	723.5
325.855	580.5
326.084	520.5
326.313	512.5
326.542	538.5
326.77	559.5
326.999	664.5
327.228	921.5
327.457	1388.5
327.686	1754.5
327.914	1196.5
328.143	780.5
328.372	667.5
328.6	618.5
328.829	590.5
329.058	598.5
329.287	631.5
329.515	560.5
329.744	515.5
329.972	501.5
330.201	518.5
330.43	565.5
330.658	565.5
330.887	631.5
331.115	617.5
331.344	532.5
331.572	485.5
331.801	480.5
332.03	454.5
332.258	442.5
332.486	413.5
332.715	425.5
332.943	421.5
333.172	423.5
333.4	418.5
333.629	432.5
333.857	439.5
334.085	450.5
334.314	457.5
334.542	481.5
334.771	484.5
334.999	452.5
335.227	424.5
335.455	426.5
335.684	412.5
335.912	407.5
336.14	390.5
336.369	402.5
336.597	405.5
336.825	401.5
337.053	415.5
337.281	408.5
337.51	407.5
337.738	402.5
337.966	382.5
338.194	404.5
338.422	404.5
338.65	418.5
338.878	399.5
339.106	388.5
339.334	380.5
339.562	389.5
339.79	385.5
340.018	378.5
340.246	395.5
340.474	420.5
340.702	397.5
340.93	380.5
341.158	376.5
341.386	398.5
341.614	392.5
341.842	393.5
342.07	391.5
342.298	390.5
342.526	381.5
342.754	374.5
342.981	383.5
343.209	353.5
343.437	365.5
343.665	383.5
343.893	393.5
344.12	405.5
344.348	384.5
344.576	396.5
344.804	389.5
345.031	405.5
345.259	417.5
345.487	403.5
345.714	386.5
345.942	407.5
346.17	400.5
346.397	388.5
346.625	383.5
346.853	397.5
347.08	370.5
347.308	392.5
347.535	393.5
347.763	399.5
347.99	407.5
348.218	418.5
348.445	393.5
348.673	418.5
348.9	365.5
349.128	382.5
349.355	374.5
349.583	357.5
349.81	363.5
350.037	378.5
350.265	344.5
350.492	384.5
350.72	376.5
350.947	366.5
351.174	394.5
351.402	381.5
351.629	395.5
351.856	386.5
352.083	390.5
352.311	398.5
352.538	404.5
352.765	394.5
352.992	395.5
353.22	403.5
353.447	400.5
353.674	381.5
353.901	380.5
354.128	368.5
354.355	347.5
354.583	363.5
354.81	336.5
355.037	353.5
355.264	361.5
355.491	337.5
355.718	342.5
355.945	370.5
356.172	335.5
356.399	338.5
356.626	362.5
356.853	327.5
357.08	346.5
357.307	342.5
357.534	323.5
357.761	352.5
357.988	362.5
358.215	352.5
358.441	352.5
358.668	344.5
358.895	348.5
359.122	359.5
359.349	364.5
359.576	398.5
359.802	393.5
360.029	426.5
360.256	447.5
360.483	448.5
360.709	371.5
360.936	378.5
361.163	370.5
361.39	371.5
361.616	388.5
361.843	368.5
362.07	390.5
362.296	397.5
362.523	392.5
362.749	383.5
362.976	358.5
363.203	368.5
363.429	344.5
363.656	364.5
363.882	377.5
364.109	365.5
364.335	352.5
364.562	360.5
364.788	365.5
365.015	371.5
365.241	357.5
365.468	357.5
365.694	379.5
365.92	361.5
366.147	342.5
366.373	337.5
366.599	347.5
366.826	341.5
367.052	344.5
367.278	365.5
367.505	366.5
367.731	347.5
367.957	365.5
368.184	362.5
368.41	376.5
368.636	376.5
368.862	384.5
369.089	364.5
369.315	361.5
369.541	363.5
369.767	360.5
369.993	369.5
370.219	353.5
370.445	353.5
370.672	347.5
370.898	324.5
371.124	339.5
371.35	339.5
371.576	340.5
371.802	334.5
372.028	340.5
372.254	347.5
372.48	369.5
372.706	359.5
372.932	348.5
373.158	351.5
373.384	369.5
373.61	355.5
373.835	338.5
374.061	339.5
374.287	370.5
374.513	344.5
374.739	356.5
374.965	360.5
375.191	350.5
375.416	333.5
375.642	339.5
375.868	360.5
376.094	368.5
376.319	361.5
376.545	338.5
376.771	333.5
376.997	343.5
377.222	341.5
377.448	336.5
377.674	333.5
377.899	346.5
378.125	344.5
378.35	328.5
378.576	358.5
378.802	328.5
379.027	345.5
379.253	345.5
379.478	354.5
379.704	362.5
379.929	353.5
380.155	356.5
380.38	355.5
380.606	351.5
380.831	338.5
381.057	352.5
381.282	361.5
381.507	340.5
381.733	336.5
381.958	342.5
382.184	351.5
382.409	360.5
382.634	360.5
382.86	353.5
383.085	356.5
383.31	357.5
383.535	353.5
383.761	343.5
383.986	355.5
384.211	361.5
384.436	375.5
384.662	346.5
384.887	344.5
385.112	368.5
385.337	379.5
385.562	364.5
385.787	376.5
386.013	367.5
386.238	376.5
386.463	370.5
386.688	368.5
386.913	360.5
387.138	360.5
387.363	357.5
387.588	374.5
387.813	360.5
388.038	357.5
388.263	360.5
388.488	370.5
388.713	374.5
388.938	371.5
389.163	377.5
389.387	387.5
389.612	362.5
389.837	346.5
390.062	370.5
390.287	378.5
390.512	360.5
390.736	355.5
390.961	359.5
391.186	342.5
391.411	352.5
391.636	380.5
391.86	368.5
392.085	374.5
392.31	358.5
392.534	368.5
392.759	363.5
392.984	338.5
393.208	348.5
393.433	368.5
393.658	360.5
393.882	349.5
394.107	354.5
394.331	356.5
394.556	377.5
394.78	354.5
395.005	368.5
395.229	368.5
395.454	365.5
395.678	374.5
395.903	363.5
396.127	386.5
396.352	372.5
396.576	387.5
396.801	365.5
397.025	394.5
397.249	384.5
397.474	387.5
397.698	397.5
397.922	380.5
398.147	400.5
398.371	409.5
398.595	379.5
398.82	405.5
399.044	398.5
399.268	400.5
399.492	414.5
399.717	440.5
399.941	460.5
400.165	487.5
400.389	517.5
400.613	464.5
400.837	438.5
401.062	436.5
401.286	425.5
401.51	421.5
401.734	386.5
401.958	400.5
402.182	429.5
402.406	418.5
402.63	425.5
402.854	441.5
403.078	416.5
403.302	424.5
403.526	436.5
403.75	432.5
403.974	416.5
404.198	400.5
404.422	417.5
404.645	411.5
404.869	436.5
405.093	457.5
405.317	489.5
405.541	514.5
405.765	496.5
405.988	444.5
406.212	452.5
406.436	478.5
406.66	492.5
406.883	482.5
407.107	486.5
407.331	525.5
407.555	580.5
407.778	577.5
408.002	518.5
408.226	479.5
408.449	468.5
408.673	481.5
408.896	492.5
409.12	541.5
409.344	513.5
409.567	464.5
409.791	442.5
410.014	429.5
410.238	422.5
410.461	432.5
410.685	435.5
410.908	444.5
411.132	460.5
411.355	522.5
411.578	498.5
411.802	442.5
412.025	424.5
412.249	435.5
412.472	452.5
412.695	465.5
412.919	458.5
413.142	422.5
413.365	409.5
413.589	420.5
413.812	415.5
414.035	419.5
414.258	394.5
414.482	406.5
414.705	384.5
414.928	412.5
415.151	378.5
415.374	392.5
415.597	376.5
415.821	398.5
416.044	398.5
416.267	414.5
416.49	401.5
416.713	409.5
416.936	420.5
417.159	416.5
417.382	402.5
417.605	405.5
417.828	411.5
418.051	427.5
418.274	423.5
418.497	401.5
418.72	414.5
418.943	444.5
419.166	409.5
419.389	436.5
419.611	436.5
419.834	419.5
420.057	436.5
420.28	418.5
420.503	448.5
420.726	424.5
420.948	442.5
421.171	480.5
421.394	522.5
421.617	430.5
421.839	432.5
422.062	436.5
422.285	459.5
422.507	489.5
422.73	566.5
422.953	554.5
423.175	482.5
423.398	456.5
423.621	459.5
423.843	477.5
424.066	474.5
424.288	483.5
424.511	496.5
424.733	535.5
424.956	629.5
425.178	632.5
425.401	596.5
425.623	575.5
425.846	524.5
426.068	462.5
426.291	470.5
426.513	466.5
426.735	489.5
426.958	521.5
427.18	599.5
427.402	729.5
427.625	798.5
427.847	713.5
428.069	620.5
428.292	533.5
428.514	481.5
428.736	466.5
428.958	450.5
429.181	430.5
429.403	462.5
429.625	455.5
429.847	491.5
430.069	540.5
430.292	545.5
430.514	462.5
430.736	453.5
430.958	431.5
431.18	413.5
431.402	400.5
431.624	425.5
431.846	395.5
432.068	413.5
432.29	409.5
432.512	396.5
432.734	416.5
432.956	403.5
433.178	424.5
433.4	414.5
433.622	399.5
433.844	408.5
434.066	419.5
434.287	420.5
434.509	407.5
434.731	405.5
434.953	423.5
435.175	430.5
435.397	458.5
435.618	490.5
435.84	519.5
436.062	635.5
436.284	668.5
436.505	553.5
436.727	510.5
436.949	480.5
437.17	439.5
437.392	454.5
437.614	464.5
437.835	504.5
438.057	609.5
438.278	696.5
438.5	681.5
438.721	723.5
438.943	706.5
439.165	576.5
439.386	505.5
439.608	484.5
439.829	487.5
440.05	545.5
440.272	558.5
440.493	555.5
440.715	474.5
440.936	459.5
441.158	445.5
441.379	432.5
441.6	478.5
441.822	504.5
442.043	521.5
442.264	590.5
442.486	657.5
442.707	557.5
442.928	502.5
443.149	508.5
443.371	542.5
443.592	560.5
443.813	633.5
444.034	676.5
444.255	577.5
444.476	496.5
444.698	504.5
444.919	481.5
445.14	558.5
445.361	528.5
445.582	529.5
445.803	584.5
446.024	670.5
446.245	694.5
446.466	605.5
446.687	546.5
446.908	472.5
447.129	460.5
447.35	457.5
447.571	450.5
447.792	458.5
448.013	445.5
448.234	462.5
448.455	521.5
448.675	631.5
448.896	723.5
449.117	636.5
449.338	596.5
449.559	663.5
449.779	776.5
450	597.5
450.221	534.5
450.442	462.5
450.662	436.5
450.883	457.5
451.104	471.5
451.324	457.5
451.545	426.5
451.766	428.5
451.986	408.5
452.207	392.5
452.428	406.5
452.648	404.5
452.869	402.5
453.089	407.5
453.31	425.5
453.53	398.5
453.751	389.5
453.971	405.5
454.192	428.5
454.412	422.5
454.633	392.5
454.853	409.5
455.073	396.5
455.294	423.5
455.514	492.5
455.734	492.5
455.955	421.5
456.175	389.5
456.395	365.5
456.616	353.5
456.836	378.5
457.056	359.5
457.276	366.5
457.497	377.5
457.717	386.5
457.937	370.5
458.157	384.5
458.377	375.5
458.598	419.5
458.818	477.5
459.038	548.5
459.258	576.5
459.478	466.5
459.698	429.5
459.918	410.5
460.138	394.5
460.358	402.5
460.578	415.5
460.798	418.5
461.018	394.5
461.238	405.5
461.458	387.5
461.678	386.5
461.898	410.5
462.118	382.5
462.338	399.5
462.558	416.5
462.777	393.5
462.997	408.5
463.217	432.5
463.437	413.5
463.657	419.5
463.876	428.5
464.096	425.5
464.316	420.5
464.536	434.5
464.755	410.5
464.975	461.5
465.195	522.5
465.414	588.5
465.634	490.5
465.854	435.5
466.073	424.5
466.293	403.5
466.512	382.5
466.732	417.5
466.951	386.5
467.171	405.5
467.391	416.5
467.61	420.5
467.829	442.5
468.049	421.5
468.268	402.5
468.488	412.5
468.707	380.5
468.927	394.5
469.146	388.5
469.365	392.5
469.585	371.5
469.804	378.5
470.023	405.5
470.243	411.5
470.462	409.5
470.681	431.5
470.901	422.5
471.12	421.5
471.339	409.5
471.558	412.5
471.777	395.5
471.997	400.5
472.216	432.5
472.435	444.5
472.654	434.5
472.873	391.5
473.092	402.5
473.311	406.5
473.53	410.5
473.749	410.5
473.968	441.5
474.187	554.5
474.406	577.5
474.625	477.5
474.844	437.5
475.063	418.5
475.282	419.5
475.501	405.5
475.72	413.5
475.939	417.5
476.158	415.5
476.377	425.5
476.596	410.5
476.814	424.5
477.033	447.5
477.252	457.5
477.471	418.5
477.69	457.5
477.908	429.5
478.127	452.5
478.346	441.5
478.564	437.5
478.783	457.5
479.002	465.5
479.22	460.5
479.439	470.5
479.658	489.5
479.876	496.5
480.095	467.5
480.313	514.5
480.532	483.5
480.751	492.5
480.969	516.5
481.188	542.5
481.406	583.5
481.624	536.5
481.843	519.5
482.061	502.5
482.28	487.5
482.498	470.5
482.717	459.5
482.935	463.5
483.153	463.5
483.372	451.5
483.59	463.5
483.808	488.5
484.027	456.5
484.245	453.5
484.463	484.5
484.681	486.5
484.9	491.5
485.118	502.5
485.336	476.5
485.554	493.5
485.772	495.5
485.99	497.5
486.209	519.5
486.427	502.5
486.645	512.5
486.863	524.5
487.081	526.5
487.299	523.5
487.517	512.5
487.735	528.5
487.953	516.5
488.171	513.5
488.389	521.5
488.607	513.5
488.825	520.5
489.043	545.5
489.261	544.5
489.479	540.5
489.696	516.5
489.914	547.5
490.132	563.5
490.35	572.5
490.568	551.5
490.786	566.5
491.003	562.5
491.221	570.5
491.439	593.5
491.657	602.5
491.874	589.5
492.092	609.5
492.31	603.5
492.527	609.5
492.745	620.5
492.963	613.5
493.18	617.5
493.398	626.5
493.615	605.5
493.833	598.5
494.05	632.5
494.268	616.5
494.485	618.5
494.703	611.5
494.92	610.5
495.138	629.5
495.355	635.5
495.573	633.5
495.79	620.5
496.008	626.5
496.225	645.5
496.442	620.5
496.66	610.5
496.877	623.5
497.094	637.5
497.312	626.5
497.529	646.5
497.746	640.5
497.963	633.5
498.181	671.5
498.398	683.5
498.615	697.5
498.832	689.5
499.049	665.5
499.267	674.5
499.484	694.5
499.701	717.5
499.918	707.5
500.135	737.5
500.352	744.5
500.569	761.5
500.786	720.5
501.003	744.5
501.22	758.5
501.437	756.5
501.654	732.5
501.871	764.5
502.088	728.5
502.305	700.5
502.522	667.5
502.739	677.5
502.956	662.5
503.172	645.5
503.389	639.5
503.606	635.5
503.823	669.5
504.04	632.5
504.256	654.5
504.473	629.5
504.69	616.5
504.907	636.5
505.123	605.5
505.34	624.5
505.557	605.5
505.773	614.5
505.99	589.5
506.207	601.5
506.423	625.5
506.64	624.5
506.856	588.5
507.073	594.5
507.289	580.5
507.506	601.5
507.722	604.5
507.939	614.5
508.155	601.5
508.372	611.5
508.588	573.5
508.805	578.5
509.021	582.5
509.238	596.5
509.454	596.5
509.67	602.5
509.887	598.5
510.103	597.5
510.319	631.5
510.536	712.5
510.752	1256.5
510.968	1041.5
511.184	638.5
511.401	592.5
511.617	578.5
511.833	544.5
512.049	560.5
512.265	553.5
512.481	564.5
512.698	551.5
512.914	563.5
513.13	549.5
513.346	564.5
513.562	576.5
513.778	576.5
513.994	571.5
514.21	565.5
514.426	620.5
514.642	676.5
514.858	691.5
515.074	758.5
515.29	952.5
515.506	1431.5
515.721	1164.5
515.937	733.5
516.153	642.5
516.369	623.5
516.585	596.5
516.801	568.5
517.016	578.5
517.232	567.5
517.448	576.5
517.664	562.5
517.879	585.5
518.095	534.5
518.311	568.5
518.527	540.5
518.742	571.5
518.958	553.5
519.173	552.5
519.389	563.5
519.605	562.5
519.82	570.5
