Data from 1986.PennyLincolnUp.Lamp.En5.5.200Scan.071819.P2_HRD10591_17-11-15-973.txt Node
Date: Thu Jul 18 17:11:15 EDT 2019
User: cochatt
Spectrometer: HR+D1059
Trigger mode: 1
Integration Time (sec): 1.000000E-1
Scans to average: 1
Electric dark correction enabled: true
Nonlinearity correction enabled: false
Boxcar width: 0
XAxis mode: Wavelengths
Number of Pixels in Spectrum: 2048
>>>>>Begin Spectral Data<<<<<
223.165	-8.56
223.4	-8.56
223.635	-8.56
223.869	-27.56
224.104	-11.56
224.338	-27.56
224.573	-3.56
224.808	-14.56
225.042	-13.56
225.277	3.44
225.511	-3.56
225.746	9.44
225.98	-0.56
226.215	4.44
226.449	22.44
226.683	26.44
226.918	17.44
227.152	27.44
227.387	39.44
227.621	32.44
227.856	45.44
228.09	42.44
228.324	54.44
228.559	44.44
228.793	72.44
229.027	97.44
229.262	100.44
229.496	123.44
229.73	132.44
229.964	153.44
230.199	140.44
230.433	103.44
230.667	108.44
230.901	124.44
231.136	107.44
231.37	116.44
231.604	126.44
231.838	112.44
232.072	96.44
232.306	118.44
232.541	118.44
232.775	105.44
233.009	112.44
233.243	107.44
233.477	115.44
233.711	96.44
233.945	128.44
234.179	114.44
234.413	124.44
234.647	111.44
234.881	127.44
235.115	112.44
235.349	111.44
235.583	114.44
235.817	129.44
236.051	126.44
236.285	136.44
236.519	126.44
236.753	140.44
236.987	152.44
237.221	192.44
237.455	261.44
237.689	213.44
237.922	168.44
238.156	141.44
238.39	142.44
238.624	138.44
238.858	124.44
239.091	138.44
239.325	123.44
239.559	138.44
239.793	140.44
240.027	132.44
240.26	141.44
240.494	167.44
240.728	163.44
240.961	143.44
241.195	150.44
241.429	129.44
241.662	148.44
241.896	145.44
242.13	147.44
242.363	145.44
242.597	140.44
242.83	126.44
243.064	137.44
243.298	160.44
243.531	144.44
243.765	146.44
243.998	140.44
244.232	144.44
244.465	151.44
244.699	151.44
244.932	161.44
245.166	159.44
245.399	140.44
245.633	146.44
245.866	154.44
246.099	156.44
246.333	158.44
246.566	151.44
246.8	134.44
247.033	154.44
247.266	153.44
247.5	147.44
247.733	175.44
247.966	182.44
248.2	188.44
248.433	194.44
248.666	190.44
248.899	191.44
249.133	194.44
249.366	214.44
249.599	212.44
249.832	188.44
250.066	181.44
250.299	216.44
250.532	201.44
250.765	220.44
250.998	239.44
251.231	252.44
251.465	223.44
251.698	224.44
251.931	210.44
252.164	209.44
252.397	204.44
252.63	210.44
252.863	206.44
253.096	247.44
253.329	257.44
253.562	263.44
253.795	242.44
254.028	225.44
254.261	230.44
254.494	241.44
254.727	274.44
254.96	308.44
255.193	295.44
255.426	279.44
255.659	255.44
255.892	245.44
256.124	262.44
256.357	272.44
256.59	256.44
256.823	240.44
257.056	237.44
257.289	233.44
257.521	243.44
257.754	237.44
257.987	227.44
258.22	236.44
258.452	228.44
258.685	217.44
258.918	217.44
259.151	203.44
259.383	229.44
259.616	227.44
259.849	230.44
260.081	232.44
260.314	269.44
260.547	285.44
260.779	255.44
261.012	244.44
261.244	244.44
261.477	221.44
261.71	232.44
261.942	234.44
262.175	248.44
262.407	244.44
262.64	226.44
262.872	227.44
263.105	205.44
263.337	209.44
263.57	216.44
263.802	208.44
264.035	212.44
264.267	217.44
264.499	217.44
264.732	232.44
264.964	222.44
265.197	225.44
265.429	217.44
265.661	231.44
265.894	220.44
266.126	237.44
266.358	220.44
266.591	219.44
266.823	224.44
267.055	223.44
267.287	243.44
267.52	229.44
267.752	234.44
267.984	218.44
268.216	224.44
268.448	257.44
268.681	248.44
268.913	241.44
269.145	286.44
269.377	282.44
269.609	282.44
269.841	276.44
270.073	301.44
270.306	317.44
270.538	333.44
270.77	338.44
271.002	305.44
271.234	325.44
271.466	312.44
271.698	305.44
271.93	333.44
272.162	326.44
272.394	357.44
272.626	337.44
272.858	312.44
273.09	313.44
273.322	279.44
273.553	274.44
273.785	289.44
274.017	284.44
274.249	254.44
274.481	269.44
274.713	257.44
274.945	264.44
275.176	277.44
275.408	267.44
275.64	272.44
275.872	265.44
276.104	260.44
276.335	266.44
276.567	293.44
276.799	290.44
277.031	329.44
277.262	322.44
277.494	333.44
277.726	302.44
277.957	305.44
278.189	289.44
278.421	280.44
278.652	272.44
278.884	272.44
279.115	258.44
279.347	266.44
279.579	270.44
279.81	280.44
280.042	260.44
280.273	281.44
280.505	277.44
280.736	277.44
280.968	261.44
281.199	258.44
281.431	252.44
281.662	286.44
281.894	250.44
282.125	270.44
282.356	294.44
282.588	297.44
282.819	320.44
283.051	280.44
283.282	255.44
283.513	266.44
283.745	266.44
283.976	267.44
284.207	278.44
284.439	280.44
284.67	273.44
284.901	268.44
285.132	277.44
285.364	274.44
285.595	278.44
285.826	282.44
286.057	260.44
286.288	293.44
286.52	268.44
286.751	275.44
286.982	277.44
287.213	257.44
287.444	303.44
287.675	282.44
287.906	273.44
288.138	293.44
288.369	284.44
288.6	291.44
288.831	293.44
289.062	310.44
289.293	300.44
289.524	268.44
289.755	259.44
289.986	272.44
290.217	281.44
290.448	289.44
290.679	286.44
290.91	263.44
291.141	260.44
291.371	282.44
291.602	274.44
291.833	273.44
292.064	271.44
292.295	266.44
292.526	272.44
292.757	288.44
292.987	287.44
293.218	282.44
293.449	305.44
293.68	274.44
293.91	274.44
294.141	275.44
294.372	282.44
294.603	275.44
294.833	272.44
295.064	270.44
295.295	282.44
295.525	285.44
295.756	286.44
295.987	305.44
296.217	323.44
296.448	340.44
296.679	298.44
296.909	289.44
297.14	294.44
297.37	287.44
297.601	288.44
297.831	289.44
298.062	296.44
298.292	294.44
298.523	284.44
298.753	320.44
298.984	298.44
299.214	299.44
299.445	285.44
299.675	302.44
299.905	302.44
300.136	297.44
300.366	295.44
300.597	306.44
300.827	289.44
301.057	317.44
301.288	312.44
301.518	302.44
301.748	292.44
301.979	309.44
302.209	312.44
302.439	302.44
302.669	301.44
302.9	314.44
303.13	311.44
303.36	312.44
303.59	318.44
303.82	289.44
304.051	290.44
304.281	305.44
304.511	338.44
304.741	297.44
304.971	304.44
305.201	300.44
305.431	300.44
305.661	320.44
305.891	303.44
306.121	327.44
306.352	305.44
306.582	328.44
306.812	296.44
307.042	318.44
307.272	305.44
307.502	326.44
307.731	333.44
307.961	320.44
308.191	326.44
308.421	328.44
308.651	303.44
308.881	325.44
309.111	326.44
309.341	338.44
309.571	347.44
309.8	340.44
310.03	350.44
310.26	353.44
310.49	375.44
310.72	380.44
310.949	386.44
311.179	391.44
311.409	376.44
311.639	380.44
311.868	369.44
312.098	362.44
312.328	375.44
312.557	402.44
312.787	395.44
313.017	401.44
313.246	398.44
313.476	381.44
313.706	367.44
313.935	361.44
314.165	395.44
314.394	416.44
314.624	399.44
314.853	373.44
315.083	387.44
315.312	382.44
315.542	372.44
315.771	376.44
316.001	370.44
316.23	353.44
316.46	356.44
316.689	377.44
316.919	369.44
317.148	379.44
317.377	382.44
317.607	386.44
317.836	394.44
318.065	381.44
318.295	365.44
318.524	353.44
318.753	364.44
318.983	374.44
319.212	354.44
319.441	378.44
319.67	369.44
319.9	374.44
320.129	372.44
320.358	357.44
320.587	380.44
320.816	394.44
321.046	406.44
321.275	396.44
321.504	377.44
321.733	398.44
321.962	407.44
322.191	426.44
322.42	436.44
322.649	460.44
322.878	478.44
323.108	480.44
323.337	502.44
323.566	534.44
323.795	575.44
324.024	607.44
324.253	764.44
324.482	1076.44
324.71	1625.44
324.939	2366.44
325.168	2119.44
325.397	1074.44
325.626	742.44
325.855	602.44
326.084	557.44
326.313	521.44
326.542	534.44
326.77	595.44
326.999	686.44
327.228	952.44
327.457	1434.44
327.686	1797.44
327.914	1246.44
328.143	832.44
328.372	716.44
328.6	667.44
328.829	634.44
329.058	641.44
329.287	645.44
329.515	589.44
329.744	559.44
329.972	560.44
330.201	619.44
330.43	663.44
330.658	700.44
330.887	687.44
331.115	647.44
331.344	563.44
331.572	511.44
331.801	514.44
332.03	530.44
332.258	495.44
332.486	473.44
332.715	455.44
332.943	470.44
333.172	444.44
333.4	450.44
333.629	470.44
333.857	490.44
334.085	527.44
334.314	562.44
334.542	644.44
334.771	652.44
334.999	551.44
335.227	506.44
335.455	465.44
335.684	433.44
335.912	438.44
336.14	444.44
336.369	414.44
336.597	433.44
336.825	427.44
337.053	434.44
337.281	410.44
337.51	411.44
337.738	400.44
337.966	410.44
338.194	413.44
338.422	445.44
338.65	409.44
338.878	408.44
339.106	401.44
339.334	410.44
339.562	386.44
339.79	413.44
340.018	400.44
340.246	420.44
340.474	416.44
340.702	419.44
340.93	403.44
341.158	393.44
341.386	421.44
341.614	431.44
341.842	418.44
342.07	408.44
342.298	411.44
342.526	394.44
342.754	385.44
342.981	401.44
343.209	391.44
343.437	391.44
343.665	385.44
343.893	382.44
344.12	391.44
344.348	404.44
344.576	408.44
344.804	417.44
345.031	415.44
345.259	432.44
345.487	414.44
345.714	407.44
345.942	405.44
346.17	385.44
346.397	385.44
346.625	396.44
346.853	398.44
347.08	413.44
347.308	411.44
347.535	407.44
347.763	406.44
347.99	402.44
348.218	428.44
348.445	416.44
348.673	435.44
348.9	403.44
349.128	403.44
349.355	378.44
349.583	395.44
349.81	372.44
350.037	380.44
350.265	386.44
350.492	392.44
350.72	389.44
350.947	388.44
351.174	397.44
351.402	406.44
351.629	410.44
351.856	409.44
352.083	411.44
352.311	410.44
352.538	426.44
352.765	408.44
352.992	400.44
353.22	412.44
353.447	417.44
353.674	392.44
353.901	393.44
354.128	367.44
354.355	361.44
354.583	356.44
354.81	382.44
355.037	349.44
355.264	361.44
355.491	353.44
355.718	377.44
355.945	358.44
356.172	356.44
356.399	358.44
356.626	365.44
356.853	350.44
357.08	348.44
357.307	357.44
357.534	368.44
357.761	370.44
357.988	385.44
358.215	353.44
358.441	384.44
358.668	372.44
358.895	369.44
359.122	378.44
359.349	401.44
359.576	411.44
359.802	426.44
360.029	456.44
360.256	469.44
360.483	443.44
360.709	401.44
360.936	395.44
361.163	374.44
361.39	414.44
361.616	411.44
361.843	396.44
362.07	412.44
362.296	418.44
362.523	402.44
362.749	375.44
362.976	385.44
363.203	406.44
363.429	360.44
363.656	374.44
363.882	382.44
364.109	392.44
364.335	375.44
364.562	371.44
364.788	351.44
365.015	362.44
365.241	355.44
365.468	365.44
365.694	387.44
365.92	400.44
366.147	362.44
366.373	384.44
366.599	384.44
366.826	378.44
367.052	368.44
367.278	351.44
367.505	346.44
367.731	358.44
367.957	368.44
368.184	367.44
368.41	377.44
368.636	372.44
368.862	391.44
369.089	392.44
369.315	378.44
369.541	352.44
369.767	347.44
369.993	366.44
370.219	365.44
370.445	379.44
370.672	381.44
370.898	350.44
371.124	373.44
371.35	364.44
371.576	368.44
371.802	360.44
372.028	347.44
372.254	356.44
372.48	360.44
372.706	367.44
372.932	372.44
373.158	354.44
373.384	366.44
373.61	348.44
373.835	361.44
374.061	360.44
374.287	381.44
374.513	368.44
374.739	382.44
374.965	352.44
375.191	376.44
375.416	359.44
375.642	356.44
375.868	375.44
376.094	342.44
376.319	349.44
376.545	346.44
376.771	332.44
376.997	333.44
377.222	342.44
377.448	333.44
377.674	364.44
377.899	343.44
378.125	365.44
378.35	341.44
378.576	335.44
378.802	355.44
379.027	373.44
379.253	365.44
379.478	347.44
379.704	361.44
379.929	355.44
380.155	378.44
380.38	362.44
380.606	365.44
380.831	350.44
381.057	351.44
381.282	333.44
381.507	356.44
381.733	357.44
381.958	359.44
382.184	349.44
382.409	372.44
382.634	362.44
382.86	382.44
383.085	361.44
383.31	373.44
383.535	351.44
383.761	359.44
383.986	355.44
384.211	381.44
384.436	362.44
384.662	350.44
384.887	350.44
385.112	346.44
385.337	347.44
385.562	350.44
385.787	352.44
386.013	376.44
386.238	391.44
386.463	389.44
386.688	397.44
386.913	389.44
387.138	377.44
387.363	378.44
387.588	380.44
387.813	369.44
388.038	379.44
388.263	368.44
388.488	370.44
388.713	383.44
388.938	364.44
389.163	383.44
389.387	386.44
389.612	354.44
389.837	365.44
390.062	361.44
390.287	365.44
390.512	373.44
390.736	384.44
390.961	384.44
391.186	379.44
391.411	366.44
391.636	369.44
391.86	376.44
392.085	385.44
392.31	354.44
392.534	386.44
392.759	396.44
392.984	360.44
393.208	362.44
393.433	358.44
393.658	376.44
393.882	363.44
394.107	368.44
394.331	368.44
394.556	378.44
394.78	368.44
395.005	359.44
395.229	358.44
395.454	407.44
395.678	380.44
395.903	379.44
396.127	420.44
396.352	420.44
396.576	397.44
396.801	380.44
397.025	372.44
397.249	388.44
397.474	391.44
397.698	388.44
397.922	407.44
398.147	406.44
398.371	408.44
398.595	408.44
398.82	405.44
399.044	419.44
399.268	420.44
399.492	417.44
399.717	443.44
399.941	487.44
400.165	494.44
400.389	505.44
400.613	463.44
400.837	433.44
401.062	415.44
401.286	422.44
401.51	430.44
401.734	429.44
401.958	416.44
402.182	402.44
402.406	422.44
402.63	428.44
402.854	440.44
403.078	424.44
403.302	444.44
403.526	429.44
403.75	436.44
403.974	436.44
404.198	424.44
404.422	455.44
404.645	461.44
404.869	479.44
405.093	485.44
405.317	546.44
405.541	550.44
405.765	521.44
405.988	492.44
406.212	468.44
406.436	502.44
406.66	524.44
406.883	489.44
407.107	487.44
407.331	530.44
407.555	580.44
407.778	572.44
408.002	540.44
408.226	492.44
408.449	490.44
408.673	489.44
408.896	527.44
409.12	549.44
409.344	518.44
409.567	474.44
409.791	417.44
410.014	438.44
410.238	436.44
410.461	426.44
410.685	444.44
410.908	471.44
411.132	495.44
411.355	540.44
411.578	504.44
411.802	464.44
412.025	446.44
412.249	465.44
412.472	487.44
412.695	522.44
412.919	553.44
413.142	486.44
413.365	464.44
413.589	437.44
413.812	438.44
414.035	422.44
414.258	430.44
414.482	410.44
414.705	413.44
414.928	420.44
415.151	428.44
415.374	415.44
415.597	394.44
415.821	405.44
416.044	415.44
416.267	407.44
416.49	413.44
416.713	410.44
416.936	400.44
417.159	422.44
417.382	417.44
417.605	425.44
417.828	448.44
418.051	448.44
418.274	441.44
418.497	418.44
418.72	408.44
418.943	424.44
419.166	426.44
419.389	460.44
419.611	454.44
419.834	446.44
420.057	453.44
420.28	456.44
420.503	452.44
420.726	455.44
420.948	484.44
421.171	513.44
421.394	531.44
421.617	482.44
421.839	457.44
422.062	460.44
422.285	484.44
422.507	515.44
422.73	590.44
422.953	575.44
423.175	486.44
423.398	461.44
423.621	480.44
423.843	485.44
424.066	476.44
424.288	493.44
424.511	508.44
424.733	570.44
424.956	612.44
425.178	631.44
425.401	588.44
425.623	641.44
425.846	550.44
426.068	511.44
426.291	508.44
426.513	510.44
426.735	509.44
426.958	539.44
427.18	632.44
427.402	747.44
427.625	820.44
427.847	736.44
428.069	667.44
428.292	572.44
428.514	506.44
428.736	461.44
428.958	493.44
429.181	450.44
429.403	465.44
429.625	473.44
429.847	494.44
430.069	582.44
430.292	560.44
430.514	484.44
430.736	462.44
430.958	457.44
431.18	429.44
431.402	439.44
431.624	436.44
431.846	408.44
432.068	411.44
432.29	437.44
432.512	426.44
432.734	429.44
432.956	406.44
433.178	434.44
433.4	435.44
433.622	413.44
433.844	418.44
434.066	431.44
434.287	406.44
434.509	416.44
434.731	427.44
434.953	433.44
435.175	455.44
435.397	483.44
435.618	493.44
435.84	536.44
436.062	609.44
436.284	678.44
436.505	576.44
436.727	516.44
436.949	492.44
437.17	464.44
437.392	460.44
437.614	477.44
437.835	529.44
438.057	589.44
438.278	718.44
438.5	718.44
438.721	736.44
438.943	732.44
439.165	587.44
439.386	518.44
439.608	506.44
439.829	553.44
440.05	553.44
440.272	566.44
440.493	538.44
440.715	503.44
440.936	475.44
441.158	472.44
441.379	454.44
441.6	462.44
441.822	508.44
442.043	534.44
442.264	617.44
442.486	660.44
442.707	554.44
442.928	522.44
443.149	509.44
443.371	517.44
443.592	571.44
443.813	653.44
444.034	686.44
444.255	581.44
444.476	506.44
444.698	503.44
444.919	501.44
445.14	557.44
445.361	568.44
445.582	538.44
445.803	590.44
446.024	696.44
446.245	717.44
446.466	659.44
446.687	543.44
446.908	505.44
447.129	475.44
447.35	471.44
447.571	469.44
447.792	465.44
448.013	458.44
448.234	496.44
448.455	537.44
448.675	633.44
448.896	761.44
449.117	634.44
449.338	606.44
449.559	712.44
449.779	762.44
450	654.44
450.221	564.44
450.442	496.44
450.662	482.44
450.883	468.44
451.104	489.44
451.324	466.44
451.545	444.44
451.766	432.44
451.986	448.44
452.207	428.44
452.428	422.44
452.648	407.44
452.869	432.44
453.089	426.44
453.31	437.44
453.53	420.44
453.751	431.44
453.971	425.44
454.192	461.44
454.412	424.44
454.633	407.44
454.853	422.44
455.073	431.44
455.294	450.44
455.514	497.44
455.734	476.44
455.955	412.44
456.175	389.44
456.395	378.44
456.616	391.44
456.836	383.44
457.056	366.44
457.276	372.44
457.497	359.44
457.717	380.44
457.937	396.44
458.157	368.44
458.377	398.44
458.598	408.44
458.818	480.44
459.038	558.44
459.258	576.44
459.478	477.44
459.698	427.44
459.918	412.44
460.138	414.44
460.358	419.44
460.578	410.44
460.798	410.44
461.018	421.44
461.238	414.44
461.458	411.44
461.678	394.44
461.898	399.44
462.118	392.44
462.338	424.44
462.558	402.44
462.777	426.44
462.997	432.44
463.217	441.44
463.437	429.44
463.657	426.44
463.876	431.44
464.096	441.44
464.316	442.44
464.536	432.44
464.755	435.44
464.975	438.44
465.195	519.44
465.414	593.44
465.634	508.44
465.854	460.44
466.073	436.44
466.293	428.44
466.512	417.44
466.732	399.44
466.951	398.44
467.171	412.44
467.391	424.44
467.61	441.44
467.829	447.44
468.049	425.44
468.268	446.44
468.488	410.44
468.707	417.44
468.927	400.44
469.146	409.44
469.365	408.44
469.585	398.44
469.804	402.44
470.023	430.44
470.243	419.44
470.462	412.44
470.681	442.44
470.901	457.44
471.12	417.44
471.339	430.44
471.558	440.44
471.777	442.44
471.997	421.44
472.216	443.44
472.435	545.44
472.654	521.44
472.873	464.44
473.092	441.44
473.311	422.44
473.53	417.44
473.749	439.44
473.968	466.44
474.187	614.44
474.406	617.44
474.625	490.44
474.844	463.44
475.063	434.44
475.282	441.44
475.501	420.44
475.72	416.44
475.939	433.44
476.158	446.44
476.377	444.44
476.596	436.44
476.814	451.44
477.033	445.44
477.252	443.44
477.471	456.44
477.69	452.44
477.908	458.44
478.127	490.44
478.346	473.44
478.564	463.44
478.783	467.44
479.002	472.44
479.22	469.44
479.439	481.44
479.658	512.44
479.876	528.44
480.095	507.44
480.313	539.44
480.532	518.44
480.751	529.44
480.969	561.44
481.188	688.44
481.406	808.44
481.624	656.44
481.843	574.44
482.061	531.44
482.28	524.44
482.498	526.44
482.717	519.44
482.935	518.44
483.153	508.44
483.372	495.44
483.59	509.44
483.808	489.44
484.027	510.44
484.245	503.44
484.463	488.44
484.681	528.44
484.9	515.44
485.118	520.44
485.336	516.44
485.554	506.44
485.772	510.44
485.99	515.44
486.209	502.44
486.427	517.44
486.645	543.44
486.863	564.44
487.081	556.44
487.299	572.44
487.517	538.44
487.735	541.44
487.953	553.44
488.171	551.44
488.389	553.44
488.607	555.44
488.825	550.44
489.043	543.44
489.261	564.44
489.479	562.44
489.696	558.44
489.914	561.44
490.132	569.44
490.35	566.44
490.568	573.44
490.786	609.44
491.003	604.44
491.221	631.44
491.439	629.44
491.657	634.44
491.874	625.44
492.092	650.44
492.31	646.44
492.527	634.44
492.745	658.44
492.963	681.44
493.18	656.44
493.398	650.44
493.615	671.44
493.833	704.44
494.05	680.44
494.268	666.44
494.485	659.44
494.703	660.44
494.92	655.44
495.138	648.44
495.355	649.44
495.573	651.44
495.79	661.44
496.008	673.44
496.225	679.44
496.442	644.44
496.66	664.44
496.877	655.44
497.094	658.44
497.312	656.44
497.529	654.44
497.746	671.44
497.963	712.44
498.181	696.44
498.398	701.44
498.615	710.44
498.832	695.44
499.049	700.44
499.267	700.44
499.484	714.44
499.701	726.44
499.918	739.44
500.135	756.44
500.352	785.44
500.569	776.44
500.786	763.44
501.003	780.44
501.22	768.44
501.437	766.44
501.654	767.44
501.871	788.44
502.088	735.44
