Data from 1986.PennyLincolnUp.Lamp.En5.5.200Scan.071819.P1_HRD10591_17-08-19-974.txt Node
Date: Thu Jul 18 17:08:19 EDT 2019
User: cochatt
Spectrometer: HR+D1059
Trigger mode: 1
Integration Time (sec): 1.000000E-1
Scans to average: 1
Electric dark correction enabled: true
Nonlinearity correction enabled: false
Boxcar width: 0
XAxis mode: Wavelengths
Number of Pixels in Spectrum: 2048
>>>>>Begin Spectral Data<<<<<
223.165	-12.06
223.4	-12.06
223.635	-12.06
223.869	-19.06
224.104	-29.06
224.338	-11.06
224.573	-18.06
224.808	0.94
225.042	-26.06
225.277	2.94
225.511	7.94
225.746	-2.06
225.98	4.94
226.215	13.94
226.449	21.94
226.683	21.94
226.918	17.94
227.152	24.94
227.387	30.94
227.621	43.94
227.856	57.94
228.09	40.94
228.324	45.94
228.559	64.94
228.793	74.94
229.027	93.94
229.262	92.94
229.496	90.94
229.73	113.94
229.964	103.94
230.199	96.94
230.433	103.94
230.667	102.94
230.901	96.94
231.136	86.94
231.37	106.94
231.604	100.94
231.838	90.94
232.072	94.94
232.306	111.94
232.541	102.94
232.775	114.94
233.009	114.94
233.243	96.94
233.477	118.94
233.711	109.94
233.945	112.94
234.179	102.94
234.413	92.94
234.647	94.94
234.881	127.94
235.115	114.94
235.349	104.94
235.583	93.94
235.817	119.94
236.051	112.94
236.285	105.94
236.519	99.94
236.753	103.94
236.987	100.94
237.221	128.94
237.455	165.94
237.689	136.94
237.922	121.94
238.156	122.94
238.39	103.94
238.624	105.94
238.858	116.94
239.091	110.94
239.325	108.94
239.559	104.94
239.793	104.94
240.027	118.94
240.26	114.94
240.494	120.94
240.728	123.94
240.961	132.94
241.195	122.94
241.429	103.94
241.662	112.94
241.896	113.94
242.13	113.94
242.363	113.94
242.597	123.94
242.83	111.94
243.064	121.94
243.298	103.94
243.531	114.94
243.765	124.94
243.998	117.94
244.232	125.94
244.465	133.94
244.699	112.94
244.932	120.94
245.166	120.94
245.399	132.94
245.633	124.94
245.866	134.94
246.099	130.94
246.333	118.94
246.566	141.94
246.8	147.94
247.033	142.94
247.266	127.94
247.5	139.94
247.733	126.94
247.966	131.94
248.2	138.94
248.433	120.94
248.666	149.94
248.899	162.94
249.133	143.94
249.366	165.94
249.599	151.94
249.832	151.94
250.066	150.94
250.299	145.94
250.532	150.94
250.765	145.94
250.998	171.94
251.231	174.94
251.465	152.94
251.698	170.94
251.931	163.94
252.164	150.94
252.397	144.94
252.63	178.94
252.863	170.94
253.096	160.94
253.329	195.94
253.562	173.94
253.795	154.94
254.028	169.94
254.261	161.94
254.494	185.94
254.727	184.94
254.96	198.94
255.193	187.94
255.426	196.94
255.659	170.94
255.892	173.94
256.124	174.94
256.357	151.94
256.59	166.94
256.823	171.94
257.056	163.94
257.289	165.94
257.521	169.94
257.754	174.94
257.987	170.94
258.22	169.94
258.452	159.94
258.685	158.94
258.918	176.94
259.151	161.94
259.383	180.94
259.616	170.94
259.849	178.94
260.081	176.94
260.314	189.94
260.547	184.94
260.779	200.94
261.012	183.94
261.244	182.94
261.477	187.94
261.71	184.94
261.942	183.94
262.175	175.94
262.407	178.94
262.64	161.94
262.872	172.94
263.105	169.94
263.337	163.94
263.57	169.94
263.802	174.94
264.035	158.94
264.267	168.94
264.499	183.94
264.732	170.94
264.964	182.94
265.197	166.94
265.429	196.94
265.661	176.94
265.894	172.94
266.126	169.94
266.358	168.94
266.591	174.94
266.823	183.94
267.055	169.94
267.287	188.94
267.52	194.94
267.752	176.94
267.984	174.94
268.216	183.94
268.448	191.94
268.681	188.94
268.913	196.94
269.145	213.94
269.377	210.94
269.609	212.94
269.841	186.94
270.073	192.94
270.306	215.94
270.538	233.94
270.77	212.94
271.002	205.94
271.234	210.94
271.466	214.94
271.698	233.94
271.93	226.94
272.162	222.94
272.394	228.94
272.626	214.94
272.858	207.94
273.09	211.94
273.322	196.94
273.553	216.94
273.785	206.94
274.017	200.94
274.249	196.94
274.481	216.94
274.713	204.94
274.945	208.94
275.176	186.94
275.408	198.94
275.64	185.94
275.872	207.94
276.104	222.94
276.335	208.94
276.567	195.94
276.799	221.94
277.031	214.94
277.262	229.94
277.494	234.94
277.726	214.94
277.957	211.94
278.189	203.94
278.421	195.94
278.652	217.94
278.884	218.94
279.115	209.94
279.347	205.94
279.579	200.94
279.81	208.94
280.042	216.94
280.273	218.94
280.505	210.94
280.736	221.94
280.968	218.94
281.199	225.94
281.431	220.94
281.662	216.94
281.894	214.94
282.125	222.94
282.356	216.94
282.588	232.94
282.819	211.94
283.051	218.94
283.282	211.94
283.513	199.94
283.745	215.94
283.976	234.94
284.207	224.94
284.439	228.94
284.67	215.94
284.901	213.94
285.132	211.94
285.364	207.94
285.595	234.94
285.826	229.94
286.057	231.94
286.288	212.94
286.52	220.94
286.751	217.94
286.982	207.94
287.213	231.94
287.444	225.94
287.675	238.94
287.906	240.94
288.138	234.94
288.369	227.94
288.6	244.94
288.831	222.94
289.062	233.94
289.293	222.94
289.524	212.94
289.755	223.94
289.986	217.94
290.217	246.94
290.448	215.94
290.679	230.94
290.91	218.94
291.141	229.94
291.371	223.94
291.602	233.94
291.833	207.94
292.064	230.94
292.295	232.94
292.526	235.94
292.757	234.94
292.987	240.94
293.218	233.94
293.449	230.94
293.68	226.94
293.91	226.94
294.141	233.94
294.372	241.94
294.603	231.94
294.833	242.94
295.064	211.94
295.295	223.94
295.525	237.94
295.756	247.94
295.987	249.94
296.217	250.94
296.448	240.94
296.679	233.94
296.909	227.94
297.14	245.94
297.37	255.94
297.601	237.94
297.831	243.94
298.062	231.94
298.292	250.94
298.523	268.94
298.753	238.94
298.984	244.94
299.214	238.94
299.445	245.94
299.675	237.94
299.905	238.94
300.136	248.94
300.366	242.94
300.597	248.94
300.827	262.94
301.057	260.94
301.288	268.94
301.518	260.94
301.748	263.94
301.979	265.94
302.209	269.94
302.439	256.94
302.669	253.94
302.9	267.94
303.13	242.94
303.36	262.94
303.59	254.94
303.82	277.94
304.051	278.94
304.281	275.94
304.511	270.94
304.741	247.94
304.971	275.94
305.201	266.94
305.431	269.94
305.661	262.94
305.891	250.94
306.121	258.94
306.352	258.94
306.582	258.94
306.812	261.94
307.042	270.94
307.272	276.94
307.502	264.94
307.731	273.94
307.961	276.94
308.191	280.94
308.421	273.94
308.651	266.94
308.881	270.94
309.111	277.94
309.341	266.94
309.571	269.94
309.8	292.94
310.03	278.94
310.26	269.94
310.49	270.94
310.72	281.94
310.949	298.94
311.179	298.94
311.409	288.94
311.639	282.94
311.868	292.94
312.098	280.94
312.328	285.94
312.557	293.94
312.787	296.94
313.017	309.94
313.246	298.94
313.476	287.94
313.706	296.94
313.935	276.94
314.165	302.94
314.394	316.94
314.624	307.94
314.853	293.94
315.083	290.94
315.312	292.94
315.542	285.94
315.771	266.94
316.001	280.94
316.23	291.94
316.46	305.94
316.689	300.94
316.919	288.94
317.148	302.94
317.377	299.94
317.607	300.94
317.836	295.94
318.065	295.94
318.295	291.94
318.524	312.94
318.753	291.94
318.983	299.94
319.212	309.94
319.441	294.94
319.67	303.94
319.9	306.94
320.129	287.94
320.358	272.94
320.587	275.94
320.816	297.94
321.046	316.94
321.275	306.94
321.504	299.94
321.733	296.94
321.962	293.94
322.191	317.94
322.42	315.94
322.649	311.94
322.878	294.94
323.108	326.94
323.337	344.94
323.566	346.94
323.795	366.94
324.024	392.94
324.253	445.94
324.482	575.94
324.71	875.94
324.939	1210.94
325.168	1022.94
325.397	550.94
325.626	401.94
325.855	372.94
326.084	348.94
326.313	347.94
326.542	359.94
326.77	389.94
326.999	448.94
327.228	581.94
327.457	804.94
327.686	926.94
327.914	630.94
328.143	442.94
328.372	438.94
328.6	410.94
328.829	414.94
329.058	378.94
329.287	419.94
329.515	392.94
329.744	361.94
329.972	379.94
330.201	418.94
330.43	429.94
330.658	442.94
330.887	434.94
331.115	406.94
331.344	380.94
331.572	349.94
331.801	362.94
332.03	349.94
332.258	356.94
332.486	344.94
332.715	349.94
332.943	357.94
333.172	357.94
333.4	381.94
333.629	364.94
333.857	380.94
334.085	377.94
334.314	395.94
334.542	453.94
334.771	477.94
334.999	399.94
335.227	362.94
335.455	349.94
335.684	362.94
335.912	357.94
336.14	345.94
336.369	351.94
336.597	338.94
336.825	351.94
337.053	352.94
337.281	323.94
337.51	333.94
337.738	351.94
337.966	339.94
338.194	337.94
338.422	326.94
338.65	343.94
338.878	314.94
339.106	324.94
339.334	332.94
339.562	336.94
339.79	322.94
340.018	327.94
340.246	325.94
340.474	341.94
340.702	325.94
340.93	318.94
341.158	328.94
341.386	320.94
341.614	320.94
341.842	327.94
342.07	332.94
342.298	320.94
342.526	312.94
342.754	316.94
342.981	320.94
343.209	323.94
343.437	331.94
343.665	321.94
343.893	339.94
344.12	331.94
344.348	327.94
344.576	328.94
344.804	341.94
345.031	337.94
345.259	340.94
345.487	331.94
345.714	336.94
345.942	320.94
346.17	317.94
346.397	335.94
346.625	319.94
346.853	318.94
347.08	318.94
347.308	324.94
347.535	315.94
347.763	324.94
347.99	308.94
348.218	321.94
348.445	333.94
348.673	324.94
348.9	309.94
349.128	299.94
349.355	301.94
349.583	309.94
349.81	315.94
350.037	321.94
350.265	311.94
350.492	302.94
350.72	310.94
350.947	316.94
351.174	305.94
351.402	330.94
351.629	298.94
351.856	328.94
352.083	316.94
352.311	317.94
352.538	312.94
352.765	314.94
352.992	312.94
353.22	311.94
353.447	295.94
353.674	315.94
353.901	305.94
354.128	299.94
354.355	302.94
354.583	306.94
354.81	316.94
355.037	315.94
355.264	309.94
355.491	286.94
355.718	291.94
355.945	280.94
356.172	308.94
356.399	305.94
356.626	307.94
356.853	299.94
357.08	294.94
357.307	310.94
357.534	315.94
357.761	301.94
357.988	298.94
358.215	312.94
358.441	285.94
358.668	308.94
358.895	293.94
359.122	303.94
359.349	300.94
359.576	305.94
359.802	318.94
360.029	330.94
360.256	323.94
360.483	332.94
360.709	308.94
360.936	299.94
361.163	312.94
361.39	317.94
361.616	309.94
361.843	311.94
362.07	307.94
362.296	299.94
362.523	308.94
362.749	295.94
362.976	307.94
363.203	310.94
363.429	303.94
363.656	300.94
363.882	296.94
364.109	290.94
364.335	303.94
364.562	297.94
364.788	308.94
365.015	299.94
365.241	291.94
365.468	311.94
365.694	311.94
365.92	319.94
366.147	292.94
366.373	297.94
366.599	297.94
366.826	297.94
367.052	290.94
367.278	292.94
367.505	310.94
367.731	307.94
367.957	293.94
368.184	322.94
368.41	303.94
368.636	296.94
368.862	306.94
369.089	290.94
369.315	299.94
369.541	302.94
369.767	293.94
369.993	302.94
370.219	309.94
370.445	294.94
370.672	311.94
370.898	286.94
371.124	295.94
371.35	306.94
371.576	317.94
371.802	293.94
372.028	295.94
372.254	308.94
372.48	308.94
372.706	316.94
372.932	277.94
373.158	319.94
373.384	338.94
373.61	316.94
373.835	290.94
374.061	305.94
374.287	309.94
374.513	310.94
374.739	296.94
374.965	323.94
375.191	312.94
375.416	309.94
375.642	321.94
375.868	326.94
376.094	310.94
376.319	301.94
376.545	292.94
376.771	318.94
376.997	302.94
377.222	295.94
377.448	302.94
377.674	302.94
377.899	294.94
378.125	310.94
378.35	304.94
378.576	303.94
378.802	309.94
379.027	302.94
379.253	303.94
379.478	280.94
379.704	298.94
379.929	308.94
380.155	317.94
380.38	309.94
380.606	304.94
380.831	298.94
381.057	302.94
381.282	310.94
381.507	296.94
381.733	310.94
381.958	302.94
382.184	289.94
382.409	319.94
382.634	318.94
382.86	304.94
383.085	331.94
383.31	319.94
383.535	311.94
383.761	316.94
383.986	328.94
384.211	305.94
384.436	314.94
384.662	317.94
384.887	317.94
385.112	336.94
385.337	322.94
385.562	335.94
385.787	326.94
386.013	349.94
386.238	356.94
386.463	356.94
386.688	341.94
386.913	328.94
387.138	344.94
387.363	351.94
387.588	334.94
387.813	335.94
388.038	336.94
388.263	345.94
388.488	330.94
388.713	333.94
388.938	342.94
389.163	320.94
389.387	327.94
389.612	320.94
389.837	339.94
390.062	334.94
390.287	318.94
390.512	316.94
390.736	308.94
390.961	319.94
391.186	331.94
391.411	333.94
391.636	351.94
391.86	347.94
392.085	346.94
392.31	351.94
392.534	348.94
392.759	341.94
392.984	343.94
393.208	332.94
393.433	348.94
393.658	360.94
393.882	330.94
394.107	336.94
394.331	351.94
394.556	349.94
394.78	354.94
395.005	336.94
395.229	323.94
395.454	346.94
395.678	370.94
395.903	369.94
396.127	375.94
396.352	355.94
396.576	323.94
396.801	358.94
397.025	351.94
397.249	369.94
397.474	362.94
397.698	342.94
397.922	381.94
398.147	358.94
398.371	374.94
398.595	380.94
398.82	382.94
399.044	379.94
399.268	402.94
399.492	445.94
399.717	448.94
399.941	487.94
400.165	479.94
400.389	471.94
400.613	431.94
400.837	405.94
401.062	408.94
401.286	388.94
401.51	382.94
401.734	376.94
401.958	407.94
402.182	377.94
402.406	411.94
402.63	418.94
402.854	414.94
403.078	409.94
403.302	417.94
403.526	420.94
403.75	406.94
403.974	392.94
404.198	400.94
404.422	408.94
404.645	423.94
404.869	401.94
405.093	418.94
405.317	447.94
405.541	462.94
405.765	437.94
405.988	436.94
406.212	423.94
406.436	446.94
406.66	441.94
406.883	446.94
407.107	457.94
407.331	484.94
407.555	520.94
407.778	527.94
408.002	479.94
408.226	444.94
408.449	438.94
408.673	431.94
408.896	464.94
409.12	480.94
409.344	462.94
409.567	419.94
409.791	422.94
410.014	419.94
410.238	413.94
410.461	408.94
410.685	414.94
410.908	439.94
411.132	454.94
411.355	479.94
411.578	412.94
411.802	400.94
412.025	396.94
412.249	420.94
412.472	425.94
412.695	409.94
412.919	407.94
413.142	424.94
413.365	393.94
413.589	397.94
413.812	406.94
414.035	396.94
414.258	396.94
414.482	400.94
414.705	416.94
414.928	389.94
415.151	411.94
415.374	381.94
415.597	390.94
415.821	405.94
416.044	406.94
416.267	396.94
416.49	388.94
416.713	388.94
416.936	399.94
417.159	396.94
417.382	406.94
417.605	411.94
417.828	425.94
418.051	423.94
418.274	396.94
418.497	400.94
418.72	416.94
418.943	374.94
419.166	400.94
419.389	444.94
419.611	438.94
419.834	410.94
420.057	408.94
420.28	405.94
420.503	409.94
420.726	399.94
420.948	420.94
421.171	439.94
421.394	435.94
421.617	414.94
421.839	418.94
422.062	416.94
422.285	409.94
422.507	448.94
422.73	475.94
422.953	489.94
423.175	427.94
423.398	424.94
423.621	419.94
423.843	418.94
424.066	428.94
424.288	448.94
424.511	447.94
424.733	465.94
424.956	512.94
425.178	488.94
425.401	486.94
425.623	502.94
425.846	454.94
426.068	422.94
426.291	420.94
426.513	408.94
426.735	433.94
426.958	462.94
427.18	470.94
427.402	565.94
427.625	602.94
427.847	523.94
428.069	482.94
428.292	436.94
428.514	408.94
428.736	413.94
428.958	409.94
429.181	383.94
429.403	398.94
429.625	401.94
429.847	423.94
430.069	437.94
430.292	439.94
430.514	396.94
430.736	392.94
430.958	386.94
431.18	382.94
431.402	383.94
431.624	370.94
431.846	381.94
432.068	381.94
432.29	384.94
432.512	386.94
432.734	401.94
432.956	376.94
433.178	394.94
433.4	384.94
433.622	375.94
433.844	408.94
434.066	384.94
434.287	382.94
434.509	386.94
434.731	375.94
434.953	392.94
435.175	422.94
435.397	428.94
435.618	423.94
435.84	450.94
436.062	489.94
436.284	524.94
436.505	441.94
436.727	418.94
436.949	404.94
437.17	391.94
437.392	379.94
437.614	410.94
437.835	419.94
438.057	460.94
438.278	534.94
438.5	514.94
438.721	544.94
438.943	550.94
439.165	452.94
439.386	409.94
439.608	435.94
439.829	406.94
440.05	413.94
440.272	459.94
440.493	430.94
440.715	410.94
440.936	422.94
441.158	402.94
441.379	427.94
441.6	419.94
441.822	423.94
442.043	445.94
442.264	473.94
442.486	514.94
442.707	449.94
442.928	435.94
443.149	441.94
443.371	437.94
443.592	467.94
443.813	514.94
444.034	554.94
444.255	461.94
444.476	423.94
444.698	448.94
444.919	441.94
445.14	571.94
445.361	493.94
445.582	426.94
445.803	487.94
446.024	518.94
446.245	528.94
446.466	475.94
446.687	440.94
446.908	393.94
447.129	394.94
447.35	397.94
447.571	392.94
447.792	385.94
448.013	382.94
448.234	377.94
448.455	410.94
448.675	477.94
448.896	544.94
449.117	470.94
449.338	452.94
449.559	535.94
449.779	560.94
450	468.94
450.221	414.94
450.442	398.94
450.662	382.94
450.883	385.94
451.104	371.94
451.324	395.94
451.545	375.94
451.766	361.94
451.986	352.94
452.207	348.94
452.428	372.94
452.648	356.94
452.869	359.94
453.089	359.94
453.31	359.94
453.53	366.94
453.751	375.94
453.971	352.94
454.192	376.94
454.412	360.94
454.633	357.94
454.853	361.94
455.073	361.94
455.294	372.94
455.514	397.94
455.734	380.94
455.955	337.94
456.175	336.94
456.395	332.94
456.616	351.94
456.836	338.94
457.056	340.94
457.276	325.94
457.497	330.94
457.717	348.94
457.937	341.94
458.157	329.94
458.377	355.94
458.598	366.94
458.818	397.94
459.038	453.94
459.258	442.94
459.478	424.94
459.698	383.94
459.918	393.94
460.138	374.94
460.358	406.94
460.578	388.94
460.798	387.94
461.018	396.94
461.238	399.94
461.458	415.94
461.678	397.94
461.898	416.94
462.118	388.94
462.338	418.94
462.558	430.94
462.777	421.94
462.997	423.94
463.217	441.94
463.437	419.94
463.657	440.94
463.876	423.94
464.096	439.94
464.316	419.94
464.536	426.94
464.755	423.94
464.975	416.94
465.195	431.94
465.414	486.94
465.634	424.94
465.854	404.94
466.073	396.94
466.293	386.94
466.512	374.94
466.732	366.94
466.951	372.94
467.171	368.94
467.391	339.94
467.61	360.94
467.829	380.94
468.049	398.94
468.268	398.94
468.488	368.94
468.707	379.94
468.927	344.94
469.146	359.94
469.365	362.94
469.585	361.94
469.804	355.94
470.023	372.94
470.243	383.94
470.462	380.94
470.681	375.94
470.901	366.94
471.12	382.94
471.339	371.94
471.558	365.94
471.777	370.94
471.997	376.94
472.216	397.94
472.435	458.94
472.654	446.94
472.873	392.94
473.092	382.94
473.311	368.94
473.53	382.94
473.749	367.94
473.968	409.94
474.187	450.94
474.406	436.94
474.625	390.94
474.844	398.94
475.063	354.94
475.282	366.94
475.501	381.94
475.72	394.94
475.939	375.94
476.158	392.94
476.377	372.94
476.596	397.94
476.814	394.94
477.033	383.94
477.252	376.94
477.471	389.94
477.69	415.94
477.908	391.94
478.127	414.94
478.346	419.94
478.564	421.94
478.783	422.94
479.002	420.94
479.22	431.94
479.439	443.94
479.658	439.94
479.876	452.94
480.095	451.94
480.313	470.94
480.532	447.94
480.751	455.94
480.969	463.94
481.188	605.94
481.406	633.94
481.624	520.94
481.843	460.94
482.061	451.94
482.28	453.94
482.498	449.94
482.717	428.94
482.935	427.94
483.153	439.94
483.372	439.94
483.59	459.94
483.808	459.94
484.027	435.94
484.245	431.94
484.463	456.94
484.681	463.94
484.9	462.94
485.118	426.94
485.336	430.94
485.554	434.94
485.772	421.94
485.99	440.94
486.209	456.94
486.427	447.94
486.645	447.94
486.863	469.94
487.081	463.94
487.299	461.94
487.517	468.94
487.735	436.94
487.953	485.94
488.171	461.94
488.389	453.94
488.607	439.94
488.825	451.94
489.043	455.94
489.261	460.94
489.479	466.94
489.696	436.94
489.914	467.94
490.132	455.94
490.35	492.94
490.568	476.94
490.786	498.94
491.003	462.94
491.221	503.94
491.439	516.94
491.657	504.94
491.874	516.94
492.092	506.94
492.31	510.94
492.527	521.94
492.745	508.94
492.963	532.94
493.18	526.94
493.398	519.94
493.615	492.94
493.833	546.94
494.05	517.94
494.268	523.94
494.485	527.94
494.703	532.94
494.92	514.94
495.138	503.94
495.355	546.94
495.573	550.94
495.79	520.94
496.008	518.94
496.225	508.94
496.442	520.94
496.66	538.94
496.877	523.94
497.094	517.94
497.312	526.94
497.529	555.94
497.746	553.94
497.963	581.94
498.181	602.94
498.398	589.94
498.615	608.94
498.832	608.94
499.049	623.94
499.267	647.94
499.484	664.94
499.701	704.94
499.918	743.94
500.135	751.94
500.352	802.94
500.569	846.94
500.786	833.94
501.003	795.94
501.22	786.94
501.437	738.94
501.654	700.94
501.871	690.94
502.088	654.94
