Data from 1986.PennyLincolnUp.Lamp.En5.5.200Scan.071819.P1_HRD10591_17-08-29-992.txt Node
Date: Thu Jul 18 17:08:29 EDT 2019
User: cochatt
Spectrometer: HR+D1059
Trigger mode: 1
Integration Time (sec): 1.000000E-1
Scans to average: 1
Electric dark correction enabled: true
Nonlinearity correction enabled: false
Boxcar width: 0
XAxis mode: Wavelengths
Number of Pixels in Spectrum: 2048
>>>>>Begin Spectral Data<<<<<
223.165	-7.44
223.4	-7.44
223.635	-7.44
223.869	-29.44
224.104	-10.44
224.338	-22.44
224.573	-4.44
224.808	-14.44
225.042	-8.44
225.277	-14.44
225.511	-5.44
225.746	3.56
225.98	10.56
226.215	8.56
226.449	14.56
226.683	25.56
226.918	20.56
227.152	33.56
227.387	27.56
227.621	29.56
227.856	58.56
228.09	41.56
228.324	53.56
228.559	62.56
228.793	61.56
229.027	100.56
229.262	100.56
229.496	89.56
229.73	101.56
229.964	118.56
230.199	105.56
230.433	109.56
230.667	108.56
230.901	104.56
231.136	110.56
231.37	100.56
231.604	102.56
231.838	100.56
232.072	108.56
232.306	103.56
232.541	107.56
232.775	116.56
233.009	97.56
233.243	106.56
233.477	116.56
233.711	99.56
233.945	93.56
234.179	100.56
234.413	97.56
234.647	110.56
234.881	101.56
235.115	118.56
235.349	102.56
235.583	109.56
235.817	94.56
236.051	106.56
236.285	110.56
236.519	107.56
236.753	93.56
236.987	121.56
237.221	144.56
237.455	170.56
237.689	143.56
237.922	121.56
238.156	124.56
238.39	114.56
238.624	122.56
238.858	106.56
239.091	116.56
239.325	117.56
239.559	92.56
239.793	101.56
240.027	122.56
240.26	121.56
240.494	124.56
240.728	127.56
240.961	125.56
241.195	136.56
241.429	118.56
241.662	114.56
241.896	118.56
242.13	110.56
242.363	116.56
242.597	131.56
242.83	120.56
243.064	102.56
243.298	126.56
243.531	116.56
243.765	113.56
243.998	139.56
244.232	132.56
244.465	114.56
244.699	122.56
244.932	120.56
245.166	127.56
245.399	116.56
245.633	131.56
245.866	139.56
246.099	129.56
246.333	121.56
246.566	132.56
246.8	122.56
247.033	132.56
247.266	116.56
247.5	125.56
247.733	152.56
247.966	148.56
248.2	150.56
248.433	142.56
248.666	141.56
248.899	144.56
249.133	145.56
249.366	173.56
249.599	168.56
249.832	126.56
250.066	152.56
250.299	143.56
250.532	162.56
250.765	150.56
250.998	177.56
251.231	165.56
251.465	158.56
251.698	154.56
251.931	154.56
252.164	167.56
252.397	167.56
252.63	171.56
252.863	160.56
253.096	160.56
253.329	174.56
253.562	182.56
253.795	181.56
254.028	183.56
254.261	180.56
254.494	165.56
254.727	182.56
254.96	215.56
255.193	204.56
255.426	190.56
255.659	191.56
255.892	195.56
256.124	168.56
256.357	181.56
256.59	169.56
256.823	157.56
257.056	169.56
257.289	157.56
257.521	166.56
257.754	166.56
257.987	163.56
258.22	163.56
258.452	175.56
258.685	162.56
258.918	174.56
259.151	169.56
259.383	170.56
259.616	170.56
259.849	181.56
260.081	177.56
260.314	199.56
260.547	218.56
260.779	206.56
261.012	180.56
261.244	183.56
261.477	170.56
261.71	174.56
261.942	181.56
262.175	188.56
262.407	190.56
262.64	180.56
262.872	180.56
263.105	169.56
263.337	185.56
263.57	170.56
263.802	166.56
264.035	174.56
264.267	173.56
264.499	181.56
264.732	171.56
264.964	181.56
265.197	174.56
265.429	178.56
265.661	186.56
265.894	162.56
266.126	184.56
266.358	179.56
266.591	177.56
266.823	164.56
267.055	183.56
267.287	179.56
267.52	190.56
267.752	190.56
267.984	180.56
268.216	183.56
268.448	189.56
268.681	187.56
268.913	204.56
269.145	200.56
269.377	214.56
269.609	217.56
269.841	200.56
270.073	211.56
270.306	227.56
270.538	243.56
270.77	237.56
271.002	222.56
271.234	209.56
271.466	228.56
271.698	243.56
271.93	223.56
272.162	244.56
272.394	237.56
272.626	232.56
272.858	205.56
273.09	219.56
273.322	234.56
273.553	219.56
273.785	229.56
274.017	211.56
274.249	206.56
274.481	230.56
274.713	202.56
274.945	220.56
275.176	211.56
275.408	207.56
275.64	199.56
275.872	203.56
276.104	210.56
276.335	212.56
276.567	225.56
276.799	237.56
277.031	232.56
277.262	261.56
277.494	236.56
277.726	252.56
277.957	225.56
278.189	217.56
278.421	224.56
278.652	228.56
278.884	231.56
279.115	222.56
279.347	207.56
279.579	212.56
279.81	228.56
280.042	223.56
280.273	218.56
280.505	206.56
280.736	217.56
280.968	219.56
281.199	222.56
281.431	206.56
281.662	221.56
281.894	212.56
282.125	225.56
282.356	238.56
282.588	229.56
282.819	232.56
283.051	222.56
283.282	222.56
283.513	222.56
283.745	219.56
283.976	229.56
284.207	259.56
284.439	241.56
284.67	237.56
284.901	231.56
285.132	225.56
285.364	210.56
285.595	234.56
285.826	234.56
286.057	238.56
286.288	222.56
286.52	234.56
286.751	220.56
286.982	225.56
287.213	228.56
287.444	232.56
287.675	234.56
287.906	254.56
288.138	242.56
288.369	245.56
288.6	240.56
288.831	227.56
289.062	239.56
289.293	233.56
289.524	227.56
289.755	242.56
289.986	243.56
290.217	231.56
290.448	239.56
290.679	235.56
290.91	243.56
291.141	234.56
291.371	239.56
291.602	228.56
291.833	248.56
292.064	241.56
292.295	248.56
292.526	239.56
292.757	229.56
292.987	227.56
293.218	233.56
293.449	229.56
293.68	240.56
293.91	257.56
294.141	229.56
294.372	241.56
294.603	235.56
294.833	239.56
295.064	235.56
295.295	255.56
295.525	245.56
295.756	261.56
295.987	245.56
296.217	263.56
296.448	261.56
296.679	241.56
296.909	253.56
297.14	247.56
297.37	257.56
297.601	257.56
297.831	252.56
298.062	252.56
298.292	250.56
298.523	234.56
298.753	255.56
298.984	254.56
299.214	262.56
299.445	258.56
299.675	261.56
299.905	266.56
300.136	242.56
300.366	251.56
300.597	248.56
300.827	255.56
301.057	280.56
301.288	257.56
301.518	253.56
301.748	284.56
301.979	280.56
302.209	262.56
302.439	284.56
302.669	267.56
302.9	259.56
303.13	279.56
303.36	276.56
303.59	285.56
303.82	276.56
304.051	287.56
304.281	272.56
304.511	267.56
304.741	271.56
304.971	270.56
305.201	253.56
305.431	276.56
305.661	266.56
305.891	247.56
306.121	276.56
306.352	267.56
306.582	274.56
306.812	266.56
307.042	292.56
307.272	269.56
307.502	264.56
307.731	279.56
307.961	281.56
308.191	289.56
308.421	291.56
308.651	262.56
308.881	263.56
309.111	306.56
309.341	286.56
309.571	283.56
309.8	276.56
310.03	280.56
310.26	305.56
310.49	303.56
310.72	305.56
310.949	301.56
311.179	311.56
311.409	307.56
311.639	317.56
311.868	311.56
312.098	302.56
312.328	293.56
312.557	327.56
312.787	325.56
313.017	328.56
313.246	320.56
313.476	314.56
313.706	311.56
313.935	300.56
314.165	298.56
314.394	312.56
314.624	299.56
314.853	302.56
315.083	312.56
315.312	293.56
315.542	290.56
315.771	284.56
316.001	305.56
316.23	299.56
316.46	289.56
316.689	299.56
316.919	316.56
317.148	299.56
317.377	331.56
317.607	305.56
317.836	298.56
318.065	283.56
318.295	311.56
318.524	310.56
318.753	307.56
318.983	287.56
319.212	312.56
319.441	300.56
319.67	299.56
319.9	309.56
320.129	315.56
320.358	328.56
320.587	301.56
320.816	319.56
321.046	313.56
321.275	313.56
321.504	318.56
321.733	336.56
321.962	328.56
322.191	328.56
322.42	311.56
322.649	345.56
322.878	343.56
323.108	354.56
323.337	353.56
323.566	371.56
323.795	385.56
324.024	415.56
324.253	487.56
324.482	674.56
324.71	982.56
324.939	1375.56
325.168	1130.56
325.397	613.56
325.626	446.56
325.855	377.56
326.084	375.56
326.313	381.56
326.542	368.56
326.77	412.56
326.999	464.56
327.228	626.56
327.457	894.56
327.686	1014.56
327.914	695.56
328.143	526.56
328.372	464.56
328.6	426.56
328.829	399.56
329.058	421.56
329.287	426.56
329.515	393.56
329.744	379.56
329.972	403.56
330.201	422.56
330.43	460.56
330.658	456.56
330.887	451.56
331.115	429.56
331.344	396.56
331.572	395.56
331.801	377.56
332.03	390.56
332.258	373.56
332.486	382.56
332.715	363.56
332.943	350.56
333.172	374.56
333.4	377.56
333.629	389.56
333.857	390.56
334.085	387.56
334.314	435.56
334.542	478.56
334.771	479.56
334.999	413.56
335.227	400.56
335.455	379.56
335.684	380.56
335.912	378.56
336.14	364.56
336.369	362.56
336.597	360.56
336.825	370.56
337.053	363.56
337.281	345.56
337.51	337.56
337.738	372.56
337.966	358.56
338.194	329.56
338.422	332.56
338.65	351.56
338.878	362.56
339.106	340.56
339.334	342.56
339.562	342.56
339.79	342.56
340.018	323.56
340.246	342.56
340.474	342.56
340.702	345.56
340.93	336.56
341.158	338.56
341.386	353.56
341.614	332.56
341.842	330.56
342.07	340.56
342.298	325.56
342.526	330.56
342.754	311.56
342.981	345.56
343.209	322.56
343.437	340.56
343.665	347.56
343.893	352.56
344.12	366.56
344.348	358.56
344.576	332.56
344.804	342.56
345.031	341.56
345.259	358.56
345.487	331.56
345.714	339.56
345.942	331.56
346.17	336.56
346.397	347.56
346.625	335.56
346.853	328.56
347.08	334.56
347.308	313.56
347.535	354.56
347.763	330.56
347.99	315.56
348.218	317.56
348.445	350.56
348.673	323.56
348.9	328.56
349.128	334.56
349.355	303.56
349.583	307.56
349.81	313.56
350.037	315.56
350.265	326.56
350.492	329.56
350.72	307.56
350.947	323.56
351.174	323.56
351.402	333.56
351.629	323.56
351.856	322.56
352.083	339.56
352.311	340.56
352.538	337.56
352.765	336.56
352.992	314.56
353.22	324.56
353.447	313.56
353.674	325.56
353.901	310.56
354.128	297.56
354.355	308.56
354.583	316.56
354.81	327.56
355.037	320.56
355.264	320.56
355.491	298.56
355.718	302.56
355.945	311.56
356.172	309.56
356.399	313.56
356.626	293.56
356.853	313.56
357.08	300.56
357.307	302.56
357.534	299.56
357.761	307.56
357.988	340.56
358.215	303.56
358.441	302.56
358.668	325.56
358.895	317.56
359.122	310.56
359.349	314.56
359.576	332.56
359.802	335.56
360.029	346.56
360.256	345.56
360.483	346.56
360.709	326.56
360.936	329.56
361.163	331.56
361.39	307.56
361.616	338.56
361.843	330.56
362.07	328.56
362.296	330.56
362.523	326.56
362.749	321.56
362.976	325.56
363.203	327.56
363.429	306.56
363.656	314.56
363.882	315.56
364.109	317.56
364.335	325.56
364.562	289.56
364.788	319.56
365.015	306.56
365.241	311.56
365.468	330.56
365.694	323.56
365.92	316.56
366.147	297.56
366.373	316.56
366.599	311.56
366.826	291.56
367.052	326.56
367.278	324.56
367.505	324.56
367.731	311.56
367.957	305.56
368.184	306.56
368.41	302.56
368.636	289.56
368.862	316.56
369.089	313.56
369.315	317.56
369.541	308.56
369.767	311.56
369.993	322.56
370.219	307.56
370.445	298.56
370.672	302.56
370.898	305.56
371.124	297.56
371.35	325.56
371.576	303.56
371.802	314.56
372.028	316.56
372.254	313.56
372.48	318.56
372.706	317.56
372.932	313.56
373.158	325.56
373.384	295.56
373.61	338.56
373.835	314.56
374.061	311.56
374.287	341.56
374.513	321.56
374.739	319.56
374.965	335.56
375.191	320.56
375.416	312.56
375.642	323.56
375.868	297.56
376.094	334.56
376.319	309.56
376.545	321.56
376.771	295.56
376.997	311.56
377.222	332.56
377.448	319.56
377.674	318.56
377.899	288.56
378.125	310.56
378.35	309.56
378.576	306.56
378.802	303.56
379.027	301.56
379.253	305.56
379.478	286.56
379.704	317.56
379.929	316.56
380.155	311.56
380.38	318.56
380.606	320.56
380.831	309.56
381.057	316.56
381.282	315.56
381.507	302.56
381.733	313.56
381.958	288.56
382.184	308.56
382.409	312.56
382.634	323.56
382.86	324.56
383.085	325.56
383.31	331.56
383.535	316.56
383.761	343.56
383.986	343.56
384.211	343.56
384.436	335.56
384.662	329.56
384.887	333.56
385.112	339.56
385.337	338.56
385.562	335.56
385.787	348.56
386.013	351.56
386.238	346.56
386.463	363.56
386.688	360.56
386.913	324.56
387.138	328.56
387.363	345.56
387.588	349.56
387.813	357.56
388.038	346.56
388.263	341.56
388.488	339.56
388.713	335.56
388.938	324.56
389.163	361.56
389.387	333.56
389.612	336.56
389.837	325.56
390.062	339.56
390.287	332.56
390.512	348.56
390.736	331.56
390.961	342.56
391.186	331.56
391.411	357.56
391.636	355.56
391.86	359.56
392.085	343.56
392.31	352.56
392.534	346.56
392.759	349.56
392.984	344.56
393.208	347.56
393.433	350.56
393.658	349.56
393.882	346.56
394.107	351.56
394.331	349.56
394.556	338.56
394.78	360.56
395.005	357.56
395.229	357.56
395.454	354.56
395.678	361.56
395.903	369.56
396.127	351.56
396.352	367.56
396.576	356.56
396.801	365.56
397.025	348.56
397.249	366.56
397.474	335.56
397.698	349.56
397.922	381.56
398.147	379.56
398.371	381.56
398.595	392.56
398.82	393.56
399.044	419.56
399.268	414.56
399.492	427.56
399.717	473.56
399.941	490.56
400.165	499.56
400.389	466.56
400.613	446.56
400.837	431.56
401.062	390.56
401.286	429.56
401.51	403.56
401.734	393.56
401.958	401.56
402.182	398.56
402.406	427.56
402.63	424.56
402.854	436.56
403.078	416.56
403.302	408.56
403.526	441.56
403.75	429.56
403.974	406.56
404.198	411.56
404.422	422.56
404.645	404.56
404.869	438.56
405.093	415.56
405.317	433.56
405.541	476.56
405.765	442.56
405.988	439.56
406.212	442.56
406.436	460.56
406.66	469.56
406.883	451.56
407.107	465.56
407.331	485.56
407.555	545.56
407.778	527.56
408.002	494.56
408.226	446.56
408.449	469.56
408.673	448.56
408.896	462.56
409.12	500.56
409.344	473.56
409.567	424.56
409.791	439.56
410.014	418.56
410.238	419.56
410.461	415.56
410.685	428.56
410.908	441.56
411.132	476.56
411.355	477.56
411.578	453.56
411.802	435.56
412.025	415.56
412.249	424.56
412.472	428.56
412.695	426.56
412.919	437.56
413.142	430.56
413.365	428.56
413.589	396.56
413.812	406.56
414.035	426.56
414.258	403.56
414.482	398.56
414.705	409.56
414.928	410.56
415.151	391.56
415.374	386.56
415.597	404.56
415.821	398.56
416.044	391.56
416.267	407.56
416.49	403.56
416.713	396.56
416.936	381.56
417.159	393.56
417.382	415.56
417.605	403.56
417.828	415.56
418.051	428.56
418.274	414.56
418.497	422.56
418.72	401.56
418.943	385.56
419.166	395.56
419.389	462.56
419.611	429.56
419.834	419.56
420.057	422.56
420.28	424.56
420.503	415.56
420.726	414.56
420.948	461.56
421.171	459.56
421.394	454.56
421.617	436.56
421.839	429.56
422.062	420.56
422.285	430.56
422.507	463.56
422.73	517.56
422.953	506.56
423.175	440.56
423.398	451.56
423.621	429.56
423.843	462.56
424.066	453.56
424.288	443.56
424.511	454.56
424.733	476.56
424.956	556.56
425.178	522.56
425.401	509.56
425.623	523.56
425.846	464.56
426.068	443.56
426.291	438.56
426.513	447.56
426.735	452.56
426.958	461.56
427.18	504.56
427.402	582.56
427.625	616.56
427.847	549.56
428.069	489.56
428.292	452.56
428.514	434.56
428.736	423.56
428.958	419.56
429.181	408.56
429.403	404.56
429.625	413.56
429.847	455.56
430.069	496.56
430.292	466.56
430.514	417.56
430.736	380.56
430.958	398.56
431.18	396.56
431.402	409.56
431.624	396.56
431.846	382.56
432.068	398.56
432.29	399.56
432.512	395.56
432.734	404.56
432.956	408.56
433.178	429.56
433.4	416.56
433.622	390.56
433.844	407.56
434.066	390.56
434.287	397.56
434.509	390.56
434.731	403.56
434.953	416.56
435.175	433.56
435.397	458.56
435.618	441.56
435.84	467.56
436.062	514.56
436.284	531.56
436.505	477.56
436.727	426.56
436.949	412.56
437.17	409.56
437.392	390.56
437.614	408.56
437.835	435.56
438.057	491.56
438.278	554.56
438.5	558.56
438.721	572.56
438.943	558.56
439.165	446.56
439.386	441.56
439.608	431.56
439.829	445.56
440.05	470.56
440.272	460.56
440.493	446.56
440.715	433.56
440.936	415.56
441.158	417.56
441.379	430.56
441.6	430.56
441.822	441.56
442.043	452.56
442.264	522.56
442.486	541.56
442.707	442.56
442.928	443.56
443.149	459.56
443.371	466.56
443.592	493.56
443.813	547.56
444.034	593.56
444.255	497.56
444.476	469.56
444.698	475.56
444.919	463.56
445.14	543.56
445.361	501.56
445.582	461.56
445.803	492.56
446.024	547.56
446.245	551.56
446.466	471.56
446.687	433.56
446.908	409.56
447.129	415.56
447.35	417.56
447.571	413.56
447.792	411.56
448.013	395.56
448.234	416.56
448.455	463.56
448.675	501.56
448.896	552.56
449.117	493.56
449.338	497.56
449.559	545.56
449.779	577.56
450	485.56
450.221	411.56
450.442	379.56
450.662	412.56
450.883	385.56
451.104	389.56
451.324	410.56
451.545	374.56
451.766	373.56
451.986	371.56
452.207	358.56
452.428	373.56
452.648	382.56
452.869	370.56
453.089	377.56
453.31	373.56
453.53	350.56
453.751	372.56
453.971	362.56
454.192	375.56
454.412	389.56
454.633	377.56
454.853	352.56
455.073	361.56
455.294	375.56
455.514	415.56
455.734	385.56
455.955	364.56
456.175	341.56
456.395	352.56
456.616	356.56
456.836	340.56
457.056	366.56
457.276	317.56
457.497	339.56
457.717	365.56
457.937	341.56
458.157	352.56
458.377	356.56
458.598	388.56
458.818	419.56
459.038	467.56
459.258	447.56
459.478	400.56
459.698	399.56
459.918	394.56
460.138	396.56
460.358	430.56
460.578	411.56
460.798	417.56
461.018	409.56
461.238	415.56
461.458	402.56
461.678	404.56
461.898	409.56
462.118	394.56
462.338	403.56
462.558	420.56
462.777	434.56
462.997	441.56
463.217	466.56
463.437	464.56
463.657	428.56
463.876	451.56
464.096	465.56
464.316	426.56
464.536	446.56
464.755	440.56
464.975	443.56
465.195	462.56
465.414	507.56
465.634	433.56
465.854	416.56
466.073	400.56
466.293	399.56
466.512	385.56
466.732	387.56
466.951	379.56
467.171	374.56
467.391	374.56
467.61	403.56
467.829	407.56
468.049	399.56
468.268	397.56
468.488	388.56
468.707	366.56
468.927	371.56
469.146	379.56
469.365	390.56
469.585	373.56
469.804	395.56
470.023	379.56
470.243	377.56
470.462	399.56
470.681	428.56
470.901	391.56
471.12	383.56
471.339	399.56
471.558	390.56
471.777	372.56
471.997	383.56
472.216	394.56
472.435	465.56
472.654	433.56
472.873	394.56
473.092	394.56
473.311	363.56
473.53	385.56
473.749	402.56
473.968	414.56
474.187	484.56
474.406	478.56
474.625	436.56
474.844	389.56
475.063	389.56
475.282	406.56
475.501	385.56
475.72	399.56
475.939	384.56
476.158	404.56
476.377	398.56
476.596	389.56
476.814	397.56
477.033	389.56
477.252	413.56
477.471	398.56
477.69	418.56
477.908	437.56
478.127	429.56
478.346	417.56
478.564	447.56
478.783	422.56
479.002	454.56
479.22	452.56
479.439	442.56
479.658	460.56
479.876	455.56
480.095	478.56
480.313	471.56
480.532	467.56
480.751	485.56
480.969	517.56
481.188	595.56
481.406	623.56
481.624	500.56
481.843	475.56
482.061	454.56
482.28	451.56
482.498	445.56
482.717	443.56
482.935	458.56
483.153	445.56
483.372	457.56
483.59	453.56
483.808	441.56
484.027	432.56
484.245	455.56
484.463	465.56
484.681	463.56
484.9	438.56
485.118	457.56
485.336	468.56
485.554	474.56
485.772	483.56
485.99	464.56
486.209	478.56
486.427	479.56
486.645	469.56
486.863	489.56
487.081	502.56
487.299	465.56
487.517	455.56
487.735	484.56
487.953	463.56
488.171	478.56
488.389	477.56
488.607	485.56
488.825	463.56
489.043	469.56
489.261	488.56
489.479	494.56
489.696	467.56
489.914	467.56
490.132	501.56
490.35	524.56
490.568	484.56
490.786	494.56
491.003	523.56
491.221	527.56
491.439	539.56
491.657	524.56
491.874	530.56
492.092	547.56
492.31	534.56
492.527	536.56
492.745	519.56
492.963	518.56
493.18	538.56
493.398	556.56
493.615	540.56
493.833	548.56
494.05	549.56
494.268	513.56
494.485	536.56
494.703	548.56
494.92	542.56
495.138	542.56
495.355	535.56
495.573	574.56
495.79	568.56
496.008	568.56
496.225	549.56
496.442	571.56
496.66	549.56
496.877	549.56
497.094	573.56
497.312	570.56
497.529	581.56
497.746	573.56
497.963	572.56
498.181	587.56
498.398	587.56
498.615	636.56
498.832	649.56
499.049	661.56
499.267	650.56
499.484	694.56
499.701	713.56
499.918	738.56
500.135	794.56
500.352	833.56
500.569	818.56
500.786	853.56
501.003	832.56
501.22	814.56
501.437	768.56
501.654	737.56
501.871	712.56
502.088	672.56
