Data from 1986.PennyLincolnUp.Lamp.En5.5.200Scan.071819.P2_HRD10591_17-12-47-972.txt Node
Date: Thu Jul 18 17:12:47 EDT 2019
User: cochatt
Spectrometer: HR+D1059
Trigger mode: 1
Integration Time (sec): 1.000000E-1
Scans to average: 1
Electric dark correction enabled: true
Nonlinearity correction enabled: false
Boxcar width: 0
XAxis mode: Wavelengths
Number of Pixels in Spectrum: 2048
>>>>>Begin Spectral Data<<<<<
223.165	-32.5
223.4	-32.5
223.635	-32.5
223.869	-12.5
224.104	-18.5
224.338	-11.5
224.573	-13.5
224.808	-15.5
225.042	-0.5
225.277	-6.5
225.511	5.5
225.746	2.5
225.98	5.5
226.215	12.5
226.449	13.5
226.683	24.5
226.918	24.5
227.152	22.5
227.387	26.5
227.621	36.5
227.856	31.5
228.09	38.5
228.324	60.5
228.559	48.5
228.793	58.5
229.027	98.5
229.262	113.5
229.496	125.5
229.73	132.5
229.964	147.5
230.199	133.5
230.433	124.5
230.667	106.5
230.901	117.5
231.136	113.5
231.37	113.5
231.604	105.5
231.838	115.5
232.072	115.5
232.306	114.5
232.541	113.5
232.775	136.5
233.009	113.5
233.243	103.5
233.477	106.5
233.711	127.5
233.945	118.5
234.179	120.5
234.413	119.5
234.647	121.5
234.881	117.5
235.115	129.5
235.349	114.5
235.583	122.5
235.817	124.5
236.051	120.5
236.285	131.5
236.519	126.5
236.753	129.5
236.987	152.5
237.221	185.5
237.455	240.5
237.689	209.5
237.922	142.5
238.156	136.5
238.39	131.5
238.624	135.5
238.858	111.5
239.091	122.5
239.325	124.5
239.559	122.5
239.793	145.5
240.027	137.5
240.26	136.5
240.494	182.5
240.728	146.5
240.961	153.5
241.195	147.5
241.429	131.5
241.662	141.5
241.896	133.5
242.13	144.5
242.363	147.5
242.597	145.5
242.83	157.5
243.064	143.5
243.298	147.5
243.531	160.5
243.765	145.5
243.998	146.5
244.232	158.5
244.465	154.5
244.699	150.5
244.932	154.5
245.166	154.5
245.399	160.5
245.633	149.5
245.866	175.5
246.099	147.5
246.333	154.5
246.566	162.5
246.8	148.5
247.033	164.5
247.266	170.5
247.5	166.5
247.733	180.5
247.966	183.5
248.2	181.5
248.433	189.5
248.666	184.5
248.899	213.5
249.133	210.5
249.366	249.5
249.599	211.5
249.832	207.5
250.066	201.5
250.299	210.5
250.532	257.5
250.765	268.5
250.998	281.5
251.231	286.5
251.465	234.5
251.698	228.5
251.931	227.5
252.164	229.5
252.397	220.5
252.63	224.5
252.863	243.5
253.096	235.5
253.329	243.5
253.562	267.5
253.795	258.5
254.028	232.5
254.261	259.5
254.494	253.5
254.727	278.5
254.96	297.5
255.193	292.5
255.426	285.5
255.659	298.5
255.892	315.5
256.124	372.5
256.357	396.5
256.59	371.5
256.823	309.5
257.056	300.5
257.289	249.5
257.521	273.5
257.754	264.5
257.987	241.5
258.22	240.5
258.452	253.5
258.685	232.5
258.918	258.5
259.151	243.5
259.383	250.5
259.616	260.5
259.849	236.5
260.081	258.5
260.314	283.5
260.547	281.5
260.779	270.5
261.012	256.5
261.244	245.5
261.477	255.5
261.71	220.5
261.942	233.5
262.175	231.5
262.407	242.5
262.64	242.5
262.872	219.5
263.105	220.5
263.337	226.5
263.57	236.5
263.802	215.5
264.035	225.5
264.267	237.5
264.499	214.5
264.732	229.5
264.964	220.5
265.197	232.5
265.429	223.5
265.661	236.5
265.894	229.5
266.126	220.5
266.358	239.5
266.591	217.5
266.823	241.5
267.055	232.5
267.287	232.5
267.52	216.5
267.752	258.5
267.984	226.5
268.216	234.5
268.448	242.5
268.681	250.5
268.913	257.5
269.145	281.5
269.377	279.5
269.609	286.5
269.841	283.5
270.073	285.5
270.306	299.5
270.538	323.5
270.77	322.5
271.002	318.5
271.234	295.5
271.466	308.5
271.698	311.5
271.93	337.5
272.162	343.5
272.394	329.5
272.626	315.5
272.858	303.5
273.09	301.5
273.322	292.5
273.553	279.5
273.785	280.5
274.017	263.5
274.249	287.5
274.481	287.5
274.713	297.5
274.945	285.5
275.176	290.5
275.408	280.5
275.64	291.5
275.872	271.5
276.104	282.5
276.335	297.5
276.567	296.5
276.799	309.5
277.031	328.5
277.262	319.5
277.494	333.5
277.726	337.5
277.957	307.5
278.189	303.5
278.421	300.5
278.652	292.5
278.884	297.5
279.115	292.5
279.347	289.5
279.579	286.5
279.81	288.5
280.042	289.5
280.273	300.5
280.505	307.5
280.736	287.5
280.968	278.5
281.199	278.5
281.431	285.5
281.662	282.5
281.894	292.5
282.125	283.5
282.356	312.5
282.588	317.5
282.819	316.5
283.051	278.5
283.282	292.5
283.513	276.5
283.745	306.5
283.976	279.5
284.207	304.5
284.439	295.5
284.67	280.5
284.901	287.5
285.132	280.5
285.364	280.5
285.595	278.5
285.826	260.5
286.057	289.5
286.288	286.5
286.52	286.5
286.751	291.5
286.982	298.5
287.213	300.5
287.444	275.5
287.675	285.5
287.906	291.5
288.138	303.5
288.369	310.5
288.6	290.5
288.831	307.5
289.062	306.5
289.293	313.5
289.524	279.5
289.755	296.5
289.986	285.5
290.217	296.5
290.448	297.5
290.679	297.5
290.91	306.5
291.141	300.5
291.371	312.5
291.602	283.5
291.833	286.5
292.064	280.5
292.295	290.5
292.526	288.5
292.757	299.5
292.987	299.5
293.218	300.5
293.449	313.5
293.68	305.5
293.91	278.5
294.141	278.5
294.372	295.5
294.603	299.5
294.833	294.5
295.064	297.5
295.295	288.5
295.525	291.5
295.756	297.5
295.987	297.5
296.217	328.5
296.448	336.5
296.679	282.5
296.909	279.5
297.14	299.5
297.37	307.5
297.601	303.5
297.831	307.5
298.062	297.5
298.292	311.5
298.523	309.5
298.753	314.5
298.984	300.5
299.214	323.5
299.445	286.5
299.675	304.5
299.905	312.5
300.136	323.5
300.366	313.5
300.597	304.5
300.827	310.5
301.057	329.5
301.288	307.5
301.518	311.5
301.748	329.5
301.979	344.5
302.209	337.5
302.439	336.5
302.669	339.5
302.9	336.5
303.13	317.5
303.36	322.5
303.59	322.5
303.82	330.5
304.051	342.5
304.281	321.5
304.511	331.5
304.741	337.5
304.971	332.5
305.201	317.5
305.431	322.5
305.661	334.5
305.891	311.5
306.121	332.5
306.352	328.5
306.582	323.5
306.812	329.5
307.042	329.5
307.272	331.5
307.502	333.5
307.731	354.5
307.961	329.5
308.191	328.5
308.421	345.5
308.651	335.5
308.881	345.5
309.111	336.5
309.341	353.5
309.571	356.5
309.8	377.5
310.03	358.5
310.26	389.5
310.49	383.5
310.72	372.5
310.949	404.5
311.179	404.5
311.409	387.5
311.639	376.5
311.868	397.5
312.098	395.5
312.328	379.5
312.557	419.5
312.787	425.5
313.017	394.5
313.246	389.5
313.476	385.5
313.706	378.5
313.935	378.5
314.165	412.5
314.394	391.5
314.624	416.5
314.853	408.5
315.083	384.5
315.312	398.5
315.542	372.5
315.771	358.5
316.001	387.5
316.23	375.5
316.46	379.5
316.689	378.5
316.919	399.5
317.148	394.5
317.377	423.5
317.607	402.5
317.836	394.5
318.065	380.5
318.295	381.5
318.524	387.5
318.753	377.5
318.983	352.5
319.212	361.5
319.441	372.5
319.67	407.5
319.9	391.5
320.129	395.5
320.358	376.5
320.587	384.5
320.816	380.5
321.046	401.5
321.275	417.5
321.504	399.5
321.733	423.5
321.962	417.5
322.191	435.5
322.42	461.5
322.649	474.5
322.878	471.5
323.108	497.5
323.337	497.5
323.566	545.5
323.795	570.5
324.024	637.5
324.253	781.5
324.482	1059.5
324.71	1638.5
324.939	2401.5
325.168	2090.5
325.397	1104.5
325.626	741.5
325.855	626.5
326.084	579.5
326.313	546.5
326.542	559.5
326.77	629.5
326.999	719.5
327.228	997.5
327.457	1479.5
327.686	1799.5
327.914	1275.5
328.143	892.5
328.372	819.5
328.6	771.5
328.829	698.5
329.058	690.5
329.287	714.5
329.515	687.5
329.744	673.5
329.972	764.5
330.201	854.5
330.43	992.5
330.658	947.5
330.887	833.5
331.115	748.5
331.344	608.5
331.572	592.5
331.801	594.5
332.03	549.5
332.258	521.5
332.486	512.5
332.715	518.5
332.943	561.5
333.172	555.5
333.4	565.5
333.629	574.5
333.857	630.5
334.085	728.5
334.314	843.5
334.542	1051.5
334.771	1135.5
334.999	844.5
335.227	659.5
335.455	572.5
335.684	536.5
335.912	541.5
336.14	492.5
336.369	474.5
336.597	486.5
336.825	496.5
337.053	485.5
337.281	484.5
337.51	460.5
337.738	458.5
337.966	466.5
338.194	453.5
338.422	437.5
338.65	444.5
338.878	441.5
339.106	446.5
339.334	423.5
339.562	419.5
339.79	428.5
340.018	432.5
340.246	437.5
340.474	450.5
340.702	435.5
340.93	434.5
341.158	438.5
341.386	435.5
341.614	412.5
341.842	419.5
342.07	425.5
342.298	411.5
342.526	415.5
342.754	406.5
342.981	396.5
343.209	401.5
343.437	405.5
343.665	416.5
343.893	417.5
344.12	413.5
344.348	391.5
344.576	420.5
344.804	439.5
345.031	455.5
345.259	438.5
345.487	434.5
345.714	433.5
345.942	433.5
346.17	431.5
346.397	412.5
346.625	391.5
346.853	415.5
347.08	408.5
347.308	411.5
347.535	420.5
347.763	457.5
347.99	434.5
348.218	439.5
348.445	431.5
348.673	432.5
348.9	413.5
349.128	413.5
349.355	388.5
349.583	390.5
349.81	388.5
350.037	408.5
350.265	389.5
350.492	389.5
350.72	384.5
350.947	396.5
351.174	415.5
351.402	408.5
351.629	401.5
351.856	423.5
352.083	440.5
352.311	430.5
352.538	432.5
352.765	428.5
352.992	431.5
353.22	407.5
353.447	410.5
353.674	382.5
353.901	368.5
354.128	395.5
354.355	382.5
354.583	381.5
354.81	397.5
355.037	377.5
355.264	379.5
355.491	369.5
355.718	358.5
355.945	371.5
356.172	359.5
356.399	370.5
356.626	381.5
356.853	392.5
357.08	370.5
357.307	360.5
357.534	371.5
357.761	359.5
357.988	373.5
358.215	369.5
358.441	383.5
358.668	366.5
358.895	378.5
359.122	379.5
359.349	382.5
359.576	378.5
359.802	434.5
360.029	469.5
360.256	458.5
360.483	448.5
360.709	420.5
360.936	411.5
361.163	398.5
361.39	405.5
361.616	403.5
361.843	415.5
362.07	392.5
362.296	411.5
362.523	394.5
362.749	399.5
362.976	401.5
363.203	404.5
363.429	399.5
363.656	413.5
363.882	382.5
364.109	370.5
364.335	381.5
364.562	383.5
364.788	369.5
365.015	377.5
365.241	380.5
365.468	397.5
365.694	377.5
365.92	396.5
366.147	377.5
366.373	356.5
366.599	374.5
366.826	378.5
367.052	388.5
367.278	377.5
367.505	384.5
367.731	368.5
367.957	387.5
368.184	373.5
368.41	385.5
368.636	399.5
368.862	378.5
369.089	387.5
369.315	373.5
369.541	375.5
369.767	377.5
369.993	382.5
370.219	388.5
370.445	369.5
370.672	373.5
370.898	374.5
371.124	366.5
371.35	380.5
371.576	370.5
371.802	356.5
372.028	368.5
372.254	368.5
372.48	361.5
372.706	371.5
372.932	373.5
373.158	363.5
373.384	364.5
373.61	384.5
373.835	363.5
374.061	381.5
374.287	367.5
374.513	383.5
374.739	363.5
374.965	371.5
375.191	359.5
375.416	371.5
375.642	378.5
375.868	340.5
376.094	343.5
376.319	368.5
376.545	381.5
376.771	374.5
376.997	354.5
377.222	354.5
377.448	351.5
377.674	370.5
377.899	368.5
378.125	379.5
378.35	354.5
378.576	370.5
378.802	371.5
379.027	359.5
379.253	364.5
379.478	363.5
379.704	372.5
379.929	348.5
380.155	386.5
380.38	356.5
380.606	360.5
380.831	374.5
381.057	371.5
381.282	372.5
381.507	365.5
381.733	375.5
381.958	369.5
382.184	359.5
382.409	363.5
382.634	354.5
382.86	360.5
383.085	381.5
383.31	361.5
383.535	385.5
383.761	363.5
383.986	377.5
384.211	383.5
384.436	368.5
384.662	377.5
384.887	378.5
385.112	372.5
385.337	388.5
385.562	375.5
385.787	364.5
386.013	399.5
386.238	394.5
386.463	394.5
386.688	395.5
386.913	387.5
387.138	380.5
387.363	405.5
387.588	375.5
387.813	377.5
388.038	358.5
388.263	375.5
388.488	383.5
388.713	373.5
388.938	381.5
389.163	373.5
389.387	400.5
389.612	392.5
389.837	387.5
390.062	407.5
390.287	361.5
390.512	371.5
390.736	372.5
390.961	357.5
391.186	385.5
391.411	387.5
391.636	381.5
391.86	385.5
392.085	396.5
392.31	396.5
392.534	372.5
392.759	384.5
392.984	389.5
393.208	384.5
393.433	375.5
393.658	371.5
393.882	382.5
394.107	374.5
394.331	394.5
394.556	388.5
394.78	382.5
395.005	389.5
395.229	371.5
395.454	364.5
395.678	385.5
395.903	391.5
396.127	413.5
396.352	438.5
396.576	409.5
396.801	383.5
397.025	393.5
397.249	378.5
397.474	398.5
397.698	401.5
397.922	426.5
398.147	443.5
398.371	421.5
398.595	408.5
398.82	409.5
399.044	427.5
399.268	412.5
399.492	442.5
399.717	456.5
399.941	465.5
400.165	506.5
400.389	521.5
400.613	496.5
400.837	468.5
401.062	458.5
401.286	438.5
401.51	437.5
401.734	437.5
401.958	419.5
402.182	442.5
402.406	449.5
402.63	429.5
402.854	433.5
403.078	434.5
403.302	452.5
403.526	456.5
403.75	470.5
403.974	441.5
404.198	463.5
404.422	471.5
404.645	486.5
404.869	492.5
405.093	551.5
405.317	590.5
405.541	639.5
405.765	589.5
405.988	539.5
406.212	509.5
406.436	536.5
406.66	539.5
406.883	515.5
407.107	517.5
407.331	569.5
407.555	595.5
407.778	593.5
408.002	544.5
408.226	523.5
408.449	492.5
408.673	514.5
408.896	505.5
409.12	562.5
409.344	540.5
409.567	483.5
409.791	466.5
410.014	461.5
410.238	466.5
410.461	425.5
410.685	443.5
410.908	465.5
411.132	517.5
411.355	543.5
411.578	529.5
411.802	485.5
412.025	490.5
412.249	528.5
412.472	563.5
412.695	618.5
412.919	623.5
413.142	548.5
413.365	543.5
413.589	497.5
413.812	487.5
414.035	474.5
414.258	462.5
414.482	458.5
414.705	481.5
414.928	449.5
415.151	457.5
415.374	449.5
415.597	432.5
415.821	440.5
416.044	455.5
416.267	465.5
416.49	431.5
416.713	440.5
416.936	431.5
417.159	448.5
417.382	455.5
417.605	469.5
417.828	473.5
418.051	491.5
418.274	466.5
418.497	457.5
418.72	447.5
418.943	443.5
419.166	442.5
419.389	472.5
419.611	481.5
419.834	509.5
420.057	512.5
420.28	540.5
420.503	548.5
420.726	531.5
420.948	527.5
421.171	550.5
421.394	588.5
421.617	487.5
421.839	484.5
422.062	490.5
422.285	493.5
422.507	547.5
422.73	599.5
422.953	598.5
423.175	517.5
423.398	484.5
423.621	487.5
423.843	508.5
424.066	523.5
424.288	489.5
424.511	514.5
424.733	577.5
424.956	642.5
425.178	607.5
425.401	612.5
425.623	631.5
425.846	543.5
426.068	503.5
426.291	505.5
426.513	499.5
426.735	519.5
426.958	532.5
427.18	632.5
427.402	737.5
427.625	811.5
427.847	781.5
428.069	714.5
428.292	623.5
428.514	544.5
428.736	509.5
428.958	498.5
429.181	484.5
429.403	470.5
429.625	487.5
429.847	512.5
430.069	581.5
430.292	582.5
430.514	507.5
430.736	473.5
430.958	479.5
431.18	441.5
431.402	446.5
431.624	423.5
431.846	404.5
432.068	441.5
432.29	423.5
432.512	424.5
432.734	421.5
432.956	430.5
433.178	461.5
433.4	461.5
433.622	435.5
433.844	450.5
434.066	413.5
434.287	420.5
434.509	429.5
434.731	438.5
434.953	442.5
435.175	456.5
435.397	482.5
435.618	501.5
435.84	545.5
436.062	636.5
436.284	677.5
436.505	567.5
436.727	523.5
436.949	482.5
437.17	471.5
437.392	473.5
437.614	479.5
437.835	526.5
438.057	597.5
438.278	704.5
438.5	692.5
438.721	764.5
438.943	737.5
439.165	595.5
439.386	538.5
439.608	513.5
439.829	511.5
440.05	555.5
440.272	593.5
440.493	563.5
440.715	503.5
440.936	470.5
441.158	467.5
441.379	476.5
441.6	471.5
441.822	496.5
442.043	529.5
442.264	612.5
442.486	654.5
442.707	559.5
442.928	537.5
443.149	503.5
443.371	545.5
443.592	586.5
443.813	651.5
444.034	735.5
444.255	591.5
444.476	520.5
444.698	482.5
444.919	493.5
445.14	588.5
445.361	567.5
445.582	555.5
445.803	616.5
446.024	718.5
446.245	728.5
446.466	654.5
446.687	545.5
446.908	526.5
447.129	486.5
447.35	490.5
447.571	476.5
447.792	455.5
448.013	469.5
448.234	507.5
448.455	529.5
448.675	628.5
448.896	747.5
449.117	628.5
449.338	609.5
449.559	722.5
449.779	771.5
450	631.5
450.221	535.5
450.442	473.5
450.662	473.5
450.883	490.5
451.104	495.5
451.324	461.5
451.545	465.5
451.766	469.5
451.986	449.5
452.207	407.5
452.428	422.5
452.648	409.5
452.869	406.5
453.089	435.5
453.31	431.5
453.53	426.5
453.751	422.5
453.971	427.5
454.192	454.5
454.412	411.5
454.633	444.5
454.853	415.5
455.073	432.5
455.294	449.5
455.514	514.5
455.734	509.5
455.955	424.5
456.175	399.5
456.395	391.5
456.616	404.5
456.836	380.5
457.056	403.5
457.276	386.5
457.497	401.5
457.717	391.5
457.937	396.5
458.157	392.5
458.377	413.5
458.598	429.5
458.818	480.5
459.038	561.5
459.258	586.5
459.478	498.5
459.698	431.5
459.918	425.5
460.138	425.5
460.358	420.5
460.578	422.5
460.798	428.5
461.018	404.5
461.238	420.5
461.458	440.5
461.678	419.5
461.898	422.5
462.118	423.5
462.338	424.5
462.558	427.5
462.777	443.5
462.997	447.5
463.217	449.5
463.437	460.5
463.657	435.5
463.876	437.5
464.096	442.5
464.316	444.5
464.536	432.5
464.755	449.5
464.975	463.5
465.195	523.5
465.414	596.5
465.634	517.5
465.854	471.5
466.073	455.5
466.293	464.5
466.512	442.5
466.732	435.5
466.951	415.5
467.171	403.5
467.391	436.5
467.61	457.5
467.829	484.5
468.049	492.5
468.268	555.5
468.488	497.5
468.707	451.5
468.927	439.5
469.146	415.5
469.365	431.5
469.585	409.5
469.804	443.5
470.023	451.5
470.243	450.5
470.462	441.5
470.681	485.5
470.901	472.5
471.12	454.5
471.339	427.5
471.558	457.5
471.777	449.5
471.997	486.5
472.216	549.5
472.435	770.5
472.654	718.5
472.873	582.5
473.092	521.5
473.311	474.5
473.53	501.5
473.749	511.5
473.968	517.5
474.187	603.5
474.406	636.5
474.625	535.5
474.844	484.5
475.063	473.5
475.282	470.5
475.501	474.5
475.72	484.5
475.939	469.5
476.158	488.5
476.377	472.5
476.596	476.5
476.814	455.5
477.033	469.5
477.252	449.5
477.471	480.5
477.69	482.5
477.908	498.5
478.127	498.5
478.346	490.5
478.564	486.5
478.783	476.5
479.002	476.5
479.22	502.5
479.439	519.5
479.658	523.5
479.876	560.5
480.095	552.5
480.313	583.5
480.532	572.5
480.751	580.5
480.969	692.5
481.188	1017.5
481.406	1305.5
481.624	892.5
481.843	706.5
482.061	681.5
482.28	635.5
482.498	593.5
482.717	588.5
482.935	570.5
483.153	547.5
483.372	572.5
483.59	579.5
483.808	544.5
484.027	554.5
484.245	553.5
484.463	556.5
484.681	548.5
484.9	553.5
485.118	573.5
485.336	577.5
485.554	570.5
485.772	554.5
485.99	565.5
486.209	572.5
486.427	577.5
486.645	601.5
486.863	618.5
487.081	609.5
487.299	577.5
487.517	573.5
487.735	584.5
487.953	598.5
488.171	578.5
488.389	581.5
488.607	584.5
488.825	579.5
489.043	619.5
489.261	618.5
489.479	611.5
489.696	609.5
489.914	616.5
490.132	604.5
490.35	641.5
490.568	643.5
490.786	644.5
491.003	670.5
491.221	674.5
491.439	697.5
491.657	705.5
491.874	721.5
492.092	723.5
492.31	724.5
492.527	734.5
492.745	735.5
492.963	765.5
493.18	771.5
493.398	735.5
493.615	734.5
493.833	740.5
494.05	731.5
494.268	741.5
494.485	733.5
494.703	723.5
494.92	717.5
495.138	710.5
495.355	744.5
495.573	735.5
495.79	721.5
496.008	720.5
496.225	731.5
496.442	714.5
496.66	683.5
496.877	699.5
497.094	713.5
497.312	713.5
497.529	704.5
497.746	691.5
497.963	727.5
498.181	721.5
498.398	720.5
498.615	732.5
498.832	748.5
499.049	721.5
499.267	732.5
499.484	755.5
499.701	760.5
499.918	807.5
500.135	799.5
500.352	823.5
500.569	808.5
500.786	857.5
501.003	848.5
501.22	829.5
501.437	806.5
501.654	803.5
501.871	811.5
502.088	798.5
502.305	772.5
502.522	735.5
502.739	732.5
502.956	710.5
503.172	705.5
503.389	704.5
503.606	684.5
503.823	691.5
504.04	687.5
504.256	669.5
504.473	652.5
504.69	658.5
504.907	669.5
505.123	670.5
505.34	660.5
505.557	659.5
505.773	657.5
505.99	656.5
506.207	647.5
506.423	636.5
506.64	665.5
506.856	649.5
507.073	631.5
507.289	635.5
507.506	661.5
507.722	655.5
507.939	650.5
508.155	625.5
508.372	634.5
508.588	620.5
508.805	608.5
509.021	644.5
509.238	650.5
509.454	637.5
509.67	630.5
509.887	605.5
510.103	638.5
510.319	641.5
510.536	746.5
510.752	1226.5
510.968	978.5
511.184	649.5
511.401	635.5
511.617	645.5
511.833	653.5
512.049	662.5
512.265	641.5
512.481	641.5
512.698	628.5
512.914	641.5
513.13	594.5
513.346	615.5
513.562	616.5
513.778	612.5
513.994	646.5
514.21	629.5
514.426	629.5
514.642	673.5
514.858	709.5
515.074	755.5
515.29	907.5
515.506	1281.5
515.721	1075.5
515.937	731.5
516.153	659.5
516.369	617.5
516.585	625.5
516.801	620.5
517.016	617.5
517.232	598.5
517.448	581.5
517.664	594.5
517.879	593.5
518.095	573.5
518.311	599.5
518.527	589.5
518.742	577.5
518.958	602.5
519.173	597.5
519.389	586.5
519.605	597.5
519.82	589.5
