Data from 1986.PennyLincolnUp.Lamp.En5.5.200Scan.071819.P2_HRD10591_17-11-46-973.txt Node
Date: Thu Jul 18 17:11:46 EDT 2019
User: cochatt
Spectrometer: HR+D1059
Trigger mode: 1
Integration Time (sec): 1.000000E-1
Scans to average: 1
Electric dark correction enabled: true
Nonlinearity correction enabled: false
Boxcar width: 0
XAxis mode: Wavelengths
Number of Pixels in Spectrum: 2048
>>>>>Begin Spectral Data<<<<<
223.165	-2.44
223.4	-2.44
223.635	-2.44
223.869	-10.44
224.104	-17.44
224.338	-8.44
224.573	-23.44
224.808	-18.44
225.042	-9.44
225.277	-16.44
225.511	9.56
225.746	-8.44
225.98	7.56
226.215	4.56
226.449	12.56
226.683	28.56
226.918	26.56
227.152	25.56
227.387	27.56
227.621	42.56
227.856	43.56
228.09	46.56
228.324	60.56
228.559	63.56
228.793	71.56
229.027	105.56
229.262	124.56
229.496	121.56
229.73	157.56
229.964	158.56
230.199	156.56
230.433	108.56
230.667	116.56
230.901	119.56
231.136	126.56
231.37	121.56
231.604	113.56
231.838	108.56
232.072	126.56
232.306	126.56
232.541	122.56
232.775	117.56
233.009	115.56
233.243	113.56
233.477	111.56
233.711	107.56
233.945	121.56
234.179	117.56
234.413	123.56
234.647	133.56
234.881	126.56
235.115	106.56
235.349	109.56
235.583	127.56
235.817	119.56
236.051	118.56
236.285	122.56
236.519	117.56
236.753	136.56
236.987	149.56
237.221	206.56
237.455	237.56
237.689	211.56
237.922	157.56
238.156	143.56
238.39	120.56
238.624	124.56
238.858	131.56
239.091	138.56
239.325	131.56
239.559	131.56
239.793	133.56
240.027	136.56
240.26	159.56
240.494	167.56
240.728	149.56
240.961	164.56
241.195	152.56
241.429	133.56
241.662	138.56
241.896	134.56
242.13	141.56
242.363	142.56
242.597	149.56
242.83	153.56
243.064	140.56
243.298	145.56
243.531	159.56
243.765	150.56
243.998	139.56
244.232	153.56
244.465	153.56
244.699	146.56
244.932	141.56
245.166	151.56
245.399	143.56
245.633	167.56
245.866	145.56
246.099	167.56
246.333	164.56
246.566	171.56
246.8	161.56
247.033	151.56
247.266	159.56
247.5	172.56
247.733	181.56
247.966	173.56
248.2	188.56
248.433	188.56
248.666	200.56
248.899	212.56
249.133	231.56
249.366	232.56
249.599	222.56
249.832	216.56
250.066	186.56
250.299	226.56
250.532	228.56
250.765	245.56
250.998	264.56
251.231	273.56
251.465	241.56
251.698	231.56
251.931	217.56
252.164	221.56
252.397	219.56
252.63	237.56
252.863	234.56
253.096	246.56
253.329	261.56
253.562	238.56
253.795	269.56
254.028	231.56
254.261	238.56
254.494	259.56
254.727	271.56
254.96	291.56
255.193	302.56
255.426	283.56
255.659	279.56
255.892	280.56
256.124	300.56
256.357	340.56
256.59	313.56
256.823	251.56
257.056	279.56
257.289	257.56
257.521	248.56
257.754	244.56
257.987	236.56
258.22	265.56
258.452	234.56
258.685	244.56
258.918	221.56
259.151	241.56
259.383	239.56
259.616	238.56
259.849	247.56
260.081	237.56
260.314	275.56
260.547	288.56
260.779	285.56
261.012	244.56
261.244	260.56
261.477	248.56
261.71	263.56
261.942	259.56
262.175	254.56
262.407	262.56
262.64	245.56
262.872	236.56
263.105	219.56
263.337	218.56
263.57	219.56
263.802	235.56
264.035	228.56
264.267	236.56
264.499	212.56
264.732	208.56
264.964	207.56
265.197	222.56
265.429	237.56
265.661	231.56
265.894	228.56
266.126	232.56
266.358	230.56
266.591	226.56
266.823	243.56
267.055	243.56
267.287	261.56
267.52	228.56
267.752	232.56
267.984	245.56
268.216	248.56
268.448	233.56
268.681	252.56
268.913	262.56
269.145	272.56
269.377	293.56
269.609	302.56
269.841	304.56
270.073	297.56
270.306	318.56
270.538	327.56
270.77	343.56
271.002	319.56
271.234	306.56
271.466	319.56
271.698	318.56
271.93	325.56
272.162	342.56
272.394	346.56
272.626	339.56
272.858	295.56
273.09	303.56
273.322	287.56
273.553	290.56
273.785	287.56
274.017	284.56
274.249	287.56
274.481	299.56
274.713	287.56
274.945	284.56
275.176	272.56
275.408	291.56
275.64	263.56
275.872	284.56
276.104	273.56
276.335	273.56
276.567	288.56
276.799	314.56
277.031	309.56
277.262	334.56
277.494	343.56
277.726	321.56
277.957	312.56
278.189	296.56
278.421	288.56
278.652	288.56
278.884	292.56
279.115	281.56
279.347	275.56
279.579	279.56
279.81	270.56
280.042	272.56
280.273	281.56
280.505	301.56
280.736	285.56
280.968	266.56
281.199	266.56
281.431	269.56
281.662	272.56
281.894	275.56
282.125	286.56
282.356	289.56
282.588	335.56
282.819	334.56
283.051	292.56
283.282	275.56
283.513	305.56
283.745	274.56
283.976	284.56
284.207	301.56
284.439	295.56
284.67	281.56
284.901	289.56
285.132	293.56
285.364	296.56
285.595	267.56
285.826	271.56
286.057	281.56
286.288	269.56
286.52	283.56
286.751	285.56
286.982	276.56
287.213	284.56
287.444	298.56
287.675	276.56
287.906	313.56
288.138	322.56
288.369	323.56
288.6	322.56
288.831	309.56
289.062	288.56
289.293	289.56
289.524	303.56
289.755	277.56
289.986	277.56
290.217	292.56
290.448	292.56
290.679	283.56
290.91	296.56
291.141	293.56
291.371	297.56
291.602	294.56
291.833	282.56
292.064	271.56
292.295	286.56
292.526	301.56
292.757	288.56
292.987	295.56
293.218	277.56
293.449	308.56
293.68	296.56
293.91	308.56
294.141	281.56
294.372	290.56
294.603	296.56
294.833	291.56
295.064	283.56
295.295	296.56
295.525	303.56
295.756	305.56
295.987	307.56
296.217	337.56
296.448	368.56
296.679	311.56
296.909	299.56
297.14	288.56
297.37	291.56
297.601	308.56
297.831	298.56
298.062	309.56
298.292	291.56
298.523	303.56
298.753	291.56
298.984	309.56
299.214	299.56
299.445	308.56
299.675	323.56
299.905	296.56
300.136	304.56
300.366	313.56
300.597	303.56
300.827	322.56
301.057	326.56
301.288	339.56
301.518	329.56
301.748	320.56
301.979	311.56
302.209	335.56
302.439	337.56
302.669	325.56
302.9	318.56
303.13	320.56
303.36	336.56
303.59	321.56
303.82	333.56
304.051	362.56
304.281	327.56
304.511	319.56
304.741	319.56
304.971	335.56
305.201	332.56
305.431	335.56
305.661	318.56
305.891	318.56
306.121	318.56
306.352	340.56
306.582	351.56
306.812	329.56
307.042	349.56
307.272	350.56
307.502	332.56
307.731	344.56
307.961	340.56
308.191	330.56
308.421	350.56
308.651	329.56
308.881	348.56
309.111	340.56
309.341	352.56
309.571	368.56
309.8	364.56
310.03	372.56
310.26	368.56
310.49	381.56
310.72	396.56
310.949	409.56
311.179	422.56
311.409	380.56
311.639	359.56
311.868	379.56
312.098	394.56
312.328	405.56
312.557	406.56
312.787	423.56
313.017	413.56
313.246	405.56
313.476	380.56
313.706	381.56
313.935	394.56
314.165	401.56
314.394	409.56
314.624	419.56
314.853	405.56
315.083	382.56
315.312	371.56
315.542	383.56
315.771	372.56
316.001	384.56
316.23	381.56
316.46	400.56
316.689	399.56
316.919	368.56
317.148	372.56
317.377	386.56
317.607	407.56
317.836	394.56
318.065	390.56
318.295	391.56
318.524	366.56
318.753	383.56
318.983	386.56
319.212	391.56
319.441	400.56
319.67	396.56
319.9	382.56
320.129	388.56
320.358	407.56
320.587	384.56
320.816	410.56
321.046	408.56
321.275	428.56
321.504	412.56
321.733	417.56
321.962	415.56
322.191	429.56
322.42	454.56
322.649	476.56
322.878	479.56
323.108	494.56
323.337	538.56
323.566	536.56
323.795	599.56
324.024	665.56
324.253	815.56
324.482	1110.56
324.71	1729.56
324.939	2471.56
325.168	2187.56
325.397	1165.56
325.626	765.56
325.855	651.56
326.084	568.56
326.313	567.56
326.542	582.56
326.77	643.56
326.999	746.56
327.228	1039.56
327.457	1549.56
327.686	1907.56
327.914	1290.56
328.143	880.56
328.372	773.56
328.6	731.56
328.829	675.56
329.058	675.56
329.287	671.56
329.515	629.56
329.744	625.56
329.972	648.56
330.201	703.56
330.43	785.56
330.658	814.56
330.887	762.56
331.115	717.56
331.344	619.56
331.572	550.56
331.801	557.56
332.03	546.56
332.258	530.56
332.486	515.56
332.715	496.56
332.943	493.56
333.172	501.56
333.4	510.56
333.629	497.56
333.857	563.56
334.085	592.56
334.314	657.56
334.542	785.56
334.771	847.56
334.999	681.56
335.227	542.56
335.455	531.56
335.684	502.56
335.912	490.56
336.14	469.56
336.369	466.56
336.597	475.56
336.825	459.56
337.053	453.56
337.281	437.56
337.51	436.56
337.738	442.56
337.966	440.56
338.194	461.56
338.422	456.56
338.65	451.56
338.878	451.56
339.106	421.56
339.334	433.56
339.562	433.56
339.79	413.56
340.018	431.56
340.246	434.56
340.474	459.56
340.702	450.56
340.93	423.56
341.158	442.56
341.386	407.56
341.614	432.56
341.842	428.56
342.07	415.56
342.298	419.56
342.526	415.56
342.754	403.56
342.981	395.56
343.209	404.56
343.437	409.56
343.665	424.56
343.893	422.56
344.12	399.56
344.348	408.56
344.576	413.56
344.804	432.56
345.031	442.56
345.259	456.56
345.487	441.56
345.714	407.56
345.942	432.56
346.17	407.56
346.397	411.56
346.625	427.56
346.853	414.56
347.08	421.56
347.308	409.56
347.535	432.56
347.763	443.56
347.99	434.56
348.218	419.56
348.445	433.56
348.673	456.56
348.9	449.56
349.128	411.56
349.355	403.56
349.583	383.56
349.81	397.56
350.037	392.56
350.265	411.56
350.492	394.56
350.72	383.56
350.947	398.56
351.174	411.56
351.402	413.56
351.629	420.56
351.856	407.56
352.083	400.56
352.311	429.56
352.538	414.56
352.765	428.56
352.992	423.56
353.22	416.56
353.447	424.56
353.674	375.56
353.901	380.56
354.128	380.56
354.355	374.56
354.583	384.56
354.81	363.56
355.037	379.56
355.264	363.56
355.491	363.56
355.718	359.56
355.945	360.56
356.172	381.56
356.399	360.56
356.626	370.56
356.853	397.56
357.08	363.56
357.307	363.56
357.534	382.56
357.761	375.56
357.988	392.56
358.215	374.56
358.441	380.56
358.668	380.56
358.895	380.56
359.122	366.56
359.349	387.56
359.576	429.56
359.802	459.56
360.029	465.56
360.256	479.56
360.483	475.56
360.709	412.56
360.936	408.56
361.163	412.56
361.39	412.56
361.616	425.56
361.843	418.56
362.07	419.56
362.296	399.56
362.523	416.56
362.749	409.56
362.976	410.56
363.203	408.56
363.429	381.56
363.656	401.56
363.882	391.56
364.109	384.56
364.335	406.56
364.562	377.56
364.788	378.56
365.015	388.56
365.241	389.56
365.468	397.56
365.694	399.56
365.92	406.56
366.147	391.56
366.373	387.56
366.599	402.56
366.826	377.56
367.052	359.56
367.278	373.56
367.505	381.56
367.731	390.56
367.957	379.56
368.184	377.56
368.41	398.56
368.636	391.56
368.862	409.56
369.089	388.56
369.315	378.56
369.541	387.56
369.767	392.56
369.993	375.56
370.219	384.56
370.445	389.56
370.672	374.56
370.898	379.56
371.124	371.56
371.35	368.56
371.576	359.56
371.802	376.56
372.028	365.56
372.254	379.56
372.48	410.56
372.706	369.56
372.932	340.56
373.158	359.56
373.384	385.56
373.61	381.56
373.835	378.56
374.061	377.56
374.287	359.56
374.513	375.56
374.739	359.56
374.965	361.56
375.191	366.56
375.416	373.56
375.642	383.56
375.868	378.56
376.094	365.56
376.319	369.56
376.545	372.56
376.771	363.56
376.997	355.56
377.222	354.56
377.448	357.56
377.674	371.56
377.899	353.56
378.125	380.56
378.35	381.56
378.576	357.56
378.802	372.56
379.027	354.56
379.253	376.56
379.478	347.56
379.704	366.56
379.929	353.56
380.155	373.56
380.38	365.56
380.606	361.56
380.831	347.56
381.057	383.56
381.282	363.56
381.507	373.56
381.733	391.56
381.958	375.56
382.184	361.56
382.409	360.56
382.634	365.56
382.86	365.56
383.085	351.56
383.31	401.56
383.535	383.56
383.761	379.56
383.986	392.56
384.211	383.56
384.436	379.56
384.662	374.56
384.887	371.56
385.112	367.56
385.337	385.56
385.562	385.56
385.787	396.56
386.013	407.56
386.238	387.56
386.463	384.56
386.688	384.56
386.913	400.56
387.138	396.56
387.363	403.56
387.588	359.56
387.813	360.56
388.038	375.56
388.263	389.56
388.488	399.56
388.713	404.56
388.938	375.56
389.163	387.56
389.387	396.56
389.612	393.56
389.837	379.56
390.062	384.56
390.287	386.56
390.512	387.56
390.736	373.56
390.961	379.56
391.186	390.56
391.411	368.56
391.636	377.56
391.86	400.56
392.085	397.56
392.31	393.56
392.534	393.56
392.759	391.56
392.984	402.56
393.208	384.56
393.433	381.56
393.658	381.56
393.882	377.56
394.107	379.56
394.331	384.56
394.556	385.56
394.78	373.56
395.005	378.56
395.229	384.56
395.454	368.56
395.678	377.56
395.903	424.56
396.127	424.56
396.352	436.56
396.576	422.56
396.801	389.56
397.025	382.56
397.249	401.56
397.474	397.56
397.698	415.56
397.922	423.56
398.147	435.56
398.371	426.56
398.595	420.56
398.82	415.56
399.044	424.56
399.268	438.56
399.492	468.56
399.717	468.56
399.941	506.56
400.165	512.56
400.389	523.56
400.613	494.56
400.837	455.56
401.062	455.56
401.286	438.56
401.51	442.56
401.734	446.56
401.958	439.56
402.182	441.56
402.406	442.56
402.63	466.56
402.854	454.56
403.078	440.56
403.302	465.56
403.526	452.56
403.75	486.56
403.974	448.56
404.198	454.56
404.422	429.56
404.645	468.56
404.869	475.56
405.093	535.56
405.317	569.56
405.541	614.56
405.765	550.56
405.988	544.56
406.212	509.56
406.436	515.56
406.66	545.56
406.883	524.56
407.107	536.56
407.331	557.56
407.555	607.56
407.778	594.56
408.002	551.56
408.226	509.56
408.449	503.56
408.673	534.56
408.896	534.56
409.12	574.56
409.344	544.56
409.567	481.56
409.791	473.56
410.014	473.56
410.238	456.56
410.461	455.56
410.685	470.56
410.908	464.56
411.132	513.56
411.355	545.56
411.578	536.56
411.802	466.56
412.025	473.56
412.249	485.56
412.472	533.56
412.695	576.56
412.919	567.56
413.142	522.56
413.365	489.56
413.589	473.56
413.812	457.56
414.035	436.56
414.258	447.56
414.482	433.56
414.705	429.56
414.928	449.56
415.151	423.56
415.374	443.56
415.597	424.56
415.821	427.56
416.044	446.56
416.267	426.56
416.49	433.56
416.713	441.56
416.936	423.56
417.159	443.56
417.382	440.56
417.605	470.56
417.828	459.56
418.051	476.56
418.274	495.56
418.497	440.56
418.72	439.56
418.943	446.56
419.166	467.56
419.389	461.56
419.611	483.56
419.834	479.56
420.057	485.56
420.28	486.56
420.503	488.56
420.726	502.56
420.948	508.56
421.171	584.56
421.394	551.56
421.617	521.56
421.839	483.56
422.062	466.56
422.285	489.56
422.507	547.56
422.73	612.56
422.953	591.56
423.175	509.56
423.398	515.56
423.621	472.56
423.843	505.56
424.066	516.56
424.288	509.56
424.511	515.56
424.733	580.56
424.956	659.56
425.178	643.56
425.401	617.56
425.623	663.56
425.846	549.56
426.068	515.56
426.291	502.56
426.513	496.56
426.735	523.56
426.958	571.56
427.18	644.56
427.402	773.56
427.625	887.56
427.847	793.56
428.069	696.56
428.292	617.56
428.514	541.56
428.736	513.56
428.958	518.56
429.181	470.56
429.403	483.56
429.625	481.56
429.847	522.56
430.069	606.56
430.292	583.56
430.514	517.56
430.736	474.56
430.958	471.56
431.18	440.56
431.402	446.56
431.624	429.56
431.846	427.56
432.068	430.56
432.29	440.56
432.512	449.56
432.734	459.56
432.956	443.56
433.178	463.56
433.4	461.56
433.622	441.56
433.844	453.56
434.066	427.56
434.287	429.56
434.509	444.56
434.731	427.56
434.953	455.56
435.175	479.56
435.397	497.56
435.618	513.56
435.84	556.56
436.062	666.56
436.284	717.56
436.505	596.56
436.727	526.56
436.949	498.56
437.17	482.56
437.392	467.56
437.614	501.56
437.835	543.56
438.057	624.56
438.278	715.56
438.5	727.56
438.721	819.56
438.943	735.56
439.165	587.56
439.386	526.56
439.608	539.56
439.829	542.56
440.05	582.56
440.272	597.56
440.493	591.56
440.715	529.56
440.936	502.56
441.158	472.56
441.379	473.56
441.6	500.56
441.822	496.56
442.043	545.56
442.264	630.56
442.486	673.56
442.707	576.56
442.928	521.56
443.149	539.56
443.371	563.56
443.592	616.56
443.813	676.56
444.034	741.56
444.255	609.56
444.476	525.56
444.698	498.56
444.919	494.56
445.14	586.56
445.361	580.56
445.582	570.56
445.803	635.56
446.024	736.56
446.245	725.56
446.466	685.56
446.687	586.56
446.908	543.56
447.129	492.56
447.35	473.56
447.571	468.56
447.792	469.56
448.013	491.56
448.234	514.56
448.455	547.56
448.675	661.56
448.896	786.56
449.117	671.56
449.338	627.56
449.559	732.56
449.779	800.56
450	656.56
450.221	551.56
450.442	512.56
450.662	493.56
450.883	484.56
451.104	489.56
451.324	495.56
451.545	468.56
451.766	458.56
451.986	445.56
452.207	424.56
452.428	439.56
452.648	422.56
452.869	430.56
453.089	444.56
453.31	441.56
453.53	426.56
453.751	418.56
453.971	446.56
454.192	477.56
454.412	427.56
454.633	432.56
454.853	426.56
455.073	428.56
455.294	465.56
455.514	507.56
455.734	506.56
455.955	443.56
456.175	420.56
456.395	401.56
456.616	411.56
456.836	392.56
457.056	397.56
457.276	406.56
457.497	409.56
457.717	419.56
457.937	387.56
458.157	407.56
458.377	421.56
458.598	441.56
458.818	504.56
459.038	595.56
459.258	599.56
459.478	517.56
459.698	441.56
459.918	435.56
460.138	429.56
460.358	426.56
460.578	400.56
460.798	435.56
461.018	445.56
461.238	416.56
461.458	431.56
461.678	417.56
461.898	418.56
462.118	423.56
462.338	452.56
462.558	432.56
462.777	435.56
462.997	445.56
463.217	433.56
463.437	442.56
463.657	440.56
463.876	440.56
464.096	455.56
464.316	457.56
464.536	464.56
464.755	460.56
464.975	452.56
465.195	508.56
465.414	638.56
465.634	541.56
465.854	504.56
466.073	447.56
466.293	469.56
466.512	455.56
466.732	427.56
466.951	408.56
467.171	419.56
467.391	448.56
467.61	441.56
467.829	449.56
468.049	484.56
468.268	495.56
468.488	465.56
468.707	442.56
468.927	439.56
469.146	428.56
469.365	411.56
469.585	423.56
469.804	447.56
470.023	438.56
470.243	442.56
470.462	447.56
470.681	473.56
470.901	478.56
471.12	446.56
471.339	453.56
471.558	462.56
471.777	460.56
471.997	452.56
472.216	489.56
472.435	631.56
472.654	585.56
472.873	496.56
473.092	480.56
473.311	479.56
473.53	466.56
473.749	483.56
473.968	511.56
474.187	629.56
474.406	622.56
474.625	517.56
474.844	480.56
475.063	436.56
475.282	463.56
475.501	453.56
475.72	452.56
475.939	476.56
476.158	455.56
476.377	457.56
476.596	465.56
476.814	476.56
477.033	475.56
477.252	465.56
477.471	497.56
477.69	457.56
477.908	471.56
478.127	485.56
478.346	470.56
478.564	494.56
478.783	491.56
479.002	493.56
479.22	504.56
479.439	507.56
479.658	549.56
479.876	529.56
480.095	560.56
480.313	577.56
480.532	555.56
480.751	578.56
480.969	621.56
481.188	807.56
481.406	960.56
481.624	715.56
481.843	632.56
482.061	600.56
482.28	560.56
482.498	565.56
482.717	532.56
482.935	544.56
483.153	540.56
483.372	541.56
483.59	531.56
483.808	533.56
484.027	543.56
484.245	518.56
484.463	559.56
484.681	569.56
484.9	563.56
485.118	551.56
485.336	563.56
485.554	550.56
485.772	549.56
485.99	535.56
486.209	560.56
486.427	562.56
486.645	578.56
486.863	590.56
487.081	592.56
487.299	565.56
487.517	588.56
487.735	589.56
487.953	586.56
488.171	541.56
488.389	560.56
488.607	573.56
488.825	608.56
489.043	565.56
489.261	579.56
489.479	606.56
489.696	587.56
489.914	597.56
490.132	619.56
490.35	608.56
490.568	629.56
490.786	631.56
491.003	641.56
491.221	652.56
491.439	663.56
491.657	641.56
491.874	674.56
492.092	695.56
492.31	677.56
492.527	679.56
492.745	720.56
492.963	696.56
493.18	732.56
493.398	686.56
493.615	731.56
493.833	709.56
494.05	718.56
494.268	697.56
494.485	704.56
494.703	709.56
494.92	725.56
495.138	685.56
495.355	697.56
495.573	711.56
495.79	707.56
496.008	694.56
496.225	688.56
496.442	667.56
496.66	679.56
496.877	688.56
497.094	679.56
497.312	677.56
497.529	722.56
497.746	714.56
497.963	704.56
498.181	723.56
498.398	738.56
498.615	727.56
498.832	730.56
499.049	732.56
499.267	767.56
499.484	761.56
499.701	774.56
499.918	791.56
500.135	789.56
500.352	814.56
500.569	829.56
500.786	853.56
501.003	837.56
501.22	824.56
501.437	800.56
501.654	782.56
501.871	810.56
