Data from 1986.PennyLincolnUp.Lamp.En5.5.200Scan.071819.P2_HRD10591_17-10-34-974.txt Node
Date: Thu Jul 18 17:10:34 EDT 2019
User: cochatt
Spectrometer: HR+D1059
Trigger mode: 1
Integration Time (sec): 1.000000E-1
Scans to average: 1
Electric dark correction enabled: true
Nonlinearity correction enabled: false
Boxcar width: 0
XAxis mode: Wavelengths
Number of Pixels in Spectrum: 2048
>>>>>Begin Spectral Data<<<<<
223.165	-16.88
223.4	-16.88
223.635	-16.88
223.869	-21.88
224.104	-21.88
224.338	-3.88
224.573	-11.88
224.808	-19.88
225.042	-19.88
225.277	-4.88
225.511	-18.88
225.746	-2.88
225.98	23.12
226.215	43.12
226.449	23.12
226.683	12.12
226.918	20.12
227.152	21.12
227.387	32.12
227.621	35.12
227.856	42.12
228.09	42.12
228.324	39.12
228.559	54.12
228.793	59.12
229.027	98.12
229.262	96.12
229.496	114.12
229.73	120.12
229.964	153.12
230.199	122.12
230.433	115.12
230.667	126.12
230.901	114.12
231.136	124.12
231.37	112.12
231.604	123.12
231.838	99.12
232.072	120.12
232.306	90.12
232.541	114.12
232.775	113.12
233.009	124.12
233.243	102.12
233.477	112.12
233.711	116.12
233.945	123.12
234.179	116.12
234.413	120.12
234.647	120.12
234.881	105.12
235.115	116.12
235.349	112.12
235.583	109.12
235.817	133.12
236.051	130.12
236.285	123.12
236.519	130.12
236.753	136.12
236.987	149.12
237.221	176.12
237.455	233.12
237.689	178.12
237.922	152.12
238.156	130.12
238.39	123.12
238.624	126.12
238.858	135.12
239.091	118.12
239.325	120.12
239.559	125.12
239.793	143.12
240.027	136.12
240.26	144.12
240.494	159.12
240.728	158.12
240.961	142.12
241.195	158.12
241.429	137.12
241.662	125.12
241.896	149.12
242.13	128.12
242.363	118.12
242.597	134.12
242.83	144.12
243.064	141.12
243.298	161.12
243.531	135.12
243.765	157.12
243.998	123.12
244.232	140.12
244.465	139.12
244.699	149.12
244.932	152.12
245.166	138.12
245.399	131.12
245.633	145.12
245.866	140.12
246.099	141.12
246.333	153.12
246.566	155.12
246.8	148.12
247.033	159.12
247.266	163.12
247.5	169.12
247.733	176.12
247.966	162.12
248.2	176.12
248.433	170.12
248.666	173.12
248.899	195.12
249.133	219.12
249.366	214.12
249.599	204.12
249.832	188.12
250.066	198.12
250.299	187.12
250.532	184.12
250.765	202.12
250.998	225.12
251.231	231.12
251.465	227.12
251.698	218.12
251.931	212.12
252.164	204.12
252.397	199.12
252.63	216.12
252.863	221.12
253.096	213.12
253.329	241.12
253.562	231.12
253.795	232.12
254.028	211.12
254.261	231.12
254.494	240.12
254.727	264.12
254.96	294.12
255.193	285.12
255.426	263.12
255.659	240.12
255.892	261.12
256.124	249.12
256.357	255.12
256.59	242.12
256.823	218.12
257.056	236.12
257.289	231.12
257.521	225.12
257.754	219.12
257.987	208.12
258.22	214.12
258.452	217.12
258.685	210.12
258.918	220.12
259.151	219.12
259.383	227.12
259.616	210.12
259.849	244.12
260.081	246.12
260.314	263.12
260.547	267.12
260.779	256.12
261.012	245.12
261.244	233.12
261.477	225.12
261.71	238.12
261.942	232.12
262.175	227.12
262.407	252.12
262.64	224.12
262.872	216.12
263.105	209.12
263.337	214.12
263.57	212.12
263.802	206.12
264.035	215.12
264.267	210.12
264.499	204.12
264.732	209.12
264.964	202.12
265.197	196.12
265.429	221.12
265.661	201.12
265.894	209.12
266.126	213.12
266.358	213.12
266.591	212.12
266.823	226.12
267.055	227.12
267.287	214.12
267.52	213.12
267.752	212.12
267.984	217.12
268.216	213.12
268.448	226.12
268.681	236.12
268.913	238.12
269.145	261.12
269.377	287.12
269.609	276.12
269.841	273.12
270.073	286.12
270.306	298.12
270.538	309.12
270.77	317.12
271.002	323.12
271.234	305.12
271.466	304.12
271.698	308.12
271.93	335.12
272.162	328.12
272.394	322.12
272.626	314.12
272.858	312.12
273.09	286.12
273.322	285.12
273.553	269.12
273.785	287.12
274.017	266.12
274.249	265.12
274.481	277.12
274.713	252.12
274.945	260.12
275.176	268.12
275.408	265.12
275.64	244.12
275.872	256.12
276.104	247.12
276.335	263.12
276.567	264.12
276.799	275.12
277.031	294.12
277.262	320.12
277.494	316.12
277.726	318.12
277.957	286.12
278.189	278.12
278.421	266.12
278.652	276.12
278.884	244.12
279.115	268.12
279.347	260.12
279.579	245.12
279.81	265.12
280.042	272.12
280.273	260.12
280.505	244.12
280.736	250.12
280.968	256.12
281.199	267.12
281.431	248.12
281.662	266.12
281.894	266.12
282.125	249.12
282.356	283.12
282.588	292.12
282.819	300.12
283.051	259.12
283.282	282.12
283.513	272.12
283.745	260.12
283.976	251.12
284.207	246.12
284.439	284.12
284.67	270.12
284.901	261.12
285.132	247.12
285.364	244.12
285.595	259.12
285.826	247.12
286.057	260.12
286.288	275.12
286.52	260.12
286.751	251.12
286.982	265.12
287.213	260.12
287.444	266.12
287.675	281.12
287.906	273.12
288.138	291.12
288.369	270.12
288.6	287.12
288.831	285.12
289.062	288.12
289.293	266.12
289.524	275.12
289.755	264.12
289.986	280.12
290.217	278.12
290.448	273.12
290.679	260.12
290.91	261.12
291.141	260.12
291.371	279.12
291.602	266.12
291.833	270.12
292.064	250.12
292.295	260.12
292.526	279.12
292.757	271.12
292.987	268.12
293.218	268.12
293.449	268.12
293.68	271.12
293.91	256.12
294.141	269.12
294.372	278.12
294.603	268.12
294.833	269.12
295.064	278.12
295.295	274.12
295.525	271.12
295.756	270.12
295.987	288.12
296.217	315.12
296.448	330.12
296.679	293.12
296.909	271.12
297.14	279.12
297.37	300.12
297.601	280.12
297.831	264.12
298.062	270.12
298.292	292.12
298.523	272.12
298.753	276.12
298.984	268.12
299.214	280.12
299.445	273.12
299.675	292.12
299.905	269.12
300.136	298.12
300.366	300.12
300.597	282.12
300.827	286.12
301.057	291.12
301.288	293.12
301.518	306.12
301.748	290.12
301.979	312.12
302.209	290.12
302.439	309.12
302.669	301.12
302.9	297.12
303.13	275.12
303.36	314.12
303.59	310.12
303.82	308.12
304.051	309.12
304.281	314.12
304.511	291.12
304.741	290.12
304.971	308.12
305.201	301.12
305.431	303.12
305.661	298.12
305.891	299.12
306.121	289.12
306.352	316.12
306.582	309.12
306.812	310.12
307.042	288.12
307.272	306.12
307.502	321.12
307.731	323.12
307.961	312.12
308.191	320.12
308.421	313.12
308.651	312.12
308.881	310.12
309.111	323.12
309.341	317.12
309.571	317.12
309.8	332.12
310.03	354.12
310.26	363.12
310.49	355.12
310.72	360.12
310.949	397.12
311.179	384.12
311.409	371.12
311.639	365.12
311.868	355.12
312.098	364.12
312.328	357.12
312.557	398.12
312.787	407.12
313.017	398.12
313.246	365.12
313.476	357.12
313.706	355.12
313.935	372.12
314.165	376.12
314.394	403.12
314.624	382.12
314.853	368.12
315.083	356.12
315.312	349.12
315.542	355.12
315.771	336.12
316.001	354.12
316.23	352.12
316.46	361.12
316.689	348.12
316.919	370.12
317.148	364.12
317.377	379.12
317.607	360.12
317.836	361.12
318.065	344.12
318.295	333.12
318.524	357.12
318.753	350.12
318.983	357.12
319.212	368.12
319.441	376.12
319.67	371.12
319.9	373.12
320.129	373.12
320.358	354.12
320.587	356.12
320.816	394.12
321.046	372.12
321.275	389.12
321.504	402.12
321.733	378.12
321.962	403.12
322.191	406.12
322.42	408.12
322.649	434.12
322.878	444.12
323.108	466.12
323.337	470.12
323.566	516.12
323.795	553.12
324.024	636.12
324.253	770.12
324.482	1034.12
324.71	1641.12
324.939	2336.12
325.168	2047.12
325.397	1097.12
325.626	734.12
325.855	578.12
326.084	545.12
326.313	500.12
326.542	528.12
326.77	596.12
326.999	641.12
327.228	930.12
327.457	1421.12
327.686	1761.12
327.914	1218.12
328.143	788.12
328.372	682.12
328.6	628.12
328.829	582.12
329.058	624.12
329.287	606.12
329.515	580.12
329.744	538.12
329.972	518.12
330.201	536.12
330.43	568.12
330.658	598.12
330.887	637.12
331.115	624.12
331.344	517.12
331.572	505.12
331.801	491.12
332.03	485.12
332.258	467.12
332.486	438.12
332.715	426.12
332.943	424.12
333.172	423.12
333.4	424.12
333.629	424.12
333.857	439.12
334.085	450.12
334.314	465.12
334.542	462.12
334.771	520.12
334.999	473.12
335.227	444.12
335.455	421.12
335.684	428.12
335.912	394.12
336.14	411.12
336.369	399.12
336.597	423.12
336.825	421.12
337.053	398.12
337.281	395.12
337.51	392.12
337.738	413.12
337.966	412.12
338.194	416.12
338.422	405.12
338.65	402.12
338.878	388.12
339.106	388.12
339.334	385.12
339.562	383.12
339.79	382.12
340.018	378.12
340.246	388.12
340.474	427.12
340.702	414.12
340.93	406.12
341.158	391.12
341.386	400.12
341.614	402.12
341.842	395.12
342.07	382.12
342.298	373.12
342.526	379.12
342.754	376.12
342.981	373.12
343.209	379.12
343.437	361.12
343.665	395.12
343.893	369.12
344.12	381.12
344.348	387.12
344.576	402.12
344.804	419.12
345.031	392.12
345.259	423.12
345.487	422.12
345.714	405.12
345.942	390.12
346.17	380.12
346.397	379.12
346.625	382.12
346.853	388.12
347.08	389.12
347.308	388.12
347.535	386.12
347.763	393.12
347.99	424.12
348.218	391.12
348.445	393.12
348.673	400.12
348.9	393.12
349.128	380.12
349.355	375.12
349.583	376.12
349.81	364.12
350.037	366.12
350.265	371.12
350.492	384.12
350.72	370.12
350.947	378.12
351.174	359.12
351.402	392.12
351.629	391.12
351.856	407.12
352.083	412.12
352.311	410.12
352.538	415.12
352.765	394.12
352.992	389.12
353.22	398.12
353.447	382.12
353.674	393.12
353.901	371.12
354.128	360.12
354.355	360.12
354.583	353.12
354.81	350.12
355.037	352.12
355.264	339.12
355.491	339.12
355.718	347.12
355.945	341.12
356.172	344.12
356.399	334.12
356.626	346.12
356.853	345.12
357.08	343.12
357.307	329.12
357.534	343.12
357.761	341.12
357.988	342.12
358.215	360.12
358.441	347.12
358.668	339.12
358.895	353.12
359.122	366.12
359.349	387.12
359.576	374.12
359.802	425.12
360.029	450.12
360.256	452.12
360.483	420.12
360.709	402.12
360.936	389.12
361.163	390.12
361.39	388.12
361.616	395.12
361.843	396.12
362.07	371.12
362.296	369.12
362.523	398.12
362.749	390.12
362.976	380.12
363.203	370.12
363.429	374.12
363.656	359.12
363.882	370.12
364.109	356.12
364.335	344.12
364.562	386.12
364.788	355.12
365.015	376.12
365.241	360.12
365.468	378.12
365.694	372.12
365.92	385.12
366.147	361.12
366.373	366.12
366.599	364.12
366.826	357.12
367.052	325.12
367.278	368.12
367.505	358.12
367.731	355.12
367.957	357.12
368.184	360.12
368.41	374.12
368.636	368.12
368.862	388.12
369.089	374.12
369.315	366.12
369.541	340.12
369.767	364.12
369.993	363.12
370.219	360.12
370.445	352.12
370.672	350.12
370.898	333.12
371.124	351.12
371.35	360.12
371.576	338.12
371.802	358.12
372.028	360.12
372.254	350.12
372.48	354.12
372.706	325.12
372.932	342.12
373.158	355.12
373.384	350.12
373.61	343.12
373.835	345.12
374.061	361.12
374.287	359.12
374.513	360.12
374.739	348.12
374.965	359.12
375.191	364.12
375.416	357.12
375.642	347.12
375.868	338.12
376.094	349.12
376.319	347.12
376.545	368.12
376.771	350.12
376.997	338.12
377.222	321.12
377.448	355.12
377.674	343.12
377.899	334.12
378.125	338.12
378.35	357.12
378.576	329.12
378.802	315.12
379.027	348.12
379.253	349.12
379.478	326.12
379.704	343.12
379.929	338.12
380.155	358.12
380.38	350.12
380.606	343.12
380.831	356.12
381.057	363.12
381.282	346.12
381.507	348.12
381.733	349.12
381.958	349.12
382.184	351.12
382.409	346.12
382.634	350.12
382.86	341.12
383.085	338.12
383.31	367.12
383.535	357.12
383.761	342.12
383.986	367.12
384.211	349.12
384.436	379.12
384.662	369.12
384.887	365.12
385.112	365.12
385.337	369.12
385.562	356.12
385.787	368.12
386.013	370.12
386.238	357.12
386.463	380.12
386.688	365.12
386.913	366.12
387.138	363.12
387.363	356.12
387.588	373.12
387.813	346.12
388.038	362.12
388.263	344.12
388.488	374.12
388.713	362.12
388.938	349.12
389.163	356.12
389.387	387.12
389.612	378.12
389.837	367.12
390.062	342.12
390.287	363.12
390.512	339.12
390.736	350.12
390.961	376.12
391.186	351.12
391.411	378.12
391.636	366.12
391.86	382.12
392.085	360.12
392.31	374.12
392.534	372.12
392.759	368.12
392.984	371.12
393.208	376.12
393.433	378.12
393.658	353.12
393.882	346.12
394.107	353.12
394.331	363.12
394.556	372.12
394.78	346.12
395.005	373.12
395.229	370.12
395.454	358.12
395.678	363.12
395.903	376.12
396.127	380.12
396.352	405.12
396.576	378.12
396.801	376.12
397.025	366.12
397.249	363.12
397.474	364.12
397.698	393.12
397.922	393.12
398.147	420.12
398.371	392.12
398.595	412.12
398.82	397.12
399.044	395.12
399.268	406.12
399.492	418.12
399.717	450.12
399.941	450.12
400.165	491.12
400.389	512.12
400.613	478.12
400.837	422.12
401.062	439.12
401.286	393.12
401.51	417.12
401.734	395.12
401.958	406.12
402.182	436.12
402.406	418.12
402.63	426.12
402.854	424.12
403.078	414.12
403.302	425.12
403.526	404.12
403.75	417.12
403.974	416.12
404.198	423.12
404.422	413.12
404.645	411.12
404.869	427.12
405.093	456.12
405.317	482.12
405.541	532.12
405.765	485.12
405.988	470.12
406.212	481.12
406.436	513.12
406.66	497.12
406.883	463.12
407.107	504.12
407.331	551.12
407.555	589.12
407.778	595.12
408.002	530.12
408.226	498.12
408.449	475.12
408.673	466.12
408.896	496.12
409.12	534.12
409.344	519.12
409.567	457.12
409.791	444.12
410.014	424.12
410.238	430.12
410.461	443.12
410.685	428.12
410.908	422.12
411.132	478.12
411.355	507.12
411.578	483.12
411.802	453.12
412.025	412.12
412.249	429.12
412.472	443.12
412.695	501.12
412.919	454.12
413.142	449.12
413.365	410.12
413.589	421.12
413.812	418.12
414.035	423.12
414.258	404.12
414.482	405.12
414.705	398.12
414.928	405.12
415.151	398.12
415.374	394.12
415.597	399.12
415.821	400.12
416.044	392.12
416.267	422.12
416.49	403.12
416.713	397.12
416.936	394.12
417.159	393.12
417.382	402.12
417.605	409.12
417.828	443.12
418.051	437.12
418.274	438.12
418.497	407.12
418.72	398.12
418.943	402.12
419.166	408.12
419.389	435.12
419.611	429.12
419.834	410.12
420.057	435.12
420.28	438.12
420.503	434.12
420.726	424.12
420.948	434.12
421.171	470.12
421.394	512.12
421.617	461.12
421.839	420.12
422.062	422.12
422.285	460.12
422.507	488.12
422.73	560.12
422.953	532.12
423.175	493.12
423.398	452.12
423.621	451.12
423.843	467.12
424.066	468.12
424.288	482.12
424.511	509.12
424.733	562.12
424.956	642.12
425.178	603.12
425.401	583.12
425.623	619.12
425.846	517.12
426.068	504.12
426.291	501.12
426.513	506.12
426.735	497.12
426.958	514.12
427.18	603.12
427.402	723.12
427.625	792.12
427.847	731.12
428.069	616.12
428.292	536.12
428.514	478.12
428.736	462.12
428.958	479.12
429.181	452.12
429.403	435.12
429.625	455.12
429.847	485.12
430.069	554.12
430.292	545.12
430.514	462.12
430.736	440.12
430.958	457.12
431.18	394.12
431.402	420.12
431.624	403.12
431.846	399.12
432.068	405.12
432.29	404.12
432.512	398.12
432.734	402.12
432.956	423.12
433.178	450.12
433.4	454.12
433.622	418.12
433.844	415.12
434.066	416.12
434.287	411.12
434.509	390.12
434.731	422.12
434.953	427.12
435.175	436.12
435.397	466.12
435.618	493.12
435.84	544.12
436.062	612.12
436.284	681.12
436.505	550.12
436.727	520.12
436.949	475.12
437.17	456.12
437.392	460.12
437.614	459.12
437.835	502.12
438.057	590.12
438.278	691.12
438.5	694.12
438.721	747.12
438.943	696.12
439.165	586.12
439.386	498.12
439.608	506.12
439.829	536.12
440.05	524.12
440.272	557.12
440.493	533.12
440.715	490.12
440.936	442.12
441.158	462.12
441.379	473.12
441.6	468.12
441.822	478.12
442.043	518.12
442.264	609.12
442.486	652.12
442.707	558.12
442.928	496.12
443.149	509.12
443.371	501.12
443.592	562.12
443.813	642.12
444.034	684.12
444.255	574.12
444.476	524.12
444.698	458.12
444.919	471.12
445.14	521.12
445.361	521.12
445.582	505.12
445.803	592.12
446.024	690.12
446.245	694.12
446.466	645.12
446.687	537.12
446.908	506.12
447.129	490.12
447.35	468.12
447.571	448.12
447.792	446.12
448.013	449.12
448.234	469.12
448.455	532.12
448.675	645.12
448.896	723.12
449.117	636.12
449.338	602.12
449.559	680.12
449.779	772.12
450	632.12
450.221	501.12
450.442	509.12
450.662	459.12
450.883	462.12
451.104	496.12
451.324	484.12
451.545	438.12
451.766	416.12
451.986	428.12
452.207	403.12
452.428	410.12
452.648	388.12
452.869	429.12
453.089	412.12
453.31	428.12
453.53	426.12
453.751	412.12
453.971	398.12
454.192	438.12
454.412	448.12
454.633	425.12
454.853	397.12
455.073	389.12
455.294	443.12
455.514	494.12
455.734	498.12
455.955	422.12
456.175	397.12
456.395	380.12
456.616	362.12
456.836	380.12
457.056	372.12
457.276	387.12
457.497	374.12
457.717	361.12
457.937	365.12
458.157	385.12
458.377	402.12
458.598	434.12
458.818	491.12
459.038	568.12
459.258	572.12
459.478	493.12
459.698	414.12
459.918	409.12
460.138	403.12
460.358	404.12
460.578	414.12
460.798	409.12
461.018	410.12
461.238	403.12
461.458	398.12
461.678	391.12
461.898	393.12
462.118	410.12
462.338	398.12
462.558	422.12
462.777	426.12
462.997	404.12
463.217	411.12
463.437	420.12
463.657	419.12
463.876	426.12
464.096	444.12
464.316	439.12
464.536	425.12
464.755	441.12
464.975	441.12
465.195	483.12
465.414	585.12
465.634	513.12
465.854	466.12
466.073	440.12
466.293	410.12
466.512	410.12
466.732	386.12
466.951	424.12
467.171	386.12
467.391	395.12
467.61	429.12
467.829	423.12
468.049	416.12
468.268	408.12
468.488	397.12
468.707	412.12
468.927	399.12
469.146	386.12
469.365	366.12
469.585	400.12
469.804	413.12
470.023	423.12
470.243	440.12
470.462	422.12
470.681	416.12
470.901	414.12
471.12	408.12
471.339	418.12
471.558	398.12
471.777	437.12
471.997	410.12
472.216	407.12
472.435	447.12
472.654	427.12
472.873	416.12
473.092	398.12
473.311	433.12
473.53	412.12
473.749	417.12
473.968	483.12
474.187	578.12
474.406	591.12
474.625	480.12
474.844	441.12
475.063	420.12
475.282	408.12
475.501	418.12
475.72	411.12
475.939	423.12
476.158	428.12
476.377	416.12
476.596	420.12
476.814	441.12
477.033	454.12
477.252	428.12
477.471	426.12
477.69	443.12
477.908	448.12
478.127	452.12
478.346	436.12
478.564	436.12
478.783	433.12
479.002	466.12
479.22	445.12
479.439	475.12
479.658	482.12
479.876	502.12
480.095	495.12
480.313	517.12
480.532	508.12
480.751	487.12
480.969	513.12
481.188	591.12
481.406	644.12
481.624	534.12
481.843	500.12
482.061	509.12
482.28	500.12
482.498	473.12
482.717	476.12
482.935	489.12
483.153	471.12
483.372	476.12
483.59	482.12
483.808	461.12
484.027	473.12
484.245	484.12
484.463	485.12
484.681	497.12
484.9	493.12
485.118	488.12
485.336	486.12
485.554	505.12
485.772	496.12
485.99	481.12
486.209	514.12
486.427	502.12
486.645	515.12
486.863	532.12
487.081	535.12
487.299	536.12
487.517	516.12
487.735	521.12
487.953	522.12
488.171	519.12
488.389	520.12
488.607	508.12
488.825	530.12
489.043	537.12
489.261	515.12
489.479	515.12
489.696	529.12
489.914	545.12
490.132	545.12
490.35	545.12
490.568	532.12
490.786	550.12
491.003	582.12
491.221	586.12
491.439	584.12
491.657	587.12
491.874	584.12
492.092	579.12
492.31	588.12
492.527	610.12
492.745	616.12
492.963	629.12
493.18	612.12
493.398	624.12
493.615	630.12
493.833	609.12
494.05	628.12
494.268	614.12
494.485	632.12
494.703	636.12
494.92	634.12
495.138	616.12
495.355	639.12
495.573	632.12
495.79	623.12
496.008	629.12
496.225	645.12
496.442	630.12
496.66	635.12
496.877	614.12
497.094	642.12
497.312	636.12
497.529	660.12
497.746	637.12
497.963	653.12
498.181	643.12
498.398	662.12
498.615	671.12
498.832	680.12
499.049	676.12
499.267	701.12
499.484	730.12
499.701	733.12
499.918	720.12
500.135	744.12
500.352	730.12
500.569	772.12
500.786	773.12
501.003	749.12
501.22	738.12
501.437	747.12
501.654	776.12
501.871	764.12
