Data from 1986.PennyLincolnUp.Lamp.En5.5.200Scan.071819.P2_HRD10591_17-12-02-974.txt Node
Date: Thu Jul 18 17:12:02 EDT 2019
User: cochatt
Spectrometer: HR+D1059
Trigger mode: 1
Integration Time (sec): 1.000000E-1
Scans to average: 1
Electric dark correction enabled: true
Nonlinearity correction enabled: false
Boxcar width: 0
XAxis mode: Wavelengths
Number of Pixels in Spectrum: 2048
>>>>>Begin Spectral Data<<<<<
223.165	-11.06
223.4	-11.06
223.635	-11.06
223.869	-22.06
224.104	-22.06
224.338	-8.06
224.573	-18.06
224.808	-9.06
225.042	-6.06
225.277	1.94
225.511	5.94
225.746	-5.06
225.98	10.94
226.215	10.94
226.449	23.94
226.683	22.94
226.918	8.94
227.152	15.94
227.387	26.94
227.621	35.94
227.856	56.94
228.09	52.94
228.324	54.94
228.559	64.94
228.793	72.94
229.027	108.94
229.262	126.94
229.496	125.94
229.73	130.94
229.964	169.94
230.199	146.94
230.433	136.94
230.667	118.94
230.901	126.94
231.136	120.94
231.37	121.94
231.604	121.94
231.838	118.94
232.072	121.94
232.306	120.94
232.541	113.94
232.775	124.94
233.009	117.94
233.243	111.94
233.477	123.94
233.711	119.94
233.945	116.94
234.179	117.94
234.413	105.94
234.647	109.94
234.881	115.94
235.115	120.94
235.349	135.94
235.583	118.94
235.817	138.94
236.051	123.94
236.285	130.94
236.519	124.94
236.753	128.94
236.987	159.94
237.221	194.94
237.455	271.94
237.689	220.94
237.922	169.94
238.156	136.94
238.39	144.94
238.624	136.94
238.858	126.94
239.091	123.94
239.325	122.94
239.559	149.94
239.793	130.94
240.027	146.94
240.26	139.94
240.494	156.94
240.728	152.94
240.961	155.94
241.195	135.94
241.429	141.94
241.662	145.94
241.896	151.94
242.13	140.94
242.363	155.94
242.597	149.94
242.83	150.94
243.064	155.94
243.298	128.94
243.531	143.94
243.765	168.94
243.998	162.94
244.232	156.94
244.465	158.94
244.699	159.94
244.932	159.94
245.166	158.94
245.399	159.94
245.633	168.94
245.866	158.94
246.099	174.94
246.333	176.94
246.566	151.94
246.8	169.94
247.033	176.94
247.266	166.94
247.5	159.94
247.733	180.94
247.966	184.94
248.2	176.94
248.433	186.94
248.666	186.94
248.899	199.94
249.133	215.94
249.366	228.94
249.599	215.94
249.832	198.94
250.066	205.94
250.299	210.94
250.532	244.94
250.765	261.94
250.998	281.94
251.231	263.94
251.465	250.94
251.698	237.94
251.931	232.94
252.164	242.94
252.397	221.94
252.63	229.94
252.863	217.94
253.096	231.94
253.329	260.94
253.562	264.94
253.795	258.94
254.028	248.94
254.261	264.94
254.494	248.94
254.727	281.94
254.96	309.94
255.193	311.94
255.426	298.94
255.659	288.94
255.892	292.94
256.124	318.94
256.357	347.94
256.59	326.94
256.823	279.94
257.056	280.94
257.289	290.94
257.521	240.94
257.754	239.94
257.987	251.94
258.22	232.94
258.452	250.94
258.685	235.94
258.918	228.94
259.151	222.94
259.383	251.94
259.616	246.94
259.849	260.94
260.081	262.94
260.314	283.94
260.547	300.94
260.779	264.94
261.012	256.94
261.244	226.94
261.477	262.94
261.71	267.94
261.942	233.94
262.175	248.94
262.407	245.94
262.64	222.94
262.872	232.94
263.105	240.94
263.337	223.94
263.57	220.94
263.802	218.94
264.035	223.94
264.267	234.94
264.499	227.94
264.732	235.94
264.964	225.94
265.197	221.94
265.429	218.94
265.661	233.94
265.894	212.94
266.126	227.94
266.358	235.94
266.591	219.94
266.823	234.94
267.055	242.94
267.287	233.94
267.52	226.94
267.752	258.94
267.984	235.94
268.216	229.94
268.448	242.94
268.681	244.94
268.913	263.94
269.145	263.94
269.377	287.94
269.609	277.94
269.841	291.94
270.073	282.94
270.306	326.94
270.538	345.94
270.77	335.94
271.002	315.94
271.234	308.94
271.466	319.94
271.698	332.94
271.93	355.94
272.162	357.94
272.394	331.94
272.626	330.94
272.858	308.94
273.09	310.94
273.322	291.94
273.553	280.94
273.785	303.94
274.017	294.94
274.249	271.94
274.481	287.94
274.713	262.94
274.945	300.94
275.176	300.94
275.408	271.94
275.64	280.94
275.872	288.94
276.104	275.94
276.335	283.94
276.567	288.94
276.799	319.94
277.031	340.94
277.262	342.94
277.494	352.94
277.726	331.94
277.957	322.94
278.189	312.94
278.421	278.94
278.652	290.94
278.884	295.94
279.115	284.94
279.347	286.94
279.579	291.94
279.81	288.94
280.042	277.94
280.273	290.94
280.505	298.94
280.736	277.94
280.968	291.94
281.199	276.94
281.431	292.94
281.662	292.94
281.894	288.94
282.125	300.94
282.356	302.94
282.588	312.94
282.819	314.94
283.051	288.94
283.282	274.94
283.513	274.94
283.745	286.94
283.976	276.94
284.207	297.94
284.439	284.94
284.67	269.94
284.901	297.94
285.132	297.94
285.364	288.94
285.595	285.94
285.826	301.94
286.057	283.94
286.288	294.94
286.52	294.94
286.751	291.94
286.982	274.94
287.213	301.94
287.444	288.94
287.675	294.94
287.906	301.94
288.138	309.94
288.369	308.94
288.6	310.94
288.831	319.94
289.062	311.94
289.293	302.94
289.524	304.94
289.755	300.94
289.986	279.94
290.217	287.94
290.448	295.94
290.679	303.94
290.91	309.94
291.141	298.94
291.371	308.94
291.602	292.94
291.833	276.94
292.064	284.94
292.295	291.94
292.526	291.94
292.757	291.94
292.987	294.94
293.218	294.94
293.449	286.94
293.68	293.94
293.91	288.94
294.141	299.94
294.372	292.94
294.603	295.94
294.833	291.94
295.064	290.94
295.295	310.94
295.525	301.94
295.756	310.94
295.987	314.94
296.217	331.94
296.448	354.94
296.679	303.94
296.909	301.94
297.14	303.94
297.37	306.94
297.601	309.94
297.831	287.94
298.062	296.94
298.292	299.94
298.523	308.94
298.753	303.94
298.984	306.94
299.214	303.94
299.445	310.94
299.675	312.94
299.905	322.94
300.136	306.94
300.366	303.94
300.597	316.94
300.827	309.94
301.057	330.94
301.288	327.94
301.518	330.94
301.748	332.94
301.979	331.94
302.209	343.94
302.439	326.94
302.669	325.94
302.9	315.94
303.13	323.94
303.36	320.94
303.59	344.94
303.82	326.94
304.051	351.94
304.281	326.94
304.511	327.94
304.741	337.94
304.971	329.94
305.201	322.94
305.431	346.94
305.661	314.94
305.891	326.94
306.121	334.94
306.352	335.94
306.582	349.94
306.812	322.94
307.042	328.94
307.272	339.94
307.502	344.94
307.731	330.94
307.961	342.94
308.191	333.94
308.421	352.94
308.651	348.94
308.881	341.94
309.111	361.94
309.341	348.94
309.571	377.94
309.8	364.94
310.03	386.94
310.26	378.94
310.49	390.94
310.72	374.94
310.949	396.94
311.179	404.94
311.409	384.94
311.639	389.94
311.868	383.94
312.098	377.94
312.328	406.94
312.557	413.94
312.787	426.94
313.017	418.94
313.246	410.94
313.476	394.94
313.706	389.94
313.935	382.94
314.165	412.94
314.394	421.94
314.624	430.94
314.853	404.94
315.083	386.94
315.312	377.94
315.542	383.94
315.771	364.94
316.001	376.94
316.23	388.94
316.46	378.94
316.689	392.94
316.919	378.94
317.148	405.94
317.377	390.94
317.607	396.94
317.836	394.94
318.065	386.94
318.295	375.94
318.524	389.94
318.753	375.94
318.983	406.94
319.212	389.94
319.441	378.94
319.67	402.94
319.9	396.94
320.129	390.94
320.358	395.94
320.587	378.94
320.816	402.94
321.046	397.94
321.275	413.94
321.504	429.94
321.733	415.94
321.962	410.94
322.191	419.94
322.42	459.94
322.649	463.94
322.878	493.94
323.108	483.94
323.337	532.94
323.566	553.94
323.795	585.94
324.024	655.94
324.253	781.94
324.482	1130.94
324.71	1693.94
324.939	2414.94
325.168	2141.94
325.397	1162.94
325.626	776.94
325.855	627.94
326.084	576.94
326.313	557.94
326.542	589.94
326.77	628.94
326.999	739.94
327.228	980.94
327.457	1517.94
327.686	1844.94
327.914	1291.94
328.143	886.94
328.372	793.94
328.6	729.94
328.829	681.94
329.058	709.94
329.287	703.94
329.515	654.94
329.744	646.94
329.972	656.94
330.201	737.94
330.43	845.94
330.658	814.94
330.887	756.94
331.115	709.94
331.344	610.94
331.572	575.94
331.801	541.94
332.03	559.94
332.258	536.94
332.486	488.94
332.715	511.94
332.943	495.94
333.172	489.94
333.4	519.94
333.629	534.94
333.857	566.94
334.085	622.94
334.314	718.94
334.542	835.94
334.771	908.94
334.999	702.94
335.227	578.94
335.455	547.94
335.684	482.94
335.912	489.94
336.14	453.94
336.369	487.94
336.597	454.94
336.825	468.94
337.053	468.94
337.281	464.94
337.51	451.94
337.738	472.94
337.966	454.94
338.194	467.94
338.422	446.94
338.65	424.94
338.878	437.94
339.106	426.94
339.334	414.94
339.562	446.94
339.79	431.94
340.018	435.94
340.246	424.94
340.474	423.94
340.702	446.94
340.93	423.94
341.158	436.94
341.386	434.94
341.614	423.94
341.842	405.94
342.07	410.94
342.298	406.94
342.526	399.94
342.754	402.94
342.981	403.94
343.209	423.94
343.437	411.94
343.665	416.94
343.893	414.94
344.12	429.94
344.348	414.94
344.576	423.94
344.804	430.94
345.031	446.94
345.259	444.94
345.487	437.94
345.714	427.94
345.942	420.94
346.17	410.94
346.397	404.94
346.625	408.94
346.853	415.94
347.08	411.94
347.308	400.94
347.535	425.94
347.763	422.94
347.99	421.94
348.218	424.94
348.445	455.94
348.673	435.94
348.9	411.94
349.128	415.94
349.355	387.94
349.583	416.94
349.81	407.94
350.037	406.94
350.265	411.94
350.492	396.94
350.72	390.94
350.947	405.94
351.174	428.94
351.402	422.94
351.629	405.94
351.856	440.94
352.083	447.94
352.311	446.94
352.538	429.94
352.765	444.94
352.992	419.94
353.22	414.94
353.447	417.94
353.674	401.94
353.901	391.94
354.128	414.94
354.355	375.94
354.583	370.94
354.81	378.94
355.037	383.94
355.264	368.94
355.491	381.94
355.718	376.94
355.945	407.94
356.172	388.94
356.399	376.94
356.626	395.94
356.853	375.94
357.08	356.94
357.307	363.94
357.534	367.94
357.761	390.94
357.988	375.94
358.215	365.94
358.441	378.94
358.668	384.94
358.895	391.94
359.122	386.94
359.349	401.94
359.576	418.94
359.802	423.94
360.029	464.94
360.256	475.94
360.483	458.94
360.709	435.94
360.936	402.94
361.163	418.94
361.39	430.94
361.616	416.94
361.843	410.94
362.07	399.94
362.296	420.94
362.523	422.94
362.749	397.94
362.976	406.94
363.203	398.94
363.429	384.94
363.656	379.94
363.882	382.94
364.109	382.94
364.335	383.94
364.562	381.94
364.788	381.94
365.015	404.94
365.241	386.94
365.468	395.94
365.694	390.94
365.92	396.94
366.147	391.94
366.373	370.94
366.599	380.94
366.826	378.94
367.052	395.94
367.278	394.94
367.505	384.94
367.731	383.94
367.957	379.94
368.184	386.94
368.41	386.94
368.636	404.94
368.862	389.94
369.089	405.94
369.315	384.94
369.541	399.94
369.767	382.94
369.993	368.94
370.219	390.94
370.445	382.94
370.672	386.94
370.898	375.94
371.124	384.94
371.35	380.94
371.576	365.94
371.802	384.94
372.028	376.94
372.254	363.94
372.48	380.94
372.706	394.94
372.932	388.94
373.158	367.94
373.384	380.94
373.61	380.94
373.835	368.94
374.061	379.94
374.287	378.94
374.513	381.94
374.739	395.94
374.965	361.94
375.191	382.94
375.416	374.94
375.642	372.94
375.868	378.94
376.094	394.94
376.319	376.94
376.545	373.94
376.771	380.94
376.997	382.94
377.222	379.94
377.448	378.94
377.674	349.94
377.899	364.94
378.125	361.94
378.35	349.94
378.576	365.94
378.802	370.94
379.027	368.94
379.253	358.94
379.478	370.94
379.704	366.94
379.929	364.94
380.155	362.94
380.38	378.94
380.606	374.94
380.831	375.94
381.057	374.94
381.282	354.94
381.507	378.94
381.733	358.94
381.958	378.94
382.184	386.94
382.409	392.94
382.634	366.94
382.86	367.94
383.085	357.94
383.31	363.94
383.535	371.94
383.761	359.94
383.986	375.94
384.211	360.94
384.436	388.94
384.662	394.94
384.887	375.94
385.112	378.94
385.337	388.94
385.562	396.94
385.787	386.94
386.013	395.94
386.238	390.94
386.463	401.94
386.688	388.94
386.913	384.94
387.138	403.94
387.363	402.94
387.588	395.94
387.813	388.94
388.038	391.94
388.263	388.94
388.488	386.94
388.713	383.94
388.938	377.94
389.163	383.94
389.387	365.94
389.612	397.94
389.837	384.94
390.062	378.94
390.287	382.94
390.512	386.94
390.736	394.94
390.961	381.94
391.186	382.94
391.411	397.94
391.636	421.94
391.86	388.94
392.085	384.94
392.31	394.94
392.534	393.94
392.759	382.94
392.984	381.94
393.208	382.94
393.433	401.94
393.658	409.94
393.882	389.94
394.107	400.94
394.331	396.94
394.556	386.94
394.78	380.94
395.005	386.94
395.229	380.94
395.454	391.94
395.678	379.94
395.903	408.94
396.127	429.94
396.352	439.94
396.576	400.94
396.801	401.94
397.025	409.94
397.249	383.94
397.474	415.94
397.698	411.94
397.922	429.94
398.147	438.94
398.371	448.94
398.595	420.94
398.82	434.94
399.044	428.94
399.268	441.94
399.492	447.94
399.717	474.94
399.941	508.94
400.165	522.94
400.389	518.94
400.613	491.94
400.837	469.94
401.062	464.94
401.286	420.94
401.51	450.94
401.734	418.94
401.958	442.94
402.182	446.94
402.406	447.94
402.63	468.94
402.854	431.94
403.078	429.94
403.302	450.94
403.526	483.94
403.75	467.94
403.974	484.94
404.198	451.94
404.422	439.94
404.645	485.94
404.869	511.94
405.093	552.94
405.317	612.94
405.541	646.94
405.765	575.94
405.988	532.94
406.212	539.94
406.436	540.94
406.66	555.94
406.883	538.94
407.107	527.94
407.331	564.94
407.555	603.94
407.778	610.94
408.002	592.94
408.226	515.94
408.449	546.94
408.673	492.94
408.896	514.94
409.12	571.94
409.344	581.94
409.567	490.94
409.791	492.94
410.014	463.94
410.238	464.94
410.461	463.94
410.685	472.94
410.908	469.94
411.132	511.94
411.355	546.94
411.578	512.94
411.802	477.94
412.025	487.94
412.249	508.94
412.472	546.94
412.695	590.94
412.919	601.94
413.142	539.94
413.365	508.94
413.589	496.94
413.812	488.94
414.035	463.94
414.258	452.94
414.482	452.94
414.705	453.94
414.928	452.94
415.151	448.94
415.374	445.94
415.597	438.94
415.821	425.94
416.044	445.94
416.267	463.94
416.49	438.94
416.713	443.94
416.936	450.94
417.159	442.94
417.382	460.94
417.605	467.94
417.828	466.94
418.051	484.94
418.274	462.94
418.497	454.94
418.72	445.94
418.943	422.94
419.166	440.94
419.389	464.94
419.611	464.94
419.834	483.94
420.057	494.94
420.28	476.94
420.503	527.94
420.726	518.94
420.948	536.94
421.171	542.94
421.394	578.94
421.617	493.94
421.839	483.94
422.062	451.94
422.285	493.94
422.507	499.94
422.73	608.94
422.953	576.94
423.175	522.94
423.398	502.94
423.621	477.94
423.843	507.94
424.066	494.94
424.288	528.94
424.511	544.94
424.733	575.94
424.956	665.94
425.178	644.94
425.401	626.94
425.623	644.94
425.846	573.94
426.068	536.94
426.291	523.94
426.513	518.94
426.735	540.94
426.958	564.94
427.18	640.94
427.402	790.94
427.625	855.94
427.847	771.94
428.069	696.94
428.292	645.94
428.514	569.94
428.736	516.94
428.958	480.94
429.181	487.94
429.403	494.94
429.625	477.94
429.847	525.94
430.069	566.94
430.292	573.94
430.514	512.94
430.736	464.94
430.958	468.94
431.18	463.94
431.402	456.94
431.624	464.94
431.846	436.94
432.068	426.94
432.29	457.94
432.512	435.94
432.734	466.94
432.956	444.94
433.178	456.94
433.4	461.94
433.622	463.94
433.844	429.94
434.066	426.94
434.287	437.94
434.509	448.94
434.731	439.94
434.953	455.94
435.175	486.94
435.397	482.94
435.618	515.94
435.84	538.94
436.062	646.94
436.284	694.94
436.505	599.94
436.727	536.94
436.949	489.94
437.17	483.94
437.392	484.94
437.614	471.94
437.835	543.94
438.057	634.94
438.278	744.94
438.5	708.94
438.721	779.94
438.943	752.94
439.165	598.94
439.386	540.94
439.608	570.94
439.829	538.94
440.05	557.94
440.272	589.94
440.493	569.94
440.715	528.94
440.936	508.94
441.158	468.94
441.379	483.94
441.6	481.94
441.822	496.94
442.043	551.94
442.264	644.94
442.486	640.94
442.707	587.94
442.928	541.94
443.149	542.94
443.371	578.94
443.592	613.94
443.813	696.94
444.034	760.94
444.255	650.94
444.476	537.94
444.698	518.94
444.919	513.94
445.14	606.94
445.361	588.94
445.582	576.94
445.803	623.94
446.024	713.94
446.245	739.94
446.466	670.94
446.687	549.94
446.908	518.94
447.129	502.94
447.35	489.94
447.571	487.94
447.792	484.94
448.013	499.94
448.234	486.94
448.455	559.94
448.675	662.94
448.896	767.94
449.117	647.94
449.338	624.94
449.559	719.94
449.779	802.94
450	620.94
450.221	536.94
450.442	484.94
450.662	506.94
450.883	496.94
451.104	520.94
451.324	484.94
451.545	467.94
451.766	442.94
451.986	438.94
452.207	426.94
452.428	419.94
452.648	421.94
452.869	425.94
453.089	455.94
453.31	440.94
453.53	448.94
453.751	434.94
453.971	437.94
454.192	466.94
454.412	451.94
454.633	437.94
454.853	440.94
455.073	428.94
455.294	450.94
455.514	538.94
455.734	524.94
455.955	438.94
456.175	430.94
456.395	431.94
456.616	395.94
456.836	388.94
457.056	384.94
457.276	372.94
457.497	413.94
457.717	398.94
457.937	402.94
458.157	415.94
458.377	417.94
458.598	398.94
458.818	500.94
459.038	609.94
459.258	602.94
459.478	492.94
459.698	458.94
459.918	445.94
460.138	422.94
460.358	431.94
460.578	423.94
460.798	450.94
461.018	454.94
461.238	438.94
461.458	431.94
461.678	436.94
461.898	430.94
462.118	420.94
462.338	440.94
462.558	438.94
462.777	442.94
462.997	442.94
463.217	442.94
463.437	455.94
463.657	460.94
463.876	425.94
464.096	465.94
464.316	465.94
464.536	476.94
464.755	464.94
464.975	494.94
465.195	527.94
465.414	622.94
465.634	526.94
465.854	489.94
466.073	464.94
466.293	456.94
466.512	451.94
466.732	442.94
466.951	426.94
467.171	423.94
467.391	438.94
467.61	464.94
467.829	448.94
468.049	460.94
468.268	495.94
468.488	476.94
468.707	436.94
468.927	436.94
469.146	437.94
469.365	445.94
469.585	452.94
469.804	442.94
470.023	458.94
470.243	433.94
470.462	458.94
470.681	477.94
470.901	452.94
471.12	444.94
471.339	437.94
471.558	470.94
471.777	451.94
471.997	469.94
472.216	512.94
472.435	659.94
472.654	626.94
472.873	534.94
473.092	468.94
473.311	470.94
473.53	491.94
473.749	473.94
473.968	528.94
474.187	636.94
474.406	632.94
474.625	520.94
474.844	477.94
475.063	455.94
475.282	447.94
475.501	462.94
475.72	486.94
475.939	473.94
476.158	461.94
476.377	454.94
476.596	468.94
476.814	459.94
477.033	464.94
477.252	482.94
477.471	469.94
477.69	484.94
477.908	470.94
478.127	460.94
478.346	469.94
478.564	484.94
478.783	491.94
479.002	517.94
479.22	510.94
479.439	533.94
479.658	556.94
479.876	546.94
480.095	564.94
480.313	579.94
480.532	564.94
480.751	573.94
480.969	636.94
481.188	869.94
481.406	1073.94
481.624	754.94
481.843	650.94
482.061	599.94
482.28	592.94
482.498	601.94
482.717	546.94
482.935	559.94
483.153	562.94
483.372	548.94
483.59	550.94
483.808	548.94
484.027	521.94
484.245	576.94
484.463	548.94
484.681	566.94
484.9	532.94
485.118	535.94
485.336	555.94
485.554	542.94
485.772	563.94
485.99	575.94
486.209	550.94
486.427	566.94
486.645	587.94
486.863	589.94
487.081	621.94
487.299	575.94
487.517	599.94
487.735	595.94
487.953	563.94
488.171	592.94
488.389	568.94
488.607	570.94
488.825	586.94
489.043	576.94
489.261	581.94
489.479	608.94
489.696	625.94
489.914	609.94
490.132	610.94
490.35	609.94
490.568	623.94
490.786	634.94
491.003	646.94
491.221	669.94
491.439	666.94
491.657	666.94
491.874	674.94
492.092	696.94
492.31	732.94
492.527	728.94
492.745	696.94
492.963	696.94
493.18	741.94
493.398	752.94
493.615	745.94
493.833	707.94
494.05	729.94
494.268	709.94
494.485	687.94
494.703	685.94
494.92	698.94
495.138	710.94
495.355	711.94
495.573	727.94
495.79	714.94
496.008	713.94
496.225	702.94
496.442	747.94
496.66	721.94
496.877	725.94
497.094	707.94
497.312	722.94
497.529	712.94
497.746	702.94
497.963	703.94
498.181	747.94
498.398	747.94
498.615	756.94
498.832	754.94
499.049	750.94
499.267	760.94
499.484	760.94
499.701	783.94
499.918	795.94
500.135	806.94
500.352	796.94
500.569	837.94
500.786	853.94
501.003	839.94
501.22	828.94
501.437	815.94
501.654	791.94
501.871	841.94
