Data from 1986.PennyLincolnUp.Lamp.En5.5.200Scan.071819.P2_HRD10591_17-12-03-976.txt Node
Date: Thu Jul 18 17:12:03 EDT 2019
User: cochatt
Spectrometer: HR+D1059
Trigger mode: 1
Integration Time (sec): 1.000000E-1
Scans to average: 1
Electric dark correction enabled: true
Nonlinearity correction enabled: false
Boxcar width: 0
XAxis mode: Wavelengths
Number of Pixels in Spectrum: 2048
>>>>>Begin Spectral Data<<<<<
223.165	-18.44
223.4	-18.44
223.635	-18.44
223.869	-3.44
224.104	-16.44
224.338	-8.44
224.573	-0.44
224.808	-17.44
225.042	-14.44
225.277	-21.44
225.511	-13.44
225.746	5.56
225.98	6.56
226.215	10.56
226.449	9.56
226.683	21.56
226.918	21.56
227.152	38.56
227.387	36.56
227.621	34.56
227.856	32.56
228.09	47.56
228.324	39.56
228.559	59.56
228.793	70.56
229.027	99.56
229.262	116.56
229.496	99.56
229.73	129.56
229.964	143.56
230.199	134.56
230.433	137.56
230.667	100.56
230.901	136.56
231.136	99.56
231.37	108.56
231.604	115.56
231.838	95.56
232.072	111.56
232.306	105.56
232.541	117.56
232.775	104.56
233.009	113.56
233.243	127.56
233.477	108.56
233.711	119.56
233.945	121.56
234.179	91.56
234.413	114.56
234.647	119.56
234.881	120.56
235.115	118.56
235.349	125.56
235.583	135.56
235.817	114.56
236.051	137.56
236.285	117.56
236.519	133.56
236.753	138.56
236.987	149.56
237.221	195.56
237.455	232.56
237.689	189.56
237.922	149.56
238.156	134.56
238.39	133.56
238.624	115.56
238.858	126.56
239.091	114.56
239.325	123.56
239.559	122.56
239.793	130.56
240.027	126.56
240.26	139.56
240.494	170.56
240.728	155.56
240.961	148.56
241.195	154.56
241.429	135.56
241.662	131.56
241.896	141.56
242.13	146.56
242.363	140.56
242.597	151.56
242.83	135.56
243.064	141.56
243.298	156.56
243.531	143.56
243.765	133.56
243.998	138.56
244.232	159.56
244.465	144.56
244.699	137.56
244.932	153.56
245.166	149.56
245.399	149.56
245.633	142.56
245.866	151.56
246.099	153.56
246.333	150.56
246.566	158.56
246.8	156.56
247.033	158.56
247.266	160.56
247.5	156.56
247.733	165.56
247.966	190.56
248.2	179.56
248.433	191.56
248.666	190.56
248.899	194.56
249.133	207.56
249.366	229.56
249.599	208.56
249.832	193.56
250.066	202.56
250.299	197.56
250.532	225.56
250.765	226.56
250.998	261.56
251.231	271.56
251.465	234.56
251.698	239.56
251.931	223.56
252.164	219.56
252.397	230.56
252.63	227.56
252.863	212.56
253.096	241.56
253.329	242.56
253.562	234.56
253.795	232.56
254.028	245.56
254.261	237.56
254.494	257.56
254.727	270.56
254.96	304.56
255.193	276.56
255.426	286.56
255.659	275.56
255.892	289.56
256.124	333.56
256.357	326.56
256.59	314.56
256.823	278.56
257.056	266.56
257.289	249.56
257.521	264.56
257.754	244.56
257.987	225.56
258.22	241.56
258.452	224.56
258.685	239.56
258.918	224.56
259.151	218.56
259.383	245.56
259.616	234.56
259.849	222.56
260.081	244.56
260.314	251.56
260.547	282.56
260.779	251.56
261.012	246.56
261.244	247.56
261.477	238.56
261.71	236.56
261.942	256.56
262.175	261.56
262.407	230.56
262.64	221.56
262.872	229.56
263.105	210.56
263.337	227.56
263.57	216.56
263.802	220.56
264.035	210.56
264.267	217.56
264.499	213.56
264.732	222.56
264.964	232.56
265.197	238.56
265.429	226.56
265.661	203.56
265.894	225.56
266.126	223.56
266.358	237.56
266.591	211.56
266.823	232.56
267.055	241.56
267.287	219.56
267.52	237.56
267.752	228.56
267.984	234.56
268.216	234.56
268.448	213.56
268.681	234.56
268.913	243.56
269.145	279.56
269.377	288.56
269.609	268.56
269.841	270.56
270.073	280.56
270.306	315.56
270.538	322.56
270.77	344.56
271.002	326.56
271.234	312.56
271.466	294.56
271.698	321.56
271.93	327.56
272.162	313.56
272.394	332.56
272.626	298.56
272.858	300.56
273.09	307.56
273.322	274.56
273.553	266.56
273.785	261.56
274.017	269.56
274.249	270.56
274.481	284.56
274.713	264.56
274.945	267.56
275.176	253.56
275.408	275.56
275.64	261.56
275.872	259.56
276.104	277.56
276.335	282.56
276.567	295.56
276.799	278.56
277.031	318.56
277.262	321.56
277.494	334.56
277.726	311.56
277.957	297.56
278.189	299.56
278.421	294.56
278.652	277.56
278.884	275.56
279.115	289.56
279.347	286.56
279.579	280.56
279.81	259.56
280.042	281.56
280.273	286.56
280.505	276.56
280.736	274.56
280.968	286.56
281.199	257.56
281.431	269.56
281.662	263.56
281.894	252.56
282.125	275.56
282.356	295.56
282.588	316.56
282.819	310.56
283.051	295.56
283.282	284.56
283.513	279.56
283.745	269.56
283.976	275.56
284.207	263.56
284.439	272.56
284.67	259.56
284.901	268.56
285.132	270.56
285.364	262.56
285.595	275.56
285.826	261.56
286.057	274.56
286.288	268.56
286.52	270.56
286.751	268.56
286.982	272.56
287.213	293.56
287.444	294.56
287.675	293.56
287.906	294.56
288.138	302.56
288.369	296.56
288.6	305.56
288.831	282.56
289.062	293.56
289.293	278.56
289.524	291.56
289.755	289.56
289.986	305.56
290.217	294.56
290.448	285.56
290.679	293.56
290.91	268.56
291.141	282.56
291.371	300.56
291.602	266.56
291.833	298.56
292.064	294.56
292.295	292.56
292.526	257.56
292.757	272.56
292.987	281.56
293.218	279.56
293.449	277.56
293.68	267.56
293.91	293.56
294.141	294.56
294.372	273.56
294.603	277.56
294.833	284.56
295.064	277.56
295.295	285.56
295.525	294.56
295.756	274.56
295.987	293.56
296.217	299.56
296.448	332.56
296.679	309.56
296.909	294.56
297.14	277.56
297.37	298.56
297.601	281.56
297.831	268.56
298.062	309.56
298.292	300.56
298.523	294.56
298.753	296.56
298.984	272.56
299.214	298.56
299.445	310.56
299.675	299.56
299.905	315.56
300.136	314.56
300.366	290.56
300.597	285.56
300.827	295.56
301.057	298.56
301.288	326.56
301.518	302.56
301.748	310.56
301.979	321.56
302.209	319.56
302.439	306.56
302.669	315.56
302.9	296.56
303.13	309.56
303.36	313.56
303.59	320.56
303.82	319.56
304.051	309.56
304.281	310.56
304.511	296.56
304.741	310.56
304.971	303.56
305.201	305.56
305.431	300.56
305.661	313.56
305.891	330.56
306.121	312.56
306.352	330.56
306.582	320.56
306.812	309.56
307.042	325.56
307.272	325.56
307.502	331.56
307.731	319.56
307.961	331.56
308.191	325.56
308.421	323.56
308.651	349.56
308.881	322.56
309.111	358.56
309.341	317.56
309.571	326.56
309.8	351.56
310.03	359.56
310.26	359.56
310.49	342.56
310.72	389.56
310.949	389.56
311.179	408.56
311.409	361.56
311.639	367.56
311.868	369.56
312.098	378.56
312.328	381.56
312.557	417.56
312.787	398.56
313.017	410.56
313.246	388.56
313.476	363.56
313.706	381.56
313.935	359.56
314.165	401.56
314.394	401.56
314.624	382.56
314.853	369.56
315.083	388.56
315.312	358.56
315.542	357.56
315.771	358.56
316.001	352.56
316.23	357.56
316.46	378.56
316.689	345.56
316.919	353.56
317.148	381.56
317.377	375.56
317.607	377.56
317.836	376.56
318.065	372.56
318.295	365.56
318.524	363.56
318.753	344.56
318.983	364.56
319.212	379.56
319.441	382.56
319.67	375.56
319.9	378.56
320.129	388.56
320.358	367.56
320.587	383.56
320.816	391.56
321.046	391.56
321.275	397.56
321.504	396.56
321.733	391.56
321.962	393.56
322.191	425.56
322.42	418.56
322.649	455.56
322.878	430.56
323.108	464.56
323.337	480.56
323.566	520.56
323.795	577.56
324.024	615.56
324.253	743.56
324.482	1044.56
324.71	1587.56
324.939	2315.56
325.168	2087.56
325.397	1064.56
325.626	715.56
325.855	599.56
326.084	537.56
326.313	544.56
326.542	542.56
326.77	591.56
326.999	681.56
327.228	930.56
327.457	1419.56
327.686	1755.56
327.914	1219.56
328.143	811.56
328.372	775.56
328.6	705.56
328.829	644.56
329.058	658.56
329.287	648.56
329.515	615.56
329.744	596.56
329.972	636.56
330.201	677.56
330.43	819.56
330.658	767.56
330.887	710.56
331.115	687.56
331.344	561.56
331.572	555.56
331.801	514.56
332.03	531.56
332.258	481.56
332.486	480.56
332.715	467.56
332.943	488.56
333.172	477.56
333.4	485.56
333.629	533.56
333.857	556.56
334.085	590.56
334.314	677.56
334.542	825.56
334.771	854.56
334.999	677.56
335.227	565.56
335.455	509.56
335.684	479.56
335.912	458.56
336.14	446.56
336.369	429.56
336.597	453.56
336.825	441.56
337.053	450.56
337.281	443.56
337.51	429.56
337.738	437.56
337.966	433.56
338.194	441.56
338.422	450.56
338.65	435.56
338.878	429.56
339.106	410.56
339.334	398.56
339.562	417.56
339.79	400.56
340.018	395.56
340.246	422.56
340.474	412.56
340.702	428.56
340.93	392.56
341.158	392.56
341.386	415.56
341.614	417.56
341.842	411.56
342.07	391.56
342.298	409.56
342.526	382.56
342.754	379.56
342.981	399.56
343.209	390.56
343.437	392.56
343.665	376.56
343.893	403.56
344.12	398.56
344.348	389.56
344.576	409.56
344.804	400.56
345.031	419.56
345.259	442.56
345.487	420.56
345.714	414.56
345.942	403.56
346.17	377.56
346.397	389.56
346.625	392.56
346.853	405.56
347.08	391.56
347.308	392.56
347.535	414.56
347.763	426.56
347.99	389.56
348.218	391.56
348.445	428.56
348.673	417.56
348.9	405.56
349.128	384.56
349.355	371.56
349.583	391.56
349.81	380.56
350.037	359.56
350.265	386.56
350.492	403.56
350.72	385.56
350.947	386.56
351.174	403.56
351.402	422.56
351.629	414.56
351.856	414.56
352.083	423.56
352.311	437.56
352.538	423.56
352.765	443.56
352.992	394.56
353.22	406.56
353.447	390.56
353.674	415.56
353.901	375.56
354.128	366.56
354.355	375.56
354.583	379.56
354.81	365.56
355.037	376.56
355.264	372.56
355.491	358.56
355.718	363.56
355.945	358.56
356.172	356.56
356.399	371.56
356.626	364.56
356.853	355.56
357.08	353.56
357.307	355.56
357.534	350.56
357.761	385.56
357.988	364.56
358.215	357.56
358.441	358.56
358.668	360.56
358.895	370.56
359.122	394.56
359.349	389.56
359.576	376.56
359.802	411.56
360.029	440.56
360.256	450.56
360.483	444.56
360.709	402.56
360.936	406.56
361.163	394.56
361.39	380.56
361.616	407.56
361.843	387.56
362.07	401.56
362.296	406.56
362.523	393.56
362.749	371.56
362.976	392.56
363.203	380.56
363.429	363.56
363.656	368.56
363.882	373.56
364.109	358.56
364.335	366.56
364.562	358.56
364.788	365.56
365.015	374.56
365.241	364.56
365.468	371.56
365.694	375.56
365.92	364.56
366.147	385.56
366.373	373.56
366.599	359.56
366.826	362.56
367.052	351.56
367.278	359.56
367.505	384.56
367.731	381.56
367.957	369.56
368.184	373.56
368.41	373.56
368.636	381.56
368.862	405.56
369.089	384.56
369.315	357.56
369.541	368.56
369.767	355.56
369.993	359.56
370.219	369.56
370.445	369.56
370.672	362.56
370.898	357.56
371.124	369.56
371.35	362.56
371.576	367.56
371.802	355.56
372.028	359.56
372.254	353.56
372.48	362.56
372.706	355.56
372.932	346.56
373.158	355.56
373.384	376.56
373.61	367.56
373.835	353.56
374.061	359.56
374.287	370.56
374.513	368.56
374.739	379.56
374.965	363.56
375.191	349.56
375.416	346.56
375.642	365.56
375.868	351.56
376.094	342.56
376.319	357.56
376.545	358.56
376.771	351.56
376.997	346.56
377.222	374.56
377.448	345.56
377.674	339.56
377.899	358.56
378.125	352.56
378.35	357.56
378.576	365.56
378.802	322.56
379.027	339.56
379.253	372.56
379.478	364.56
379.704	343.56
379.929	355.56
380.155	355.56
380.38	342.56
380.606	345.56
380.831	344.56
381.057	346.56
381.282	362.56
381.507	359.56
381.733	344.56
381.958	363.56
382.184	353.56
382.409	356.56
382.634	351.56
382.86	358.56
383.085	338.56
383.31	373.56
383.535	371.56
383.761	359.56
383.986	373.56
384.211	368.56
384.436	366.56
384.662	358.56
384.887	366.56
385.112	368.56
385.337	381.56
385.562	373.56
385.787	365.56
386.013	376.56
386.238	387.56
386.463	369.56
386.688	373.56
386.913	382.56
387.138	366.56
387.363	391.56
387.588	365.56
387.813	369.56
388.038	366.56
388.263	372.56
388.488	377.56
388.713	379.56
388.938	374.56
389.163	367.56
389.387	375.56
389.612	354.56
389.837	370.56
390.062	366.56
390.287	359.56
390.512	356.56
390.736	351.56
390.961	361.56
391.186	381.56
391.411	369.56
391.636	352.56
391.86	372.56
392.085	378.56
392.31	394.56
392.534	363.56
392.759	383.56
392.984	373.56
393.208	379.56
393.433	361.56
393.658	362.56
393.882	369.56
394.107	347.56
394.331	331.56
394.556	372.56
394.78	379.56
395.005	357.56
395.229	359.56
395.454	390.56
395.678	369.56
395.903	383.56
396.127	393.56
396.352	404.56
396.576	407.56
396.801	376.56
397.025	379.56
397.249	382.56
397.474	394.56
397.698	403.56
397.922	396.56
398.147	398.56
398.371	405.56
398.595	405.56
398.82	395.56
399.044	403.56
399.268	424.56
399.492	428.56
399.717	444.56
399.941	479.56
400.165	525.56
400.389	525.56
400.613	480.56
400.837	437.56
401.062	418.56
401.286	424.56
401.51	432.56
401.734	415.56
401.958	403.56
402.182	400.56
402.406	420.56
402.63	429.56
402.854	436.56
403.078	415.56
403.302	450.56
403.526	449.56
403.75	457.56
403.974	445.56
404.198	446.56
404.422	458.56
404.645	467.56
404.869	481.56
405.093	485.56
405.317	559.56
405.541	580.56
405.765	553.56
405.988	502.56
406.212	499.56
406.436	490.56
406.66	533.56
406.883	497.56
407.107	474.56
407.331	535.56
407.555	589.56
407.778	586.56
408.002	526.56
408.226	498.56
408.449	506.56
408.673	484.56
408.896	521.56
409.12	541.56
409.344	515.56
409.567	460.56
409.791	443.56
410.014	439.56
410.238	453.56
410.461	442.56
410.685	423.56
410.908	457.56
411.132	502.56
411.355	543.56
411.578	518.56
411.802	463.56
412.025	464.56
412.249	502.56
412.472	511.56
412.695	583.56
412.919	578.56
413.142	505.56
413.365	476.56
413.589	472.56
413.812	438.56
414.035	449.56
414.258	426.56
414.482	424.56
414.705	428.56
414.928	426.56
415.151	413.56
415.374	417.56
415.597	413.56
415.821	415.56
416.044	419.56
416.267	433.56
416.49	439.56
416.713	418.56
416.936	419.56
417.159	416.56
417.382	428.56
417.605	434.56
417.828	459.56
418.051	449.56
418.274	439.56
418.497	421.56
418.72	428.56
418.943	423.56
419.166	429.56
419.389	451.56
419.611	444.56
419.834	466.56
420.057	463.56
420.28	493.56
420.503	508.56
420.726	486.56
420.948	499.56
421.171	521.56
421.394	554.56
421.617	479.56
421.839	467.56
422.062	461.56
422.285	476.56
422.507	515.56
422.73	597.56
422.953	567.56
423.175	494.56
423.398	462.56
423.621	489.56
423.843	503.56
424.066	457.56
424.288	477.56
424.511	511.56
424.733	561.56
424.956	629.56
425.178	619.56
425.401	575.56
425.623	614.56
425.846	522.56
426.068	498.56
426.291	494.56
426.513	494.56
426.735	506.56
426.958	526.56
427.18	599.56
427.402	727.56
427.625	841.56
427.847	738.56
428.069	693.56
428.292	601.56
428.514	529.56
428.736	494.56
428.958	492.56
429.181	484.56
429.403	461.56
429.625	476.56
429.847	500.56
430.069	562.56
430.292	551.56
430.514	493.56
430.736	420.56
430.958	439.56
431.18	425.56
431.402	430.56
431.624	413.56
431.846	424.56
432.068	423.56
432.29	421.56
432.512	433.56
432.734	431.56
432.956	437.56
433.178	422.56
433.4	414.56
433.622	428.56
433.844	419.56
434.066	433.56
434.287	409.56
434.509	412.56
434.731	419.56
434.953	450.56
435.175	446.56
435.397	476.56
435.618	464.56
435.84	509.56
436.062	620.56
436.284	710.56
436.505	571.56
436.727	524.56
436.949	452.56
437.17	448.56
437.392	452.56
437.614	470.56
437.835	502.56
438.057	591.56
438.278	680.56
438.5	699.56
438.721	754.56
438.943	727.56
439.165	566.56
439.386	499.56
439.608	530.56
439.829	519.56
440.05	531.56
440.272	570.56
440.493	552.56
440.715	493.56
440.936	472.56
441.158	447.56
441.379	469.56
441.6	486.56
441.822	478.56
442.043	517.56
442.264	602.56
442.486	647.56
442.707	536.56
442.928	517.56
443.149	522.56
443.371	524.56
443.592	577.56
443.813	667.56
444.034	715.56
444.255	608.56
444.476	527.56
444.698	487.56
444.919	480.56
445.14	595.56
445.361	534.56
445.582	521.56
445.803	589.56
446.024	709.56
446.245	685.56
446.466	623.56
446.687	545.56
446.908	498.56
447.129	470.56
447.35	470.56
447.571	470.56
447.792	454.56
448.013	457.56
448.234	471.56
448.455	547.56
448.675	614.56
448.896	734.56
449.117	624.56
449.338	571.56
449.559	674.56
449.779	773.56
450	641.56
450.221	533.56
450.442	489.56
450.662	488.56
450.883	477.56
451.104	474.56
451.324	466.56
451.545	457.56
451.766	438.56
451.986	399.56
452.207	409.56
452.428	419.56
452.648	391.56
452.869	412.56
453.089	423.56
453.31	443.56
453.53	419.56
453.751	404.56
453.971	440.56
454.192	426.56
454.412	427.56
454.633	412.56
454.853	416.56
455.073	400.56
455.294	436.56
455.514	514.56
455.734	500.56
455.955	414.56
456.175	395.56
456.395	403.56
456.616	373.56
456.836	386.56
457.056	375.56
457.276	372.56
457.497	376.56
457.717	391.56
457.937	387.56
458.157	382.56
458.377	395.56
458.598	417.56
458.818	465.56
459.038	563.56
459.258	574.56
459.478	485.56
459.698	442.56
459.918	419.56
460.138	413.56
460.358	399.56
460.578	426.56
460.798	407.56
461.018	434.56
461.238	417.56
461.458	420.56
461.678	405.56
461.898	416.56
462.118	399.56
462.338	411.56
462.558	419.56
462.777	413.56
462.997	421.56
463.217	428.56
463.437	426.56
463.657	433.56
463.876	423.56
464.096	426.56
464.316	411.56
464.536	433.56
464.755	439.56
464.975	460.56
465.195	492.56
465.414	591.56
465.634	543.56
465.854	477.56
466.073	430.56
466.293	431.56
466.512	401.56
466.732	399.56
466.951	411.56
467.171	410.56
467.391	421.56
467.61	409.56
467.829	420.56
468.049	442.56
468.268	481.56
468.488	455.56
468.707	437.56
468.927	415.56
469.146	422.56
469.365	426.56
469.585	388.56
469.804	437.56
470.023	439.56
470.243	405.56
470.462	421.56
470.681	482.56
470.901	430.56
471.12	431.56
471.339	421.56
471.558	425.56
471.777	416.56
471.997	430.56
472.216	479.56
472.435	634.56
472.654	587.56
472.873	513.56
473.092	474.56
473.311	462.56
473.53	447.56
473.749	455.56
473.968	510.56
474.187	578.56
474.406	625.56
474.625	490.56
474.844	457.56
475.063	454.56
475.282	415.56
475.501	441.56
475.72	463.56
475.939	433.56
476.158	431.56
476.377	447.56
476.596	430.56
476.814	441.56
477.033	456.56
477.252	458.56
477.471	475.56
477.69	460.56
477.908	461.56
478.127	466.56
478.346	449.56
478.564	452.56
478.783	475.56
479.002	482.56
479.22	477.56
479.439	466.56
479.658	490.56
479.876	504.56
480.095	531.56
480.313	565.56
480.532	553.56
480.751	527.56
480.969	591.56
481.188	814.56
481.406	988.56
481.624	730.56
481.843	614.56
482.061	591.56
482.28	570.56
482.498	533.56
482.717	549.56
482.935	534.56
483.153	518.56
483.372	522.56
483.59	531.56
483.808	527.56
484.027	531.56
484.245	508.56
484.463	516.56
484.681	526.56
484.9	521.56
485.118	533.56
485.336	540.56
485.554	533.56
485.772	533.56
485.99	527.56
486.209	540.56
486.427	543.56
486.645	548.56
486.863	567.56
487.081	567.56
487.299	540.56
487.517	553.56
487.735	554.56
487.953	577.56
488.171	552.56
488.389	549.56
488.607	569.56
488.825	565.56
489.043	586.56
489.261	584.56
489.479	578.56
489.696	589.56
489.914	580.56
490.132	632.56
490.35	595.56
490.568	620.56
490.786	629.56
491.003	637.56
491.221	623.56
491.439	653.56
491.657	665.56
491.874	663.56
492.092	670.56
492.31	692.56
492.527	695.56
492.745	713.56
492.963	699.56
493.18	695.56
493.398	678.56
493.615	697.56
493.833	667.56
494.05	703.56
494.268	683.56
494.485	663.56
494.703	681.56
494.92	675.56
495.138	675.56
495.355	697.56
495.573	685.56
495.79	702.56
496.008	679.56
496.225	685.56
496.442	694.56
496.66	667.56
496.877	671.56
497.094	674.56
497.312	672.56
497.529	662.56
497.746	670.56
497.963	693.56
498.181	713.56
498.398	689.56
498.615	719.56
498.832	727.56
499.049	718.56
499.267	711.56
499.484	718.56
499.701	722.56
499.918	752.56
500.135	777.56
500.352	779.56
500.569	797.56
500.786	835.56
501.003	795.56
501.22	798.56
501.437	783.56
501.654	776.56
501.871	802.56
