Data from 1986.PennyLincolnUp.Lamp.En5.5.200Scan.071819.P2_HRD10591_17-11-14-975.txt Node
Date: Thu Jul 18 17:11:14 EDT 2019
User: cochatt
Spectrometer: HR+D1059
Trigger mode: 1
Integration Time (sec): 1.000000E-1
Scans to average: 1
Electric dark correction enabled: true
Nonlinearity correction enabled: false
Boxcar width: 0
XAxis mode: Wavelengths
Number of Pixels in Spectrum: 2048
>>>>>Begin Spectral Data<<<<<
223.165	-6.38
223.4	-6.38
223.635	-6.38
223.869	-15.38
224.104	-18.38
224.338	-7.38
224.573	-7.38
224.808	-4.38
225.042	5.62
225.277	-15.38
225.511	3.62
225.746	3.62
225.98	-10.38
226.215	-0.38
226.449	16.62
226.683	-0.38
226.918	32.62
227.152	23.62
227.387	18.62
227.621	34.62
227.856	43.62
228.09	39.62
228.324	47.62
228.559	62.62
228.793	77.62
229.027	103.62
229.262	102.62
229.496	126.62
229.73	138.62
229.964	170.62
230.199	157.62
230.433	128.62
230.667	128.62
230.901	108.62
231.136	120.62
231.37	126.62
231.604	112.62
231.838	103.62
232.072	94.62
232.306	123.62
232.541	113.62
232.775	110.62
233.009	126.62
233.243	118.62
233.477	106.62
233.711	111.62
233.945	108.62
234.179	126.62
234.413	123.62
234.647	119.62
234.881	118.62
235.115	116.62
235.349	120.62
235.583	127.62
235.817	115.62
236.051	124.62
236.285	140.62
236.519	117.62
236.753	122.62
236.987	165.62
237.221	196.62
237.455	243.62
237.689	201.62
237.922	155.62
238.156	131.62
238.39	120.62
238.624	135.62
238.858	123.62
239.091	131.62
239.325	135.62
239.559	126.62
239.793	148.62
240.027	141.62
240.26	147.62
240.494	154.62
240.728	161.62
240.961	169.62
241.195	139.62
241.429	144.62
241.662	125.62
241.896	117.62
242.13	136.62
242.363	136.62
242.597	132.62
242.83	148.62
243.064	142.62
243.298	128.62
243.531	141.62
243.765	142.62
243.998	128.62
244.232	145.62
244.465	149.62
244.699	151.62
244.932	167.62
245.166	146.62
245.399	144.62
245.633	159.62
245.866	168.62
246.099	159.62
246.333	161.62
246.566	159.62
246.8	148.62
247.033	175.62
247.266	171.62
247.5	164.62
247.733	182.62
247.966	178.62
248.2	187.62
248.433	186.62
248.666	189.62
248.899	223.62
249.133	225.62
249.366	230.62
249.599	209.62
249.832	202.62
250.066	200.62
250.299	204.62
250.532	219.62
250.765	228.62
250.998	265.62
251.231	265.62
251.465	230.62
251.698	216.62
251.931	208.62
252.164	197.62
252.397	210.62
252.63	216.62
252.863	220.62
253.096	236.62
253.329	250.62
253.562	240.62
253.795	232.62
254.028	216.62
254.261	236.62
254.494	267.62
254.727	279.62
254.96	321.62
255.193	298.62
255.426	283.62
255.659	284.62
255.892	269.62
256.124	274.62
256.357	286.62
256.59	284.62
256.823	260.62
257.056	249.62
257.289	245.62
257.521	227.62
257.754	235.62
257.987	235.62
258.22	229.62
258.452	230.62
258.685	230.62
258.918	220.62
259.151	215.62
259.383	229.62
259.616	236.62
259.849	238.62
260.081	235.62
260.314	265.62
260.547	273.62
260.779	250.62
261.012	253.62
261.244	243.62
261.477	226.62
261.71	239.62
261.942	244.62
262.175	267.62
262.407	263.62
262.64	240.62
262.872	234.62
263.105	219.62
263.337	222.62
263.57	208.62
263.802	215.62
264.035	223.62
264.267	206.62
264.499	208.62
264.732	225.62
264.964	227.62
265.197	207.62
265.429	213.62
265.661	208.62
265.894	212.62
266.126	208.62
266.358	229.62
266.591	222.62
266.823	230.62
267.055	243.62
267.287	246.62
267.52	231.62
267.752	217.62
267.984	215.62
268.216	234.62
268.448	238.62
268.681	228.62
268.913	263.62
269.145	257.62
269.377	289.62
269.609	301.62
269.841	265.62
270.073	275.62
270.306	307.62
270.538	329.62
270.77	327.62
271.002	332.62
271.234	302.62
271.466	322.62
271.698	316.62
271.93	344.62
272.162	346.62
272.394	342.62
272.626	316.62
272.858	299.62
273.09	290.62
273.322	288.62
273.553	273.62
273.785	285.62
274.017	272.62
274.249	278.62
274.481	289.62
274.713	279.62
274.945	288.62
275.176	289.62
275.408	285.62
275.64	284.62
275.872	269.62
276.104	270.62
276.335	284.62
276.567	277.62
276.799	297.62
277.031	321.62
277.262	311.62
277.494	320.62
277.726	311.62
277.957	302.62
278.189	290.62
278.421	282.62
278.652	272.62
278.884	281.62
279.115	281.62
279.347	272.62
279.579	261.62
279.81	261.62
280.042	271.62
280.273	271.62
280.505	279.62
280.736	281.62
280.968	268.62
281.199	281.62
281.431	266.62
281.662	269.62
281.894	258.62
282.125	266.62
282.356	295.62
282.588	304.62
282.819	337.62
283.051	279.62
283.282	271.62
283.513	272.62
283.745	288.62
283.976	268.62
284.207	270.62
284.439	270.62
284.67	276.62
284.901	261.62
285.132	280.62
285.364	281.62
285.595	267.62
285.826	268.62
286.057	277.62
286.288	270.62
286.52	273.62
286.751	279.62
286.982	279.62
287.213	278.62
287.444	284.62
287.675	279.62
287.906	292.62
288.138	311.62
288.369	326.62
288.6	298.62
288.831	300.62
289.062	314.62
289.293	303.62
289.524	287.62
289.755	284.62
289.986	277.62
290.217	264.62
290.448	291.62
290.679	277.62
290.91	281.62
291.141	277.62
291.371	291.62
291.602	280.62
291.833	287.62
292.064	288.62
292.295	287.62
292.526	291.62
292.757	269.62
292.987	275.62
293.218	302.62
293.449	268.62
293.68	276.62
293.91	274.62
294.141	267.62
294.372	279.62
294.603	286.62
294.833	281.62
295.064	292.62
295.295	276.62
295.525	293.62
295.756	295.62
295.987	312.62
296.217	330.62
296.448	329.62
296.679	291.62
296.909	285.62
297.14	287.62
297.37	299.62
297.601	291.62
297.831	286.62
298.062	272.62
298.292	277.62
298.523	308.62
298.753	299.62
298.984	290.62
299.214	308.62
299.445	313.62
299.675	306.62
299.905	288.62
300.136	296.62
300.366	295.62
300.597	292.62
300.827	303.62
301.057	323.62
301.288	307.62
301.518	301.62
301.748	315.62
301.979	323.62
302.209	317.62
302.439	321.62
302.669	320.62
302.9	308.62
303.13	315.62
303.36	327.62
303.59	311.62
303.82	339.62
304.051	342.62
304.281	325.62
304.511	309.62
304.741	323.62
304.971	317.62
305.201	318.62
305.431	301.62
305.661	317.62
305.891	320.62
306.121	313.62
306.352	318.62
306.582	337.62
306.812	328.62
307.042	318.62
307.272	326.62
307.502	332.62
307.731	353.62
307.961	329.62
308.191	313.62
308.421	332.62
308.651	336.62
308.881	333.62
309.111	331.62
309.341	352.62
309.571	347.62
309.8	331.62
310.03	366.62
310.26	384.62
310.49	377.62
310.72	392.62
310.949	396.62
311.179	414.62
311.409	375.62
311.639	371.62
311.868	384.62
312.098	387.62
312.328	384.62
312.557	402.62
312.787	413.62
313.017	420.62
313.246	383.62
313.476	380.62
313.706	387.62
313.935	373.62
314.165	402.62
314.394	399.62
314.624	399.62
314.853	378.62
315.083	381.62
315.312	391.62
315.542	362.62
315.771	337.62
316.001	368.62
316.23	374.62
316.46	359.62
316.689	371.62
316.919	371.62
317.148	388.62
317.377	376.62
317.607	379.62
317.836	374.62
318.065	391.62
318.295	367.62
318.524	368.62
318.753	372.62
318.983	381.62
319.212	385.62
319.441	395.62
319.67	400.62
319.9	389.62
320.129	394.62
320.358	379.62
320.587	396.62
320.816	374.62
321.046	403.62
321.275	409.62
321.504	394.62
321.733	399.62
321.962	419.62
322.191	420.62
322.42	419.62
322.649	446.62
322.878	474.62
323.108	480.62
323.337	513.62
323.566	542.62
323.795	579.62
324.024	639.62
324.253	800.62
324.482	1101.62
324.71	1651.62
324.939	2361.62
325.168	2111.62
325.397	1099.62
325.626	755.62
325.855	603.62
326.084	575.62
326.313	547.62
326.542	559.62
326.77	611.62
326.999	707.62
327.228	987.62
327.457	1477.62
327.686	1820.62
327.914	1277.62
328.143	854.62
328.372	731.62
328.6	704.62
328.829	635.62
329.058	652.62
329.287	664.62
329.515	611.62
329.744	586.62
329.972	585.62
330.201	620.62
330.43	664.62
330.658	691.62
330.887	680.62
331.115	673.62
331.344	585.62
331.572	528.62
331.801	503.62
332.03	523.62
332.258	486.62
332.486	454.62
332.715	433.62
332.943	460.62
333.172	465.62
333.4	482.62
333.629	483.62
333.857	487.62
334.085	510.62
334.314	550.62
334.542	627.62
334.771	678.62
334.999	581.62
335.227	497.62
335.455	484.62
335.684	429.62
335.912	430.62
336.14	455.62
336.369	442.62
336.597	441.62
336.825	448.62
337.053	437.62
337.281	423.62
337.51	416.62
337.738	422.62
337.966	423.62
338.194	419.62
338.422	419.62
338.65	413.62
338.878	417.62
339.106	407.62
339.334	427.62
339.562	393.62
339.79	405.62
340.018	411.62
340.246	421.62
340.474	427.62
340.702	408.62
340.93	409.62
341.158	401.62
341.386	393.62
341.614	396.62
341.842	411.62
342.07	418.62
342.298	396.62
342.526	411.62
342.754	412.62
342.981	400.62
343.209	400.62
343.437	410.62
343.665	375.62
343.893	399.62
344.12	412.62
344.348	393.62
344.576	393.62
344.804	420.62
345.031	439.62
345.259	443.62
345.487	431.62
345.714	416.62
345.942	393.62
346.17	403.62
346.397	396.62
346.625	407.62
346.853	398.62
347.08	374.62
347.308	391.62
347.535	422.62
347.763	427.62
347.99	431.62
348.218	418.62
348.445	418.62
348.673	436.62
348.9	423.62
349.128	407.62
349.355	396.62
349.583	385.62
349.81	381.62
350.037	361.62
350.265	394.62
350.492	379.62
350.72	406.62
350.947	395.62
351.174	396.62
351.402	430.62
351.629	423.62
351.856	409.62
352.083	442.62
352.311	429.62
352.538	427.62
352.765	424.62
352.992	405.62
353.22	413.62
353.447	400.62
353.674	400.62
353.901	379.62
354.128	377.62
354.355	374.62
354.583	377.62
354.81	377.62
355.037	363.62
355.264	375.62
355.491	359.62
355.718	364.62
355.945	375.62
356.172	377.62
356.399	355.62
356.626	352.62
356.853	373.62
357.08	347.62
357.307	356.62
357.534	347.62
357.761	387.62
357.988	367.62
358.215	373.62
358.441	363.62
358.668	371.62
358.895	385.62
359.122	387.62
359.349	383.62
359.576	400.62
359.802	425.62
360.029	454.62
360.256	494.62
360.483	421.62
360.709	433.62
360.936	412.62
361.163	426.62
361.39	410.62
361.616	392.62
361.843	399.62
362.07	399.62
362.296	419.62
362.523	408.62
362.749	397.62
362.976	379.62
363.203	380.62
363.429	367.62
363.656	380.62
363.882	372.62
364.109	365.62
364.335	375.62
364.562	391.62
364.788	377.62
365.015	370.62
365.241	380.62
365.468	391.62
365.694	372.62
365.92	385.62
366.147	374.62
366.373	389.62
366.599	380.62
366.826	367.62
367.052	387.62
367.278	362.62
367.505	377.62
367.731	381.62
367.957	374.62
368.184	380.62
368.41	355.62
368.636	379.62
368.862	382.62
369.089	381.62
369.315	371.62
369.541	367.62
369.767	351.62
369.993	364.62
370.219	370.62
370.445	345.62
370.672	358.62
370.898	347.62
371.124	363.62
371.35	376.62
371.576	361.62
371.802	362.62
372.028	363.62
372.254	361.62
372.48	343.62
372.706	352.62
372.932	352.62
373.158	357.62
373.384	392.62
373.61	362.62
373.835	371.62
374.061	373.62
374.287	356.62
374.513	369.62
374.739	353.62
374.965	361.62
375.191	364.62
375.416	368.62
375.642	381.62
375.868	366.62
376.094	356.62
376.319	368.62
376.545	348.62
376.771	348.62
376.997	344.62
377.222	359.62
377.448	350.62
377.674	355.62
377.899	349.62
378.125	357.62
378.35	344.62
378.576	348.62
378.802	349.62
379.027	358.62
379.253	371.62
379.478	364.62
379.704	347.62
379.929	352.62
380.155	357.62
380.38	385.62
380.606	351.62
380.831	349.62
381.057	361.62
381.282	371.62
381.507	351.62
381.733	375.62
381.958	362.62
382.184	366.62
382.409	366.62
382.634	366.62
382.86	359.62
383.085	362.62
383.31	324.62
383.535	373.62
383.761	354.62
383.986	361.62
384.211	377.62
384.436	373.62
384.662	384.62
384.887	361.62
385.112	355.62
385.337	363.62
385.562	379.62
385.787	393.62
386.013	374.62
386.238	393.62
386.463	382.62
386.688	374.62
386.913	383.62
387.138	384.62
387.363	374.62
387.588	353.62
387.813	373.62
388.038	371.62
388.263	373.62
388.488	368.62
388.713	376.62
388.938	371.62
389.163	366.62
389.387	397.62
389.612	370.62
389.837	380.62
390.062	376.62
390.287	343.62
390.512	369.62
390.736	395.62
390.961	380.62
391.186	367.62
391.411	381.62
391.636	354.62
391.86	377.62
392.085	359.62
392.31	376.62
392.534	375.62
392.759	388.62
392.984	374.62
393.208	356.62
393.433	367.62
393.658	374.62
393.882	368.62
394.107	359.62
394.331	378.62
394.556	353.62
394.78	369.62
395.005	361.62
395.229	386.62
395.454	364.62
395.678	367.62
395.903	398.62
396.127	393.62
396.352	420.62
396.576	404.62
396.801	377.62
397.025	378.62
397.249	387.62
397.474	409.62
397.698	388.62
397.922	402.62
398.147	404.62
398.371	430.62
398.595	403.62
398.82	411.62
399.044	423.62
399.268	415.62
399.492	416.62
399.717	443.62
399.941	484.62
400.165	490.62
400.389	545.62
400.613	465.62
400.837	441.62
401.062	425.62
401.286	425.62
401.51	420.62
401.734	436.62
401.958	400.62
402.182	429.62
402.406	451.62
402.63	434.62
402.854	422.62
403.078	438.62
403.302	427.62
403.526	429.62
403.75	463.62
403.974	439.62
404.198	437.62
404.422	460.62
404.645	448.62
404.869	462.62
405.093	477.62
405.317	542.62
405.541	563.62
405.765	507.62
405.988	483.62
406.212	465.62
406.436	499.62
406.66	512.62
406.883	494.62
407.107	487.62
407.331	523.62
407.555	582.62
407.778	588.62
408.002	538.62
408.226	480.62
408.449	491.62
408.673	504.62
408.896	525.62
409.12	543.62
409.344	525.62
409.567	474.62
409.791	453.62
410.014	449.62
410.238	463.62
410.461	447.62
410.685	437.62
410.908	451.62
411.132	485.62
411.355	527.62
411.578	535.62
411.802	473.62
412.025	449.62
412.249	479.62
412.472	488.62
412.695	546.62
412.919	556.62
413.142	506.62
413.365	461.62
413.589	452.62
413.812	437.62
414.035	442.62
414.258	414.62
414.482	407.62
414.705	425.62
414.928	424.62
415.151	419.62
415.374	402.62
415.597	419.62
415.821	412.62
416.044	427.62
416.267	414.62
416.49	421.62
416.713	401.62
416.936	432.62
417.159	423.62
417.382	413.62
417.605	419.62
417.828	427.62
418.051	453.62
418.274	442.62
418.497	429.62
418.72	440.62
418.943	397.62
419.166	441.62
419.389	463.62
419.611	438.62
419.834	464.62
420.057	456.62
420.28	467.62
420.503	471.62
420.726	465.62
420.948	451.62
421.171	479.62
421.394	537.62
421.617	464.62
421.839	446.62
422.062	471.62
422.285	484.62
422.507	527.62
422.73	599.62
422.953	551.62
423.175	494.62
423.398	485.62
423.621	441.62
423.843	510.62
424.066	495.62
424.288	465.62
424.511	520.62
424.733	568.62
424.956	635.62
425.178	637.62
425.401	615.62
425.623	643.62
425.846	567.62
426.068	505.62
426.291	505.62
426.513	491.62
426.735	515.62
426.958	560.62
427.18	621.62
427.402	748.62
427.625	850.62
427.847	757.62
428.069	669.62
428.292	587.62
428.514	541.62
428.736	513.62
428.958	484.62
429.181	451.62
429.403	460.62
429.625	468.62
429.847	495.62
430.069	571.62
430.292	565.62
430.514	458.62
430.736	451.62
430.958	457.62
431.18	423.62
431.402	443.62
431.624	416.62
431.846	422.62
432.068	408.62
432.29	425.62
432.512	427.62
432.734	435.62
432.956	429.62
433.178	445.62
433.4	449.62
433.622	441.62
433.844	419.62
434.066	407.62
434.287	410.62
434.509	422.62
434.731	455.62
434.953	453.62
435.175	445.62
435.397	488.62
435.618	493.62
435.84	527.62
436.062	617.62
436.284	672.62
436.505	577.62
436.727	516.62
436.949	479.62
437.17	454.62
437.392	479.62
437.614	478.62
437.835	525.62
438.057	633.62
438.278	733.62
438.5	715.62
438.721	748.62
438.943	752.62
439.165	591.62
439.386	542.62
439.608	543.62
439.829	539.62
440.05	528.62
440.272	593.62
440.493	591.62
440.715	503.62
440.936	465.62
441.158	485.62
441.379	453.62
441.6	469.62
441.822	500.62
442.043	525.62
442.264	629.62
442.486	673.62
442.707	555.62
442.928	519.62
443.149	518.62
443.371	546.62
443.592	581.62
443.813	682.62
444.034	711.62
444.255	594.62
444.476	537.62
444.698	508.62
444.919	497.62
445.14	584.62
445.361	557.62
445.582	531.62
445.803	588.62
446.024	717.62
446.245	767.62
446.466	680.62
446.687	577.62
446.908	514.62
447.129	479.62
447.35	472.62
447.571	480.62
447.792	457.62
448.013	468.62
448.234	496.62
448.455	552.62
448.675	636.62
448.896	757.62
449.117	666.62
449.338	621.62
449.559	707.62
449.779	783.62
450	652.62
450.221	537.62
450.442	501.62
450.662	468.62
450.883	463.62
451.104	488.62
451.324	486.62
451.545	441.62
451.766	435.62
451.986	417.62
452.207	423.62
452.428	393.62
452.648	406.62
452.869	401.62
453.089	413.62
453.31	451.62
453.53	431.62
453.751	430.62
453.971	412.62
454.192	442.62
454.412	431.62
454.633	414.62
454.853	410.62
455.073	416.62
455.294	439.62
455.514	512.62
455.734	525.62
455.955	437.62
456.175	409.62
456.395	397.62
456.616	401.62
456.836	383.62
457.056	377.62
457.276	388.62
457.497	391.62
457.717	399.62
457.937	407.62
458.157	396.62
458.377	393.62
458.598	433.62
458.818	481.62
459.038	575.62
459.258	583.62
459.478	487.62
459.698	438.62
459.918	416.62
460.138	419.62
460.358	433.62
460.578	414.62
460.798	427.62
461.018	423.62
461.238	427.62
461.458	416.62
461.678	399.62
461.898	409.62
462.118	394.62
462.338	411.62
462.558	395.62
462.777	425.62
462.997	418.62
463.217	438.62
463.437	441.62
463.657	428.62
463.876	416.62
464.096	423.62
464.316	452.62
464.536	453.62
464.755	442.62
464.975	472.62
465.195	497.62
465.414	603.62
465.634	565.62
465.854	500.62
466.073	467.62
466.293	437.62
466.512	429.62
466.732	408.62
466.951	419.62
467.171	425.62
467.391	436.62
467.61	426.62
467.829	457.62
468.049	436.62
468.268	449.62
468.488	426.62
468.707	405.62
468.927	421.62
469.146	403.62
469.365	370.62
469.585	399.62
469.804	414.62
470.023	424.62
470.243	411.62
470.462	425.62
470.681	455.62
470.901	464.62
471.12	432.62
471.339	440.62
471.558	427.62
471.777	439.62
471.997	423.62
472.216	459.62
472.435	563.62
472.654	526.62
472.873	461.62
473.092	440.62
473.311	409.62
473.53	424.62
473.749	429.62
473.968	499.62
474.187	595.62
474.406	631.62
474.625	507.62
474.844	451.62
475.063	437.62
475.282	453.62
475.501	440.62
475.72	441.62
475.939	424.62
476.158	413.62
476.377	457.62
476.596	437.62
476.814	433.62
477.033	464.62
477.252	456.62
477.471	456.62
477.69	443.62
477.908	442.62
478.127	454.62
478.346	462.62
478.564	470.62
478.783	466.62
479.002	481.62
479.22	484.62
479.439	494.62
479.658	486.62
479.876	511.62
480.095	548.62
480.313	541.62
480.532	539.62
480.751	539.62
480.969	571.62
481.188	664.62
481.406	799.62
481.624	621.62
481.843	570.62
482.061	530.62
482.28	494.62
482.498	511.62
482.717	503.62
482.935	521.62
483.153	530.62
483.372	481.62
483.59	520.62
483.808	530.62
484.027	518.62
484.245	524.62
484.463	522.62
484.681	507.62
484.9	517.62
485.118	520.62
485.336	537.62
485.554	527.62
485.772	517.62
485.99	524.62
486.209	534.62
486.427	539.62
486.645	527.62
486.863	558.62
487.081	559.62
487.299	554.62
487.517	560.62
487.735	538.62
487.953	567.62
488.171	541.62
488.389	546.62
488.607	533.62
488.825	564.62
489.043	532.62
489.261	557.62
489.479	568.62
489.696	558.62
489.914	568.62
490.132	571.62
490.35	591.62
490.568	607.62
490.786	580.62
491.003	607.62
491.221	622.62
491.439	639.62
491.657	633.62
491.874	647.62
492.092	642.62
492.31	656.62
492.527	653.62
492.745	666.62
492.963	641.62
493.18	642.62
493.398	659.62
493.615	669.62
493.833	672.62
494.05	660.62
494.268	661.62
494.485	673.62
494.703	658.62
494.92	675.62
495.138	674.62
495.355	665.62
495.573	670.62
495.79	663.62
496.008	669.62
496.225	649.62
496.442	652.62
496.66	676.62
496.877	655.62
497.094	671.62
497.312	672.62
497.529	643.62
497.746	661.62
497.963	679.62
498.181	686.62
498.398	693.62
498.615	693.62
498.832	716.62
499.049	735.62
499.267	710.62
499.484	701.62
499.701	744.62
499.918	718.62
500.135	755.62
500.352	803.62
500.569	773.62
500.786	792.62
501.003	796.62
501.22	757.62
501.437	759.62
501.654	768.62
501.871	808.62
