Data from 1986.PennyLincolnUp.Lamp.En5.5.200Scan.071819.P1_HRD10591_17-08-20-973.txt Node
Date: Thu Jul 18 17:08:20 EDT 2019
User: cochatt
Spectrometer: HR+D1059
Trigger mode: 1
Integration Time (sec): 1.000000E-1
Scans to average: 1
Electric dark correction enabled: true
Nonlinearity correction enabled: false
Boxcar width: 0
XAxis mode: Wavelengths
Number of Pixels in Spectrum: 2048
>>>>>Begin Spectral Data<<<<<
223.165	-18.5
223.4	-18.5
223.635	-18.5
223.869	-22.5
224.104	-5.5
224.338	-16.5
224.573	-6.5
224.808	-3.5
225.042	-15.5
225.277	4.5
225.511	-9.5
225.746	-0.5
225.98	-2.5
226.215	15.5
226.449	15.5
226.683	19.5
226.918	31.5
227.152	14.5
227.387	50.5
227.621	36.5
227.856	59.5
228.09	49.5
228.324	55.5
228.559	60.5
228.793	73.5
229.027	85.5
229.262	84.5
229.496	102.5
229.73	114.5
229.964	115.5
230.199	117.5
230.433	111.5
230.667	97.5
230.901	105.5
231.136	92.5
231.37	100.5
231.604	106.5
231.838	96.5
232.072	111.5
232.306	93.5
232.541	112.5
232.775	115.5
233.009	99.5
233.243	115.5
233.477	108.5
233.711	86.5
233.945	86.5
234.179	98.5
234.413	118.5
234.647	125.5
234.881	97.5
235.115	111.5
235.349	106.5
235.583	104.5
235.817	109.5
236.051	117.5
236.285	110.5
236.519	109.5
236.753	115.5
236.987	126.5
237.221	128.5
237.455	153.5
237.689	123.5
237.922	110.5
238.156	117.5
238.39	114.5
238.624	127.5
238.858	109.5
239.091	97.5
239.325	124.5
239.559	119.5
239.793	120.5
240.027	126.5
240.26	112.5
240.494	137.5
240.728	128.5
240.961	125.5
241.195	133.5
241.429	114.5
241.662	113.5
241.896	125.5
242.13	125.5
242.363	121.5
242.597	133.5
242.83	136.5
243.064	114.5
243.298	100.5
243.531	113.5
243.765	123.5
243.998	125.5
244.232	104.5
244.465	120.5
244.699	115.5
244.932	133.5
245.166	127.5
245.399	129.5
245.633	138.5
245.866	125.5
246.099	136.5
246.333	138.5
246.566	120.5
246.8	132.5
247.033	132.5
247.266	140.5
247.5	108.5
247.733	140.5
247.966	157.5
248.2	128.5
248.433	150.5
248.666	137.5
248.899	141.5
249.133	155.5
249.366	166.5
249.599	171.5
249.832	152.5
250.066	160.5
250.299	136.5
250.532	152.5
250.765	163.5
250.998	168.5
251.231	160.5
251.465	165.5
251.698	145.5
251.931	161.5
252.164	170.5
252.397	141.5
252.63	152.5
252.863	153.5
253.096	157.5
253.329	178.5
253.562	168.5
253.795	162.5
254.028	179.5
254.261	184.5
254.494	166.5
254.727	197.5
254.96	188.5
255.193	192.5
255.426	191.5
255.659	175.5
255.892	168.5
256.124	171.5
256.357	184.5
256.59	178.5
256.823	176.5
257.056	163.5
257.289	169.5
257.521	177.5
257.754	170.5
257.987	164.5
258.22	179.5
258.452	182.5
258.685	160.5
258.918	172.5
259.151	180.5
259.383	185.5
259.616	177.5
259.849	181.5
260.081	181.5
260.314	184.5
260.547	190.5
260.779	200.5
261.012	186.5
261.244	170.5
261.477	178.5
261.71	190.5
261.942	186.5
262.175	185.5
262.407	175.5
262.64	165.5
262.872	163.5
263.105	159.5
263.337	163.5
263.57	173.5
263.802	173.5
264.035	168.5
264.267	170.5
264.499	185.5
264.732	185.5
264.964	178.5
265.197	178.5
265.429	178.5
265.661	179.5
265.894	177.5
266.126	190.5
266.358	181.5
266.591	193.5
266.823	193.5
267.055	165.5
267.287	181.5
267.52	173.5
267.752	179.5
267.984	196.5
268.216	177.5
268.448	189.5
268.681	194.5
268.913	189.5
269.145	189.5
269.377	209.5
269.609	208.5
269.841	206.5
270.073	225.5
270.306	219.5
270.538	223.5
270.77	238.5
271.002	235.5
271.234	210.5
271.466	218.5
271.698	227.5
271.93	227.5
272.162	233.5
272.394	224.5
272.626	219.5
272.858	215.5
273.09	203.5
273.322	220.5
273.553	212.5
273.785	203.5
274.017	206.5
274.249	219.5
274.481	197.5
274.713	216.5
274.945	202.5
275.176	218.5
275.408	203.5
275.64	203.5
275.872	199.5
276.104	213.5
276.335	205.5
276.567	199.5
276.799	219.5
277.031	238.5
277.262	233.5
277.494	226.5
277.726	222.5
277.957	220.5
278.189	221.5
278.421	202.5
278.652	197.5
278.884	209.5
279.115	224.5
279.347	213.5
279.579	212.5
279.81	202.5
280.042	206.5
280.273	235.5
280.505	210.5
280.736	222.5
280.968	217.5
281.199	209.5
281.431	221.5
281.662	218.5
281.894	233.5
282.125	195.5
282.356	234.5
282.588	254.5
282.819	232.5
283.051	201.5
283.282	234.5
283.513	209.5
283.745	213.5
283.976	219.5
284.207	226.5
284.439	216.5
284.67	213.5
284.901	222.5
285.132	215.5
285.364	226.5
285.595	226.5
285.826	221.5
286.057	201.5
286.288	222.5
286.52	225.5
286.751	216.5
286.982	233.5
287.213	235.5
287.444	238.5
287.675	229.5
287.906	229.5
288.138	233.5
288.369	253.5
288.6	245.5
288.831	247.5
289.062	233.5
289.293	231.5
289.524	217.5
289.755	231.5
289.986	232.5
290.217	233.5
290.448	217.5
290.679	239.5
290.91	224.5
291.141	237.5
291.371	232.5
291.602	223.5
291.833	228.5
292.064	229.5
292.295	240.5
292.526	239.5
292.757	242.5
292.987	221.5
293.218	240.5
293.449	241.5
293.68	237.5
293.91	229.5
294.141	244.5
294.372	229.5
294.603	237.5
294.833	243.5
295.064	241.5
295.295	234.5
295.525	248.5
295.756	251.5
295.987	249.5
296.217	267.5
296.448	267.5
296.679	245.5
296.909	237.5
297.14	249.5
297.37	253.5
297.601	240.5
297.831	247.5
298.062	245.5
298.292	245.5
298.523	251.5
298.753	261.5
298.984	233.5
299.214	254.5
299.445	263.5
299.675	254.5
299.905	245.5
300.136	265.5
300.366	253.5
300.597	251.5
300.827	261.5
301.057	255.5
301.288	261.5
301.518	263.5
301.748	263.5
301.979	270.5
302.209	258.5
302.439	266.5
302.669	270.5
302.9	263.5
303.13	264.5
303.36	284.5
303.59	267.5
303.82	273.5
304.051	251.5
304.281	262.5
304.511	272.5
304.741	263.5
304.971	270.5
305.201	265.5
305.431	265.5
305.661	255.5
305.891	253.5
306.121	265.5
306.352	275.5
306.582	282.5
306.812	265.5
307.042	268.5
307.272	269.5
307.502	274.5
307.731	275.5
307.961	273.5
308.191	257.5
308.421	266.5
308.651	273.5
308.881	278.5
309.111	271.5
309.341	270.5
309.571	267.5
309.8	282.5
310.03	293.5
310.26	286.5
310.49	287.5
310.72	295.5
310.949	301.5
311.179	309.5
311.409	294.5
311.639	277.5
311.868	289.5
312.098	300.5
312.328	307.5
312.557	301.5
312.787	304.5
313.017	289.5
313.246	305.5
313.476	302.5
313.706	301.5
313.935	292.5
314.165	298.5
314.394	302.5
314.624	301.5
314.853	294.5
315.083	294.5
315.312	286.5
315.542	281.5
315.771	308.5
316.001	307.5
316.23	291.5
316.46	282.5
316.689	283.5
316.919	292.5
317.148	320.5
317.377	302.5
317.607	282.5
317.836	294.5
318.065	298.5
318.295	295.5
318.524	298.5
318.753	301.5
318.983	288.5
319.212	290.5
319.441	299.5
319.67	310.5
319.9	303.5
320.129	297.5
320.358	315.5
320.587	312.5
320.816	303.5
321.046	297.5
321.275	307.5
321.504	297.5
321.733	289.5
321.962	294.5
322.191	315.5
322.42	329.5
322.649	351.5
322.878	349.5
323.108	333.5
323.337	328.5
323.566	352.5
323.795	352.5
324.024	401.5
324.253	452.5
324.482	618.5
324.71	905.5
324.939	1185.5
325.168	1005.5
325.397	571.5
325.626	409.5
325.855	370.5
326.084	339.5
326.313	331.5
326.542	353.5
326.77	399.5
326.999	441.5
327.228	563.5
327.457	787.5
327.686	895.5
327.914	638.5
328.143	458.5
328.372	432.5
328.6	405.5
328.829	381.5
329.058	389.5
329.287	415.5
329.515	383.5
329.744	387.5
329.972	382.5
330.201	397.5
330.43	445.5
330.658	441.5
330.887	427.5
331.115	421.5
331.344	370.5
331.572	363.5
331.801	373.5
332.03	347.5
332.258	360.5
332.486	370.5
332.715	326.5
332.943	352.5
333.172	354.5
333.4	357.5
333.629	384.5
333.857	400.5
334.085	389.5
334.314	441.5
334.542	447.5
334.771	463.5
334.999	420.5
335.227	362.5
335.455	379.5
335.684	364.5
335.912	373.5
336.14	340.5
336.369	345.5
336.597	361.5
336.825	352.5
337.053	338.5
337.281	353.5
337.51	338.5
337.738	336.5
337.966	348.5
338.194	345.5
338.422	354.5
338.65	333.5
338.878	328.5
339.106	320.5
339.334	341.5
339.562	329.5
339.79	339.5
340.018	335.5
340.246	322.5
340.474	338.5
340.702	331.5
340.93	326.5
341.158	321.5
341.386	325.5
341.614	329.5
341.842	323.5
342.07	334.5
342.298	333.5
342.526	318.5
342.754	324.5
342.981	312.5
343.209	327.5
343.437	338.5
343.665	345.5
343.893	344.5
344.12	328.5
344.348	328.5
344.576	345.5
344.804	338.5
345.031	357.5
345.259	328.5
345.487	333.5
345.714	317.5
345.942	336.5
346.17	325.5
346.397	320.5
346.625	317.5
346.853	329.5
347.08	306.5
347.308	319.5
347.535	314.5
347.763	316.5
347.99	326.5
348.218	311.5
348.445	320.5
348.673	331.5
348.9	294.5
349.128	304.5
349.355	313.5
349.583	315.5
349.81	289.5
350.037	315.5
350.265	306.5
350.492	327.5
350.72	313.5
350.947	300.5
351.174	321.5
351.402	326.5
351.629	313.5
351.856	313.5
352.083	310.5
352.311	329.5
352.538	337.5
352.765	302.5
352.992	308.5
353.22	319.5
353.447	313.5
353.674	318.5
353.901	324.5
354.128	317.5
354.355	299.5
354.583	313.5
354.81	325.5
355.037	297.5
355.264	292.5
355.491	302.5
355.718	317.5
355.945	321.5
356.172	322.5
356.399	294.5
356.626	311.5
356.853	288.5
357.08	291.5
357.307	301.5
357.534	313.5
357.761	292.5
357.988	319.5
358.215	306.5
358.441	297.5
358.668	307.5
358.895	298.5
359.122	323.5
359.349	302.5
359.576	316.5
359.802	323.5
360.029	325.5
360.256	337.5
360.483	340.5
360.709	309.5
360.936	317.5
361.163	315.5
361.39	323.5
361.616	314.5
361.843	295.5
362.07	280.5
362.296	319.5
362.523	313.5
362.749	321.5
362.976	321.5
363.203	320.5
363.429	300.5
363.656	310.5
363.882	307.5
364.109	309.5
364.335	313.5
364.562	321.5
364.788	310.5
365.015	311.5
365.241	305.5
365.468	317.5
365.694	314.5
365.92	299.5
366.147	313.5
366.373	326.5
366.599	296.5
366.826	313.5
367.052	310.5
367.278	297.5
367.505	326.5
367.731	311.5
367.957	297.5
368.184	319.5
368.41	304.5
368.636	311.5
368.862	313.5
369.089	306.5
369.315	307.5
369.541	302.5
369.767	322.5
369.993	309.5
370.219	312.5
370.445	310.5
370.672	289.5
370.898	301.5
371.124	302.5
371.35	300.5
371.576	305.5
371.802	313.5
372.028	299.5
372.254	306.5
372.48	307.5
372.706	321.5
372.932	327.5
373.158	326.5
373.384	296.5
373.61	305.5
373.835	302.5
374.061	310.5
374.287	316.5
374.513	307.5
374.739	313.5
374.965	325.5
375.191	319.5
375.416	317.5
375.642	299.5
375.868	315.5
376.094	303.5
376.319	310.5
376.545	317.5
376.771	309.5
376.997	300.5
377.222	312.5
377.448	308.5
377.674	301.5
377.899	309.5
378.125	330.5
378.35	313.5
378.576	311.5
378.802	300.5
379.027	309.5
379.253	297.5
379.478	299.5
379.704	295.5
379.929	313.5
380.155	297.5
380.38	307.5
380.606	304.5
380.831	326.5
381.057	314.5
381.282	311.5
381.507	302.5
381.733	318.5
381.958	311.5
382.184	319.5
382.409	319.5
382.634	311.5
382.86	332.5
383.085	315.5
383.31	307.5
383.535	315.5
383.761	327.5
383.986	338.5
384.211	317.5
384.436	337.5
384.662	333.5
384.887	337.5
385.112	338.5
385.337	358.5
385.562	363.5
385.787	333.5
386.013	338.5
386.238	344.5
386.463	344.5
386.688	335.5
386.913	353.5
387.138	330.5
387.363	317.5
387.588	327.5
387.813	352.5
388.038	326.5
388.263	349.5
388.488	351.5
388.713	344.5
388.938	326.5
389.163	333.5
389.387	352.5
389.612	338.5
389.837	329.5
390.062	349.5
390.287	358.5
390.512	337.5
390.736	329.5
390.961	345.5
391.186	321.5
391.411	337.5
391.636	344.5
391.86	354.5
392.085	353.5
392.31	342.5
392.534	347.5
392.759	344.5
392.984	344.5
393.208	347.5
393.433	366.5
393.658	358.5
393.882	350.5
394.107	345.5
394.331	311.5
394.556	344.5
394.78	338.5
395.005	360.5
395.229	347.5
395.454	347.5
395.678	353.5
395.903	355.5
396.127	361.5
396.352	358.5
396.576	360.5
396.801	351.5
397.025	380.5
397.249	373.5
397.474	360.5
397.698	359.5
397.922	367.5
398.147	378.5
398.371	393.5
398.595	397.5
398.82	396.5
399.044	383.5
399.268	444.5
399.492	428.5
399.717	477.5
399.941	483.5
400.165	500.5
400.389	479.5
400.613	449.5
400.837	403.5
401.062	412.5
401.286	379.5
401.51	400.5
401.734	398.5
401.958	393.5
402.182	394.5
402.406	408.5
402.63	425.5
402.854	406.5
403.078	387.5
403.302	422.5
403.526	423.5
403.75	422.5
403.974	424.5
404.198	403.5
404.422	414.5
404.645	438.5
404.869	409.5
405.093	433.5
405.317	437.5
405.541	441.5
405.765	422.5
405.988	421.5
406.212	430.5
406.436	449.5
406.66	446.5
406.883	458.5
407.107	443.5
407.331	479.5
407.555	518.5
407.778	507.5
408.002	480.5
408.226	463.5
408.449	441.5
408.673	445.5
408.896	438.5
409.12	470.5
409.344	474.5
409.567	415.5
409.791	410.5
410.014	412.5
410.238	419.5
410.461	394.5
410.685	417.5
410.908	423.5
411.132	430.5
411.355	459.5
411.578	437.5
411.802	411.5
412.025	410.5
412.249	435.5
412.472	437.5
412.695	427.5
412.919	426.5
413.142	407.5
413.365	409.5
413.589	406.5
413.812	383.5
414.035	424.5
414.258	394.5
414.482	396.5
414.705	407.5
414.928	417.5
415.151	394.5
415.374	413.5
415.597	423.5
415.821	425.5
416.044	417.5
416.267	385.5
416.49	411.5
416.713	389.5
416.936	400.5
417.159	408.5
417.382	385.5
417.605	383.5
417.828	408.5
418.051	408.5
418.274	403.5
418.497	416.5
418.72	417.5
418.943	410.5
419.166	430.5
419.389	443.5
419.611	428.5
419.834	421.5
420.057	417.5
420.28	423.5
420.503	397.5
420.726	411.5
420.948	430.5
421.171	431.5
421.394	460.5
421.617	404.5
421.839	424.5
422.062	404.5
422.285	425.5
422.507	448.5
422.73	483.5
422.953	477.5
423.175	440.5
423.398	408.5
423.621	430.5
423.843	430.5
424.066	423.5
424.288	451.5
424.511	452.5
424.733	494.5
424.956	519.5
425.178	503.5
425.401	495.5
425.623	515.5
425.846	459.5
426.068	425.5
426.291	433.5
426.513	401.5
426.735	421.5
426.958	443.5
427.18	506.5
427.402	578.5
427.625	618.5
427.847	525.5
428.069	476.5
428.292	449.5
428.514	416.5
428.736	389.5
428.958	402.5
429.181	393.5
429.403	387.5
429.625	387.5
429.847	409.5
430.069	459.5
430.292	463.5
430.514	419.5
430.736	395.5
430.958	414.5
431.18	386.5
431.402	394.5
431.624	378.5
431.846	383.5
432.068	381.5
432.29	396.5
432.512	401.5
432.734	378.5
432.956	412.5
433.178	394.5
433.4	409.5
433.622	400.5
433.844	403.5
434.066	398.5
434.287	385.5
434.509	407.5
434.731	395.5
434.953	395.5
435.175	412.5
435.397	419.5
435.618	440.5
435.84	445.5
436.062	491.5
436.284	525.5
436.505	467.5
436.727	425.5
436.949	404.5
437.17	411.5
437.392	391.5
437.614	412.5
437.835	431.5
438.057	486.5
438.278	486.5
438.5	515.5
438.721	565.5
438.943	549.5
439.165	456.5
439.386	425.5
439.608	415.5
439.829	411.5
440.05	437.5
440.272	464.5
440.493	450.5
440.715	431.5
440.936	415.5
441.158	413.5
441.379	406.5
441.6	415.5
441.822	417.5
442.043	467.5
442.264	494.5
442.486	510.5
442.707	470.5
442.928	438.5
443.149	450.5
443.371	452.5
443.592	468.5
443.813	519.5
444.034	537.5
444.255	502.5
444.476	451.5
444.698	441.5
444.919	447.5
445.14	570.5
445.361	482.5
445.582	467.5
445.803	492.5
446.024	536.5
446.245	537.5
446.466	486.5
446.687	447.5
446.908	437.5
447.129	414.5
447.35	403.5
447.571	391.5
447.792	412.5
448.013	386.5
448.234	405.5
448.455	437.5
448.675	514.5
448.896	544.5
449.117	496.5
449.338	452.5
449.559	502.5
449.779	562.5
450	462.5
450.221	420.5
450.442	392.5
450.662	385.5
450.883	383.5
451.104	386.5
451.324	378.5
451.545	353.5
451.766	366.5
451.986	343.5
452.207	349.5
452.428	363.5
452.648	360.5
452.869	356.5
453.089	375.5
453.31	361.5
453.53	355.5
453.751	354.5
453.971	352.5
454.192	382.5
454.412	381.5
454.633	358.5
454.853	356.5
455.073	353.5
455.294	381.5
455.514	388.5
455.734	410.5
455.955	365.5
456.175	331.5
456.395	351.5
456.616	350.5
456.836	327.5
457.056	335.5
457.276	342.5
457.497	353.5
457.717	325.5
457.937	361.5
458.157	367.5
458.377	370.5
458.598	366.5
458.818	405.5
459.038	432.5
459.258	449.5
459.478	411.5
459.698	397.5
459.918	384.5
460.138	391.5
460.358	394.5
460.578	417.5
460.798	405.5
461.018	386.5
461.238	395.5
461.458	389.5
461.678	387.5
461.898	396.5
462.118	400.5
462.338	423.5
462.558	403.5
462.777	429.5
462.997	433.5
463.217	459.5
463.437	453.5
463.657	445.5
463.876	425.5
464.096	426.5
464.316	419.5
464.536	447.5
464.755	427.5
464.975	432.5
465.195	439.5
465.414	477.5
465.634	435.5
465.854	410.5
466.073	398.5
466.293	386.5
466.512	378.5
466.732	371.5
466.951	366.5
467.171	365.5
467.391	389.5
467.61	375.5
467.829	385.5
468.049	386.5
468.268	407.5
468.488	385.5
468.707	384.5
468.927	379.5
469.146	368.5
469.365	376.5
469.585	381.5
469.804	394.5
470.023	385.5
470.243	383.5
470.462	394.5
470.681	393.5
470.901	403.5
471.12	383.5
471.339	395.5
471.558	377.5
471.777	371.5
471.997	373.5
472.216	405.5
472.435	473.5
472.654	453.5
472.873	402.5
473.092	398.5
473.311	370.5
473.53	377.5
473.749	382.5
473.968	427.5
474.187	434.5
474.406	438.5
474.625	427.5
474.844	386.5
475.063	376.5
475.282	394.5
475.501	386.5
475.72	391.5
475.939	376.5
476.158	394.5
476.377	375.5
476.596	368.5
476.814	382.5
477.033	417.5
477.252	393.5
477.471	412.5
477.69	404.5
477.908	411.5
478.127	417.5
478.346	415.5
478.564	415.5
478.783	431.5
479.002	431.5
479.22	450.5
479.439	442.5
479.658	455.5
479.876	457.5
480.095	472.5
480.313	476.5
480.532	471.5
480.751	451.5
480.969	483.5
481.188	593.5
481.406	658.5
481.624	501.5
481.843	475.5
482.061	450.5
482.28	477.5
482.498	426.5
482.717	414.5
482.935	454.5
483.153	457.5
483.372	427.5
483.59	429.5
483.808	444.5
484.027	445.5
484.245	465.5
484.463	452.5
484.681	453.5
484.9	458.5
485.118	474.5
485.336	440.5
485.554	467.5
485.772	448.5
485.99	453.5
486.209	457.5
486.427	460.5
486.645	469.5
486.863	457.5
487.081	469.5
487.299	460.5
487.517	463.5
487.735	437.5
487.953	453.5
488.171	474.5
488.389	460.5
488.607	460.5
488.825	470.5
489.043	474.5
489.261	484.5
489.479	465.5
489.696	464.5
489.914	465.5
490.132	472.5
490.35	482.5
490.568	494.5
490.786	487.5
491.003	489.5
491.221	502.5
491.439	514.5
491.657	487.5
491.874	521.5
492.092	524.5
492.31	537.5
492.527	530.5
492.745	538.5
492.963	529.5
493.18	520.5
493.398	548.5
493.615	536.5
493.833	521.5
494.05	515.5
494.268	546.5
494.485	528.5
494.703	514.5
494.92	551.5
495.138	535.5
495.355	545.5
495.573	524.5
495.79	558.5
496.008	543.5
496.225	542.5
496.442	528.5
496.66	532.5
496.877	536.5
497.094	572.5
497.312	524.5
497.529	566.5
497.746	562.5
497.963	560.5
498.181	584.5
498.398	593.5
498.615	609.5
498.832	631.5
499.049	649.5
499.267	654.5
499.484	675.5
499.701	723.5
499.918	750.5
500.135	786.5
500.352	815.5
500.569	863.5
500.786	815.5
501.003	813.5
501.22	738.5
501.437	744.5
501.654	721.5
501.871	675.5
502.088	680.5
502.305	649.5
502.522	597.5
502.739	610.5
502.956	570.5
503.172	579.5
503.389	570.5
503.606	566.5
503.823	546.5
504.04	546.5
504.256	535.5
504.473	565.5
504.69	556.5
504.907	539.5
505.123	543.5
505.34	530.5
505.557	544.5
505.773	503.5
505.99	498.5
506.207	519.5
506.423	509.5
506.64	475.5
506.856	524.5
507.073	483.5
507.289	494.5
507.506	494.5
507.722	465.5
507.939	487.5
508.155	490.5
508.372	465.5
508.588	484.5
508.805	472.5
509.021	463.5
509.238	476.5
509.454	488.5
509.67	478.5
509.887	455.5
510.103	467.5
510.319	467.5
510.536	533.5
510.752	864.5
510.968	713.5
511.184	485.5
511.401	455.5
511.617	465.5
511.833	465.5
512.049	466.5
512.265	451.5
512.481	443.5
512.698	413.5
512.914	454.5
513.13	426.5
513.346	447.5
513.562	448.5
513.778	453.5
513.994	459.5
514.21	442.5
514.426	458.5
514.642	480.5
514.858	499.5
515.074	523.5
515.29	571.5
515.506	833.5
515.721	731.5
515.937	528.5
516.153	480.5
516.369	479.5
516.585	455.5
516.801	477.5
517.016	477.5
517.232	477.5
517.448	480.5
517.664	486.5
517.879	481.5
518.095	489.5
518.311	478.5
518.527	478.5
518.742	485.5
518.958	463.5
519.173	444.5
519.389	455.5
519.605	468.5
519.82	447.5
520.036	459.5
