Data from 1986.PennyLincolnUp.Lamp.En5.5.200Scan.071819.P2_HRD10591_17-11-28-973.txt Node
Date: Thu Jul 18 17:11:28 EDT 2019
User: cochatt
Spectrometer: HR+D1059
Trigger mode: 1
Integration Time (sec): 1.000000E-1
Scans to average: 1
Electric dark correction enabled: true
Nonlinearity correction enabled: false
Boxcar width: 0
XAxis mode: Wavelengths
Number of Pixels in Spectrum: 2048
>>>>>Begin Spectral Data<<<<<
223.165	-14.38
223.4	-14.38
223.635	-14.38
223.869	-22.38
224.104	-15.38
224.338	-8.38
224.573	-7.38
224.808	0.62
225.042	-18.38
225.277	-17.38
225.511	-1.38
225.746	5.62
225.98	2.62
226.215	13.62
226.449	0.62
226.683	21.62
226.918	24.62
227.152	35.62
227.387	27.62
227.621	24.62
227.856	36.62
228.09	58.62
228.324	45.62
228.559	49.62
228.793	60.62
229.027	88.62
229.262	108.62
229.496	116.62
229.73	128.62
229.964	148.62
230.199	123.62
230.433	117.62
230.667	108.62
230.901	120.62
231.136	103.62
231.37	120.62
231.604	108.62
231.838	111.62
232.072	113.62
232.306	124.62
232.541	120.62
232.775	117.62
233.009	117.62
233.243	112.62
233.477	111.62
233.711	117.62
233.945	105.62
234.179	111.62
234.413	111.62
234.647	104.62
234.881	115.62
235.115	107.62
235.349	119.62
235.583	116.62
235.817	121.62
236.051	109.62
236.285	127.62
236.519	120.62
236.753	125.62
236.987	151.62
237.221	197.62
237.455	259.62
237.689	189.62
237.922	134.62
238.156	132.62
238.39	126.62
238.624	134.62
238.858	121.62
239.091	116.62
239.325	125.62
239.559	123.62
239.793	116.62
240.027	119.62
240.26	148.62
240.494	155.62
240.728	165.62
240.961	149.62
241.195	145.62
241.429	138.62
241.662	138.62
241.896	144.62
242.13	136.62
242.363	129.62
242.597	129.62
242.83	132.62
243.064	137.62
243.298	129.62
243.531	142.62
243.765	135.62
243.998	140.62
244.232	135.62
244.465	141.62
244.699	148.62
244.932	160.62
245.166	141.62
245.399	160.62
245.633	140.62
245.866	144.62
246.099	136.62
246.333	154.62
246.566	156.62
246.8	151.62
247.033	163.62
247.266	149.62
247.5	173.62
247.733	172.62
247.966	184.62
248.2	175.62
248.433	160.62
248.666	182.62
248.899	193.62
249.133	214.62
249.366	229.62
249.599	194.62
249.832	188.62
250.066	191.62
250.299	213.62
250.532	220.62
250.765	241.62
250.998	259.62
251.231	247.62
251.465	230.62
251.698	223.62
251.931	205.62
252.164	192.62
252.397	204.62
252.63	193.62
252.863	228.62
253.096	214.62
253.329	245.62
253.562	229.62
253.795	227.62
254.028	217.62
254.261	250.62
254.494	243.62
254.727	265.62
254.96	309.62
255.193	298.62
255.426	282.62
255.659	259.62
255.892	283.62
256.124	264.62
256.357	299.62
256.59	275.62
256.823	260.62
257.056	252.62
257.289	235.62
257.521	225.62
257.754	236.62
257.987	223.62
258.22	226.62
258.452	210.62
258.685	213.62
258.918	231.62
259.151	204.62
259.383	223.62
259.616	242.62
259.849	241.62
260.081	249.62
260.314	263.62
260.547	257.62
260.779	262.62
261.012	246.62
261.244	240.62
261.477	233.62
261.71	223.62
261.942	236.62
262.175	243.62
262.407	241.62
262.64	222.62
262.872	211.62
263.105	228.62
263.337	208.62
263.57	203.62
263.802	219.62
264.035	199.62
264.267	221.62
264.499	218.62
264.732	217.62
264.964	222.62
265.197	222.62
265.429	219.62
265.661	211.62
265.894	205.62
266.126	218.62
266.358	228.62
266.591	216.62
266.823	229.62
267.055	221.62
267.287	218.62
267.52	236.62
267.752	219.62
267.984	204.62
268.216	245.62
268.448	229.62
268.681	239.62
268.913	237.62
269.145	255.62
269.377	285.62
269.609	291.62
269.841	261.62
270.073	265.62
270.306	282.62
270.538	299.62
270.77	330.62
271.002	317.62
271.234	293.62
271.466	308.62
271.698	355.62
271.93	309.62
272.162	306.62
272.394	332.62
272.626	318.62
272.858	311.62
273.09	301.62
273.322	274.62
273.553	259.62
273.785	273.62
274.017	287.62
274.249	260.62
274.481	269.62
274.713	257.62
274.945	280.62
275.176	264.62
275.408	273.62
275.64	269.62
275.872	277.62
276.104	268.62
276.335	276.62
276.567	265.62
276.799	298.62
277.031	318.62
277.262	313.62
277.494	328.62
277.726	312.62
277.957	293.62
278.189	299.62
278.421	284.62
278.652	291.62
278.884	274.62
279.115	271.62
279.347	279.62
279.579	277.62
279.81	260.62
280.042	269.62
280.273	264.62
280.505	269.62
280.736	251.62
280.968	266.62
281.199	255.62
281.431	254.62
281.662	279.62
281.894	271.62
282.125	264.62
282.356	304.62
282.588	299.62
282.819	289.62
283.051	278.62
283.282	279.62
283.513	272.62
283.745	265.62
283.976	268.62
284.207	284.62
284.439	291.62
284.67	267.62
284.901	266.62
285.132	279.62
285.364	263.62
285.595	266.62
285.826	266.62
286.057	281.62
286.288	276.62
286.52	259.62
286.751	284.62
286.982	263.62
287.213	273.62
287.444	273.62
287.675	283.62
287.906	296.62
288.138	282.62
288.369	285.62
288.6	294.62
288.831	287.62
289.062	275.62
289.293	290.62
289.524	283.62
289.755	280.62
289.986	294.62
290.217	289.62
290.448	267.62
290.679	281.62
290.91	275.62
291.141	276.62
291.371	280.62
291.602	278.62
291.833	269.62
292.064	265.62
292.295	286.62
292.526	293.62
292.757	284.62
292.987	285.62
293.218	285.62
293.449	277.62
293.68	279.62
293.91	288.62
294.141	288.62
294.372	268.62
294.603	272.62
294.833	265.62
295.064	269.62
295.295	292.62
295.525	285.62
295.756	295.62
295.987	290.62
296.217	299.62
296.448	317.62
296.679	282.62
296.909	277.62
297.14	288.62
297.37	291.62
297.601	284.62
297.831	266.62
298.062	279.62
298.292	282.62
298.523	309.62
298.753	263.62
298.984	288.62
299.214	302.62
299.445	275.62
299.675	284.62
299.905	306.62
300.136	299.62
300.366	282.62
300.597	284.62
300.827	324.62
301.057	312.62
301.288	316.62
301.518	295.62
301.748	301.62
301.979	301.62
302.209	317.62
302.439	303.62
302.669	307.62
302.9	298.62
303.13	315.62
303.36	308.62
303.59	299.62
303.82	349.62
304.051	331.62
304.281	319.62
304.511	296.62
304.741	291.62
304.971	291.62
305.201	298.62
305.431	315.62
305.661	307.62
305.891	313.62
306.121	300.62
306.352	320.62
306.582	324.62
306.812	300.62
307.042	289.62
307.272	332.62
307.502	309.62
307.731	337.62
307.961	325.62
308.191	324.62
308.421	319.62
308.651	339.62
308.881	323.62
309.111	348.62
309.341	323.62
309.571	330.62
309.8	356.62
310.03	356.62
310.26	356.62
310.49	381.62
310.72	399.62
310.949	385.62
311.179	379.62
311.409	381.62
311.639	381.62
311.868	398.62
312.098	377.62
312.328	380.62
312.557	397.62
312.787	413.62
313.017	393.62
313.246	383.62
313.476	370.62
313.706	396.62
313.935	369.62
314.165	393.62
314.394	386.62
314.624	405.62
314.853	379.62
315.083	362.62
315.312	375.62
315.542	337.62
315.771	371.62
316.001	355.62
316.23	375.62
316.46	355.62
316.689	392.62
316.919	378.62
317.148	371.62
317.377	377.62
317.607	367.62
317.836	380.62
318.065	377.62
318.295	351.62
318.524	369.62
318.753	352.62
318.983	383.62
319.212	362.62
319.441	358.62
319.67	389.62
319.9	397.62
320.129	367.62
320.358	385.62
320.587	360.62
320.816	380.62
321.046	411.62
321.275	404.62
321.504	377.62
321.733	397.62
321.962	393.62
322.191	431.62
322.42	431.62
322.649	443.62
322.878	460.62
323.108	481.62
323.337	478.62
323.566	513.62
323.795	552.62
324.024	609.62
324.253	752.62
324.482	1099.62
324.71	1675.62
324.939	2373.62
325.168	2074.62
325.397	1087.62
325.626	746.62
325.855	637.62
326.084	552.62
326.313	547.62
326.542	552.62
326.77	591.62
326.999	683.62
327.228	948.62
327.457	1460.62
327.686	1766.62
327.914	1226.62
328.143	842.62
328.372	755.62
328.6	681.62
328.829	618.62
329.058	634.62
329.287	649.62
329.515	611.62
329.744	565.62
329.972	612.62
330.201	651.62
330.43	717.62
330.658	722.62
330.887	689.62
331.115	649.62
331.344	561.62
331.572	531.62
331.801	533.62
332.03	506.62
332.258	498.62
332.486	464.62
332.715	469.62
332.943	472.62
333.172	458.62
333.4	447.62
333.629	492.62
333.857	511.62
334.085	526.62
334.314	585.62
334.542	657.62
334.771	681.62
334.999	581.62
335.227	501.62
335.455	469.62
335.684	476.62
335.912	460.62
336.14	423.62
336.369	428.62
336.597	432.62
336.825	438.62
337.053	444.62
337.281	411.62
337.51	410.62
337.738	432.62
337.966	423.62
338.194	405.62
338.422	435.62
338.65	429.62
338.878	411.62
339.106	405.62
339.334	395.62
339.562	398.62
339.79	417.62
340.018	407.62
340.246	394.62
340.474	412.62
340.702	417.62
340.93	411.62
341.158	403.62
341.386	415.62
341.614	402.62
341.842	418.62
342.07	404.62
342.298	403.62
342.526	393.62
342.754	376.62
342.981	372.62
343.209	397.62
343.437	385.62
343.665	386.62
343.893	383.62
344.12	399.62
344.348	396.62
344.576	406.62
344.804	396.62
345.031	408.62
345.259	445.62
345.487	407.62
345.714	404.62
345.942	390.62
346.17	389.62
346.397	411.62
346.625	391.62
346.853	399.62
347.08	394.62
347.308	404.62
347.535	415.62
347.763	403.62
347.99	397.62
348.218	403.62
348.445	419.62
348.673	408.62
348.9	389.62
349.128	389.62
349.355	407.62
349.583	371.62
349.81	377.62
350.037	379.62
350.265	385.62
350.492	388.62
350.72	392.62
350.947	397.62
351.174	410.62
351.402	411.62
351.629	422.62
351.856	416.62
352.083	406.62
352.311	407.62
352.538	420.62
352.765	425.62
352.992	409.62
353.22	415.62
353.447	386.62
353.674	371.62
353.901	379.62
354.128	377.62
354.355	358.62
354.583	361.62
354.81	367.62
355.037	362.62
355.264	351.62
355.491	375.62
355.718	353.62
355.945	353.62
356.172	350.62
356.399	340.62
356.626	374.62
356.853	370.62
357.08	374.62
357.307	361.62
357.534	346.62
357.761	343.62
357.988	371.62
358.215	363.62
358.441	369.62
358.668	365.62
358.895	351.62
359.122	375.62
359.349	371.62
359.576	394.62
359.802	411.62
360.029	436.62
360.256	455.62
360.483	448.62
360.709	411.62
360.936	389.62
361.163	396.62
361.39	389.62
361.616	434.62
361.843	386.62
362.07	411.62
362.296	377.62
362.523	395.62
362.749	388.62
362.976	385.62
363.203	378.62
363.429	362.62
363.656	382.62
363.882	369.62
364.109	363.62
364.335	359.62
364.562	363.62
364.788	363.62
365.015	374.62
365.241	370.62
365.468	371.62
365.694	384.62
365.92	369.62
366.147	374.62
366.373	358.62
366.599	377.62
366.826	343.62
367.052	355.62
367.278	353.62
367.505	375.62
367.731	365.62
367.957	352.62
368.184	360.62
368.41	363.62
368.636	372.62
368.862	390.62
369.089	386.62
369.315	355.62
369.541	362.62
369.767	365.62
369.993	355.62
370.219	362.62
370.445	370.62
370.672	346.62
370.898	355.62
371.124	362.62
371.35	378.62
371.576	363.62
371.802	360.62
372.028	364.62
372.254	340.62
372.48	359.62
372.706	348.62
372.932	346.62
373.158	345.62
373.384	358.62
373.61	369.62
373.835	341.62
374.061	353.62
374.287	362.62
374.513	347.62
374.739	367.62
374.965	364.62
375.191	355.62
375.416	367.62
375.642	353.62
375.868	335.62
376.094	369.62
376.319	352.62
376.545	363.62
376.771	355.62
376.997	350.62
377.222	357.62
377.448	348.62
377.674	355.62
377.899	356.62
378.125	365.62
378.35	342.62
378.576	345.62
378.802	345.62
379.027	349.62
379.253	345.62
379.478	355.62
379.704	341.62
379.929	350.62
380.155	349.62
380.38	357.62
380.606	361.62
380.831	347.62
381.057	339.62
381.282	360.62
381.507	358.62
381.733	333.62
381.958	357.62
382.184	357.62
382.409	354.62
382.634	370.62
382.86	344.62
383.085	362.62
383.31	361.62
383.535	370.62
383.761	372.62
383.986	355.62
384.211	361.62
384.436	347.62
384.662	365.62
384.887	360.62
385.112	362.62
385.337	378.62
385.562	380.62
385.787	352.62
386.013	375.62
386.238	379.62
386.463	371.62
386.688	387.62
386.913	369.62
387.138	371.62
387.363	359.62
387.588	371.62
387.813	383.62
388.038	385.62
388.263	370.62
388.488	364.62
388.713	367.62
388.938	375.62
389.163	382.62
389.387	380.62
389.612	367.62
389.837	377.62
390.062	351.62
390.287	355.62
390.512	367.62
390.736	367.62
390.961	380.62
391.186	383.62
391.411	371.62
391.636	376.62
391.86	379.62
392.085	370.62
392.31	397.62
392.534	379.62
392.759	352.62
392.984	367.62
393.208	357.62
393.433	369.62
393.658	379.62
393.882	379.62
394.107	376.62
394.331	381.62
394.556	356.62
394.78	372.62
395.005	383.62
395.229	359.62
395.454	383.62
395.678	378.62
395.903	390.62
396.127	416.62
396.352	431.62
396.576	390.62
396.801	377.62
397.025	385.62
397.249	356.62
397.474	379.62
397.698	375.62
397.922	385.62
398.147	407.62
398.371	424.62
398.595	392.62
398.82	395.62
399.044	397.62
399.268	416.62
399.492	443.62
399.717	456.62
399.941	456.62
400.165	472.62
400.389	523.62
400.613	469.62
400.837	436.62
401.062	428.62
401.286	433.62
401.51	411.62
401.734	416.62
401.958	411.62
402.182	429.62
402.406	449.62
402.63	448.62
402.854	424.62
403.078	425.62
403.302	433.62
403.526	458.62
403.75	446.62
403.974	434.62
404.198	410.62
404.422	435.62
404.645	470.62
404.869	463.62
405.093	499.62
405.317	559.62
405.541	566.62
405.765	549.62
405.988	490.62
406.212	469.62
406.436	521.62
406.66	529.62
406.883	480.62
407.107	475.62
407.331	544.62
407.555	570.62
407.778	601.62
408.002	555.62
408.226	496.62
408.449	467.62
408.673	485.62
408.896	504.62
409.12	526.62
409.344	517.62
409.567	457.62
409.791	446.62
410.014	444.62
410.238	436.62
410.461	447.62
410.685	435.62
410.908	471.62
411.132	479.62
411.355	514.62
411.578	511.62
411.802	467.62
412.025	452.62
412.249	464.62
412.472	493.62
412.695	547.62
412.919	553.62
413.142	512.62
413.365	453.62
413.589	467.62
413.812	448.62
414.035	441.62
414.258	421.62
414.482	420.62
414.705	433.62
414.928	441.62
415.151	423.62
415.374	415.62
415.597	393.62
415.821	410.62
416.044	409.62
416.267	443.62
416.49	433.62
416.713	408.62
416.936	403.62
417.159	423.62
417.382	418.62
417.605	439.62
417.828	449.62
418.051	463.62
418.274	419.62
418.497	417.62
418.72	422.62
418.943	408.62
419.166	440.62
419.389	446.62
419.611	459.62
419.834	463.62
420.057	465.62
420.28	453.62
420.503	472.62
420.726	488.62
420.948	478.62
421.171	513.62
421.394	551.62
421.617	492.62
421.839	458.62
422.062	435.62
422.285	479.62
422.507	543.62
422.73	607.62
422.953	565.62
423.175	506.62
423.398	466.62
423.621	462.62
423.843	484.62
424.066	489.62
424.288	488.62
424.511	516.62
424.733	589.62
424.956	637.62
425.178	624.62
425.401	601.62
425.623	618.62
425.846	536.62
426.068	491.62
426.291	486.62
426.513	492.62
426.735	508.62
426.958	554.62
427.18	631.62
427.402	740.62
427.625	825.62
427.847	738.62
428.069	675.62
428.292	576.62
428.514	522.62
428.736	469.62
428.958	472.62
429.181	440.62
429.403	456.62
429.625	458.62
429.847	492.62
430.069	576.62
430.292	578.62
430.514	471.62
430.736	462.62
430.958	453.62
431.18	428.62
431.402	443.62
431.624	417.62
431.846	417.62
432.068	446.62
432.29	424.62
432.512	425.62
432.734	411.62
432.956	415.62
433.178	449.62
433.4	458.62
433.622	418.62
433.844	443.62
434.066	406.62
434.287	388.62
434.509	419.62
434.731	433.62
434.953	428.62
435.175	457.62
435.397	474.62
435.618	484.62
435.84	556.62
436.062	618.62
436.284	675.62
436.505	599.62
436.727	503.62
436.949	483.62
437.17	465.62
437.392	460.62
437.614	461.62
437.835	523.62
438.057	631.62
438.278	705.62
438.5	703.62
438.721	765.62
438.943	722.62
439.165	593.62
439.386	535.62
439.608	528.62
439.829	521.62
440.05	547.62
440.272	588.62
440.493	547.62
440.715	484.62
440.936	467.62
441.158	463.62
441.379	467.62
441.6	485.62
441.822	486.62
442.043	545.62
442.264	610.62
442.486	656.62
442.707	571.62
442.928	521.62
443.149	534.62
443.371	535.62
443.592	587.62
443.813	648.62
444.034	703.62
444.255	605.62
444.476	524.62
444.698	517.62
444.919	460.62
445.14	566.62
445.361	545.62
445.582	559.62
445.803	595.62
446.024	692.62
446.245	724.62
446.466	673.62
446.687	571.62
446.908	514.62
447.129	459.62
447.35	461.62
447.571	476.62
447.792	469.62
448.013	468.62
448.234	502.62
448.455	538.62
448.675	623.62
448.896	751.62
449.117	633.62
449.338	602.62
449.559	712.62
449.779	767.62
450	642.62
450.221	524.62
450.442	474.62
450.662	451.62
450.883	460.62
451.104	511.62
451.324	465.62
451.545	460.62
451.766	431.62
451.986	423.62
452.207	410.62
452.428	403.62
452.648	418.62
452.869	410.62
453.089	451.62
453.31	467.62
453.53	427.62
453.751	421.62
453.971	416.62
454.192	449.62
454.412	432.62
454.633	409.62
454.853	409.62
455.073	408.62
455.294	448.62
455.514	495.62
455.734	490.62
455.955	437.62
456.175	401.62
456.395	388.62
456.616	378.62
456.836	403.62
457.056	397.62
457.276	378.62
457.497	401.62
457.717	379.62
457.937	382.62
458.157	387.62
458.377	418.62
458.598	414.62
458.818	479.62
459.038	581.62
459.258	583.62
459.478	497.62
459.698	445.62
459.918	433.62
460.138	409.62
460.358	408.62
460.578	398.62
460.798	433.62
461.018	422.62
461.238	428.62
461.458	406.62
461.678	392.62
461.898	416.62
462.118	404.62
462.338	421.62
462.558	445.62
462.777	433.62
462.997	428.62
463.217	440.62
463.437	434.62
463.657	429.62
463.876	426.62
464.096	423.62
464.316	437.62
464.536	462.62
464.755	425.62
464.975	464.62
465.195	524.62
465.414	602.62
465.634	515.62
465.854	462.62
466.073	435.62
466.293	453.62
466.512	427.62
466.732	419.62
466.951	416.62
467.171	426.62
467.391	406.62
467.61	437.62
467.829	443.62
468.049	426.62
468.268	473.62
468.488	434.62
468.707	434.62
468.927	406.62
469.146	388.62
469.365	422.62
469.585	388.62
469.804	434.62
470.023	425.62
470.243	424.62
470.462	433.62
470.681	455.62
470.901	467.62
471.12	428.62
471.339	421.62
471.558	417.62
471.777	429.62
471.997	418.62
472.216	464.62
472.435	555.62
472.654	534.62
472.873	468.62
473.092	457.62
473.311	435.62
473.53	430.62
473.749	450.62
473.968	499.62
474.187	599.62
474.406	608.62
474.625	511.62
474.844	459.62
475.063	439.62
475.282	444.62
475.501	436.62
475.72	439.62
475.939	448.62
476.158	425.62
476.377	439.62
476.596	425.62
476.814	444.62
477.033	453.62
477.252	455.62
477.471	450.62
477.69	460.62
477.908	432.62
478.127	426.62
478.346	449.62
478.564	463.62
478.783	480.62
479.002	476.62
479.22	474.62
479.439	483.62
479.658	529.62
479.876	504.62
480.095	528.62
480.313	536.62
480.532	548.62
480.751	524.62
480.969	575.62
481.188	716.62
481.406	849.62
481.624	657.62
481.843	586.62
482.061	591.62
482.28	549.62
482.498	531.62
482.717	526.62
482.935	515.62
483.153	521.62
483.372	516.62
483.59	520.62
483.808	520.62
484.027	494.62
484.245	522.62
484.463	503.62
484.681	529.62
484.9	539.62
485.118	543.62
485.336	520.62
485.554	543.62
485.772	520.62
485.99	543.62
486.209	532.62
486.427	531.62
486.645	533.62
486.863	570.62
487.081	567.62
487.299	519.62
487.517	543.62
487.735	561.62
487.953	549.62
488.171	549.62
488.389	560.62
488.607	566.62
488.825	556.62
489.043	556.62
489.261	567.62
489.479	535.62
489.696	563.62
489.914	556.62
490.132	577.62
490.35	579.62
490.568	607.62
490.786	589.62
491.003	606.62
491.221	616.62
491.439	623.62
491.657	647.62
491.874	618.62
492.092	681.62
492.31	665.62
492.527	653.62
492.745	651.62
492.963	662.62
493.18	656.62
493.398	657.62
493.615	659.62
493.833	696.62
494.05	652.62
494.268	676.62
494.485	673.62
494.703	656.62
494.92	664.62
495.138	672.62
495.355	660.62
495.573	674.62
495.79	667.62
496.008	676.62
496.225	647.62
496.442	647.62
496.66	660.62
496.877	651.62
497.094	658.62
497.312	656.62
497.529	689.62
497.746	677.62
497.963	680.62
498.181	696.62
498.398	709.62
498.615	704.62
498.832	679.62
499.049	688.62
499.267	723.62
499.484	716.62
499.701	729.62
499.918	736.62
500.135	783.62
500.352	781.62
500.569	775.62
500.786	793.62
501.003	803.62
501.22	793.62
501.437	790.62
501.654	773.62
501.871	776.62
