Data from 1986.PennyLincolnUp.Lamp.En5.5.200Scan.071819.P2_HRD10591_17-10-14-975.txt Node
Date: Thu Jul 18 17:10:14 EDT 2019
User: cochatt
Spectrometer: HR+D1059
Trigger mode: 1
Integration Time (sec): 1.000000E-1
Scans to average: 1
Electric dark correction enabled: true
Nonlinearity correction enabled: false
Boxcar width: 0
XAxis mode: Wavelengths
Number of Pixels in Spectrum: 2048
>>>>>Begin Spectral Data<<<<<
223.165	-25.38
223.4	-25.38
223.635	-25.38
223.869	-23.38
224.104	1.62
224.338	-14.38
224.573	-14.38
224.808	-10.38
225.042	-12.38
225.277	-11.38
225.511	2.62
225.746	6.62
225.98	2.62
226.215	9.62
226.449	16.62
226.683	27.62
226.918	23.62
227.152	20.62
227.387	27.62
227.621	22.62
227.856	31.62
228.09	32.62
228.324	38.62
228.559	48.62
228.793	75.62
229.027	100.62
229.262	111.62
229.496	107.62
229.73	125.62
229.964	152.62
230.199	119.62
230.433	120.62
230.667	104.62
230.901	118.62
231.136	96.62
231.37	92.62
231.604	94.62
231.838	108.62
232.072	102.62
232.306	95.62
232.541	117.62
232.775	117.62
233.009	110.62
233.243	104.62
233.477	107.62
233.711	95.62
233.945	117.62
234.179	104.62
234.413	112.62
234.647	113.62
234.881	102.62
235.115	109.62
235.349	104.62
235.583	110.62
235.817	119.62
236.051	107.62
236.285	123.62
236.519	103.62
236.753	122.62
236.987	147.62
237.221	175.62
237.455	224.62
237.689	179.62
237.922	135.62
238.156	117.62
238.39	123.62
238.624	125.62
238.858	117.62
239.091	103.62
239.325	115.62
239.559	110.62
239.793	123.62
240.027	129.62
240.26	112.62
240.494	150.62
240.728	140.62
240.961	151.62
241.195	138.62
241.429	123.62
241.662	131.62
241.896	131.62
242.13	124.62
242.363	142.62
242.597	135.62
242.83	138.62
243.064	119.62
243.298	123.62
243.531	127.62
243.765	127.62
243.998	129.62
244.232	130.62
244.465	157.62
244.699	138.62
244.932	136.62
245.166	153.62
245.399	134.62
245.633	137.62
245.866	126.62
246.099	133.62
246.333	128.62
246.566	140.62
246.8	167.62
247.033	152.62
247.266	150.62
247.5	158.62
247.733	166.62
247.966	172.62
248.2	166.62
248.433	178.62
248.666	162.62
248.899	178.62
249.133	207.62
249.366	225.62
249.599	185.62
249.832	184.62
250.066	165.62
250.299	171.62
250.532	165.62
250.765	173.62
250.998	211.62
251.231	223.62
251.465	216.62
251.698	214.62
251.931	204.62
252.164	198.62
252.397	189.62
252.63	181.62
252.863	201.62
253.096	216.62
253.329	216.62
253.562	216.62
253.795	221.62
254.028	223.62
254.261	226.62
254.494	221.62
254.727	241.62
254.96	262.62
255.193	292.62
255.426	240.62
255.659	228.62
255.892	221.62
256.124	216.62
256.357	219.62
256.59	200.62
256.823	200.62
257.056	209.62
257.289	217.62
257.521	203.62
257.754	207.62
257.987	206.62
258.22	191.62
258.452	201.62
258.685	191.62
258.918	205.62
259.151	223.62
259.383	212.62
259.616	233.62
259.849	210.62
260.081	227.62
260.314	238.62
260.547	255.62
260.779	235.62
261.012	230.62
261.244	229.62
261.477	225.62
261.71	220.62
261.942	203.62
262.175	230.62
262.407	217.62
262.64	197.62
262.872	197.62
263.105	212.62
263.337	212.62
263.57	209.62
263.802	204.62
264.035	211.62
264.267	196.62
264.499	187.62
264.732	206.62
264.964	206.62
265.197	200.62
265.429	189.62
265.661	186.62
265.894	191.62
266.126	187.62
266.358	197.62
266.591	197.62
266.823	202.62
267.055	220.62
267.287	223.62
267.52	203.62
267.752	209.62
267.984	202.62
268.216	194.62
268.448	209.62
268.681	207.62
268.913	226.62
269.145	240.62
269.377	248.62
269.609	263.62
269.841	254.62
270.073	266.62
270.306	289.62
270.538	291.62
270.77	317.62
271.002	288.62
271.234	281.62
271.466	286.62
271.698	294.62
271.93	294.62
272.162	289.62
272.394	306.62
272.626	289.62
272.858	288.62
273.09	253.62
273.322	280.62
273.553	259.62
273.785	240.62
274.017	241.62
274.249	264.62
274.481	251.62
274.713	253.62
274.945	255.62
275.176	241.62
275.408	244.62
275.64	239.62
275.872	245.62
276.104	250.62
276.335	239.62
276.567	251.62
276.799	255.62
277.031	282.62
277.262	306.62
277.494	289.62
277.726	274.62
277.957	257.62
278.189	267.62
278.421	264.62
278.652	256.62
278.884	262.62
279.115	246.62
279.347	239.62
279.579	230.62
279.81	232.62
280.042	234.62
280.273	231.62
280.505	229.62
280.736	228.62
280.968	241.62
281.199	246.62
281.431	241.62
281.662	235.62
281.894	237.62
282.125	237.62
282.356	263.62
282.588	273.62
282.819	289.62
283.051	270.62
283.282	230.62
283.513	255.62
283.745	237.62
283.976	252.62
284.207	255.62
284.439	260.62
284.67	254.62
284.901	236.62
285.132	235.62
285.364	235.62
285.595	247.62
285.826	263.62
286.057	241.62
286.288	259.62
286.52	275.62
286.751	260.62
286.982	232.62
287.213	232.62
287.444	271.62
287.675	244.62
287.906	269.62
288.138	259.62
288.369	287.62
288.6	277.62
288.831	266.62
289.062	265.62
289.293	265.62
289.524	258.62
289.755	253.62
289.986	248.62
290.217	246.62
290.448	259.62
290.679	259.62
290.91	261.62
291.141	252.62
291.371	275.62
291.602	255.62
291.833	252.62
292.064	257.62
292.295	265.62
292.526	252.62
292.757	251.62
292.987	250.62
293.218	257.62
293.449	262.62
293.68	242.62
293.91	236.62
294.141	240.62
294.372	257.62
294.603	261.62
294.833	261.62
295.064	256.62
295.295	263.62
295.525	239.62
295.756	269.62
295.987	271.62
296.217	283.62
296.448	310.62
296.679	271.62
296.909	251.62
297.14	256.62
297.37	272.62
297.601	269.62
297.831	251.62
298.062	270.62
298.292	259.62
298.523	275.62
298.753	263.62
298.984	272.62
299.214	267.62
299.445	267.62
299.675	251.62
299.905	259.62
300.136	271.62
300.366	260.62
300.597	259.62
300.827	275.62
301.057	275.62
301.288	296.62
301.518	281.62
301.748	285.62
301.979	269.62
302.209	283.62
302.439	283.62
302.669	282.62
302.9	284.62
303.13	276.62
303.36	297.62
303.59	274.62
303.82	301.62
304.051	285.62
304.281	282.62
304.511	272.62
304.741	276.62
304.971	279.62
305.201	287.62
305.431	284.62
305.661	287.62
305.891	270.62
306.121	294.62
306.352	292.62
306.582	287.62
306.812	306.62
307.042	287.62
307.272	287.62
307.502	295.62
307.731	309.62
307.961	299.62
308.191	280.62
308.421	301.62
308.651	288.62
308.881	301.62
309.111	316.62
309.341	302.62
309.571	315.62
309.8	320.62
310.03	334.62
310.26	339.62
310.49	336.62
310.72	371.62
310.949	373.62
311.179	375.62
311.409	361.62
311.639	337.62
311.868	329.62
312.098	346.62
312.328	333.62
312.557	376.62
312.787	384.62
313.017	373.62
313.246	346.62
313.476	333.62
313.706	351.62
313.935	351.62
314.165	357.62
314.394	358.62
314.624	369.62
314.853	338.62
315.083	341.62
315.312	345.62
315.542	316.62
315.771	332.62
316.001	327.62
316.23	327.62
316.46	329.62
316.689	333.62
316.919	335.62
317.148	359.62
317.377	351.62
317.607	348.62
317.836	331.62
318.065	348.62
318.295	312.62
318.524	313.62
318.753	321.62
318.983	335.62
319.212	336.62
319.441	341.62
319.67	345.62
319.9	347.62
320.129	337.62
320.358	342.62
320.587	345.62
320.816	379.62
321.046	358.62
321.275	368.62
321.504	371.62
321.733	343.62
321.962	356.62
322.191	384.62
322.42	409.62
322.649	433.62
322.878	420.62
323.108	422.62
323.337	457.62
323.566	479.62
323.795	518.62
324.024	566.62
324.253	707.62
324.482	990.62
324.71	1519.62
324.939	2161.62
325.168	1914.62
325.397	1023.62
325.626	670.62
325.855	546.62
326.084	508.62
326.313	481.62
326.542	505.62
326.77	548.62
326.999	635.62
327.228	861.62
327.457	1303.62
327.686	1672.62
327.914	1126.62
328.143	751.62
328.372	616.62
328.6	587.62
328.829	558.62
329.058	541.62
329.287	566.62
329.515	538.62
329.744	489.62
329.972	459.62
330.201	494.62
330.43	497.62
330.658	561.62
330.887	588.62
331.115	575.62
331.344	492.62
331.572	456.62
331.801	453.62
332.03	442.62
332.258	417.62
332.486	423.62
332.715	385.62
332.943	381.62
333.172	391.62
333.4	386.62
333.629	390.62
333.857	412.62
334.085	429.62
334.314	402.62
334.542	418.62
334.771	419.62
334.999	412.62
335.227	372.62
335.455	401.62
335.684	381.62
335.912	387.62
336.14	373.62
336.369	380.62
336.597	406.62
336.825	399.62
337.053	387.62
337.281	373.62
337.51	371.62
337.738	383.62
337.966	375.62
338.194	395.62
338.422	399.62
338.65	390.62
338.878	370.62
339.106	365.62
339.334	364.62
339.562	357.62
339.79	361.62
340.018	371.62
340.246	356.62
340.474	375.62
340.702	389.62
340.93	392.62
341.158	376.62
341.386	367.62
341.614	378.62
341.842	381.62
342.07	373.62
342.298	363.62
342.526	359.62
342.754	361.62
342.981	357.62
343.209	332.62
343.437	368.62
343.665	360.62
343.893	365.62
344.12	374.62
344.348	364.62
344.576	370.62
344.804	375.62
345.031	395.62
345.259	398.62
345.487	399.62
345.714	396.62
345.942	365.62
346.17	369.62
346.397	368.62
346.625	368.62
346.853	360.62
347.08	363.62
347.308	375.62
347.535	390.62
347.763	361.62
347.99	381.62
348.218	387.62
348.445	386.62
348.673	368.62
348.9	377.62
349.128	343.62
349.355	342.62
349.583	350.62
349.81	348.62
350.037	331.62
350.265	344.62
350.492	340.62
350.72	333.62
350.947	344.62
351.174	369.62
351.402	374.62
351.629	357.62
351.856	371.62
352.083	377.62
352.311	372.62
352.538	394.62
352.765	396.62
352.992	370.62
353.22	391.62
353.447	344.62
353.674	342.62
353.901	336.62
354.128	356.62
354.355	348.62
354.583	329.62
354.81	333.62
355.037	317.62
355.264	340.62
355.491	322.62
355.718	305.62
355.945	317.62
356.172	344.62
356.399	321.62
356.626	314.62
356.853	326.62
357.08	334.62
357.307	326.62
357.534	332.62
357.761	338.62
357.988	333.62
358.215	317.62
358.441	330.62
358.668	328.62
358.895	342.62
359.122	336.62
359.349	338.62
359.576	367.62
359.802	377.62
360.029	401.62
360.256	436.62
360.483	413.62
360.709	379.62
360.936	364.62
361.163	364.62
361.39	376.62
361.616	358.62
361.843	353.62
362.07	348.62
362.296	371.62
362.523	354.62
362.749	369.62
362.976	359.62
363.203	359.62
363.429	340.62
363.656	351.62
363.882	342.62
364.109	334.62
364.335	345.62
364.562	333.62
364.788	329.62
365.015	350.62
365.241	353.62
365.468	363.62
365.694	337.62
365.92	357.62
366.147	336.62
366.373	330.62
366.599	321.62
366.826	337.62
367.052	333.62
367.278	334.62
367.505	341.62
367.731	333.62
367.957	353.62
368.184	333.62
368.41	334.62
368.636	351.62
368.862	351.62
369.089	337.62
369.315	328.62
369.541	339.62
369.767	327.62
369.993	339.62
370.219	329.62
370.445	339.62
370.672	341.62
370.898	327.62
371.124	333.62
371.35	314.62
371.576	312.62
371.802	335.62
372.028	320.62
372.254	325.62
372.48	334.62
372.706	325.62
372.932	345.62
373.158	343.62
373.384	336.62
373.61	325.62
373.835	340.62
374.061	351.62
374.287	343.62
374.513	343.62
374.739	336.62
374.965	339.62
375.191	332.62
375.416	317.62
375.642	318.62
375.868	334.62
376.094	338.62
376.319	335.62
376.545	337.62
376.771	329.62
376.997	319.62
377.222	317.62
377.448	324.62
377.674	309.62
377.899	329.62
378.125	335.62
378.35	338.62
378.576	331.62
378.802	311.62
379.027	328.62
379.253	317.62
379.478	333.62
379.704	332.62
379.929	321.62
380.155	326.62
380.38	328.62
380.606	330.62
380.831	323.62
381.057	326.62
381.282	327.62
381.507	320.62
381.733	320.62
381.958	346.62
382.184	308.62
382.409	326.62
382.634	319.62
382.86	331.62
383.085	339.62
383.31	338.62
383.535	310.62
383.761	329.62
383.986	338.62
384.211	341.62
384.436	344.62
384.662	329.62
384.887	359.62
385.112	350.62
385.337	341.62
385.562	328.62
385.787	341.62
386.013	372.62
386.238	367.62
386.463	357.62
386.688	343.62
386.913	341.62
387.138	335.62
387.363	363.62
387.588	350.62
387.813	336.62
388.038	341.62
388.263	332.62
388.488	340.62
388.713	346.62
388.938	355.62
389.163	357.62
389.387	342.62
389.612	328.62
389.837	342.62
390.062	335.62
390.287	351.62
390.512	334.62
390.736	347.62
390.961	352.62
391.186	355.62
391.411	350.62
391.636	353.62
391.86	349.62
392.085	339.62
392.31	352.62
392.534	339.62
392.759	372.62
392.984	341.62
393.208	351.62
393.433	345.62
393.658	330.62
393.882	328.62
394.107	341.62
394.331	349.62
394.556	345.62
394.78	345.62
395.005	336.62
395.229	325.62
395.454	344.62
395.678	347.62
395.903	367.62
396.127	364.62
396.352	379.62
396.576	376.62
396.801	353.62
397.025	355.62
397.249	367.62
397.474	352.62
397.698	358.62
397.922	363.62
398.147	387.62
398.371	402.62
398.595	385.62
398.82	370.62
399.044	372.62
399.268	397.62
399.492	402.62
399.717	431.62
399.941	436.62
400.165	487.62
400.389	475.62
400.613	410.62
400.837	404.62
401.062	393.62
401.286	389.62
401.51	398.62
401.734	377.62
401.958	383.62
402.182	387.62
402.406	423.62
402.63	398.62
402.854	400.62
403.078	372.62
403.302	392.62
403.526	406.62
403.75	417.62
403.974	393.62
404.198	410.62
404.422	391.62
404.645	397.62
404.869	391.62
405.093	421.62
405.317	453.62
405.541	456.62
405.765	444.62
405.988	424.62
406.212	448.62
406.436	441.62
406.66	466.62
406.883	461.62
407.107	464.62
407.331	505.62
407.555	559.62
407.778	543.62
408.002	489.62
408.226	473.62
408.449	449.62
408.673	449.62
408.896	455.62
409.12	508.62
409.344	472.62
409.567	437.62
409.791	420.62
410.014	422.62
410.238	429.62
410.461	408.62
410.685	417.62
410.908	418.62
411.132	456.62
411.355	482.62
411.578	468.62
411.802	433.62
412.025	410.62
412.249	409.62
412.472	403.62
412.695	411.62
412.919	418.62
413.142	393.62
413.365	409.62
413.589	392.62
413.812	364.62
414.035	393.62
414.258	403.62
414.482	378.62
414.705	421.62
414.928	381.62
415.151	375.62
415.374	371.62
415.597	374.62
415.821	380.62
416.044	388.62
416.267	380.62
416.49	388.62
416.713	380.62
416.936	388.62
417.159	373.62
417.382	373.62
417.605	393.62
417.828	406.62
418.051	405.62
418.274	431.62
418.497	401.62
418.72	402.62
418.943	381.62
419.166	389.62
419.389	415.62
419.611	402.62
419.834	383.62
420.057	395.62
420.28	397.62
420.503	416.62
420.726	394.62
420.948	400.62
421.171	460.62
421.394	480.62
421.617	423.62
421.839	411.62
422.062	389.62
422.285	424.62
422.507	468.62
422.73	528.62
422.953	544.62
423.175	449.62
423.398	424.62
423.621	453.62
423.843	465.62
424.066	463.62
424.288	456.62
424.511	479.62
424.733	543.62
424.956	588.62
425.178	585.62
425.401	560.62
425.623	561.62
425.846	497.62
426.068	452.62
426.291	462.62
426.513	479.62
426.735	480.62
426.958	519.62
427.18	589.62
427.402	666.62
427.625	781.62
427.847	681.62
428.069	558.62
428.292	503.62
428.514	470.62
428.736	463.62
428.958	429.62
429.181	425.62
429.403	434.62
429.625	447.62
429.847	478.62
430.069	492.62
430.292	518.62
430.514	445.62
430.736	438.62
430.958	407.62
431.18	405.62
431.402	392.62
431.624	376.62
431.846	382.62
432.068	376.62
432.29	407.62
432.512	395.62
432.734	403.62
432.956	401.62
433.178	393.62
433.4	409.62
433.622	413.62
433.844	423.62
434.066	405.62
434.287	386.62
434.509	390.62
434.731	401.62
434.953	373.62
435.175	411.62
435.397	426.62
435.618	468.62
435.84	482.62
436.062	573.62
436.284	651.62
436.505	546.62
436.727	466.62
436.949	442.62
437.17	440.62
437.392	421.62
437.614	448.62
437.835	500.62
438.057	569.62
438.278	646.62
438.5	676.62
438.721	704.62
438.943	691.62
439.165	535.62
439.386	492.62
439.608	486.62
439.829	480.62
440.05	500.62
440.272	519.62
440.493	509.62
440.715	450.62
440.936	447.62
441.158	450.62
441.379	417.62
441.6	444.62
441.822	465.62
442.043	492.62
442.264	565.62
442.486	593.62
442.707	532.62
442.928	471.62
443.149	481.62
443.371	505.62
443.592	539.62
443.813	631.62
444.034	669.62
444.255	563.62
444.476	457.62
444.698	473.62
444.919	460.62
445.14	538.62
445.361	482.62
445.582	504.62
445.803	550.62
446.024	649.62
446.245	651.62
446.466	598.62
446.687	519.62
446.908	462.62
447.129	453.62
447.35	445.62
447.571	435.62
447.792	418.62
448.013	407.62
448.234	445.62
448.455	501.62
448.675	595.62
448.896	670.62
449.117	575.62
449.338	563.62
449.559	635.62
449.779	728.62
450	625.62
450.221	484.62
450.442	458.62
450.662	443.62
450.883	437.62
451.104	480.62
451.324	420.62
451.545	418.62
451.766	407.62
451.986	396.62
452.207	399.62
452.428	359.62
452.648	368.62
452.869	387.62
453.089	405.62
453.31	405.62
453.53	398.62
453.751	396.62
453.971	378.62
454.192	411.62
454.412	407.62
454.633	391.62
454.853	384.62
455.073	385.62
455.294	405.62
455.514	477.62
455.734	458.62
455.955	397.62
456.175	360.62
456.395	367.62
456.616	347.62
456.836	349.62
457.056	352.62
457.276	343.62
457.497	336.62
457.717	340.62
457.937	351.62
458.157	357.62
458.377	368.62
458.598	393.62
458.818	452.62
459.038	547.62
459.258	541.62
459.478	453.62
459.698	392.62
459.918	386.62
460.138	397.62
460.358	384.62
460.578	387.62
460.798	376.62
461.018	391.62
461.238	409.62
461.458	383.62
461.678	370.62
461.898	375.62
462.118	360.62
462.338	387.62
462.558	394.62
462.777	402.62
462.997	389.62
463.217	393.62
463.437	394.62
463.657	390.62
463.876	392.62
464.096	403.62
464.316	399.62
464.536	420.62
464.755	384.62
464.975	422.62
465.195	496.62
465.414	569.62
465.634	484.62
465.854	437.62
466.073	434.62
466.293	401.62
466.512	388.62
466.732	375.62
466.951	371.62
467.171	390.62
467.391	387.62
467.61	388.62
467.829	391.62
468.049	391.62
468.268	391.62
468.488	369.62
468.707	380.62
468.927	377.62
469.146	362.62
469.365	379.62
469.585	378.62
469.804	385.62
470.023	379.62
470.243	365.62
470.462	398.62
470.681	437.62
470.901	416.62
471.12	395.62
471.339	377.62
471.558	388.62
471.777	392.62
471.997	377.62
472.216	377.62
472.435	386.62
472.654	382.62
472.873	383.62
473.092	377.62
473.311	388.62
473.53	383.62
473.749	414.62
473.968	460.62
474.187	530.62
474.406	575.62
474.625	462.62
474.844	415.62
475.063	382.62
475.282	408.62
475.501	400.62
475.72	415.62
475.939	399.62
476.158	417.62
476.377	388.62
476.596	384.62
476.814	421.62
477.033	416.62
477.252	423.62
477.471	407.62
477.69	408.62
477.908	411.62
478.127	439.62
478.346	419.62
478.564	431.62
478.783	436.62
479.002	443.62
479.22	439.62
479.439	439.62
479.658	458.62
479.876	482.62
480.095	479.62
480.313	519.62
480.532	486.62
480.751	470.62
480.969	457.62
481.188	512.62
481.406	532.62
481.624	469.62
481.843	463.62
482.061	443.62
482.28	463.62
482.498	473.62
482.717	445.62
482.935	457.62
483.153	436.62
483.372	469.62
483.59	437.62
483.808	454.62
484.027	468.62
484.245	455.62
484.463	455.62
484.681	461.62
484.9	469.62
485.118	458.62
485.336	456.62
485.554	477.62
485.772	468.62
485.99	475.62
486.209	476.62
486.427	472.62
486.645	507.62
486.863	515.62
487.081	536.62
487.299	514.62
487.517	509.62
487.735	485.62
487.953	477.62
488.171	477.62
488.389	502.62
488.607	486.62
488.825	506.62
489.043	508.62
489.261	503.62
489.479	513.62
489.696	505.62
489.914	515.62
490.132	496.62
490.35	503.62
490.568	519.62
490.786	535.62
491.003	546.62
491.221	549.62
491.439	566.62
491.657	555.62
491.874	557.62
492.092	561.62
492.31	563.62
492.527	567.62
492.745	597.62
492.963	585.62
493.18	590.62
493.398	595.62
493.615	586.62
493.833	580.62
494.05	590.62
494.268	609.62
494.485	577.62
494.703	578.62
494.92	595.62
495.138	600.62
495.355	612.62
495.573	591.62
495.79	598.62
496.008	604.62
496.225	588.62
496.442	616.62
496.66	595.62
496.877	602.62
497.094	583.62
497.312	583.62
497.529	597.62
497.746	622.62
497.963	610.62
498.181	623.62
498.398	619.62
498.615	643.62
498.832	653.62
499.049	663.62
499.267	647.62
499.484	662.62
499.701	659.62
499.918	708.62
500.135	710.62
500.352	727.62
500.569	725.62
500.786	719.62
501.003	746.62
501.22	723.62
501.437	723.62
501.654	711.62
501.871	715.62
502.088	697.62
