Data from 1986.PennyLincolnUp.Lamp.En5.5.200Scan.071819.P2_HRD10591_17-09-40-974.txt Node
Date: Thu Jul 18 17:09:40 EDT 2019
User: cochatt
Spectrometer: HR+D1059
Trigger mode: 1
Integration Time (sec): 1.000000E-1
Scans to average: 1
Electric dark correction enabled: true
Nonlinearity correction enabled: false
Boxcar width: 0
XAxis mode: Wavelengths
Number of Pixels in Spectrum: 2048
>>>>>Begin Spectral Data<<<<<
223.165	-13.38
223.4	-13.38
223.635	-13.38
223.869	-16.38
224.104	-18.38
224.338	-16.38
224.573	-9.38
224.808	-13.38
225.042	-21.38
225.277	-6.38
225.511	-7.38
225.746	15.62
225.98	8.62
226.215	13.62
226.449	12.62
226.683	15.62
226.918	27.62
227.152	28.62
227.387	36.62
227.621	27.62
227.856	31.62
228.09	34.62
228.324	55.62
228.559	73.62
228.793	73.62
229.027	78.62
229.262	88.62
229.496	110.62
229.73	108.62
229.964	127.62
230.199	116.62
230.433	89.62
230.667	99.62
230.901	106.62
231.136	92.62
231.37	94.62
231.604	102.62
231.838	84.62
232.072	102.62
232.306	106.62
232.541	93.62
232.775	115.62
233.009	108.62
233.243	89.62
233.477	110.62
233.711	119.62
233.945	126.62
234.179	129.62
234.413	110.62
234.647	112.62
234.881	102.62
235.115	99.62
235.349	112.62
235.583	121.62
235.817	109.62
236.051	106.62
236.285	130.62
236.519	124.62
236.753	121.62
236.987	127.62
237.221	169.62
237.455	188.62
237.689	161.62
237.922	136.62
238.156	123.62
238.39	111.62
238.624	123.62
238.858	116.62
239.091	112.62
239.325	118.62
239.559	118.62
239.793	121.62
240.027	124.62
240.26	123.62
240.494	150.62
240.728	126.62
240.961	127.62
241.195	145.62
241.429	138.62
241.662	127.62
241.896	119.62
242.13	120.62
242.363	126.62
242.597	129.62
242.83	136.62
243.064	124.62
243.298	122.62
243.531	128.62
243.765	118.62
243.998	122.62
244.232	122.62
244.465	128.62
244.699	142.62
244.932	128.62
245.166	116.62
245.399	116.62
245.633	144.62
245.866	146.62
246.099	131.62
246.333	127.62
246.566	125.62
246.8	134.62
247.033	129.62
247.266	152.62
247.5	128.62
247.733	154.62
247.966	156.62
248.2	154.62
248.433	174.62
248.666	152.62
248.899	158.62
249.133	161.62
249.366	167.62
249.599	165.62
249.832	167.62
250.066	165.62
250.299	156.62
250.532	159.62
250.765	198.62
250.998	217.62
251.231	201.62
251.465	191.62
251.698	194.62
251.931	164.62
252.164	175.62
252.397	172.62
252.63	185.62
252.863	188.62
253.096	186.62
253.329	189.62
253.562	205.62
253.795	195.62
254.028	194.62
254.261	203.62
254.494	201.62
254.727	213.62
254.96	228.62
255.193	220.62
255.426	199.62
255.659	196.62
255.892	194.62
256.124	201.62
256.357	200.62
256.59	195.62
256.823	173.62
257.056	201.62
257.289	184.62
257.521	185.62
257.754	178.62
257.987	176.62
258.22	169.62
258.452	188.62
258.685	169.62
258.918	184.62
259.151	184.62
259.383	183.62
259.616	212.62
259.849	204.62
260.081	192.62
260.314	230.62
260.547	214.62
260.779	202.62
261.012	207.62
261.244	202.62
261.477	202.62
261.71	199.62
261.942	200.62
262.175	224.62
262.407	198.62
262.64	183.62
262.872	188.62
263.105	185.62
263.337	184.62
263.57	187.62
263.802	189.62
264.035	199.62
264.267	184.62
264.499	185.62
264.732	184.62
264.964	182.62
265.197	196.62
265.429	187.62
265.661	165.62
265.894	182.62
266.126	161.62
266.358	196.62
266.591	184.62
266.823	178.62
267.055	180.62
267.287	182.62
267.52	167.62
267.752	195.62
267.984	192.62
268.216	184.62
268.448	194.62
268.681	192.62
268.913	204.62
269.145	209.62
269.377	217.62
269.609	224.62
269.841	232.62
270.073	232.62
270.306	226.62
270.538	252.62
270.77	235.62
271.002	262.62
271.234	239.62
271.466	250.62
271.698	236.62
271.93	241.62
272.162	256.62
272.394	267.62
272.626	267.62
272.858	218.62
273.09	226.62
273.322	240.62
273.553	225.62
273.785	206.62
274.017	200.62
274.249	220.62
274.481	213.62
274.713	211.62
274.945	194.62
275.176	220.62
275.408	230.62
275.64	205.62
275.872	207.62
276.104	214.62
276.335	206.62
276.567	213.62
276.799	234.62
277.031	241.62
277.262	248.62
277.494	255.62
277.726	240.62
277.957	241.62
278.189	221.62
278.421	226.62
278.652	220.62
278.884	204.62
279.115	200.62
279.347	222.62
279.579	223.62
279.81	229.62
280.042	235.62
280.273	228.62
280.505	249.62
280.736	223.62
280.968	213.62
281.199	206.62
281.431	231.62
281.662	215.62
281.894	216.62
282.125	209.62
282.356	224.62
282.588	230.62
282.819	246.62
283.051	232.62
283.282	206.62
283.513	223.62
283.745	225.62
283.976	225.62
284.207	218.62
284.439	225.62
284.67	207.62
284.901	218.62
285.132	216.62
285.364	223.62
285.595	239.62
285.826	222.62
286.057	225.62
286.288	213.62
286.52	213.62
286.751	207.62
286.982	221.62
287.213	225.62
287.444	244.62
287.675	221.62
287.906	207.62
288.138	247.62
288.369	247.62
288.6	246.62
288.831	227.62
289.062	229.62
289.293	228.62
289.524	226.62
289.755	211.62
289.986	226.62
290.217	226.62
290.448	226.62
290.679	225.62
290.91	227.62
291.141	231.62
291.371	241.62
291.602	238.62
291.833	215.62
292.064	220.62
292.295	229.62
292.526	246.62
292.757	219.62
292.987	230.62
293.218	213.62
293.449	223.62
293.68	229.62
293.91	244.62
294.141	223.62
294.372	219.62
294.603	215.62
294.833	219.62
295.064	220.62
295.295	225.62
295.525	217.62
295.756	232.62
295.987	253.62
296.217	246.62
296.448	261.62
296.679	250.62
296.909	235.62
297.14	242.62
297.37	234.62
297.601	235.62
297.831	233.62
298.062	237.62
298.292	226.62
298.523	232.62
298.753	229.62
298.984	223.62
299.214	245.62
299.445	222.62
299.675	240.62
299.905	241.62
300.136	238.62
300.366	247.62
300.597	230.62
300.827	232.62
301.057	254.62
301.288	256.62
301.518	238.62
301.748	235.62
301.979	237.62
302.209	250.62
302.439	237.62
302.669	250.62
302.9	256.62
303.13	244.62
303.36	244.62
303.59	235.62
303.82	232.62
304.051	252.62
304.281	247.62
304.511	239.62
304.741	248.62
304.971	250.62
305.201	250.62
305.431	253.62
305.661	261.62
305.891	268.62
306.121	255.62
306.352	258.62
306.582	253.62
306.812	248.62
307.042	252.62
307.272	267.62
307.502	268.62
307.731	236.62
307.961	253.62
308.191	255.62
308.421	263.62
308.651	259.62
308.881	252.62
309.111	264.62
309.341	255.62
309.571	273.62
309.8	287.62
310.03	301.62
310.26	278.62
310.49	305.62
310.72	293.62
310.949	300.62
311.179	306.62
311.409	286.62
311.639	287.62
311.868	270.62
312.098	289.62
312.328	292.62
312.557	305.62
312.787	297.62
313.017	326.62
313.246	305.62
313.476	290.62
313.706	290.62
313.935	295.62
314.165	294.62
314.394	289.62
314.624	290.62
314.853	282.62
315.083	292.62
315.312	290.62
315.542	298.62
315.771	278.62
316.001	291.62
316.23	301.62
316.46	282.62
316.689	302.62
316.919	300.62
317.148	313.62
317.377	305.62
317.607	306.62
317.836	309.62
318.065	286.62
318.295	290.62
318.524	279.62
318.753	279.62
318.983	293.62
319.212	297.62
319.441	281.62
319.67	285.62
319.9	293.62
320.129	293.62
320.358	288.62
320.587	278.62
320.816	287.62
321.046	294.62
321.275	292.62
321.504	284.62
321.733	301.62
321.962	313.62
322.191	319.62
322.42	317.62
322.649	342.62
322.878	346.62
323.108	347.62
323.337	358.62
323.566	378.62
323.795	392.62
324.024	424.62
324.253	509.62
324.482	717.62
324.71	1055.62
324.939	1528.62
325.168	1358.62
325.397	727.62
325.626	481.62
325.855	395.62
326.084	378.62
326.313	383.62
326.542	370.62
326.77	402.62
326.999	477.62
327.228	629.62
327.457	928.62
327.686	1167.62
327.914	807.62
328.143	528.62
328.372	449.62
328.6	438.62
328.829	397.62
329.058	401.62
329.287	399.62
329.515	401.62
329.744	369.62
329.972	367.62
330.201	360.62
330.43	380.62
330.658	436.62
330.887	448.62
331.115	447.62
331.344	388.62
331.572	363.62
331.801	353.62
332.03	373.62
332.258	352.62
332.486	337.62
332.715	321.62
332.943	343.62
333.172	323.62
333.4	334.62
333.629	337.62
333.857	333.62
334.085	349.62
334.314	337.62
334.542	354.62
334.771	348.62
334.999	336.62
335.227	349.62
335.455	314.62
335.684	334.62
335.912	309.62
336.14	329.62
336.369	312.62
336.597	324.62
336.825	322.62
337.053	336.62
337.281	326.62
337.51	329.62
337.738	336.62
337.966	327.62
338.194	337.62
338.422	336.62
338.65	305.62
338.878	320.62
339.106	322.62
339.334	298.62
339.562	299.62
339.79	305.62
340.018	301.62
340.246	313.62
340.474	319.62
340.702	333.62
340.93	325.62
341.158	331.62
341.386	320.62
341.614	319.62
341.842	314.62
342.07	313.62
342.298	329.62
342.526	323.62
342.754	298.62
342.981	316.62
343.209	296.62
343.437	318.62
343.665	308.62
343.893	324.62
344.12	336.62
344.348	318.62
344.576	310.62
344.804	320.62
345.031	326.62
345.259	313.62
345.487	328.62
345.714	331.62
345.942	321.62
346.17	315.62
346.397	297.62
346.625	302.62
346.853	326.62
347.08	308.62
347.308	296.62
347.535	331.62
347.763	306.62
347.99	319.62
348.218	324.62
348.445	319.62
348.673	319.62
348.9	314.62
349.128	297.62
349.355	301.62
349.583	300.62
349.81	301.62
350.037	290.62
350.265	301.62
350.492	297.62
350.72	303.62
350.947	325.62
351.174	289.62
351.402	314.62
351.629	309.62
351.856	317.62
352.083	312.62
352.311	334.62
352.538	332.62
352.765	326.62
352.992	332.62
353.22	314.62
353.447	308.62
353.674	321.62
353.901	308.62
354.128	300.62
354.355	292.62
354.583	295.62
354.81	312.62
355.037	296.62
355.264	289.62
355.491	293.62
355.718	294.62
355.945	300.62
356.172	272.62
356.399	285.62
356.626	287.62
356.853	298.62
357.08	289.62
357.307	285.62
357.534	290.62
357.761	277.62
357.988	285.62
358.215	296.62
358.441	293.62
358.668	301.62
358.895	297.62
359.122	294.62
359.349	300.62
359.576	315.62
359.802	310.62
360.029	335.62
360.256	364.62
360.483	342.62
360.709	322.62
360.936	304.62
361.163	304.62
361.39	314.62
361.616	302.62
361.843	332.62
362.07	306.62
362.296	302.62
362.523	296.62
362.749	308.62
362.976	297.62
363.203	294.62
363.429	302.62
363.656	297.62
363.882	283.62
364.109	315.62
364.335	291.62
364.562	295.62
364.788	294.62
365.015	292.62
365.241	309.62
365.468	304.62
365.694	318.62
365.92	305.62
366.147	294.62
366.373	293.62
366.599	289.62
366.826	298.62
367.052	296.62
367.278	285.62
367.505	300.62
367.731	317.62
367.957	300.62
368.184	294.62
368.41	315.62
368.636	312.62
368.862	312.62
369.089	281.62
369.315	286.62
369.541	289.62
369.767	296.62
369.993	289.62
370.219	301.62
370.445	296.62
370.672	296.62
370.898	285.62
371.124	302.62
371.35	286.62
371.576	299.62
371.802	311.62
372.028	282.62
372.254	301.62
372.48	298.62
372.706	310.62
372.932	292.62
373.158	299.62
373.384	298.62
373.61	301.62
373.835	289.62
374.061	286.62
374.287	301.62
374.513	301.62
374.739	301.62
374.965	305.62
375.191	305.62
375.416	318.62
375.642	315.62
375.868	319.62
376.094	288.62
376.319	296.62
376.545	302.62
376.771	270.62
376.997	307.62
377.222	292.62
377.448	301.62
377.674	293.62
377.899	295.62
378.125	295.62
378.35	279.62
378.576	296.62
378.802	300.62
379.027	303.62
379.253	302.62
379.478	290.62
379.704	297.62
379.929	308.62
380.155	301.62
380.38	301.62
380.606	296.62
380.831	287.62
381.057	303.62
381.282	311.62
381.507	300.62
381.733	300.62
381.958	301.62
382.184	294.62
382.409	302.62
382.634	315.62
382.86	301.62
383.085	286.62
383.31	303.62
383.535	292.62
383.761	305.62
383.986	292.62
384.211	293.62
384.436	301.62
384.662	288.62
384.887	303.62
385.112	315.62
385.337	314.62
385.562	304.62
385.787	312.62
386.013	314.62
386.238	347.62
386.463	326.62
386.688	333.62
386.913	316.62
387.138	298.62
387.363	314.62
387.588	309.62
387.813	305.62
388.038	320.62
388.263	318.62
388.488	322.62
388.713	305.62
388.938	318.62
389.163	327.62
389.387	327.62
389.612	316.62
389.837	318.62
390.062	309.62
390.287	317.62
390.512	297.62
390.736	304.62
390.961	323.62
391.186	308.62
391.411	291.62
391.636	308.62
391.86	316.62
392.085	321.62
392.31	303.62
392.534	334.62
392.759	318.62
392.984	320.62
393.208	315.62
393.433	347.62
393.658	347.62
393.882	320.62
394.107	321.62
394.331	321.62
394.556	330.62
394.78	329.62
395.005	320.62
395.229	298.62
395.454	317.62
395.678	315.62
395.903	330.62
396.127	341.62
396.352	337.62
396.576	344.62
396.801	340.62
397.025	339.62
397.249	313.62
397.474	346.62
397.698	334.62
397.922	331.62
398.147	338.62
398.371	346.62
398.595	337.62
398.82	333.62
399.044	341.62
399.268	355.62
399.492	382.62
399.717	401.62
399.941	406.62
400.165	420.62
400.389	426.62
400.613	392.62
400.837	368.62
401.062	368.62
401.286	363.62
401.51	338.62
401.734	341.62
401.958	358.62
402.182	363.62
402.406	363.62
402.63	359.62
402.854	344.62
403.078	353.62
403.302	356.62
403.526	374.62
403.75	366.62
403.974	339.62
404.198	376.62
404.422	362.62
404.645	345.62
404.869	349.62
405.093	374.62
405.317	386.62
405.541	416.62
405.765	391.62
405.988	392.62
406.212	395.62
406.436	393.62
406.66	401.62
406.883	377.62
407.107	416.62
407.331	445.62
407.555	481.62
407.778	502.62
408.002	449.62
408.226	396.62
408.449	391.62
408.673	408.62
408.896	432.62
409.12	458.62
409.344	428.62
409.567	388.62
409.791	382.62
410.014	379.62
410.238	353.62
410.461	367.62
410.685	359.62
410.908	375.62
411.132	408.62
411.355	430.62
411.578	399.62
411.802	367.62
412.025	372.62
412.249	360.62
412.472	366.62
412.695	365.62
412.919	384.62
413.142	348.62
413.365	356.62
413.589	362.62
413.812	336.62
414.035	346.62
414.258	332.62
414.482	338.62
414.705	340.62
414.928	346.62
415.151	359.62
415.374	349.62
415.597	336.62
415.821	323.62
416.044	340.62
416.267	336.62
416.49	345.62
416.713	338.62
416.936	348.62
417.159	343.62
417.382	344.62
417.605	333.62
417.828	369.62
418.051	363.62
418.274	343.62
418.497	341.62
418.72	350.62
418.943	362.62
419.166	346.62
419.389	366.62
419.611	362.62
419.834	351.62
420.057	352.62
420.28	359.62
420.503	356.62
420.726	337.62
420.948	367.62
421.171	414.62
421.394	424.62
421.617	377.62
421.839	353.62
422.062	364.62
422.285	359.62
422.507	412.62
422.73	482.62
422.953	465.62
423.175	394.62
423.398	375.62
423.621	384.62
423.843	398.62
424.066	401.62
424.288	412.62
424.511	409.62
424.733	448.62
424.956	528.62
425.178	493.62
425.401	493.62
425.623	501.62
425.846	430.62
426.068	417.62
426.291	404.62
426.513	410.62
426.735	413.62
426.958	446.62
427.18	504.62
427.402	568.62
427.625	651.62
427.847	574.62
428.069	481.62
428.292	416.62
428.514	390.62
428.736	383.62
428.958	384.62
429.181	376.62
429.403	380.62
429.625	377.62
429.847	383.62
430.069	462.62
430.292	448.62
430.514	382.62
430.736	372.62
430.958	381.62
431.18	359.62
431.402	354.62
431.624	329.62
431.846	346.62
432.068	347.62
432.29	333.62
432.512	353.62
432.734	362.62
432.956	337.62
433.178	360.62
433.4	355.62
433.622	352.62
433.844	343.62
434.066	356.62
434.287	333.62
434.509	340.62
434.731	378.62
434.953	372.62
435.175	376.62
435.397	394.62
435.618	387.62
435.84	433.62
436.062	502.62
436.284	527.62
436.505	460.62
436.727	403.62
436.949	408.62
437.17	395.62
437.392	381.62
437.614	373.62
437.835	400.62
438.057	481.62
438.278	569.62
438.5	548.62
438.721	576.62
438.943	562.62
439.165	474.62
439.386	392.62
439.608	405.62
439.829	408.62
440.05	427.62
440.272	450.62
440.493	433.62
440.715	393.62
440.936	384.62
441.158	392.62
441.379	377.62
441.6	402.62
441.822	403.62
442.043	434.62
442.264	464.62
442.486	516.62
442.707	441.62
442.928	412.62
443.149	408.62
443.371	439.62
443.592	470.62
443.813	524.62
444.034	561.62
444.255	485.62
444.476	404.62
444.698	406.62
444.919	408.62
445.14	496.62
445.361	477.62
445.582	459.62
445.803	459.62
446.024	535.62
446.245	569.62
446.466	508.62
446.687	457.62
446.908	394.62
447.129	370.62
447.35	384.62
447.571	364.62
447.792	364.62
448.013	381.62
448.234	394.62
448.455	431.62
448.675	523.62
448.896	591.62
449.117	522.62
449.338	492.62
449.559	570.62
449.779	640.62
450	511.62
450.221	423.62
450.442	404.62
450.662	384.62
450.883	389.62
451.104	384.62
451.324	381.62
451.545	360.62
451.766	356.62
451.986	335.62
452.207	354.62
452.428	331.62
452.648	338.62
452.869	340.62
453.089	325.62
453.31	352.62
453.53	329.62
453.751	342.62
453.971	328.62
454.192	367.62
454.412	351.62
454.633	338.62
454.853	324.62
455.073	342.62
455.294	356.62
455.514	422.62
455.734	394.62
455.955	340.62
456.175	335.62
456.395	332.62
456.616	310.62
456.836	347.62
457.056	306.62
457.276	308.62
457.497	320.62
457.717	329.62
457.937	307.62
458.157	309.62
458.377	306.62
458.598	332.62
458.818	392.62
459.038	449.62
459.258	427.62
459.478	382.62
459.698	360.62
459.918	356.62
460.138	350.62
460.358	344.62
460.578	338.62
460.798	337.62
461.018	365.62
461.238	337.62
461.458	340.62
461.678	328.62
461.898	324.62
462.118	342.62
462.338	346.62
462.558	361.62
462.777	357.62
462.997	356.62
463.217	370.62
463.437	379.62
463.657	368.62
463.876	382.62
464.096	349.62
464.316	358.62
464.536	379.62
464.755	362.62
464.975	359.62
465.195	407.62
465.414	444.62
465.634	400.62
465.854	402.62
466.073	376.62
466.293	368.62
466.512	348.62
466.732	343.62
466.951	336.62
467.171	344.62
467.391	325.62
467.61	332.62
467.829	355.62
468.049	347.62
468.268	334.62
468.488	321.62
468.707	327.62
468.927	333.62
469.146	320.62
469.365	330.62
469.585	320.62
469.804	327.62
470.023	348.62
470.243	340.62
470.462	334.62
470.681	354.62
470.901	352.62
471.12	341.62
471.339	340.62
471.558	317.62
471.777	328.62
471.997	324.62
472.216	322.62
472.435	332.62
472.654	324.62
472.873	312.62
473.092	341.62
473.311	326.62
473.53	329.62
473.749	354.62
473.968	391.62
474.187	458.62
474.406	465.62
474.625	386.62
474.844	366.62
475.063	357.62
475.282	330.62
475.501	342.62
475.72	353.62
475.939	378.62
476.158	364.62
476.377	376.62
476.596	380.62
476.814	369.62
477.033	374.62
477.252	342.62
477.471	353.62
477.69	370.62
477.908	376.62
478.127	388.62
478.346	351.62
478.564	370.62
478.783	380.62
479.002	392.62
479.22	395.62
479.439	388.62
479.658	409.62
479.876	409.62
480.095	415.62
480.313	414.62
480.532	416.62
480.751	420.62
480.969	432.62
481.188	426.62
481.406	415.62
481.624	410.62
481.843	406.62
482.061	390.62
482.28	391.62
482.498	390.62
482.717	387.62
482.935	410.62
483.153	386.62
483.372	397.62
483.59	406.62
483.808	396.62
484.027	397.62
484.245	413.62
484.463	419.62
484.681	431.62
484.9	408.62
485.118	412.62
485.336	417.62
485.554	412.62
485.772	416.62
485.99	424.62
486.209	396.62
486.427	416.62
486.645	416.62
486.863	427.62
487.081	414.62
487.299	439.62
487.517	436.62
487.735	431.62
487.953	429.62
488.171	420.62
488.389	428.62
488.607	425.62
488.825	423.62
489.043	426.62
489.261	424.62
489.479	434.62
489.696	440.62
489.914	449.62
490.132	441.62
490.35	438.62
490.568	448.62
490.786	462.62
491.003	461.62
491.221	471.62
491.439	495.62
491.657	490.62
491.874	477.62
492.092	486.62
492.31	504.62
492.527	494.62
492.745	484.62
492.963	473.62
493.18	519.62
493.398	512.62
493.615	526.62
493.833	501.62
494.05	505.62
494.268	481.62
494.485	500.62
494.703	487.62
494.92	502.62
495.138	497.62
495.355	514.62
495.573	517.62
495.79	500.62
496.008	493.62
496.225	507.62
496.442	516.62
496.66	506.62
496.877	515.62
497.094	505.62
497.312	518.62
497.529	522.62
497.746	537.62
497.963	544.62
498.181	543.62
498.398	553.62
498.615	559.62
498.832	553.62
499.049	582.62
499.267	562.62
499.484	572.62
499.701	621.62
499.918	619.62
500.135	606.62
500.352	637.62
500.569	661.62
500.786	689.62
501.003	648.62
501.22	632.62
501.437	630.62
501.654	645.62
501.871	637.62
502.088	604.62
