Data from 1986.PennyLincolnUp.Lamp.En5.5.200Scan.071819.P2_HRD10591_17-11-13-973.txt Node
Date: Thu Jul 18 17:11:13 EDT 2019
User: cochatt
Spectrometer: HR+D1059
Trigger mode: 1
Integration Time (sec): 1.000000E-1
Scans to average: 1
Electric dark correction enabled: true
Nonlinearity correction enabled: false
Boxcar width: 0
XAxis mode: Wavelengths
Number of Pixels in Spectrum: 2048
>>>>>Begin Spectral Data<<<<<
223.165	-23.5
223.4	-23.5
223.635	-23.5
223.869	-18.5
224.104	-19.5
224.338	-9.5
224.573	-8.5
224.808	-2.5
225.042	6.5
225.277	1.5
225.511	0.5
225.746	-0.5
225.98	8.5
226.215	4.5
226.449	4.5
226.683	4.5
226.918	21.5
227.152	30.5
227.387	16.5
227.621	25.5
227.856	44.5
228.09	42.5
228.324	54.5
228.559	65.5
228.793	60.5
229.027	113.5
229.262	117.5
229.496	124.5
229.73	133.5
229.964	173.5
230.199	134.5
230.433	101.5
230.667	100.5
230.901	118.5
231.136	116.5
231.37	118.5
231.604	108.5
231.838	101.5
232.072	114.5
232.306	106.5
232.541	104.5
232.775	112.5
233.009	119.5
233.243	131.5
233.477	104.5
233.711	116.5
233.945	120.5
234.179	112.5
234.413	125.5
234.647	112.5
234.881	128.5
235.115	109.5
235.349	121.5
235.583	104.5
235.817	107.5
236.051	124.5
236.285	130.5
236.519	116.5
236.753	125.5
236.987	128.5
237.221	190.5
237.455	231.5
237.689	190.5
237.922	136.5
238.156	134.5
238.39	131.5
238.624	128.5
238.858	132.5
239.091	125.5
239.325	121.5
239.559	135.5
239.793	134.5
240.027	120.5
240.26	132.5
240.494	149.5
240.728	173.5
240.961	135.5
241.195	153.5
241.429	148.5
241.662	140.5
241.896	128.5
242.13	134.5
242.363	152.5
242.597	128.5
242.83	140.5
243.064	144.5
243.298	145.5
243.531	132.5
243.765	155.5
243.998	155.5
244.232	150.5
244.465	161.5
244.699	148.5
244.932	158.5
245.166	146.5
245.399	146.5
245.633	140.5
245.866	152.5
246.099	152.5
246.333	155.5
246.566	160.5
246.8	161.5
247.033	165.5
247.266	165.5
247.5	168.5
247.733	166.5
247.966	197.5
248.2	180.5
248.433	170.5
248.666	178.5
248.899	197.5
249.133	203.5
249.366	220.5
249.599	225.5
249.832	206.5
250.066	188.5
250.299	189.5
250.532	211.5
250.765	229.5
250.998	235.5
251.231	243.5
251.465	245.5
251.698	235.5
251.931	212.5
252.164	223.5
252.397	215.5
252.63	210.5
252.863	225.5
253.096	225.5
253.329	259.5
253.562	244.5
253.795	235.5
254.028	242.5
254.261	228.5
254.494	252.5
254.727	284.5
254.96	298.5
255.193	290.5
255.426	280.5
255.659	264.5
255.892	270.5
256.124	273.5
256.357	282.5
256.59	265.5
256.823	257.5
257.056	259.5
257.289	234.5
257.521	210.5
257.754	221.5
257.987	209.5
258.22	213.5
258.452	222.5
258.685	231.5
258.918	220.5
259.151	225.5
259.383	255.5
259.616	236.5
259.849	248.5
260.081	234.5
260.314	245.5
260.547	264.5
260.779	259.5
261.012	238.5
261.244	236.5
261.477	235.5
261.71	221.5
261.942	235.5
262.175	245.5
262.407	246.5
262.64	216.5
262.872	230.5
263.105	226.5
263.337	204.5
263.57	218.5
263.802	219.5
264.035	223.5
264.267	209.5
264.499	217.5
264.732	211.5
264.964	215.5
265.197	241.5
265.429	214.5
265.661	236.5
265.894	216.5
266.126	236.5
266.358	217.5
266.591	222.5
266.823	217.5
267.055	213.5
267.287	230.5
267.52	227.5
267.752	224.5
267.984	224.5
268.216	222.5
268.448	229.5
268.681	242.5
268.913	249.5
269.145	249.5
269.377	273.5
269.609	289.5
269.841	266.5
270.073	289.5
270.306	316.5
270.538	337.5
270.77	325.5
271.002	291.5
271.234	309.5
271.466	300.5
271.698	310.5
271.93	339.5
272.162	322.5
272.394	328.5
272.626	308.5
272.858	316.5
273.09	298.5
273.322	284.5
273.553	279.5
273.785	249.5
274.017	263.5
274.249	284.5
274.481	262.5
274.713	265.5
274.945	268.5
275.176	279.5
275.408	278.5
275.64	282.5
275.872	267.5
276.104	290.5
276.335	289.5
276.567	279.5
276.799	293.5
277.031	317.5
277.262	320.5
277.494	344.5
277.726	294.5
277.957	303.5
278.189	289.5
278.421	267.5
278.652	264.5
278.884	275.5
279.115	277.5
279.347	259.5
279.579	267.5
279.81	268.5
280.042	272.5
280.273	266.5
280.505	258.5
280.736	265.5
280.968	272.5
281.199	247.5
281.431	265.5
281.662	236.5
281.894	257.5
282.125	270.5
282.356	295.5
282.588	304.5
282.819	311.5
283.051	267.5
283.282	267.5
283.513	245.5
283.745	268.5
283.976	274.5
284.207	276.5
284.439	289.5
284.67	272.5
284.901	294.5
285.132	277.5
285.364	264.5
285.595	269.5
285.826	271.5
286.057	290.5
286.288	259.5
286.52	259.5
286.751	277.5
286.982	257.5
287.213	268.5
287.444	274.5
287.675	294.5
287.906	293.5
288.138	304.5
288.369	313.5
288.6	324.5
288.831	284.5
289.062	285.5
289.293	274.5
289.524	283.5
289.755	294.5
289.986	277.5
290.217	282.5
290.448	280.5
290.679	275.5
290.91	274.5
291.141	289.5
291.371	277.5
291.602	294.5
291.833	282.5
292.064	307.5
292.295	284.5
292.526	272.5
292.757	274.5
292.987	294.5
293.218	266.5
293.449	296.5
293.68	274.5
293.91	250.5
294.141	260.5
294.372	285.5
294.603	269.5
294.833	291.5
295.064	276.5
295.295	278.5
295.525	291.5
295.756	298.5
295.987	278.5
296.217	330.5
296.448	343.5
296.679	305.5
296.909	284.5
297.14	279.5
297.37	296.5
297.601	293.5
297.831	282.5
298.062	291.5
298.292	292.5
298.523	300.5
298.753	289.5
298.984	283.5
299.214	281.5
299.445	284.5
299.675	286.5
299.905	304.5
300.136	285.5
300.366	289.5
300.597	270.5
300.827	306.5
301.057	318.5
301.288	315.5
301.518	329.5
301.748	322.5
301.979	296.5
302.209	312.5
302.439	306.5
302.669	308.5
302.9	323.5
303.13	303.5
303.36	308.5
303.59	327.5
303.82	336.5
304.051	333.5
304.281	295.5
304.511	308.5
304.741	304.5
304.971	329.5
305.201	319.5
305.431	318.5
305.661	304.5
305.891	314.5
306.121	316.5
306.352	333.5
306.582	317.5
306.812	316.5
307.042	320.5
307.272	321.5
307.502	328.5
307.731	309.5
307.961	331.5
308.191	318.5
308.421	312.5
308.651	323.5
308.881	327.5
309.111	342.5
309.341	349.5
309.571	342.5
309.8	351.5
310.03	373.5
310.26	372.5
310.49	378.5
310.72	379.5
310.949	375.5
311.179	396.5
311.409	361.5
311.639	372.5
311.868	374.5
312.098	373.5
312.328	393.5
312.557	399.5
312.787	400.5
313.017	397.5
313.246	392.5
313.476	368.5
313.706	376.5
313.935	383.5
314.165	379.5
314.394	398.5
314.624	401.5
314.853	372.5
315.083	375.5
315.312	376.5
315.542	362.5
315.771	353.5
316.001	365.5
316.23	354.5
316.46	353.5
316.689	389.5
316.919	388.5
317.148	380.5
317.377	396.5
317.607	388.5
317.836	370.5
318.065	372.5
318.295	381.5
318.524	367.5
318.753	357.5
318.983	372.5
319.212	382.5
319.441	373.5
319.67	403.5
319.9	372.5
320.129	374.5
320.358	370.5
320.587	370.5
320.816	387.5
321.046	390.5
321.275	394.5
321.504	379.5
321.733	408.5
321.962	416.5
322.191	437.5
322.42	433.5
322.649	464.5
322.878	468.5
323.108	490.5
323.337	524.5
323.566	534.5
323.795	555.5
324.024	626.5
324.253	770.5
324.482	1101.5
324.71	1701.5
324.939	2368.5
325.168	2096.5
325.397	1101.5
325.626	732.5
325.855	606.5
326.084	577.5
326.313	555.5
326.542	536.5
326.77	606.5
326.999	709.5
327.228	972.5
327.457	1445.5
327.686	1837.5
327.914	1241.5
328.143	841.5
328.372	719.5
328.6	658.5
328.829	629.5
329.058	621.5
329.287	624.5
329.515	601.5
329.744	549.5
329.972	574.5
330.201	625.5
330.43	651.5
330.658	689.5
330.887	696.5
331.115	636.5
331.344	571.5
331.572	528.5
331.801	511.5
332.03	521.5
332.258	491.5
332.486	443.5
332.715	469.5
332.943	441.5
333.172	451.5
333.4	446.5
333.629	441.5
333.857	494.5
334.085	546.5
334.314	557.5
334.542	648.5
334.771	636.5
334.999	562.5
335.227	493.5
335.455	460.5
335.684	459.5
335.912	462.5
336.14	427.5
336.369	432.5
336.597	444.5
336.825	435.5
337.053	438.5
337.281	424.5
337.51	410.5
337.738	434.5
337.966	433.5
338.194	457.5
338.422	436.5
338.65	438.5
338.878	421.5
339.106	409.5
339.334	433.5
339.562	410.5
339.79	407.5
340.018	391.5
340.246	450.5
340.474	440.5
340.702	422.5
340.93	412.5
341.158	405.5
341.386	434.5
341.614	404.5
341.842	416.5
342.07	408.5
342.298	402.5
342.526	396.5
342.754	386.5
342.981	394.5
343.209	393.5
343.437	394.5
343.665	388.5
343.893	384.5
344.12	408.5
344.348	409.5
344.576	406.5
344.804	418.5
345.031	416.5
345.259	450.5
345.487	410.5
345.714	421.5
345.942	406.5
346.17	399.5
346.397	400.5
346.625	405.5
346.853	409.5
347.08	402.5
347.308	424.5
347.535	418.5
347.763	399.5
347.99	415.5
348.218	409.5
348.445	433.5
348.673	418.5
348.9	411.5
349.128	386.5
349.355	380.5
349.583	389.5
349.81	384.5
350.037	370.5
350.265	389.5
350.492	373.5
350.72	383.5
350.947	382.5
351.174	390.5
351.402	410.5
351.629	408.5
351.856	382.5
352.083	410.5
352.311	450.5
352.538	412.5
352.765	446.5
352.992	420.5
353.22	389.5
353.447	399.5
353.674	411.5
353.901	366.5
354.128	351.5
354.355	364.5
354.583	382.5
354.81	360.5
355.037	368.5
355.264	379.5
355.491	364.5
355.718	334.5
355.945	366.5
356.172	346.5
356.399	366.5
356.626	364.5
356.853	360.5
357.08	333.5
357.307	348.5
357.534	350.5
357.761	370.5
357.988	363.5
358.215	378.5
358.441	354.5
358.668	379.5
358.895	372.5
359.122	371.5
359.349	381.5
359.576	410.5
359.802	406.5
360.029	461.5
360.256	443.5
360.483	460.5
360.709	416.5
360.936	397.5
361.163	409.5
361.39	421.5
361.616	399.5
361.843	398.5
362.07	389.5
362.296	394.5
362.523	382.5
362.749	380.5
362.976	393.5
363.203	381.5
363.429	382.5
363.656	361.5
363.882	373.5
364.109	366.5
364.335	378.5
364.562	368.5
364.788	379.5
365.015	382.5
365.241	376.5
365.468	376.5
365.694	398.5
365.92	376.5
366.147	381.5
366.373	358.5
366.599	373.5
366.826	354.5
367.052	370.5
367.278	349.5
367.505	367.5
367.731	388.5
367.957	362.5
368.184	384.5
368.41	382.5
368.636	389.5
368.862	398.5
369.089	380.5
369.315	365.5
369.541	361.5
369.767	393.5
369.993	377.5
370.219	383.5
370.445	371.5
370.672	361.5
370.898	340.5
371.124	370.5
371.35	346.5
371.576	352.5
371.802	366.5
372.028	370.5
372.254	376.5
372.48	361.5
372.706	350.5
372.932	372.5
373.158	356.5
373.384	354.5
373.61	381.5
373.835	354.5
374.061	378.5
374.287	369.5
374.513	364.5
374.739	363.5
374.965	371.5
375.191	338.5
375.416	373.5
375.642	361.5
375.868	355.5
376.094	354.5
376.319	349.5
376.545	356.5
376.771	356.5
376.997	341.5
377.222	367.5
377.448	358.5
377.674	372.5
377.899	354.5
378.125	354.5
378.35	350.5
378.576	338.5
378.802	329.5
379.027	335.5
379.253	342.5
379.478	364.5
379.704	353.5
379.929	351.5
380.155	359.5
380.38	368.5
380.606	356.5
380.831	364.5
381.057	368.5
381.282	368.5
381.507	366.5
381.733	364.5
381.958	365.5
382.184	366.5
382.409	356.5
382.634	357.5
382.86	354.5
383.085	368.5
383.31	352.5
383.535	370.5
383.761	378.5
383.986	370.5
384.211	365.5
384.436	370.5
384.662	360.5
384.887	382.5
385.112	370.5
385.337	361.5
385.562	355.5
385.787	353.5
386.013	384.5
386.238	376.5
386.463	392.5
386.688	374.5
386.913	374.5
387.138	376.5
387.363	357.5
387.588	383.5
387.813	370.5
388.038	366.5
388.263	366.5
388.488	376.5
388.713	366.5
388.938	399.5
389.163	384.5
389.387	389.5
389.612	346.5
389.837	382.5
390.062	364.5
390.287	378.5
390.512	373.5
390.736	378.5
390.961	378.5
391.186	367.5
391.411	380.5
391.636	378.5
391.86	387.5
392.085	390.5
392.31	379.5
392.534	368.5
392.759	364.5
392.984	372.5
393.208	357.5
393.433	370.5
393.658	366.5
393.882	382.5
394.107	379.5
394.331	396.5
394.556	380.5
394.78	390.5
395.005	384.5
395.229	373.5
395.454	370.5
395.678	380.5
395.903	390.5
396.127	423.5
396.352	440.5
396.576	393.5
396.801	403.5
397.025	384.5
397.249	399.5
397.474	394.5
397.698	409.5
397.922	394.5
398.147	422.5
398.371	434.5
398.595	408.5
398.82	410.5
399.044	422.5
399.268	413.5
399.492	437.5
399.717	459.5
399.941	478.5
400.165	520.5
400.389	533.5
400.613	483.5
400.837	449.5
401.062	436.5
401.286	414.5
401.51	441.5
401.734	410.5
401.958	444.5
402.182	434.5
402.406	422.5
402.63	456.5
402.854	416.5
403.078	425.5
403.302	432.5
403.526	438.5
403.75	427.5
403.974	436.5
404.198	427.5
404.422	473.5
404.645	454.5
404.869	447.5
405.093	513.5
405.317	550.5
405.541	582.5
405.765	541.5
405.988	502.5
406.212	481.5
406.436	527.5
406.66	529.5
406.883	498.5
407.107	509.5
407.331	536.5
407.555	616.5
407.778	592.5
408.002	544.5
408.226	502.5
408.449	485.5
408.673	484.5
408.896	512.5
409.12	580.5
409.344	541.5
409.567	457.5
409.791	452.5
410.014	444.5
410.238	436.5
410.461	439.5
410.685	463.5
410.908	463.5
411.132	506.5
411.355	524.5
411.578	505.5
411.802	471.5
412.025	428.5
412.249	467.5
412.472	476.5
412.695	544.5
412.919	524.5
413.142	477.5
413.365	475.5
413.589	445.5
413.812	429.5
414.035	438.5
414.258	433.5
414.482	419.5
414.705	409.5
414.928	412.5
415.151	415.5
415.374	433.5
415.597	428.5
415.821	430.5
416.044	433.5
416.267	444.5
416.49	438.5
416.713	422.5
416.936	413.5
417.159	412.5
417.382	414.5
417.605	449.5
417.828	446.5
418.051	454.5
418.274	445.5
418.497	449.5
418.72	417.5
418.943	430.5
419.166	435.5
419.389	436.5
419.611	450.5
419.834	455.5
420.057	483.5
420.28	467.5
420.503	486.5
420.726	490.5
420.948	477.5
421.171	515.5
421.394	562.5
421.617	475.5
421.839	454.5
422.062	460.5
422.285	473.5
422.507	545.5
422.73	618.5
422.953	573.5
423.175	514.5
423.398	478.5
423.621	472.5
423.843	485.5
424.066	485.5
424.288	482.5
424.511	509.5
424.733	556.5
424.956	644.5
425.178	616.5
425.401	612.5
425.623	613.5
425.846	559.5
426.068	512.5
426.291	493.5
426.513	499.5
426.735	520.5
426.958	549.5
427.18	620.5
427.402	744.5
427.625	813.5
427.847	777.5
428.069	668.5
428.292	592.5
428.514	489.5
428.736	496.5
428.958	468.5
429.181	477.5
429.403	451.5
429.625	476.5
429.847	499.5
430.069	582.5
430.292	561.5
430.514	486.5
430.736	452.5
430.958	441.5
431.18	460.5
431.402	434.5
431.624	421.5
431.846	425.5
432.068	438.5
432.29	425.5
432.512	434.5
432.734	436.5
432.956	436.5
433.178	453.5
433.4	452.5
433.622	452.5
433.844	426.5
434.066	439.5
434.287	422.5
434.509	412.5
434.731	434.5
434.953	455.5
435.175	468.5
435.397	461.5
435.618	506.5
435.84	561.5
436.062	618.5
436.284	690.5
436.505	591.5
436.727	514.5
436.949	472.5
437.17	476.5
437.392	466.5
437.614	488.5
437.835	521.5
438.057	594.5
438.278	701.5
438.5	698.5
438.721	771.5
438.943	730.5
439.165	590.5
439.386	526.5
439.608	541.5
439.829	534.5
440.05	536.5
440.272	588.5
440.493	550.5
440.715	503.5
440.936	473.5
441.158	484.5
441.379	460.5
441.6	497.5
441.822	502.5
442.043	537.5
442.264	626.5
442.486	653.5
442.707	574.5
442.928	513.5
443.149	526.5
443.371	564.5
443.592	581.5
443.813	669.5
444.034	747.5
444.255	597.5
444.476	490.5
444.698	488.5
444.919	478.5
445.14	591.5
445.361	532.5
445.582	541.5
445.803	615.5
446.024	722.5
446.245	739.5
446.466	669.5
446.687	548.5
446.908	523.5
447.129	469.5
447.35	482.5
447.571	466.5
447.792	472.5
448.013	472.5
448.234	478.5
448.455	566.5
448.675	651.5
448.896	749.5
449.117	653.5
449.338	621.5
449.559	688.5
449.779	768.5
450	644.5
450.221	537.5
450.442	483.5
450.662	461.5
450.883	476.5
451.104	489.5
451.324	491.5
451.545	452.5
451.766	442.5
451.986	407.5
452.207	418.5
452.428	411.5
452.648	410.5
452.869	409.5
453.089	449.5
453.31	457.5
453.53	440.5
453.751	422.5
453.971	427.5
454.192	454.5
454.412	438.5
454.633	417.5
454.853	424.5
455.073	410.5
455.294	462.5
455.514	498.5
455.734	484.5
455.955	436.5
456.175	389.5
456.395	394.5
456.616	380.5
456.836	400.5
457.056	396.5
457.276	368.5
457.497	361.5
457.717	372.5
457.937	398.5
458.157	411.5
458.377	397.5
458.598	424.5
458.818	501.5
459.038	573.5
459.258	607.5
459.478	490.5
459.698	426.5
459.918	434.5
460.138	417.5
460.358	438.5
460.578	433.5
460.798	427.5
461.018	424.5
461.238	433.5
461.458	421.5
461.678	407.5
461.898	421.5
462.118	412.5
462.338	434.5
462.558	457.5
462.777	414.5
462.997	419.5
463.217	448.5
463.437	444.5
463.657	443.5
463.876	449.5
464.096	425.5
464.316	436.5
464.536	458.5
464.755	434.5
464.975	444.5
465.195	503.5
465.414	592.5
465.634	531.5
465.854	474.5
466.073	440.5
466.293	430.5
466.512	414.5
466.732	411.5
466.951	412.5
467.171	412.5
467.391	438.5
467.61	448.5
467.829	457.5
468.049	441.5
468.268	472.5
468.488	434.5
468.707	412.5
468.927	411.5
469.146	399.5
469.365	412.5
469.585	402.5
469.804	417.5
470.023	432.5
470.243	426.5
470.462	424.5
470.681	443.5
470.901	450.5
471.12	443.5
471.339	424.5
471.558	429.5
471.777	428.5
471.997	421.5
472.216	415.5
472.435	533.5
472.654	513.5
472.873	464.5
473.092	450.5
473.311	447.5
473.53	444.5
473.749	456.5
473.968	467.5
474.187	581.5
474.406	624.5
474.625	512.5
474.844	462.5
475.063	426.5
475.282	437.5
475.501	408.5
475.72	441.5
475.939	437.5
476.158	442.5
476.377	428.5
476.596	430.5
476.814	439.5
477.033	434.5
477.252	443.5
477.471	463.5
477.69	450.5
477.908	449.5
478.127	459.5
478.346	442.5
478.564	446.5
478.783	492.5
479.002	464.5
479.22	477.5
479.439	506.5
479.658	486.5
479.876	510.5
480.095	521.5
480.313	542.5
480.532	536.5
480.751	523.5
480.969	575.5
481.188	670.5
481.406	800.5
481.624	624.5
481.843	567.5
482.061	568.5
482.28	541.5
482.498	538.5
482.717	509.5
482.935	517.5
483.153	517.5
483.372	520.5
483.59	514.5
483.808	529.5
484.027	488.5
484.245	498.5
484.463	532.5
484.681	524.5
484.9	524.5
485.118	505.5
485.336	520.5
485.554	521.5
485.772	523.5
485.99	515.5
486.209	527.5
486.427	548.5
486.645	552.5
486.863	588.5
487.081	588.5
487.299	553.5
487.517	569.5
487.735	526.5
487.953	553.5
488.171	570.5
488.389	558.5
488.607	546.5
488.825	545.5
489.043	556.5
489.261	570.5
489.479	561.5
489.696	564.5
489.914	586.5
490.132	588.5
490.35	572.5
490.568	586.5
490.786	596.5
491.003	608.5
491.221	630.5
491.439	628.5
491.657	651.5
491.874	637.5
492.092	645.5
492.31	649.5
492.527	680.5
492.745	672.5
492.963	661.5
493.18	659.5
493.398	674.5
493.615	663.5
493.833	689.5
494.05	674.5
494.268	692.5
494.485	651.5
494.703	670.5
494.92	662.5
495.138	668.5
495.355	664.5
495.573	671.5
495.79	681.5
496.008	681.5
496.225	658.5
496.442	679.5
496.66	674.5
496.877	626.5
497.094	662.5
497.312	672.5
497.529	673.5
497.746	681.5
497.963	685.5
498.181	703.5
498.398	702.5
498.615	710.5
498.832	714.5
499.049	715.5
499.267	739.5
499.484	746.5
499.701	750.5
499.918	742.5
500.135	773.5
500.352	778.5
500.569	790.5
500.786	802.5
501.003	812.5
501.22	792.5
501.437	765.5
501.654	800.5
501.871	776.5
502.088	740.5
502.305	726.5
502.522	724.5
502.739	696.5
502.956	660.5
503.172	684.5
503.389	654.5
503.606	692.5
503.823	730.5
504.04	677.5
504.256	660.5
504.473	658.5
504.69	649.5
504.907	661.5
505.123	645.5
505.34	639.5
505.557	632.5
505.773	645.5
505.99	653.5
506.207	630.5
506.423	659.5
506.64	634.5
506.856	620.5
507.073	622.5
507.289	600.5
507.506	638.5
507.722	646.5
507.939	653.5
508.155	629.5
508.372	628.5
508.588	595.5
508.805	636.5
509.021	618.5
509.238	646.5
509.454	618.5
509.67	650.5
509.887	613.5
510.103	625.5
510.319	632.5
510.536	744.5
510.752	1330.5
510.968	1085.5
511.184	656.5
511.401	604.5
511.617	602.5
511.833	584.5
512.049	597.5
512.265	607.5
512.481	574.5
512.698	604.5
512.914	586.5
513.13	600.5
513.346	576.5
513.562	585.5
513.778	621.5
513.994	611.5
514.21	634.5
514.426	635.5
514.642	707.5
514.858	726.5
515.074	784.5
515.29	938.5
515.506	1450.5
515.721	1184.5
515.937	747.5
516.153	662.5
516.369	638.5
516.585	621.5
516.801	599.5
517.016	584.5
517.232	578.5
517.448	594.5
517.664	582.5
517.879	592.5
518.095	585.5
518.311	572.5
518.527	583.5
518.742	574.5
518.958	573.5
519.173	574.5
519.389	584.5
519.605	580.5
519.82	575.5
