Data from 1986.PennyLincolnUp.Lamp.En5.5.200Scan.071819.P2_HRD10591_17-10-45-973.txt Node
Date: Thu Jul 18 17:10:45 EDT 2019
User: cochatt
Spectrometer: HR+D1059
Trigger mode: 1
Integration Time (sec): 1.000000E-1
Scans to average: 1
Electric dark correction enabled: true
Nonlinearity correction enabled: false
Boxcar width: 0
XAxis mode: Wavelengths
Number of Pixels in Spectrum: 2048
>>>>>Begin Spectral Data<<<<<
223.165	-4.38
223.4	-4.38
223.635	-4.38
223.869	-15.38
224.104	-31.38
224.338	-14.38
224.573	-14.38
224.808	-20.38
225.042	-14.38
225.277	-9.38
225.511	12.62
225.746	4.62
225.98	10.62
226.215	11.62
226.449	10.62
226.683	35.62
226.918	7.62
227.152	30.62
227.387	35.62
227.621	32.62
227.856	42.62
228.09	44.62
228.324	44.62
228.559	59.62
228.793	70.62
229.027	100.62
229.262	123.62
229.496	119.62
229.73	145.62
229.964	154.62
230.199	137.62
230.433	122.62
230.667	114.62
230.901	112.62
231.136	108.62
231.37	120.62
231.604	107.62
231.838	119.62
232.072	121.62
232.306	95.62
232.541	105.62
232.775	113.62
233.009	124.62
233.243	123.62
233.477	110.62
233.711	123.62
233.945	119.62
234.179	111.62
234.413	111.62
234.647	116.62
234.881	120.62
235.115	121.62
235.349	122.62
235.583	127.62
235.817	109.62
236.051	125.62
236.285	132.62
236.519	134.62
236.753	141.62
236.987	157.62
237.221	178.62
237.455	254.62
237.689	204.62
237.922	151.62
238.156	147.62
238.39	124.62
238.624	124.62
238.858	121.62
239.091	136.62
239.325	129.62
239.559	133.62
239.793	116.62
240.027	139.62
240.26	137.62
240.494	154.62
240.728	133.62
240.961	159.62
241.195	161.62
241.429	142.62
241.662	120.62
241.896	138.62
242.13	128.62
242.363	135.62
242.597	137.62
242.83	147.62
243.064	142.62
243.298	131.62
243.531	151.62
243.765	131.62
243.998	139.62
244.232	152.62
244.465	145.62
244.699	163.62
244.932	149.62
245.166	140.62
245.399	151.62
245.633	148.62
245.866	138.62
246.099	141.62
246.333	153.62
246.566	142.62
246.8	150.62
247.033	149.62
247.266	167.62
247.5	179.62
247.733	162.62
247.966	185.62
248.2	172.62
248.433	168.62
248.666	182.62
248.899	186.62
249.133	199.62
249.366	211.62
249.599	192.62
249.832	196.62
250.066	187.62
250.299	197.62
250.532	196.62
250.765	211.62
250.998	230.62
251.231	227.62
251.465	214.62
251.698	202.62
251.931	208.62
252.164	207.62
252.397	213.62
252.63	211.62
252.863	214.62
253.096	234.62
253.329	245.62
253.562	253.62
253.795	231.62
254.028	231.62
254.261	231.62
254.494	252.62
254.727	267.62
254.96	303.62
255.193	276.62
255.426	271.62
255.659	251.62
255.892	249.62
256.124	243.62
256.357	241.62
256.59	242.62
256.823	220.62
257.056	223.62
257.289	213.62
257.521	218.62
257.754	195.62
257.987	222.62
258.22	211.62
258.452	217.62
258.685	219.62
258.918	205.62
259.151	215.62
259.383	223.62
259.616	228.62
259.849	215.62
260.081	231.62
260.314	245.62
260.547	272.62
260.779	267.62
261.012	265.62
261.244	244.62
261.477	233.62
261.71	224.62
261.942	244.62
262.175	226.62
262.407	229.62
262.64	218.62
262.872	222.62
263.105	204.62
263.337	220.62
263.57	210.62
263.802	215.62
264.035	209.62
264.267	212.62
264.499	207.62
264.732	214.62
264.964	218.62
265.197	212.62
265.429	208.62
265.661	200.62
265.894	213.62
266.126	203.62
266.358	205.62
266.591	220.62
266.823	210.62
267.055	217.62
267.287	231.62
267.52	229.62
267.752	226.62
267.984	240.62
268.216	227.62
268.448	222.62
268.681	239.62
268.913	243.62
269.145	269.62
269.377	263.62
269.609	280.62
269.841	281.62
270.073	264.62
270.306	287.62
270.538	322.62
270.77	316.62
271.002	306.62
271.234	290.62
271.466	298.62
271.698	317.62
271.93	328.62
272.162	353.62
272.394	340.62
272.626	310.62
272.858	294.62
273.09	288.62
273.322	276.62
273.553	270.62
273.785	272.62
274.017	265.62
274.249	269.62
274.481	257.62
274.713	268.62
274.945	268.62
275.176	260.62
275.408	254.62
275.64	259.62
275.872	255.62
276.104	273.62
276.335	249.62
276.567	261.62
276.799	292.62
277.031	323.62
277.262	315.62
277.494	343.62
277.726	302.62
277.957	298.62
278.189	255.62
278.421	277.62
278.652	256.62
278.884	254.62
279.115	262.62
279.347	259.62
279.579	260.62
279.81	268.62
280.042	255.62
280.273	244.62
280.505	248.62
280.736	254.62
280.968	249.62
281.199	239.62
281.431	242.62
281.662	261.62
281.894	262.62
282.125	263.62
282.356	265.62
282.588	299.62
282.819	312.62
283.051	260.62
283.282	260.62
283.513	280.62
283.745	266.62
283.976	261.62
284.207	259.62
284.439	270.62
284.67	277.62
284.901	273.62
285.132	265.62
285.364	243.62
285.595	276.62
285.826	257.62
286.057	259.62
286.288	263.62
286.52	253.62
286.751	266.62
286.982	264.62
287.213	263.62
287.444	269.62
287.675	272.62
287.906	287.62
288.138	275.62
288.369	305.62
288.6	269.62
288.831	284.62
289.062	287.62
289.293	272.62
289.524	250.62
289.755	285.62
289.986	268.62
290.217	274.62
290.448	282.62
290.679	268.62
290.91	275.62
291.141	282.62
291.371	265.62
291.602	281.62
291.833	268.62
292.064	279.62
292.295	253.62
292.526	252.62
292.757	259.62
292.987	268.62
293.218	257.62
293.449	270.62
293.68	273.62
293.91	278.62
294.141	267.62
294.372	271.62
294.603	290.62
294.833	275.62
295.064	266.62
295.295	260.62
295.525	250.62
295.756	283.62
295.987	296.62
296.217	303.62
296.448	351.62
296.679	267.62
296.909	273.62
297.14	261.62
297.37	269.62
297.601	261.62
297.831	277.62
298.062	279.62
298.292	288.62
298.523	273.62
298.753	277.62
298.984	271.62
299.214	276.62
299.445	284.62
299.675	285.62
299.905	307.62
300.136	286.62
300.366	288.62
300.597	290.62
300.827	292.62
301.057	301.62
301.288	307.62
301.518	312.62
301.748	303.62
301.979	295.62
302.209	294.62
302.439	300.62
302.669	299.62
302.9	312.62
303.13	306.62
303.36	310.62
303.59	306.62
303.82	314.62
304.051	316.62
304.281	280.62
304.511	291.62
304.741	287.62
304.971	304.62
305.201	306.62
305.431	295.62
305.661	297.62
305.891	301.62
306.121	321.62
306.352	309.62
306.582	321.62
306.812	289.62
307.042	306.62
307.272	304.62
307.502	309.62
307.731	295.62
307.961	319.62
308.191	290.62
308.421	310.62
308.651	323.62
308.881	314.62
309.111	321.62
309.341	332.62
309.571	345.62
309.8	360.62
310.03	356.62
310.26	359.62
310.49	356.62
310.72	378.62
310.949	379.62
311.179	395.62
311.409	369.62
311.639	381.62
311.868	359.62
312.098	355.62
312.328	364.62
312.557	378.62
312.787	401.62
313.017	387.62
313.246	383.62
313.476	375.62
313.706	359.62
313.935	371.62
314.165	397.62
314.394	392.62
314.624	400.62
314.853	371.62
315.083	370.62
315.312	356.62
315.542	349.62
315.771	335.62
316.001	352.62
316.23	339.62
316.46	365.62
316.689	364.62
316.919	355.62
317.148	373.62
317.377	371.62
317.607	378.62
317.836	350.62
318.065	371.62
318.295	357.62
318.524	364.62
318.753	342.62
318.983	373.62
319.212	386.62
319.441	362.62
319.67	407.62
319.9	355.62
320.129	352.62
320.358	368.62
320.587	369.62
320.816	368.62
321.046	389.62
321.275	391.62
321.504	373.62
321.733	385.62
321.962	397.62
322.191	411.62
322.42	422.62
322.649	454.62
322.878	479.62
323.108	487.62
323.337	511.62
323.566	539.62
323.795	563.62
324.024	612.62
324.253	767.62
324.482	1072.62
324.71	1660.62
324.939	2384.62
325.168	2087.62
325.397	1113.62
325.626	760.62
325.855	633.62
326.084	550.62
326.313	524.62
326.542	521.62
326.77	572.62
326.999	697.62
327.228	995.62
327.457	1456.62
327.686	1765.62
327.914	1234.62
328.143	802.62
328.372	701.62
328.6	663.62
328.829	614.62
329.058	632.62
329.287	641.62
329.515	599.62
329.744	551.62
329.972	517.62
330.201	549.62
330.43	614.62
330.658	645.62
330.887	682.62
331.115	613.62
331.344	542.62
331.572	496.62
331.801	486.62
332.03	491.62
332.258	459.62
332.486	453.62
332.715	428.62
332.943	421.62
333.172	442.62
333.4	431.62
333.629	446.62
333.857	479.62
334.085	475.62
334.314	491.62
334.542	498.62
334.771	572.62
334.999	499.62
335.227	440.62
335.455	415.62
335.684	415.62
335.912	409.62
336.14	389.62
336.369	419.62
336.597	410.62
336.825	420.62
337.053	409.62
337.281	391.62
337.51	400.62
337.738	404.62
337.966	422.62
338.194	411.62
338.422	395.62
338.65	397.62
338.878	404.62
339.106	400.62
339.334	398.62
339.562	398.62
339.79	416.62
340.018	397.62
340.246	393.62
340.474	400.62
340.702	404.62
340.93	392.62
341.158	390.62
341.386	409.62
341.614	392.62
341.842	401.62
342.07	417.62
342.298	380.62
342.526	394.62
342.754	379.62
342.981	378.62
343.209	378.62
343.437	389.62
343.665	392.62
343.893	369.62
344.12	398.62
344.348	394.62
344.576	399.62
344.804	398.62
345.031	420.62
345.259	424.62
345.487	407.62
345.714	402.62
345.942	391.62
346.17	385.62
346.397	387.62
346.625	382.62
346.853	381.62
347.08	395.62
347.308	377.62
347.535	394.62
347.763	427.62
347.99	419.62
348.218	410.62
348.445	412.62
348.673	409.62
348.9	388.62
349.128	377.62
349.355	369.62
349.583	384.62
349.81	365.62
350.037	372.62
350.265	390.62
350.492	380.62
350.72	379.62
350.947	377.62
351.174	398.62
351.402	416.62
351.629	391.62
351.856	387.62
352.083	408.62
352.311	392.62
352.538	404.62
352.765	411.62
352.992	401.62
353.22	396.62
353.447	407.62
353.674	387.62
353.901	354.62
354.128	367.62
354.355	364.62
354.583	374.62
354.81	374.62
355.037	349.62
355.264	346.62
355.491	350.62
355.718	351.62
355.945	344.62
356.172	348.62
356.399	351.62
356.626	343.62
356.853	348.62
357.08	352.62
357.307	345.62
357.534	344.62
357.761	347.62
357.988	331.62
358.215	363.62
358.441	344.62
358.668	358.62
358.895	378.62
359.122	369.62
359.349	370.62
359.576	388.62
359.802	420.62
360.029	445.62
360.256	459.62
360.483	426.62
360.709	408.62
360.936	372.62
361.163	401.62
361.39	372.62
361.616	392.62
361.843	383.62
362.07	388.62
362.296	378.62
362.523	363.62
362.749	396.62
362.976	385.62
363.203	370.62
363.429	369.62
363.656	349.62
363.882	369.62
364.109	362.62
364.335	350.62
364.562	359.62
364.788	351.62
365.015	343.62
365.241	362.62
365.468	372.62
365.694	360.62
365.92	350.62
366.147	367.62
366.373	344.62
366.599	342.62
366.826	355.62
367.052	359.62
367.278	360.62
367.505	364.62
367.731	368.62
367.957	361.62
368.184	347.62
368.41	357.62
368.636	386.62
368.862	363.62
369.089	361.62
369.315	367.62
369.541	367.62
369.767	353.62
369.993	361.62
370.219	349.62
370.445	355.62
370.672	339.62
370.898	348.62
371.124	348.62
371.35	348.62
371.576	337.62
371.802	352.62
372.028	349.62
372.254	357.62
372.48	342.62
372.706	351.62
372.932	339.62
373.158	351.62
373.384	345.62
373.61	325.62
373.835	353.62
374.061	355.62
374.287	376.62
374.513	375.62
374.739	341.62
374.965	353.62
375.191	345.62
375.416	355.62
375.642	352.62
375.868	354.62
376.094	350.62
376.319	357.62
376.545	351.62
376.771	352.62
376.997	343.62
377.222	346.62
377.448	325.62
377.674	341.62
377.899	350.62
378.125	328.62
378.35	341.62
378.576	353.62
378.802	362.62
379.027	346.62
379.253	346.62
379.478	358.62
379.704	346.62
379.929	354.62
380.155	341.62
380.38	357.62
380.606	365.62
380.831	353.62
381.057	352.62
381.282	353.62
381.507	352.62
381.733	353.62
381.958	360.62
382.184	351.62
382.409	355.62
382.634	349.62
382.86	342.62
383.085	331.62
383.31	348.62
383.535	352.62
383.761	359.62
383.986	370.62
384.211	371.62
384.436	333.62
384.662	339.62
384.887	351.62
385.112	356.62
385.337	363.62
385.562	374.62
385.787	360.62
386.013	393.62
386.238	380.62
386.463	360.62
386.688	351.62
386.913	367.62
387.138	363.62
387.363	360.62
387.588	364.62
387.813	372.62
388.038	363.62
388.263	373.62
388.488	354.62
388.713	349.62
388.938	377.62
389.163	336.62
389.387	343.62
389.612	353.62
389.837	352.62
390.062	355.62
390.287	368.62
390.512	369.62
390.736	358.62
390.961	381.62
391.186	355.62
391.411	367.62
391.636	357.62
391.86	360.62
392.085	372.62
392.31	379.62
392.534	368.62
392.759	373.62
392.984	363.62
393.208	347.62
393.433	361.62
393.658	370.62
393.882	372.62
394.107	381.62
394.331	377.62
394.556	370.62
394.78	354.62
395.005	367.62
395.229	379.62
395.454	366.62
395.678	361.62
395.903	383.62
396.127	411.62
396.352	423.62
396.576	380.62
396.801	374.62
397.025	362.62
397.249	383.62
397.474	381.62
397.698	372.62
397.922	401.62
398.147	401.62
398.371	390.62
398.595	407.62
398.82	406.62
399.044	403.62
399.268	405.62
399.492	413.62
399.717	451.62
399.941	463.62
400.165	484.62
400.389	513.62
400.613	463.62
400.837	415.62
401.062	420.62
401.286	432.62
401.51	417.62
401.734	409.62
401.958	391.62
402.182	419.62
402.406	435.62
402.63	421.62
402.854	412.62
403.078	411.62
403.302	408.62
403.526	421.62
403.75	439.62
403.974	419.62
404.198	415.62
404.422	427.62
404.645	417.62
404.869	434.62
405.093	459.62
405.317	529.62
405.541	538.62
405.765	491.62
405.988	463.62
406.212	478.62
406.436	491.62
406.66	529.62
406.883	477.62
407.107	488.62
407.331	518.62
407.555	576.62
407.778	577.62
408.002	529.62
408.226	484.62
408.449	493.62
408.673	508.62
408.896	529.62
409.12	546.62
409.344	488.62
409.567	450.62
409.791	427.62
410.014	439.62
410.238	431.62
410.461	411.62
410.685	428.62
410.908	461.62
411.132	455.62
411.355	526.62
411.578	481.62
411.802	439.62
412.025	425.62
412.249	439.62
412.472	459.62
412.695	480.62
412.919	503.62
413.142	450.62
413.365	443.62
413.589	420.62
413.812	423.62
414.035	393.62
414.258	396.62
414.482	397.62
414.705	404.62
414.928	389.62
415.151	396.62
415.374	389.62
415.597	408.62
415.821	419.62
416.044	396.62
416.267	404.62
416.49	422.62
416.713	392.62
416.936	404.62
417.159	396.62
417.382	414.62
417.605	415.62
417.828	423.62
418.051	441.62
418.274	422.62
418.497	426.62
418.72	419.62
418.943	397.62
419.166	407.62
419.389	428.62
419.611	443.62
419.834	427.62
420.057	417.62
420.28	444.62
420.503	425.62
420.726	440.62
420.948	450.62
421.171	482.62
421.394	526.62
421.617	455.62
421.839	440.62
422.062	421.62
422.285	441.62
422.507	512.62
422.73	561.62
422.953	555.62
423.175	498.62
423.398	472.62
423.621	447.62
423.843	475.62
424.066	483.62
424.288	460.62
424.511	502.62
424.733	536.62
424.956	618.62
425.178	597.62
425.401	600.62
425.623	623.62
425.846	531.62
426.068	496.62
426.291	466.62
426.513	474.62
426.735	487.62
426.958	533.62
427.18	602.62
427.402	746.62
427.625	838.62
427.847	768.62
428.069	623.62
428.292	548.62
428.514	497.62
428.736	471.62
428.958	452.62
429.181	467.62
429.403	460.62
429.625	441.62
429.847	474.62
430.069	530.62
430.292	550.62
430.514	482.62
430.736	443.62
430.958	440.62
431.18	422.62
431.402	417.62
431.624	415.62
431.846	429.62
432.068	425.62
432.29	404.62
432.512	416.62
432.734	435.62
432.956	425.62
433.178	433.62
433.4	433.62
433.622	425.62
433.844	421.62
434.066	423.62
434.287	410.62
434.509	425.62
434.731	417.62
434.953	424.62
435.175	432.62
435.397	477.62
435.618	482.62
435.84	531.62
436.062	625.62
436.284	657.62
436.505	572.62
436.727	526.62
436.949	469.62
437.17	450.62
437.392	454.62
437.614	470.62
437.835	520.62
438.057	606.62
438.278	728.62
438.5	722.62
438.721	743.62
438.943	705.62
439.165	598.62
439.386	525.62
439.608	513.62
439.829	520.62
440.05	556.62
440.272	571.62
440.493	547.62
440.715	506.62
440.936	463.62
441.158	456.62
441.379	472.62
441.6	476.62
441.822	485.62
442.043	545.62
442.264	619.62
442.486	656.62
442.707	569.62
442.928	513.62
443.149	513.62
443.371	533.62
443.592	563.62
443.813	659.62
444.034	703.62
444.255	592.62
444.476	509.62
444.698	497.62
444.919	464.62
445.14	577.62
445.361	565.62
445.582	514.62
445.803	595.62
446.024	665.62
446.245	719.62
446.466	641.62
446.687	555.62
446.908	497.62
447.129	467.62
447.35	456.62
447.571	466.62
447.792	459.62
448.013	447.62
448.234	485.62
448.455	532.62
448.675	635.62
448.896	745.62
449.117	628.62
449.338	613.62
449.559	672.62
449.779	740.62
450	639.62
450.221	517.62
450.442	458.62
450.662	467.62
450.883	475.62
451.104	488.62
451.324	455.62
451.545	453.62
451.766	429.62
451.986	421.62
452.207	406.62
452.428	407.62
452.648	402.62
452.869	410.62
453.089	399.62
453.31	427.62
453.53	416.62
453.751	413.62
453.971	409.62
454.192	445.62
454.412	436.62
454.633	410.62
454.853	416.62
455.073	387.62
455.294	431.62
455.514	505.62
455.734	475.62
455.955	426.62
456.175	377.62
456.395	371.62
456.616	380.62
456.836	379.62
457.056	371.62
457.276	368.62
457.497	383.62
457.717	364.62
457.937	387.62
458.157	393.62
458.377	380.62
458.598	422.62
458.818	491.62
459.038	563.62
459.258	584.62
459.478	502.62
459.698	431.62
459.918	419.62
460.138	398.62
460.358	422.62
460.578	410.62
460.798	399.62
461.018	419.62
461.238	413.62
461.458	401.62
461.678	401.62
461.898	429.62
462.118	392.62
462.338	407.62
462.558	436.62
462.777	421.62
462.997	428.62
463.217	425.62
463.437	413.62
463.657	406.62
463.876	417.62
464.096	420.62
464.316	432.62
464.536	436.62
464.755	461.62
464.975	430.62
465.195	508.62
465.414	608.62
465.634	527.62
465.854	447.62
466.073	432.62
466.293	402.62
466.512	414.62
466.732	408.62
466.951	396.62
467.171	389.62
467.391	417.62
467.61	427.62
467.829	400.62
468.049	405.62
468.268	409.62
468.488	417.62
468.707	405.62
468.927	397.62
469.146	379.62
469.365	408.62
469.585	372.62
469.804	404.62
470.023	426.62
470.243	405.62
470.462	450.62
470.681	436.62
470.901	438.62
471.12	405.62
471.339	421.62
471.558	410.62
471.777	416.62
471.997	411.62
472.216	406.62
472.435	459.62
472.654	461.62
472.873	425.62
473.092	424.62
473.311	422.62
473.53	434.62
473.749	431.62
473.968	447.62
474.187	575.62
474.406	600.62
474.625	481.62
474.844	461.62
475.063	421.62
475.282	419.62
475.501	419.62
475.72	416.62
475.939	423.62
476.158	420.62
476.377	429.62
476.596	412.62
476.814	425.62
477.033	409.62
477.252	421.62
477.471	438.62
477.69	441.62
477.908	447.62
478.127	448.62
478.346	437.62
478.564	454.62
478.783	460.62
479.002	468.62
479.22	471.62
479.439	487.62
479.658	498.62
479.876	515.62
480.095	498.62
480.313	516.62
480.532	509.62
480.751	500.62
480.969	536.62
481.188	581.62
481.406	673.62
481.624	568.62
481.843	525.62
482.061	514.62
482.28	494.62
482.498	504.62
482.717	489.62
482.935	499.62
483.153	474.62
483.372	469.62
483.59	516.62
483.808	497.62
484.027	491.62
484.245	493.62
484.463	489.62
484.681	498.62
484.9	487.62
485.118	497.62
485.336	492.62
485.554	511.62
485.772	522.62
485.99	505.62
486.209	497.62
486.427	527.62
486.645	543.62
486.863	524.62
487.081	545.62
487.299	548.62
487.517	536.62
487.735	529.62
487.953	528.62
488.171	528.62
488.389	525.62
488.607	535.62
488.825	541.62
489.043	534.62
489.261	521.62
489.479	551.62
489.696	552.62
489.914	548.62
490.132	555.62
490.35	570.62
490.568	549.62
490.786	589.62
491.003	561.62
491.221	597.62
491.439	612.62
491.657	588.62
491.874	602.62
492.092	608.62
492.31	625.62
492.527	629.62
492.745	633.62
492.963	618.62
493.18	615.62
493.398	635.62
493.615	652.62
493.833	662.62
494.05	629.62
494.268	639.62
494.485	633.62
494.703	641.62
494.92	628.62
495.138	667.62
495.355	623.62
495.573	644.62
495.79	636.62
496.008	641.62
496.225	665.62
496.442	636.62
496.66	631.62
496.877	649.62
497.094	628.62
497.312	643.62
497.529	652.62
497.746	647.62
497.963	649.62
498.181	674.62
498.398	673.62
498.615	683.62
498.832	692.62
499.049	682.62
499.267	689.62
499.484	702.62
499.701	719.62
499.918	715.62
500.135	721.62
500.352	755.62
500.569	749.62
500.786	755.62
501.003	783.62
501.22	758.62
501.437	767.62
501.654	743.62
501.871	773.62
