Data from 1986.PennyLincolnUp.Lamp.En5.5.200Scan.071819.P2_HRD10591_17-10-42-974.txt Node
Date: Thu Jul 18 17:10:42 EDT 2019
User: cochatt
Spectrometer: HR+D1059
Trigger mode: 1
Integration Time (sec): 1.000000E-1
Scans to average: 1
Electric dark correction enabled: true
Nonlinearity correction enabled: false
Boxcar width: 0
XAxis mode: Wavelengths
Number of Pixels in Spectrum: 2048
>>>>>Begin Spectral Data<<<<<
223.165	-22.12
223.4	-22.12
223.635	-22.12
223.869	-17.12
224.104	-16.12
224.338	-15.12
224.573	-3.12
224.808	-20.12
225.042	-5.12
225.277	6.88
225.511	0.88
225.746	1.88
225.98	13.88
226.215	-4.12
226.449	5.88
226.683	24.88
226.918	20.88
227.152	27.88
227.387	39.88
227.621	35.88
227.856	58.88
228.09	62.88
228.324	63.88
228.559	54.88
228.793	76.88
229.027	105.88
229.262	110.88
229.496	123.88
229.73	149.88
229.964	166.88
230.199	133.88
230.433	115.88
230.667	120.88
230.901	118.88
231.136	99.88
231.37	109.88
231.604	108.88
231.838	119.88
232.072	115.88
232.306	120.88
232.541	119.88
232.775	120.88
233.009	117.88
233.243	113.88
233.477	119.88
233.711	119.88
233.945	136.88
234.179	135.88
234.413	125.88
234.647	126.88
234.881	125.88
235.115	126.88
235.349	104.88
235.583	115.88
235.817	123.88
236.051	120.88
236.285	127.88
236.519	141.88
236.753	138.88
236.987	144.88
237.221	180.88
237.455	249.88
237.689	195.88
237.922	150.88
238.156	143.88
238.39	139.88
238.624	136.88
238.858	127.88
239.091	124.88
239.325	129.88
239.559	126.88
239.793	136.88
240.027	127.88
240.26	141.88
240.494	172.88
240.728	155.88
240.961	151.88
241.195	155.88
241.429	131.88
241.662	131.88
241.896	136.88
242.13	132.88
242.363	145.88
242.597	143.88
242.83	154.88
243.064	129.88
243.298	139.88
243.531	151.88
243.765	127.88
243.998	140.88
244.232	129.88
244.465	133.88
244.699	140.88
244.932	144.88
245.166	142.88
245.399	144.88
245.633	151.88
245.866	155.88
246.099	150.88
246.333	149.88
246.566	162.88
246.8	147.88
247.033	155.88
247.266	157.88
247.5	164.88
247.733	169.88
247.966	164.88
248.2	185.88
248.433	176.88
248.666	187.88
248.899	201.88
249.133	204.88
249.366	218.88
249.599	206.88
249.832	190.88
250.066	180.88
250.299	192.88
250.532	203.88
250.765	207.88
250.998	231.88
251.231	219.88
251.465	231.88
251.698	219.88
251.931	196.88
252.164	220.88
252.397	221.88
252.63	204.88
252.863	213.88
253.096	229.88
253.329	254.88
253.562	245.88
253.795	229.88
254.028	238.88
254.261	227.88
254.494	249.88
254.727	256.88
254.96	292.88
255.193	283.88
255.426	285.88
255.659	246.88
255.892	253.88
256.124	232.88
256.357	236.88
256.59	252.88
256.823	231.88
257.056	214.88
257.289	215.88
257.521	236.88
257.754	212.88
257.987	217.88
258.22	201.88
258.452	210.88
258.685	212.88
258.918	218.88
259.151	209.88
259.383	229.88
259.616	227.88
259.849	246.88
260.081	236.88
260.314	255.88
260.547	279.88
260.779	253.88
261.012	240.88
261.244	245.88
261.477	251.88
261.71	222.88
261.942	240.88
262.175	246.88
262.407	239.88
262.64	224.88
262.872	218.88
263.105	209.88
263.337	206.88
263.57	216.88
263.802	203.88
264.035	218.88
264.267	217.88
264.499	194.88
264.732	227.88
264.964	235.88
265.197	206.88
265.429	208.88
265.661	225.88
265.894	206.88
266.126	216.88
266.358	213.88
266.591	207.88
266.823	241.88
267.055	232.88
267.287	229.88
267.52	244.88
267.752	219.88
267.984	223.88
268.216	227.88
268.448	243.88
268.681	237.88
268.913	234.88
269.145	262.88
269.377	287.88
269.609	277.88
269.841	279.88
270.073	285.88
270.306	303.88
270.538	306.88
270.77	327.88
271.002	316.88
271.234	312.88
271.466	300.88
271.698	295.88
271.93	329.88
272.162	321.88
272.394	317.88
272.626	327.88
272.858	295.88
273.09	279.88
273.322	276.88
273.553	287.88
273.785	267.88
274.017	272.88
274.249	270.88
274.481	278.88
274.713	245.88
274.945	239.88
275.176	257.88
275.408	261.88
275.64	259.88
275.872	253.88
276.104	273.88
276.335	262.88
276.567	271.88
276.799	294.88
277.031	302.88
277.262	318.88
277.494	330.88
277.726	300.88
277.957	312.88
278.189	290.88
278.421	257.88
278.652	248.88
278.884	273.88
279.115	272.88
279.347	263.88
279.579	268.88
279.81	252.88
280.042	244.88
280.273	284.88
280.505	246.88
280.736	263.88
280.968	251.88
281.199	263.88
281.431	272.88
281.662	249.88
281.894	254.88
282.125	272.88
282.356	279.88
282.588	310.88
282.819	318.88
283.051	275.88
283.282	269.88
283.513	254.88
283.745	262.88
283.976	253.88
284.207	275.88
284.439	280.88
284.67	243.88
284.901	254.88
285.132	263.88
285.364	261.88
285.595	264.88
285.826	273.88
286.057	252.88
286.288	252.88
286.52	250.88
286.751	260.88
286.982	270.88
287.213	264.88
287.444	268.88
287.675	262.88
287.906	269.88
288.138	282.88
288.369	290.88
288.6	292.88
288.831	295.88
289.062	271.88
289.293	300.88
289.524	288.88
289.755	286.88
289.986	269.88
290.217	273.88
290.448	297.88
290.679	280.88
290.91	278.88
291.141	262.88
291.371	266.88
291.602	277.88
291.833	256.88
292.064	249.88
292.295	267.88
292.526	283.88
292.757	271.88
292.987	265.88
293.218	287.88
293.449	273.88
293.68	267.88
293.91	270.88
294.141	279.88
294.372	263.88
294.603	272.88
294.833	266.88
295.064	273.88
295.295	276.88
295.525	276.88
295.756	283.88
295.987	301.88
296.217	306.88
296.448	311.88
296.679	305.88
296.909	277.88
297.14	264.88
297.37	285.88
297.601	263.88
297.831	266.88
298.062	275.88
298.292	283.88
298.523	266.88
298.753	278.88
298.984	285.88
299.214	278.88
299.445	292.88
299.675	299.88
299.905	286.88
300.136	295.88
300.366	289.88
300.597	298.88
300.827	305.88
301.057	310.88
301.288	310.88
301.518	320.88
301.748	311.88
301.979	331.88
302.209	305.88
302.439	302.88
302.669	293.88
302.9	311.88
303.13	309.88
303.36	301.88
303.59	321.88
303.82	316.88
304.051	309.88
304.281	305.88
304.511	285.88
304.741	303.88
304.971	288.88
305.201	298.88
305.431	298.88
305.661	273.88
305.891	289.88
306.121	292.88
306.352	325.88
306.582	326.88
306.812	311.88
307.042	290.88
307.272	326.88
307.502	302.88
307.731	305.88
307.961	312.88
308.191	300.88
308.421	292.88
308.651	317.88
308.881	322.88
309.111	334.88
309.341	335.88
309.571	339.88
309.8	343.88
310.03	334.88
310.26	351.88
310.49	371.88
310.72	368.88
310.949	381.88
311.179	384.88
311.409	385.88
311.639	358.88
311.868	360.88
312.098	366.88
312.328	341.88
312.557	388.88
312.787	401.88
313.017	392.88
313.246	387.88
313.476	358.88
313.706	339.88
313.935	378.88
314.165	381.88
314.394	380.88
314.624	383.88
314.853	367.88
315.083	355.88
315.312	337.88
315.542	356.88
315.771	360.88
316.001	346.88
316.23	347.88
316.46	332.88
316.689	359.88
316.919	348.88
317.148	357.88
317.377	373.88
317.607	381.88
317.836	358.88
318.065	357.88
318.295	347.88
318.524	356.88
318.753	323.88
318.983	340.88
319.212	337.88
319.441	367.88
319.67	361.88
319.9	354.88
320.129	356.88
320.358	357.88
320.587	384.88
320.816	387.88
321.046	366.88
321.275	376.88
321.504	388.88
321.733	380.88
321.962	397.88
322.191	411.88
322.42	427.88
322.649	416.88
322.878	457.88
323.108	456.88
323.337	487.88
323.566	523.88
323.795	571.88
324.024	605.88
324.253	746.88
324.482	1090.88
324.71	1575.88
324.939	2264.88
325.168	2003.88
325.397	1084.88
325.626	740.88
325.855	584.88
326.084	539.88
326.313	509.88
326.542	523.88
326.77	576.88
326.999	689.88
327.228	943.88
327.457	1392.88
327.686	1715.88
327.914	1211.88
328.143	784.88
328.372	695.88
328.6	625.88
328.829	598.88
329.058	598.88
329.287	613.88
329.515	571.88
329.744	522.88
329.972	528.88
330.201	532.88
330.43	611.88
330.658	623.88
330.887	647.88
331.115	624.88
331.344	523.88
331.572	496.88
331.801	492.88
332.03	491.88
332.258	448.88
332.486	442.88
332.715	436.88
332.943	422.88
333.172	416.88
333.4	412.88
333.629	439.88
333.857	426.88
334.085	444.88
334.314	453.88
334.542	517.88
334.771	519.88
334.999	457.88
335.227	445.88
335.455	419.88
335.684	423.88
335.912	409.88
336.14	400.88
336.369	413.88
336.597	430.88
336.825	437.88
337.053	434.88
337.281	414.88
337.51	381.88
337.738	417.88
337.966	416.88
338.194	416.88
338.422	407.88
338.65	390.88
338.878	396.88
339.106	387.88
339.334	384.88
339.562	391.88
339.79	374.88
340.018	401.88
340.246	391.88
340.474	419.88
340.702	411.88
340.93	399.88
341.158	388.88
341.386	381.88
341.614	387.88
341.842	396.88
342.07	393.88
342.298	382.88
342.526	373.88
342.754	391.88
342.981	375.88
343.209	380.88
343.437	380.88
343.665	366.88
343.893	397.88
344.12	395.88
344.348	401.88
344.576	394.88
344.804	377.88
345.031	407.88
345.259	425.88
345.487	424.88
345.714	401.88
345.942	390.88
346.17	389.88
346.397	368.88
346.625	381.88
346.853	382.88
347.08	382.88
347.308	397.88
347.535	401.88
347.763	417.88
347.99	414.88
348.218	393.88
348.445	384.88
348.673	401.88
348.9	394.88
349.128	387.88
349.355	364.88
349.583	389.88
349.81	384.88
350.037	372.88
350.265	391.88
350.492	397.88
350.72	379.88
350.947	379.88
351.174	411.88
351.402	392.88
351.629	404.88
351.856	406.88
352.083	399.88
352.311	421.88
352.538	413.88
352.765	401.88
352.992	419.88
353.22	397.88
353.447	382.88
353.674	377.88
353.901	358.88
354.128	352.88
354.355	347.88
354.583	361.88
354.81	353.88
355.037	359.88
355.264	358.88
355.491	345.88
355.718	352.88
355.945	367.88
356.172	366.88
356.399	353.88
356.626	340.88
356.853	341.88
357.08	350.88
357.307	358.88
357.534	353.88
357.761	355.88
357.988	365.88
358.215	334.88
358.441	350.88
358.668	356.88
358.895	366.88
359.122	372.88
359.349	377.88
359.576	397.88
359.802	428.88
360.029	441.88
360.256	465.88
360.483	433.88
360.709	405.88
360.936	384.88
361.163	386.88
361.39	405.88
361.616	393.88
361.843	376.88
362.07	384.88
362.296	396.88
362.523	369.88
362.749	371.88
362.976	377.88
363.203	374.88
363.429	380.88
363.656	374.88
363.882	371.88
364.109	347.88
364.335	355.88
364.562	363.88
364.788	355.88
365.015	360.88
365.241	373.88
365.468	366.88
365.694	379.88
365.92	387.88
366.147	377.88
366.373	365.88
366.599	350.88
366.826	371.88
367.052	378.88
367.278	360.88
367.505	383.88
367.731	360.88
367.957	361.88
368.184	351.88
368.41	361.88
368.636	359.88
368.862	384.88
369.089	390.88
369.315	358.88
369.541	347.88
369.767	345.88
369.993	350.88
370.219	366.88
370.445	364.88
370.672	328.88
370.898	359.88
371.124	331.88
371.35	361.88
371.576	357.88
371.802	343.88
372.028	348.88
372.254	327.88
372.48	338.88
372.706	359.88
372.932	347.88
373.158	352.88
373.384	356.88
373.61	359.88
373.835	366.88
374.061	372.88
374.287	347.88
374.513	358.88
374.739	358.88
374.965	351.88
375.191	339.88
375.416	359.88
375.642	341.88
375.868	363.88
376.094	349.88
376.319	359.88
376.545	352.88
376.771	339.88
376.997	363.88
377.222	350.88
377.448	353.88
377.674	359.88
377.899	345.88
378.125	346.88
378.35	346.88
378.576	343.88
378.802	340.88
379.027	337.88
379.253	336.88
379.478	348.88
379.704	350.88
379.929	364.88
380.155	346.88
380.38	364.88
380.606	323.88
380.831	354.88
381.057	367.88
381.282	346.88
381.507	349.88
381.733	354.88
381.958	349.88
382.184	381.88
382.409	345.88
382.634	359.88
382.86	337.88
383.085	376.88
383.31	359.88
383.535	350.88
383.761	360.88
383.986	357.88
384.211	341.88
384.436	339.88
384.662	351.88
384.887	367.88
385.112	359.88
385.337	363.88
385.562	350.88
385.787	356.88
386.013	383.88
386.238	359.88
386.463	363.88
386.688	373.88
386.913	366.88
387.138	353.88
387.363	360.88
387.588	357.88
387.813	369.88
388.038	364.88
388.263	365.88
388.488	372.88
388.713	374.88
388.938	357.88
389.163	377.88
389.387	375.88
389.612	356.88
389.837	377.88
390.062	361.88
390.287	377.88
390.512	358.88
390.736	377.88
390.961	379.88
391.186	337.88
391.411	377.88
391.636	361.88
391.86	361.88
392.085	379.88
392.31	375.88
392.534	360.88
392.759	387.88
392.984	379.88
393.208	358.88
393.433	346.88
393.658	357.88
393.882	361.88
394.107	347.88
394.331	375.88
394.556	365.88
394.78	369.88
395.005	385.88
395.229	359.88
395.454	370.88
395.678	354.88
395.903	391.88
396.127	391.88
396.352	402.88
396.576	396.88
396.801	381.88
397.025	357.88
397.249	380.88
397.474	395.88
397.698	381.88
397.922	393.88
398.147	399.88
398.371	403.88
398.595	406.88
398.82	393.88
399.044	397.88
399.268	428.88
399.492	417.88
399.717	442.88
399.941	465.88
400.165	500.88
400.389	516.88
400.613	463.88
400.837	435.88
401.062	424.88
401.286	414.88
401.51	415.88
401.734	416.88
401.958	417.88
402.182	425.88
402.406	411.88
402.63	436.88
402.854	420.88
403.078	429.88
403.302	416.88
403.526	409.88
403.75	437.88
403.974	420.88
404.198	424.88
404.422	429.88
404.645	448.88
404.869	462.88
405.093	465.88
405.317	505.88
405.541	524.88
405.765	489.88
405.988	483.88
406.212	476.88
406.436	493.88
406.66	517.88
406.883	499.88
407.107	507.88
407.331	528.88
407.555	620.88
407.778	589.88
408.002	529.88
408.226	476.88
408.449	495.88
408.673	480.88
408.896	508.88
409.12	532.88
409.344	520.88
409.567	470.88
409.791	437.88
410.014	435.88
410.238	418.88
410.461	445.88
410.685	454.88
410.908	474.88
411.132	482.88
411.355	492.88
411.578	492.88
411.802	435.88
412.025	444.88
412.249	461.88
412.472	464.88
412.695	505.88
412.919	485.88
413.142	439.88
413.365	427.88
413.589	416.88
413.812	416.88
414.035	408.88
414.258	409.88
414.482	400.88
414.705	405.88
414.928	410.88
415.151	380.88
415.374	391.88
415.597	399.88
415.821	402.88
416.044	435.88
416.267	427.88
416.49	421.88
416.713	404.88
416.936	398.88
417.159	398.88
417.382	408.88
417.605	426.88
417.828	432.88
418.051	418.88
418.274	427.88
418.497	424.88
418.72	400.88
418.943	403.88
419.166	427.88
419.389	437.88
419.611	431.88
419.834	435.88
420.057	426.88
420.28	440.88
420.503	433.88
420.726	440.88
420.948	451.88
421.171	515.88
421.394	538.88
421.617	457.88
421.839	429.88
422.062	444.88
422.285	451.88
422.507	519.88
422.73	575.88
422.953	559.88
423.175	496.88
423.398	469.88
423.621	456.88
423.843	472.88
424.066	487.88
424.288	478.88
424.511	505.88
424.733	567.88
424.956	628.88
425.178	608.88
425.401	602.88
425.623	619.88
425.846	545.88
426.068	493.88
426.291	474.88
426.513	481.88
426.735	503.88
426.958	524.88
427.18	611.88
427.402	726.88
427.625	803.88
427.847	736.88
428.069	635.88
428.292	546.88
428.514	514.88
428.736	471.88
428.958	489.88
429.181	465.88
429.403	460.88
429.625	482.88
429.847	491.88
430.069	555.88
430.292	567.88
430.514	450.88
430.736	436.88
430.958	432.88
431.18	438.88
431.402	420.88
431.624	389.88
431.846	427.88
432.068	409.88
432.29	415.88
432.512	413.88
432.734	405.88
432.956	415.88
433.178	439.88
433.4	444.88
433.622	438.88
433.844	407.88
434.066	402.88
434.287	421.88
434.509	404.88
434.731	419.88
434.953	417.88
435.175	439.88
435.397	470.88
435.618	481.88
435.84	503.88
436.062	598.88
436.284	666.88
436.505	577.88
436.727	508.88
436.949	487.88
437.17	453.88
437.392	463.88
437.614	483.88
437.835	522.88
438.057	592.88
438.278	680.88
438.5	663.88
438.721	754.88
438.943	726.88
439.165	599.88
439.386	508.88
439.608	489.88
439.829	497.88
440.05	522.88
440.272	569.88
440.493	541.88
440.715	516.88
440.936	492.88
441.158	447.88
441.379	463.88
441.6	486.88
441.822	478.88
442.043	523.88
442.264	620.88
442.486	653.88
442.707	552.88
442.928	502.88
443.149	488.88
443.371	533.88
443.592	570.88
443.813	639.88
444.034	695.88
444.255	600.88
444.476	504.88
444.698	487.88
444.919	474.88
445.14	560.88
445.361	544.88
445.582	524.88
445.803	577.88
446.024	676.88
446.245	695.88
446.466	640.88
446.687	549.88
446.908	479.88
447.129	445.88
447.35	468.88
447.571	457.88
447.792	435.88
448.013	447.88
448.234	475.88
448.455	526.88
448.675	620.88
448.896	742.88
449.117	620.88
449.338	585.88
449.559	681.88
449.779	775.88
450	614.88
450.221	491.88
450.442	451.88
450.662	472.88
450.883	464.88
451.104	480.88
451.324	492.88
451.545	443.88
451.766	421.88
451.986	413.88
452.207	391.88
452.428	418.88
452.648	421.88
452.869	415.88
453.089	411.88
453.31	422.88
453.53	427.88
453.751	405.88
453.971	419.88
454.192	423.88
454.412	414.88
454.633	400.88
454.853	388.88
455.073	408.88
455.294	433.88
455.514	504.88
455.734	486.88
455.955	413.88
456.175	417.88
456.395	372.88
456.616	351.88
456.836	366.88
457.056	368.88
457.276	332.88
457.497	380.88
457.717	369.88
457.937	375.88
458.157	389.88
458.377	394.88
458.598	412.88
458.818	490.88
459.038	567.88
459.258	567.88
459.478	485.88
459.698	432.88
459.918	399.88
460.138	411.88
460.358	419.88
460.578	415.88
460.798	412.88
461.018	396.88
461.238	420.88
461.458	402.88
461.678	413.88
461.898	389.88
462.118	403.88
462.338	405.88
462.558	411.88
462.777	400.88
462.997	408.88
463.217	416.88
463.437	433.88
463.657	412.88
463.876	412.88
464.096	431.88
464.316	428.88
464.536	433.88
464.755	425.88
464.975	432.88
465.195	493.88
465.414	605.88
465.634	498.88
465.854	445.88
466.073	428.88
466.293	417.88
466.512	399.88
466.732	388.88
466.951	402.88
467.171	397.88
467.391	404.88
467.61	437.88
467.829	432.88
468.049	420.88
468.268	422.88
468.488	397.88
468.707	393.88
468.927	393.88
469.146	384.88
469.365	393.88
469.585	404.88
469.804	409.88
470.023	428.88
470.243	412.88
470.462	416.88
470.681	412.88
470.901	440.88
471.12	412.88
471.339	423.88
471.558	398.88
471.777	421.88
471.997	430.88
472.216	411.88
472.435	443.88
472.654	445.88
472.873	432.88
473.092	425.88
473.311	423.88
473.53	413.88
473.749	412.88
473.968	460.88
474.187	599.88
474.406	594.88
474.625	492.88
474.844	442.88
475.063	411.88
475.282	421.88
475.501	448.88
475.72	409.88
475.939	415.88
476.158	438.88
476.377	427.88
476.596	414.88
476.814	417.88
477.033	432.88
477.252	439.88
477.471	429.88
477.69	449.88
477.908	443.88
478.127	437.88
478.346	422.88
478.564	430.88
478.783	453.88
479.002	438.88
479.22	469.88
479.439	492.88
479.658	522.88
479.876	503.88
480.095	491.88
480.313	541.88
480.532	514.88
480.751	513.88
480.969	511.88
481.188	571.88
481.406	639.88
481.624	563.88
481.843	534.88
482.061	507.88
482.28	488.88
482.498	476.88
482.717	479.88
482.935	501.88
483.153	478.88
483.372	473.88
483.59	485.88
483.808	481.88
484.027	497.88
484.245	489.88
484.463	501.88
484.681	506.88
484.9	478.88
485.118	491.88
485.336	511.88
485.554	503.88
485.772	496.88
485.99	496.88
486.209	504.88
486.427	509.88
486.645	544.88
486.863	541.88
487.081	573.88
487.299	534.88
487.517	533.88
487.735	551.88
487.953	518.88
488.171	516.88
488.389	531.88
488.607	522.88
488.825	545.88
489.043	519.88
489.261	528.88
489.479	528.88
489.696	536.88
489.914	545.88
490.132	543.88
490.35	564.88
490.568	555.88
490.786	574.88
491.003	563.88
491.221	597.88
491.439	591.88
491.657	592.88
491.874	597.88
492.092	612.88
492.31	608.88
492.527	639.88
492.745	620.88
492.963	610.88
493.18	621.88
493.398	614.88
493.615	610.88
493.833	614.88
494.05	633.88
494.268	641.88
494.485	643.88
494.703	637.88
494.92	639.88
495.138	633.88
495.355	657.88
495.573	645.88
495.79	646.88
496.008	647.88
496.225	634.88
496.442	644.88
496.66	628.88
496.877	638.88
497.094	632.88
497.312	636.88
497.529	640.88
497.746	652.88
497.963	646.88
498.181	656.88
498.398	665.88
498.615	683.88
498.832	683.88
499.049	699.88
499.267	700.88
499.484	702.88
499.701	718.88
499.918	742.88
500.135	757.88
500.352	750.88
500.569	785.88
500.786	760.88
501.003	779.88
501.22	803.88
501.437	748.88
501.654	750.88
501.871	783.88
