Data from 1986.PennyLincolnUp.Lamp.En5.5.200Scan.071819.P2_HRD10591_17-09-54-974.txt Node
Date: Thu Jul 18 17:09:54 EDT 2019
User: cochatt
Spectrometer: HR+D1059
Trigger mode: 1
Integration Time (sec): 1.000000E-1
Scans to average: 1
Electric dark correction enabled: true
Nonlinearity correction enabled: false
Boxcar width: 0
XAxis mode: Wavelengths
Number of Pixels in Spectrum: 2048
>>>>>Begin Spectral Data<<<<<
223.165	-9.5
223.4	-9.5
223.635	-9.5
223.869	-16.5
224.104	-21.5
224.338	-11.5
224.573	-16.5
224.808	-4.5
225.042	-22.5
225.277	-9.5
225.511	-11.5
225.746	-0.5
225.98	20.5
226.215	3.5
226.449	23.5
226.683	24.5
226.918	19.5
227.152	32.5
227.387	31.5
227.621	40.5
227.856	37.5
228.09	52.5
228.324	55.5
228.559	56.5
228.793	69.5
229.027	89.5
229.262	105.5
229.496	119.5
229.73	123.5
229.964	150.5
230.199	119.5
230.433	109.5
230.667	107.5
230.901	104.5
231.136	105.5
231.37	116.5
231.604	106.5
231.838	97.5
232.072	97.5
232.306	111.5
232.541	128.5
232.775	97.5
233.009	115.5
233.243	95.5
233.477	103.5
233.711	109.5
233.945	115.5
234.179	119.5
234.413	107.5
234.647	111.5
234.881	112.5
235.115	113.5
235.349	114.5
235.583	117.5
235.817	136.5
236.051	115.5
236.285	115.5
236.519	107.5
236.753	130.5
236.987	132.5
237.221	169.5
237.455	214.5
237.689	171.5
237.922	119.5
238.156	135.5
238.39	131.5
238.624	125.5
238.858	125.5
239.091	115.5
239.325	120.5
239.559	109.5
239.793	120.5
240.027	139.5
240.26	125.5
240.494	141.5
240.728	140.5
240.961	138.5
241.195	140.5
241.429	139.5
241.662	123.5
241.896	127.5
242.13	129.5
242.363	130.5
242.597	128.5
242.83	124.5
243.064	132.5
243.298	136.5
243.531	130.5
243.765	122.5
243.998	133.5
244.232	138.5
244.465	137.5
244.699	128.5
244.932	156.5
245.166	137.5
245.399	136.5
245.633	151.5
245.866	140.5
246.099	149.5
246.333	149.5
246.566	145.5
246.8	140.5
247.033	151.5
247.266	147.5
247.5	152.5
247.733	177.5
247.966	160.5
248.2	166.5
248.433	178.5
248.666	191.5
248.899	163.5
249.133	188.5
249.366	199.5
249.599	175.5
249.832	168.5
250.066	179.5
250.299	172.5
250.532	169.5
250.765	189.5
250.998	204.5
251.231	204.5
251.465	210.5
251.698	201.5
251.931	208.5
252.164	199.5
252.397	193.5
252.63	187.5
252.863	197.5
253.096	198.5
253.329	219.5
253.562	222.5
253.795	205.5
254.028	198.5
254.261	219.5
254.494	219.5
254.727	236.5
254.96	269.5
255.193	253.5
255.426	239.5
255.659	216.5
255.892	209.5
256.124	211.5
256.357	228.5
256.59	208.5
256.823	202.5
257.056	195.5
257.289	209.5
257.521	204.5
257.754	204.5
257.987	183.5
258.22	201.5
258.452	203.5
258.685	190.5
258.918	221.5
259.151	201.5
259.383	210.5
259.616	225.5
259.849	193.5
260.081	213.5
260.314	234.5
260.547	241.5
260.779	229.5
261.012	239.5
261.244	203.5
261.477	208.5
261.71	197.5
261.942	200.5
262.175	234.5
262.407	200.5
262.64	193.5
262.872	195.5
263.105	203.5
263.337	227.5
263.57	201.5
263.802	197.5
264.035	181.5
264.267	204.5
264.499	196.5
264.732	189.5
264.964	207.5
265.197	204.5
265.429	218.5
265.661	205.5
265.894	202.5
266.126	197.5
266.358	198.5
266.591	200.5
266.823	199.5
267.055	194.5
267.287	202.5
267.52	209.5
267.752	205.5
267.984	209.5
268.216	195.5
268.448	215.5
268.681	212.5
268.913	223.5
269.145	232.5
269.377	262.5
269.609	259.5
269.841	247.5
270.073	253.5
270.306	292.5
270.538	300.5
270.77	295.5
271.002	288.5
271.234	263.5
271.466	265.5
271.698	287.5
271.93	289.5
272.162	319.5
272.394	313.5
272.626	304.5
272.858	291.5
273.09	252.5
273.322	248.5
273.553	250.5
273.785	246.5
274.017	220.5
274.249	230.5
274.481	243.5
274.713	249.5
274.945	245.5
275.176	215.5
275.408	250.5
275.64	251.5
275.872	245.5
276.104	235.5
276.335	239.5
276.567	239.5
276.799	252.5
277.031	270.5
277.262	284.5
277.494	289.5
277.726	278.5
277.957	254.5
278.189	264.5
278.421	257.5
278.652	244.5
278.884	266.5
279.115	242.5
279.347	225.5
279.579	241.5
279.81	237.5
280.042	248.5
280.273	233.5
280.505	215.5
280.736	226.5
280.968	228.5
281.199	232.5
281.431	228.5
281.662	224.5
281.894	231.5
282.125	257.5
282.356	266.5
282.588	267.5
282.819	264.5
283.051	263.5
283.282	244.5
283.513	264.5
283.745	221.5
283.976	224.5
284.207	233.5
284.439	252.5
284.67	252.5
284.901	238.5
285.132	242.5
285.364	251.5
285.595	247.5
285.826	229.5
286.057	239.5
286.288	232.5
286.52	254.5
286.751	247.5
286.982	242.5
287.213	233.5
287.444	251.5
287.675	234.5
287.906	262.5
288.138	263.5
288.369	277.5
288.6	267.5
288.831	236.5
289.062	264.5
289.293	266.5
289.524	259.5
289.755	235.5
289.986	260.5
290.217	244.5
290.448	247.5
290.679	243.5
290.91	257.5
291.141	245.5
291.371	235.5
291.602	248.5
291.833	256.5
292.064	258.5
292.295	250.5
292.526	252.5
292.757	249.5
292.987	236.5
293.218	258.5
293.449	256.5
293.68	242.5
293.91	239.5
294.141	256.5
294.372	250.5
294.603	241.5
294.833	258.5
295.064	253.5
295.295	262.5
295.525	253.5
295.756	247.5
295.987	261.5
296.217	273.5
296.448	300.5
296.679	262.5
296.909	248.5
297.14	244.5
297.37	265.5
297.601	271.5
297.831	240.5
298.062	255.5
298.292	261.5
298.523	252.5
298.753	248.5
298.984	252.5
299.214	249.5
299.445	270.5
299.675	266.5
299.905	272.5
300.136	274.5
300.366	243.5
300.597	248.5
300.827	263.5
301.057	270.5
301.288	264.5
301.518	285.5
301.748	278.5
301.979	279.5
302.209	273.5
302.439	281.5
302.669	302.5
302.9	264.5
303.13	278.5
303.36	279.5
303.59	304.5
303.82	284.5
304.051	278.5
304.281	280.5
304.511	285.5
304.741	283.5
304.971	276.5
305.201	264.5
305.431	263.5
305.661	294.5
305.891	294.5
306.121	280.5
306.352	283.5
306.582	288.5
306.812	282.5
307.042	273.5
307.272	293.5
307.502	276.5
307.731	284.5
307.961	287.5
308.191	296.5
308.421	276.5
308.651	290.5
308.881	280.5
309.111	298.5
309.341	281.5
309.571	296.5
309.8	330.5
310.03	331.5
310.26	332.5
310.49	324.5
310.72	336.5
310.949	340.5
311.179	359.5
311.409	361.5
311.639	347.5
311.868	333.5
312.098	316.5
312.328	328.5
312.557	345.5
312.787	363.5
313.017	361.5
313.246	331.5
313.476	330.5
313.706	323.5
313.935	316.5
314.165	359.5
314.394	340.5
314.624	351.5
314.853	349.5
315.083	337.5
315.312	333.5
315.542	329.5
315.771	327.5
316.001	323.5
316.23	316.5
316.46	332.5
316.689	341.5
316.919	332.5
317.148	338.5
317.377	343.5
317.607	338.5
317.836	337.5
318.065	321.5
318.295	325.5
318.524	324.5
318.753	325.5
318.983	327.5
319.212	339.5
319.441	334.5
319.67	345.5
319.9	331.5
320.129	333.5
320.358	317.5
320.587	337.5
320.816	356.5
321.046	364.5
321.275	360.5
321.504	339.5
321.733	356.5
321.962	373.5
322.191	370.5
322.42	385.5
322.649	394.5
322.878	401.5
323.108	422.5
323.337	443.5
323.566	431.5
323.795	484.5
324.024	550.5
324.253	656.5
324.482	928.5
324.71	1402.5
324.939	1997.5
325.168	1812.5
325.397	929.5
325.626	643.5
325.855	515.5
326.084	472.5
326.313	460.5
326.542	441.5
326.77	499.5
326.999	608.5
327.228	806.5
327.457	1241.5
327.686	1540.5
327.914	1053.5
328.143	685.5
328.372	556.5
328.6	535.5
328.829	498.5
329.058	533.5
329.287	557.5
329.515	497.5
329.744	446.5
329.972	448.5
330.201	452.5
330.43	462.5
330.658	507.5
330.887	543.5
331.115	529.5
331.344	466.5
331.572	441.5
331.801	437.5
332.03	428.5
332.258	404.5
332.486	363.5
332.715	376.5
332.943	369.5
333.172	375.5
333.4	379.5
333.629	376.5
333.857	384.5
334.085	385.5
334.314	371.5
334.542	369.5
334.771	387.5
334.999	385.5
335.227	405.5
335.455	358.5
335.684	367.5
335.912	363.5
336.14	370.5
336.369	367.5
336.597	378.5
336.825	383.5
337.053	359.5
337.281	367.5
337.51	367.5
337.738	357.5
337.966	373.5
338.194	375.5
338.422	368.5
338.65	372.5
338.878	363.5
339.106	350.5
339.334	349.5
339.562	348.5
339.79	340.5
340.018	369.5
340.246	354.5
340.474	363.5
340.702	374.5
340.93	342.5
341.158	342.5
341.386	346.5
341.614	371.5
341.842	349.5
342.07	370.5
342.298	362.5
342.526	344.5
342.754	331.5
342.981	339.5
343.209	350.5
343.437	338.5
343.665	346.5
343.893	361.5
344.12	355.5
344.348	348.5
344.576	370.5
344.804	361.5
345.031	387.5
345.259	383.5
345.487	379.5
345.714	371.5
345.942	354.5
346.17	358.5
346.397	345.5
346.625	367.5
346.853	345.5
347.08	353.5
347.308	372.5
347.535	367.5
347.763	363.5
347.99	382.5
348.218	363.5
348.445	381.5
348.673	373.5
348.9	366.5
349.128	352.5
349.355	349.5
349.583	333.5
349.81	343.5
350.037	341.5
350.265	321.5
350.492	327.5
350.72	339.5
350.947	342.5
351.174	375.5
351.402	367.5
351.629	372.5
351.856	362.5
352.083	354.5
352.311	368.5
352.538	385.5
352.765	372.5
352.992	380.5
353.22	359.5
353.447	362.5
353.674	346.5
353.901	335.5
354.128	344.5
354.355	336.5
354.583	321.5
354.81	322.5
355.037	317.5
355.264	319.5
355.491	319.5
355.718	321.5
355.945	324.5
356.172	333.5
356.399	313.5
356.626	312.5
356.853	319.5
357.08	329.5
357.307	309.5
357.534	312.5
357.761	326.5
357.988	325.5
358.215	337.5
358.441	317.5
358.668	334.5
358.895	328.5
359.122	318.5
359.349	345.5
359.576	329.5
359.802	377.5
360.029	395.5
360.256	415.5
360.483	412.5
360.709	364.5
360.936	361.5
361.163	375.5
361.39	348.5
361.616	345.5
361.843	337.5
362.07	368.5
362.296	364.5
362.523	360.5
362.749	347.5
362.976	332.5
363.203	334.5
363.429	311.5
363.656	338.5
363.882	312.5
364.109	332.5
364.335	342.5
364.562	321.5
364.788	325.5
365.015	318.5
365.241	336.5
365.468	329.5
365.694	355.5
365.92	335.5
366.147	313.5
366.373	339.5
366.599	329.5
366.826	344.5
367.052	334.5
367.278	329.5
367.505	330.5
367.731	345.5
367.957	332.5
368.184	331.5
368.41	323.5
368.636	339.5
368.862	336.5
369.089	333.5
369.315	327.5
369.541	321.5
369.767	330.5
369.993	317.5
370.219	341.5
370.445	345.5
370.672	330.5
370.898	321.5
371.124	301.5
371.35	330.5
371.576	320.5
371.802	322.5
372.028	327.5
372.254	324.5
372.48	331.5
372.706	311.5
372.932	325.5
373.158	335.5
373.384	323.5
373.61	318.5
373.835	330.5
374.061	337.5
374.287	336.5
374.513	328.5
374.739	323.5
374.965	340.5
375.191	311.5
375.416	338.5
375.642	329.5
375.868	339.5
376.094	341.5
376.319	316.5
376.545	317.5
376.771	307.5
376.997	315.5
377.222	335.5
377.448	312.5
377.674	316.5
377.899	325.5
378.125	312.5
378.35	341.5
378.576	339.5
378.802	336.5
379.027	325.5
379.253	339.5
379.478	319.5
379.704	315.5
379.929	332.5
380.155	328.5
380.38	322.5
380.606	337.5
380.831	339.5
381.057	323.5
381.282	323.5
381.507	313.5
381.733	334.5
381.958	333.5
382.184	323.5
382.409	341.5
382.634	342.5
382.86	318.5
383.085	321.5
383.31	325.5
383.535	338.5
383.761	328.5
383.986	313.5
384.211	322.5
384.436	343.5
384.662	339.5
384.887	356.5
385.112	335.5
385.337	339.5
385.562	330.5
385.787	333.5
386.013	342.5
386.238	355.5
386.463	338.5
386.688	355.5
386.913	341.5
387.138	332.5
387.363	355.5
387.588	344.5
387.813	341.5
388.038	369.5
388.263	347.5
388.488	332.5
388.713	328.5
388.938	345.5
389.163	338.5
389.387	375.5
389.612	339.5
389.837	335.5
390.062	335.5
390.287	350.5
390.512	355.5
390.736	329.5
390.961	346.5
391.186	332.5
391.411	341.5
391.636	344.5
391.86	346.5
392.085	346.5
392.31	333.5
392.534	361.5
392.759	344.5
392.984	339.5
393.208	346.5
393.433	337.5
393.658	358.5
393.882	346.5
394.107	348.5
394.331	344.5
394.556	331.5
394.78	337.5
395.005	356.5
395.229	347.5
395.454	341.5
395.678	356.5
395.903	368.5
396.127	403.5
396.352	371.5
396.576	369.5
396.801	357.5
397.025	341.5
397.249	373.5
397.474	356.5
397.698	367.5
397.922	374.5
398.147	390.5
398.371	364.5
398.595	375.5
398.82	377.5
399.044	396.5
399.268	390.5
399.492	406.5
399.717	411.5
399.941	439.5
400.165	456.5
400.389	468.5
400.613	446.5
400.837	413.5
401.062	414.5
401.286	407.5
401.51	387.5
401.734	369.5
401.958	380.5
402.182	381.5
402.406	411.5
402.63	380.5
402.854	391.5
403.078	399.5
403.302	401.5
403.526	396.5
403.75	415.5
403.974	393.5
404.198	391.5
404.422	396.5
404.645	399.5
404.869	399.5
405.093	424.5
405.317	421.5
405.541	464.5
405.765	397.5
405.988	409.5
406.212	417.5
406.436	444.5
406.66	464.5
406.883	442.5
407.107	462.5
407.331	486.5
407.555	530.5
407.778	563.5
408.002	496.5
408.226	455.5
408.449	465.5
408.673	431.5
408.896	469.5
409.12	507.5
409.344	469.5
409.567	457.5
409.791	412.5
410.014	400.5
410.238	412.5
410.461	407.5
410.685	404.5
410.908	438.5
411.132	469.5
411.355	503.5
411.578	470.5
411.802	422.5
412.025	387.5
412.249	379.5
412.472	396.5
412.695	417.5
412.919	400.5
413.142	384.5
413.365	378.5
413.589	400.5
413.812	368.5
414.035	357.5
414.258	369.5
414.482	375.5
414.705	371.5
414.928	377.5
415.151	345.5
415.374	397.5
415.597	366.5
415.821	381.5
416.044	366.5
416.267	377.5
416.49	367.5
416.713	383.5
416.936	369.5
417.159	360.5
417.382	375.5
417.605	377.5
417.828	380.5
418.051	421.5
418.274	408.5
418.497	388.5
418.72	385.5
418.943	390.5
419.166	373.5
419.389	411.5
419.611	411.5
419.834	406.5
420.057	389.5
420.28	411.5
420.503	407.5
420.726	391.5
420.948	414.5
421.171	457.5
421.394	459.5
421.617	424.5
421.839	397.5
422.062	418.5
422.285	431.5
422.507	460.5
422.73	542.5
422.953	517.5
423.175	455.5
423.398	412.5
423.621	416.5
423.843	432.5
424.066	446.5
424.288	450.5
424.511	446.5
424.733	512.5
424.956	581.5
425.178	555.5
425.401	551.5
425.623	556.5
425.846	502.5
426.068	457.5
426.291	457.5
426.513	454.5
426.735	445.5
426.958	499.5
427.18	580.5
427.402	674.5
427.625	743.5
427.847	654.5
428.069	575.5
428.292	504.5
428.514	458.5
428.736	458.5
428.958	426.5
429.181	402.5
429.403	414.5
429.625	427.5
429.847	450.5
430.069	525.5
430.292	521.5
430.514	433.5
430.736	413.5
430.958	389.5
431.18	417.5
431.402	402.5
431.624	375.5
431.846	384.5
432.068	371.5
432.29	384.5
432.512	374.5
432.734	400.5
432.956	403.5
433.178	383.5
433.4	411.5
433.622	387.5
433.844	394.5
434.066	396.5
434.287	388.5
434.509	393.5
434.731	411.5
434.953	406.5
435.175	421.5
435.397	467.5
435.618	452.5
435.84	507.5
436.062	587.5
436.284	600.5
436.505	520.5
436.727	454.5
436.949	421.5
437.17	424.5
437.392	410.5
437.614	425.5
437.835	468.5
438.057	566.5
438.278	637.5
438.5	651.5
438.721	695.5
438.943	652.5
439.165	535.5
439.386	504.5
439.608	502.5
439.829	460.5
440.05	513.5
440.272	540.5
440.493	507.5
440.715	440.5
440.936	423.5
441.158	420.5
441.379	403.5
441.6	428.5
441.822	439.5
442.043	501.5
442.264	571.5
442.486	583.5
442.707	509.5
442.928	474.5
443.149	468.5
443.371	493.5
443.592	566.5
443.813	588.5
444.034	660.5
444.255	551.5
444.476	485.5
444.698	462.5
444.919	455.5
445.14	577.5
445.361	507.5
445.582	478.5
445.803	561.5
446.024	654.5
446.245	619.5
446.466	590.5
446.687	493.5
446.908	460.5
447.129	447.5
447.35	409.5
447.571	412.5
447.792	416.5
448.013	417.5
448.234	450.5
448.455	495.5
448.675	597.5
448.896	672.5
449.117	578.5
449.338	533.5
449.559	631.5
449.779	705.5
450	581.5
450.221	466.5
450.442	457.5
450.662	441.5
450.883	427.5
451.104	444.5
451.324	426.5
451.545	394.5
451.766	403.5
451.986	383.5
452.207	377.5
452.428	384.5
452.648	373.5
452.869	366.5
453.089	400.5
453.31	406.5
453.53	381.5
453.751	380.5
453.971	389.5
454.192	406.5
454.412	404.5
454.633	388.5
454.853	374.5
455.073	363.5
455.294	402.5
455.514	461.5
455.734	460.5
455.955	377.5
456.175	363.5
456.395	347.5
456.616	364.5
456.836	356.5
457.056	348.5
457.276	359.5
457.497	360.5
457.717	353.5
457.937	345.5
458.157	360.5
458.377	352.5
458.598	398.5
458.818	441.5
459.038	525.5
459.258	522.5
459.478	434.5
459.698	402.5
459.918	374.5
460.138	379.5
460.358	391.5
460.578	354.5
460.798	380.5
461.018	381.5
461.238	392.5
461.458	380.5
461.678	382.5
461.898	389.5
462.118	393.5
462.338	360.5
462.558	385.5
462.777	395.5
462.997	375.5
463.217	391.5
463.437	406.5
463.657	400.5
463.876	399.5
464.096	404.5
464.316	374.5
464.536	419.5
464.755	404.5
464.975	421.5
465.195	482.5
465.414	537.5
465.634	461.5
465.854	420.5
466.073	401.5
466.293	390.5
466.512	370.5
466.732	381.5
466.951	365.5
467.171	369.5
467.391	379.5
467.61	387.5
467.829	388.5
468.049	405.5
468.268	373.5
468.488	380.5
468.707	370.5
468.927	360.5
469.146	351.5
469.365	360.5
469.585	361.5
469.804	351.5
470.023	388.5
470.243	385.5
470.462	397.5
470.681	416.5
470.901	401.5
471.12	374.5
471.339	369.5
471.558	396.5
471.777	383.5
471.997	370.5
472.216	371.5
472.435	371.5
472.654	368.5
472.873	364.5
473.092	377.5
473.311	374.5
473.53	373.5
473.749	378.5
473.968	416.5
474.187	529.5
474.406	562.5
474.625	460.5
474.844	423.5
475.063	397.5
475.282	393.5
475.501	405.5
475.72	389.5
475.939	383.5
476.158	391.5
476.377	380.5
476.596	389.5
476.814	380.5
477.033	396.5
477.252	401.5
477.471	414.5
477.69	414.5
477.908	404.5
478.127	410.5
478.346	411.5
478.564	397.5
478.783	411.5
479.002	424.5
479.22	450.5
479.439	436.5
479.658	434.5
479.876	459.5
480.095	460.5
480.313	481.5
480.532	469.5
480.751	453.5
480.969	445.5
481.188	469.5
481.406	465.5
481.624	482.5
481.843	479.5
482.061	453.5
482.28	449.5
482.498	440.5
482.717	440.5
482.935	457.5
483.153	437.5
483.372	427.5
483.59	439.5
483.808	452.5
484.027	432.5
484.245	469.5
484.463	448.5
484.681	475.5
484.9	458.5
485.118	465.5
485.336	455.5
485.554	462.5
485.772	460.5
485.99	452.5
486.209	478.5
486.427	480.5
486.645	476.5
486.863	480.5
487.081	484.5
487.299	509.5
487.517	471.5
487.735	475.5
487.953	492.5
488.171	497.5
488.389	488.5
488.607	470.5
488.825	482.5
489.043	474.5
489.261	490.5
489.479	503.5
489.696	483.5
489.914	509.5
490.132	506.5
490.35	489.5
490.568	524.5
490.786	519.5
491.003	534.5
491.221	535.5
491.439	533.5
491.657	547.5
491.874	580.5
492.092	575.5
492.31	559.5
492.527	544.5
492.745	554.5
492.963	567.5
493.18	579.5
493.398	552.5
493.615	565.5
493.833	581.5
494.05	572.5
494.268	561.5
494.485	572.5
494.703	569.5
494.92	564.5
495.138	577.5
495.355	572.5
495.573	585.5
495.79	605.5
496.008	589.5
496.225	567.5
496.442	583.5
496.66	578.5
496.877	583.5
497.094	599.5
497.312	586.5
497.529	616.5
497.746	588.5
497.963	609.5
498.181	620.5
498.398	623.5
498.615	631.5
498.832	644.5
499.049	630.5
499.267	651.5
499.484	641.5
499.701	665.5
499.918	680.5
500.135	707.5
500.352	708.5
500.569	721.5
500.786	725.5
501.003	732.5
501.22	715.5
501.437	689.5
501.654	704.5
501.871	683.5
502.088	678.5
502.305	624.5
502.522	643.5
502.739	647.5
502.956	621.5
503.172	595.5
503.389	613.5
503.606	583.5
503.823	612.5
504.04	588.5
504.256	596.5
504.473	574.5
504.69	591.5
504.907	579.5
505.123	585.5
505.34	575.5
505.557	566.5
505.773	575.5
505.99	544.5
506.207	564.5
506.423	576.5
506.64	562.5
506.856	564.5
507.073	552.5
507.289	573.5
507.506	564.5
507.722	556.5
507.939	577.5
508.155	563.5
508.372	551.5
508.588	531.5
508.805	565.5
509.021	544.5
509.238	525.5
509.454	549.5
509.67	552.5
509.887	559.5
510.103	571.5
510.319	553.5
510.536	700.5
510.752	1141.5
510.968	936.5
511.184	614.5
511.401	551.5
511.617	554.5
511.833	531.5
512.049	512.5
512.265	517.5
512.481	538.5
512.698	517.5
512.914	517.5
513.13	521.5
513.346	522.5
513.562	516.5
513.778	516.5
513.994	544.5
514.21	559.5
514.426	560.5
514.642	616.5
514.858	639.5
515.074	651.5
515.29	800.5
515.506	1284.5
515.721	1043.5
515.937	685.5
516.153	600.5
516.369	570.5
516.585	540.5
516.801	540.5
517.016	531.5
517.232	529.5
517.448	545.5
517.664	538.5
517.879	522.5
518.095	546.5
518.311	529.5
518.527	539.5
518.742	540.5
518.958	524.5
519.173	523.5
519.389	508.5
519.605	515.5
519.82	527.5
