Data from 1986.PennyLincolnUp.Lamp.En5.5.200Scan.071819.P2_HRD10591_17-11-10-974.txt Node
Date: Thu Jul 18 17:11:10 EDT 2019
User: cochatt
Spectrometer: HR+D1059
Trigger mode: 1
Integration Time (sec): 1.000000E-1
Scans to average: 1
Electric dark correction enabled: true
Nonlinearity correction enabled: false
Boxcar width: 0
XAxis mode: Wavelengths
Number of Pixels in Spectrum: 2048
>>>>>Begin Spectral Data<<<<<
223.165	-9.06
223.4	-9.06
223.635	-9.06
223.869	-22.06
224.104	-14.06
224.338	-19.06
224.573	-21.06
224.808	-1.06
225.042	-12.06
225.277	-9.06
225.511	-8.06
225.746	8.94
225.98	12.94
226.215	12.94
226.449	6.94
226.683	15.94
226.918	26.94
227.152	30.94
227.387	37.94
227.621	35.94
227.856	46.94
228.09	49.94
228.324	41.94
228.559	52.94
228.793	68.94
229.027	91.94
229.262	108.94
229.496	106.94
229.73	129.94
229.964	174.94
230.199	136.94
230.433	116.94
230.667	111.94
230.901	112.94
231.136	114.94
231.37	102.94
231.604	104.94
231.838	113.94
232.072	106.94
232.306	110.94
232.541	110.94
232.775	106.94
233.009	116.94
233.243	107.94
233.477	119.94
233.711	110.94
233.945	108.94
234.179	112.94
234.413	104.94
234.647	114.94
234.881	107.94
235.115	124.94
235.349	131.94
235.583	117.94
235.817	112.94
236.051	127.94
236.285	133.94
236.519	118.94
236.753	127.94
236.987	144.94
237.221	210.94
237.455	247.94
237.689	194.94
237.922	142.94
238.156	127.94
238.39	133.94
238.624	114.94
238.858	136.94
239.091	121.94
239.325	132.94
239.559	123.94
239.793	121.94
240.027	136.94
240.26	148.94
240.494	159.94
240.728	162.94
240.961	154.94
241.195	144.94
241.429	156.94
241.662	129.94
241.896	129.94
242.13	146.94
242.363	132.94
242.597	138.94
242.83	150.94
243.064	134.94
243.298	134.94
243.531	144.94
243.765	141.94
243.998	146.94
244.232	149.94
244.465	155.94
244.699	145.94
244.932	145.94
245.166	145.94
245.399	123.94
245.633	136.94
245.866	156.94
246.099	155.94
246.333	144.94
246.566	152.94
246.8	146.94
247.033	157.94
247.266	166.94
247.5	162.94
247.733	179.94
247.966	192.94
248.2	169.94
248.433	174.94
248.666	175.94
248.899	191.94
249.133	213.94
249.366	223.94
249.599	213.94
249.832	182.94
250.066	195.94
250.299	195.94
250.532	212.94
250.765	232.94
250.998	236.94
251.231	248.94
251.465	232.94
251.698	225.94
251.931	216.94
252.164	198.94
252.397	210.94
252.63	190.94
252.863	217.94
253.096	241.94
253.329	228.94
253.562	236.94
253.795	233.94
254.028	235.94
254.261	226.94
254.494	244.94
254.727	274.94
254.96	290.94
255.193	280.94
255.426	269.94
255.659	267.94
255.892	274.94
256.124	272.94
256.357	275.94
256.59	257.94
256.823	243.94
257.056	253.94
257.289	234.94
257.521	234.94
257.754	229.94
257.987	222.94
258.22	215.94
258.452	220.94
258.685	222.94
258.918	226.94
259.151	214.94
259.383	212.94
259.616	242.94
259.849	251.94
260.081	257.94
260.314	273.94
260.547	262.94
260.779	244.94
261.012	233.94
261.244	246.94
261.477	226.94
261.71	234.94
261.942	236.94
262.175	239.94
262.407	236.94
262.64	229.94
262.872	220.94
263.105	214.94
263.337	221.94
263.57	221.94
263.802	209.94
264.035	202.94
264.267	201.94
264.499	200.94
264.732	202.94
264.964	209.94
265.197	206.94
265.429	220.94
265.661	204.94
265.894	215.94
266.126	210.94
266.358	217.94
266.591	209.94
266.823	235.94
267.055	225.94
267.287	231.94
267.52	214.94
267.752	235.94
267.984	230.94
268.216	221.94
268.448	257.94
268.681	247.94
268.913	234.94
269.145	248.94
269.377	277.94
269.609	282.94
269.841	261.94
270.073	269.94
270.306	296.94
270.538	321.94
270.77	304.94
271.002	309.94
271.234	296.94
271.466	313.94
271.698	318.94
271.93	327.94
272.162	319.94
272.394	332.94
272.626	331.94
272.858	296.94
273.09	294.94
273.322	286.94
273.553	252.94
273.785	266.94
274.017	270.94
274.249	261.94
274.481	271.94
274.713	261.94
274.945	282.94
275.176	267.94
275.408	262.94
275.64	264.94
275.872	257.94
276.104	267.94
276.335	273.94
276.567	266.94
276.799	278.94
277.031	304.94
277.262	323.94
277.494	326.94
277.726	299.94
277.957	283.94
278.189	296.94
278.421	283.94
278.652	286.94
278.884	266.94
279.115	259.94
279.347	280.94
279.579	277.94
279.81	263.94
280.042	263.94
280.273	257.94
280.505	250.94
280.736	264.94
280.968	262.94
281.199	257.94
281.431	257.94
281.662	258.94
281.894	259.94
282.125	268.94
282.356	278.94
282.588	311.94
282.819	313.94
283.051	275.94
283.282	236.94
283.513	269.94
283.745	266.94
283.976	283.94
284.207	289.94
284.439	274.94
284.67	272.94
284.901	266.94
285.132	260.94
285.364	251.94
285.595	278.94
285.826	262.94
286.057	268.94
286.288	266.94
286.52	267.94
286.751	270.94
286.982	274.94
287.213	269.94
287.444	266.94
287.675	270.94
287.906	288.94
288.138	286.94
288.369	295.94
288.6	276.94
288.831	289.94
289.062	272.94
289.293	265.94
289.524	284.94
289.755	255.94
289.986	293.94
290.217	284.94
290.448	278.94
290.679	275.94
290.91	275.94
291.141	275.94
291.371	271.94
291.602	265.94
291.833	264.94
292.064	276.94
292.295	267.94
292.526	283.94
292.757	279.94
292.987	273.94
293.218	282.94
293.449	273.94
293.68	269.94
293.91	287.94
294.141	283.94
294.372	273.94
294.603	272.94
294.833	268.94
295.064	267.94
295.295	286.94
295.525	287.94
295.756	275.94
295.987	292.94
296.217	305.94
296.448	324.94
296.679	304.94
296.909	281.94
297.14	277.94
297.37	279.94
297.601	275.94
297.831	283.94
298.062	298.94
298.292	273.94
298.523	289.94
298.753	287.94
298.984	295.94
299.214	269.94
299.445	277.94
299.675	297.94
299.905	299.94
300.136	296.94
300.366	289.94
300.597	292.94
300.827	287.94
301.057	289.94
301.288	308.94
301.518	313.94
301.748	291.94
301.979	300.94
302.209	304.94
302.439	322.94
302.669	301.94
302.9	297.94
303.13	292.94
303.36	305.94
303.59	321.94
303.82	320.94
304.051	307.94
304.281	299.94
304.511	304.94
304.741	304.94
304.971	302.94
305.201	291.94
305.431	315.94
305.661	279.94
305.891	307.94
306.121	310.94
306.352	314.94
306.582	323.94
306.812	311.94
307.042	322.94
307.272	320.94
307.502	308.94
307.731	297.94
307.961	321.94
308.191	297.94
308.421	322.94
308.651	325.94
308.881	322.94
309.111	318.94
309.341	322.94
309.571	341.94
309.8	357.94
310.03	323.94
310.26	351.94
310.49	374.94
310.72	386.94
310.949	389.94
311.179	398.94
311.409	376.94
311.639	362.94
311.868	357.94
312.098	363.94
312.328	383.94
312.557	390.94
312.787	414.94
313.017	390.94
313.246	372.94
313.476	359.94
313.706	368.94
313.935	366.94
314.165	366.94
314.394	381.94
314.624	383.94
314.853	384.94
315.083	354.94
315.312	361.94
315.542	346.94
315.771	344.94
316.001	360.94
316.23	350.94
316.46	345.94
316.689	358.94
316.919	362.94
317.148	369.94
317.377	378.94
317.607	366.94
317.836	372.94
318.065	364.94
318.295	366.94
318.524	350.94
318.753	344.94
318.983	360.94
319.212	356.94
319.441	389.94
319.67	368.94
319.9	369.94
320.129	351.94
320.358	362.94
320.587	372.94
320.816	385.94
321.046	385.94
321.275	400.94
321.504	388.94
321.733	383.94
321.962	383.94
322.191	407.94
322.42	436.94
322.649	455.94
322.878	432.94
323.108	458.94
323.337	500.94
323.566	520.94
323.795	568.94
324.024	604.94
324.253	771.94
324.482	1072.94
324.71	1657.94
324.939	2340.94
325.168	2113.94
325.397	1135.94
325.626	756.94
325.855	588.94
326.084	546.94
326.313	533.94
326.542	528.94
326.77	583.94
326.999	706.94
327.228	954.94
327.457	1438.94
327.686	1784.94
327.914	1246.94
328.143	797.94
328.372	724.94
328.6	660.94
328.829	626.94
329.058	637.94
329.287	617.94
329.515	598.94
329.744	542.94
329.972	559.94
330.201	601.94
330.43	648.94
330.658	671.94
330.887	681.94
331.115	647.94
331.344	560.94
331.572	514.94
331.801	479.94
332.03	492.94
332.258	491.94
332.486	458.94
332.715	438.94
332.943	434.94
333.172	449.94
333.4	452.94
333.629	456.94
333.857	486.94
334.085	514.94
334.314	560.94
334.542	614.94
334.771	640.94
334.999	531.94
335.227	468.94
335.455	465.94
335.684	432.94
335.912	416.94
336.14	404.94
336.369	421.94
336.597	414.94
336.825	409.94
337.053	409.94
337.281	400.94
337.51	417.94
337.738	404.94
337.966	402.94
338.194	436.94
338.422	442.94
338.65	414.94
338.878	402.94
339.106	390.94
339.334	394.94
339.562	401.94
339.79	396.94
340.018	406.94
340.246	413.94
340.474	422.94
340.702	400.94
340.93	394.94
341.158	407.94
341.386	398.94
341.614	397.94
341.842	411.94
342.07	411.94
342.298	388.94
342.526	391.94
342.754	394.94
342.981	382.94
343.209	396.94
343.437	364.94
343.665	392.94
343.893	384.94
344.12	385.94
344.348	384.94
344.576	388.94
344.804	415.94
345.031	412.94
345.259	426.94
345.487	408.94
345.714	412.94
345.942	402.94
346.17	400.94
346.397	409.94
346.625	373.94
346.853	396.94
347.08	395.94
347.308	416.94
347.535	417.94
347.763	424.94
347.99	416.94
348.218	411.94
348.445	416.94
348.673	408.94
348.9	375.94
349.128	377.94
349.355	383.94
349.583	369.94
349.81	372.94
350.037	385.94
350.265	370.94
350.492	378.94
350.72	377.94
350.947	399.94
351.174	383.94
351.402	404.94
351.629	402.94
351.856	397.94
352.083	406.94
352.311	415.94
352.538	418.94
352.765	424.94
352.992	415.94
353.22	411.94
353.447	384.94
353.674	394.94
353.901	352.94
354.128	377.94
354.355	353.94
354.583	362.94
354.81	359.94
355.037	374.94
355.264	363.94
355.491	347.94
355.718	352.94
355.945	348.94
356.172	352.94
356.399	353.94
356.626	343.94
356.853	362.94
357.08	366.94
357.307	345.94
357.534	355.94
357.761	359.94
357.988	346.94
358.215	360.94
358.441	370.94
358.668	368.94
358.895	368.94
359.122	350.94
359.349	384.94
359.576	373.94
359.802	414.94
360.029	438.94
360.256	463.94
360.483	450.94
360.709	408.94
360.936	381.94
361.163	371.94
361.39	407.94
361.616	380.94
361.843	398.94
362.07	376.94
362.296	393.94
362.523	363.94
362.749	366.94
362.976	372.94
363.203	370.94
363.429	376.94
363.656	361.94
363.882	374.94
364.109	376.94
364.335	358.94
364.562	359.94
364.788	357.94
365.015	367.94
365.241	363.94
365.468	355.94
365.694	368.94
365.92	365.94
366.147	368.94
366.373	355.94
366.599	374.94
366.826	347.94
367.052	354.94
367.278	352.94
367.505	357.94
367.731	359.94
367.957	362.94
368.184	367.94
368.41	386.94
368.636	360.94
368.862	370.94
369.089	382.94
369.315	366.94
369.541	357.94
369.767	351.94
369.993	371.94
370.219	342.94
370.445	355.94
370.672	373.94
370.898	368.94
371.124	355.94
371.35	360.94
371.576	363.94
371.802	345.94
372.028	344.94
372.254	350.94
372.48	337.94
372.706	342.94
372.932	358.94
373.158	358.94
373.384	346.94
373.61	363.94
373.835	355.94
374.061	346.94
374.287	362.94
374.513	362.94
374.739	344.94
374.965	346.94
375.191	338.94
375.416	356.94
375.642	348.94
375.868	337.94
376.094	334.94
376.319	342.94
376.545	340.94
376.771	336.94
376.997	334.94
377.222	343.94
377.448	339.94
377.674	334.94
377.899	340.94
378.125	352.94
378.35	351.94
378.576	344.94
378.802	344.94
379.027	332.94
379.253	348.94
379.478	345.94
379.704	359.94
379.929	348.94
380.155	359.94
380.38	358.94
380.606	349.94
380.831	345.94
381.057	352.94
381.282	354.94
381.507	349.94
381.733	331.94
381.958	338.94
382.184	353.94
382.409	342.94
382.634	350.94
382.86	348.94
383.085	358.94
383.31	366.94
383.535	367.94
383.761	356.94
383.986	364.94
384.211	358.94
384.436	348.94
384.662	347.94
384.887	369.94
385.112	352.94
385.337	344.94
385.562	360.94
385.787	362.94
386.013	378.94
386.238	354.94
386.463	360.94
386.688	363.94
386.913	351.94
387.138	375.94
387.363	368.94
387.588	380.94
387.813	384.94
388.038	340.94
388.263	366.94
388.488	363.94
388.713	364.94
388.938	374.94
389.163	369.94
389.387	349.94
389.612	361.94
389.837	371.94
390.062	370.94
390.287	384.94
390.512	349.94
390.736	357.94
390.961	347.94
391.186	358.94
391.411	370.94
391.636	352.94
391.86	361.94
392.085	372.94
392.31	356.94
392.534	376.94
392.759	361.94
392.984	348.94
393.208	356.94
393.433	344.94
393.658	360.94
393.882	359.94
394.107	349.94
394.331	357.94
394.556	367.94
394.78	357.94
395.005	362.94
395.229	346.94
395.454	357.94
395.678	362.94
395.903	395.94
396.127	418.94
396.352	393.94
396.576	382.94
396.801	364.94
397.025	369.94
397.249	366.94
397.474	375.94
397.698	386.94
397.922	395.94
398.147	400.94
398.371	411.94
398.595	411.94
398.82	417.94
399.044	401.94
399.268	399.94
399.492	401.94
399.717	426.94
399.941	460.94
400.165	490.94
400.389	491.94
400.613	459.94
400.837	439.94
401.062	408.94
401.286	423.94
401.51	405.94
401.734	397.94
401.958	410.94
402.182	397.94
402.406	418.94
402.63	446.94
402.854	418.94
403.078	432.94
403.302	446.94
403.526	433.94
403.75	439.94
403.974	432.94
404.198	431.94
404.422	434.94
404.645	444.94
404.869	438.94
405.093	474.94
405.317	547.94
405.541	551.94
405.765	500.94
405.988	478.94
406.212	464.94
406.436	511.94
406.66	523.94
406.883	481.94
407.107	489.94
407.331	530.94
407.555	585.94
407.778	576.94
408.002	537.94
408.226	487.94
408.449	472.94
408.673	477.94
408.896	506.94
409.12	555.94
409.344	508.94
409.567	454.94
409.791	446.94
410.014	441.94
410.238	445.94
410.461	444.94
410.685	451.94
410.908	447.94
411.132	492.94
411.355	520.94
411.578	498.94
411.802	475.94
412.025	435.94
412.249	451.94
412.472	490.94
412.695	537.94
412.919	523.94
413.142	456.94
413.365	452.94
413.589	455.94
413.812	445.94
414.035	419.94
414.258	421.94
414.482	402.94
414.705	396.94
414.928	396.94
415.151	413.94
415.374	415.94
415.597	405.94
415.821	396.94
416.044	388.94
416.267	414.94
416.49	407.94
416.713	415.94
416.936	405.94
417.159	399.94
417.382	419.94
417.605	431.94
417.828	435.94
418.051	426.94
418.274	448.94
418.497	404.94
418.72	415.94
418.943	411.94
419.166	425.94
419.389	436.94
419.611	438.94
419.834	442.94
420.057	431.94
420.28	454.94
420.503	468.94
420.726	434.94
420.948	448.94
421.171	498.94
421.394	535.94
421.617	457.94
421.839	439.94
422.062	470.94
422.285	452.94
422.507	493.94
422.73	588.94
422.953	563.94
423.175	491.94
423.398	448.94
423.621	444.94
423.843	480.94
424.066	494.94
424.288	482.94
424.511	490.94
424.733	548.94
424.956	610.94
425.178	604.94
425.401	603.94
425.623	601.94
425.846	531.94
426.068	491.94
426.291	494.94
426.513	498.94
426.735	489.94
426.958	540.94
427.18	616.94
427.402	727.94
427.625	818.94
427.847	740.94
428.069	652.94
428.292	581.94
428.514	518.94
428.736	478.94
428.958	466.94
429.181	463.94
429.403	449.94
429.625	440.94
429.847	503.94
430.069	550.94
430.292	564.94
430.514	463.94
430.736	447.94
430.958	437.94
431.18	416.94
431.402	412.94
431.624	435.94
431.846	396.94
432.068	409.94
432.29	406.94
432.512	401.94
432.734	430.94
432.956	424.94
433.178	432.94
433.4	432.94
433.622	423.94
433.844	406.94
434.066	411.94
434.287	395.94
434.509	411.94
434.731	426.94
434.953	428.94
435.175	434.94
435.397	456.94
435.618	492.94
435.84	520.94
436.062	601.94
436.284	683.94
436.505	570.94
436.727	503.94
436.949	469.94
437.17	440.94
437.392	449.94
437.614	485.94
437.835	507.94
438.057	606.94
438.278	698.94
438.5	699.94
438.721	740.94
438.943	708.94
439.165	572.94
439.386	531.94
439.608	507.94
439.829	521.94
440.05	534.94
440.272	581.94
440.493	548.94
440.715	487.94
440.936	464.94
441.158	443.94
441.379	459.94
441.6	479.94
441.822	485.94
442.043	504.94
442.264	606.94
442.486	653.94
442.707	552.94
442.928	512.94
443.149	512.94
443.371	525.94
443.592	564.94
443.813	627.94
444.034	708.94
444.255	580.94
444.476	511.94
444.698	498.94
444.919	492.94
445.14	584.94
445.361	528.94
445.582	538.94
445.803	593.94
446.024	701.94
446.245	710.94
446.466	659.94
446.687	551.94
446.908	476.94
447.129	460.94
447.35	454.94
447.571	472.94
447.792	450.94
448.013	481.94
448.234	474.94
448.455	557.94
448.675	650.94
448.896	733.94
449.117	640.94
449.338	588.94
449.559	686.94
449.779	773.94
450	605.94
450.221	510.94
450.442	471.94
450.662	457.94
450.883	460.94
451.104	456.94
451.324	467.94
451.545	428.94
451.766	412.94
451.986	444.94
452.207	402.94
452.428	406.94
452.648	410.94
452.869	407.94
453.089	406.94
453.31	447.94
453.53	390.94
453.751	405.94
453.971	420.94
454.192	439.94
454.412	427.94
454.633	422.94
454.853	410.94
455.073	430.94
455.294	428.94
455.514	502.94
455.734	496.94
455.955	416.94
456.175	390.94
456.395	374.94
456.616	359.94
456.836	389.94
457.056	382.94
457.276	382.94
457.497	384.94
457.717	375.94
457.937	398.94
458.157	394.94
458.377	371.94
458.598	410.94
458.818	506.94
459.038	577.94
459.258	566.94
459.478	474.94
459.698	423.94
459.918	421.94
460.138	390.94
460.358	405.94
460.578	390.94
460.798	407.94
461.018	400.94
461.238	406.94
461.458	414.94
461.678	399.94
461.898	401.94
462.118	412.94
462.338	404.94
462.558	407.94
462.777	413.94
462.997	411.94
463.217	425.94
463.437	424.94
463.657	435.94
463.876	414.94
464.096	421.94
464.316	422.94
464.536	441.94
464.755	451.94
464.975	440.94
465.195	519.94
465.414	579.94
465.634	525.94
465.854	459.94
466.073	441.94
466.293	427.94
466.512	426.94
466.732	399.94
466.951	395.94
467.171	387.94
467.391	406.94
467.61	424.94
467.829	440.94
468.049	423.94
468.268	436.94
468.488	412.94
468.707	406.94
468.927	404.94
469.146	379.94
469.365	384.94
469.585	387.94
469.804	406.94
470.023	417.94
470.243	415.94
470.462	435.94
470.681	448.94
470.901	436.94
471.12	416.94
471.339	419.94
471.558	415.94
471.777	425.94
471.997	411.94
472.216	437.94
472.435	530.94
472.654	481.94
472.873	467.94
473.092	434.94
473.311	396.94
473.53	433.94
473.749	427.94
473.968	472.94
474.187	564.94
474.406	610.94
474.625	513.94
474.844	449.94
475.063	452.94
475.282	427.94
475.501	410.94
475.72	401.94
475.939	411.94
476.158	441.94
476.377	438.94
476.596	414.94
476.814	419.94
477.033	436.94
477.252	435.94
477.471	442.94
477.69	449.94
477.908	440.94
478.127	430.94
478.346	432.94
478.564	445.94
478.783	447.94
479.002	461.94
479.22	458.94
479.439	491.94
479.658	493.94
479.876	508.94
480.095	510.94
480.313	548.94
480.532	512.94
480.751	502.94
480.969	543.94
481.188	670.94
481.406	778.94
481.624	608.94
481.843	564.94
482.061	516.94
482.28	521.94
482.498	515.94
482.717	525.94
482.935	480.94
483.153	494.94
483.372	483.94
483.59	506.94
483.808	497.94
484.027	489.94
484.245	492.94
484.463	483.94
484.681	501.94
484.9	489.94
485.118	512.94
485.336	510.94
485.554	503.94
485.772	508.94
485.99	500.94
486.209	528.94
486.427	512.94
486.645	526.94
486.863	563.94
487.081	542.94
487.299	535.94
487.517	529.94
487.735	543.94
487.953	575.94
488.171	542.94
488.389	538.94
488.607	543.94
488.825	533.94
489.043	539.94
489.261	551.94
489.479	547.94
489.696	539.94
489.914	565.94
490.132	574.94
490.35	579.94
490.568	583.94
490.786	608.94
491.003	618.94
491.221	608.94
491.439	612.94
491.657	625.94
491.874	645.94
492.092	631.94
492.31	636.94
492.527	642.94
492.745	631.94
492.963	634.94
493.18	649.94
493.398	643.94
493.615	673.94
493.833	663.94
494.05	655.94
494.268	666.94
494.485	655.94
494.703	644.94
494.92	640.94
495.138	634.94
495.355	641.94
495.573	655.94
495.79	638.94
496.008	650.94
496.225	641.94
496.442	638.94
496.66	642.94
496.877	659.94
497.094	648.94
497.312	632.94
497.529	608.94
497.746	658.94
497.963	672.94
498.181	703.94
498.398	698.94
498.615	698.94
498.832	710.94
499.049	699.94
499.267	710.94
499.484	696.94
499.701	701.94
499.918	707.94
500.135	746.94
500.352	754.94
500.569	772.94
500.786	806.94
501.003	777.94
501.22	772.94
501.437	759.94
501.654	769.94
501.871	739.94
