Data from 1986.PennyLincolnUp.Lamp.En5.5.200Scan.071819.P2_HRD10591_17-11-39-973.txt Node
Date: Thu Jul 18 17:11:39 EDT 2019
User: cochatt
Spectrometer: HR+D1059
Trigger mode: 1
Integration Time (sec): 1.000000E-1
Scans to average: 1
Electric dark correction enabled: true
Nonlinearity correction enabled: false
Boxcar width: 0
XAxis mode: Wavelengths
Number of Pixels in Spectrum: 2048
>>>>>Begin Spectral Data<<<<<
223.165	-9.5
223.4	-9.5
223.635	-9.5
223.869	-35.5
224.104	-14.5
224.338	-14.5
224.573	-8.5
224.808	-3.5
225.042	-12.5
225.277	-7.5
225.511	-6.5
225.746	6.5
225.98	13.5
226.215	19.5
226.449	23.5
226.683	7.5
226.918	16.5
227.152	25.5
227.387	43.5
227.621	36.5
227.856	19.5
228.09	37.5
228.324	42.5
228.559	52.5
228.793	69.5
229.027	98.5
229.262	131.5
229.496	116.5
229.73	125.5
229.964	163.5
230.199	119.5
230.433	105.5
230.667	101.5
230.901	117.5
231.136	108.5
231.37	108.5
231.604	129.5
231.838	114.5
232.072	111.5
232.306	107.5
232.541	110.5
232.775	105.5
233.009	120.5
233.243	125.5
233.477	129.5
233.711	102.5
233.945	99.5
234.179	110.5
234.413	118.5
234.647	118.5
234.881	105.5
235.115	105.5
235.349	123.5
235.583	129.5
235.817	128.5
236.051	131.5
236.285	122.5
236.519	119.5
236.753	136.5
236.987	143.5
237.221	189.5
237.455	246.5
237.689	213.5
237.922	161.5
238.156	142.5
238.39	132.5
238.624	136.5
238.858	121.5
239.091	127.5
239.325	131.5
239.559	139.5
239.793	134.5
240.027	139.5
240.26	159.5
240.494	161.5
240.728	156.5
240.961	157.5
241.195	161.5
241.429	144.5
241.662	149.5
241.896	151.5
242.13	134.5
242.363	120.5
242.597	135.5
242.83	122.5
243.064	137.5
243.298	156.5
243.531	143.5
243.765	141.5
243.998	140.5
244.232	160.5
244.465	137.5
244.699	156.5
244.932	143.5
245.166	138.5
245.399	143.5
245.633	149.5
245.866	159.5
246.099	138.5
246.333	160.5
246.566	165.5
246.8	162.5
247.033	151.5
247.266	170.5
247.5	171.5
247.733	180.5
247.966	181.5
248.2	180.5
248.433	170.5
248.666	197.5
248.899	221.5
249.133	208.5
249.366	227.5
249.599	217.5
249.832	194.5
250.066	210.5
250.299	215.5
250.532	209.5
250.765	236.5
250.998	243.5
251.231	266.5
251.465	250.5
251.698	233.5
251.931	218.5
252.164	199.5
252.397	216.5
252.63	213.5
252.863	220.5
253.096	228.5
253.329	223.5
253.562	247.5
253.795	241.5
254.028	236.5
254.261	264.5
254.494	232.5
254.727	286.5
254.96	314.5
255.193	294.5
255.426	287.5
255.659	266.5
255.892	275.5
256.124	296.5
256.357	326.5
256.59	290.5
256.823	272.5
257.056	254.5
257.289	236.5
257.521	245.5
257.754	247.5
257.987	252.5
258.22	253.5
258.452	213.5
258.685	241.5
258.918	228.5
259.151	253.5
259.383	241.5
259.616	245.5
259.849	229.5
260.081	247.5
260.314	255.5
260.547	265.5
260.779	278.5
261.012	258.5
261.244	225.5
261.477	231.5
261.71	244.5
261.942	255.5
262.175	272.5
262.407	250.5
262.64	229.5
262.872	216.5
263.105	218.5
263.337	228.5
263.57	221.5
263.802	222.5
264.035	206.5
264.267	211.5
264.499	207.5
264.732	213.5
264.964	208.5
265.197	220.5
265.429	202.5
265.661	216.5
265.894	226.5
266.126	226.5
266.358	223.5
266.591	212.5
266.823	241.5
267.055	241.5
267.287	252.5
267.52	226.5
267.752	222.5
267.984	230.5
268.216	223.5
268.448	240.5
268.681	257.5
268.913	232.5
269.145	285.5
269.377	291.5
269.609	283.5
269.841	289.5
270.073	284.5
270.306	299.5
270.538	346.5
270.77	327.5
271.002	331.5
271.234	301.5
271.466	318.5
271.698	345.5
271.93	342.5
272.162	345.5
272.394	332.5
272.626	304.5
272.858	303.5
273.09	285.5
273.322	283.5
273.553	292.5
273.785	253.5
274.017	282.5
274.249	282.5
274.481	265.5
274.713	292.5
274.945	284.5
275.176	267.5
275.408	278.5
275.64	285.5
275.872	289.5
276.104	286.5
276.335	269.5
276.567	282.5
276.799	309.5
277.031	331.5
277.262	305.5
277.494	341.5
277.726	330.5
277.957	295.5
278.189	286.5
278.421	289.5
278.652	275.5
278.884	285.5
279.115	287.5
279.347	282.5
279.579	275.5
279.81	254.5
280.042	272.5
280.273	270.5
280.505	276.5
280.736	277.5
280.968	282.5
281.199	267.5
281.431	287.5
281.662	265.5
281.894	273.5
282.125	264.5
282.356	299.5
282.588	317.5
282.819	322.5
283.051	291.5
283.282	290.5
283.513	270.5
283.745	278.5
283.976	278.5
284.207	300.5
284.439	293.5
284.67	276.5
284.901	247.5
285.132	291.5
285.364	282.5
285.595	261.5
285.826	287.5
286.057	292.5
286.288	286.5
286.52	268.5
286.751	267.5
286.982	281.5
287.213	294.5
287.444	270.5
287.675	291.5
287.906	286.5
288.138	288.5
288.369	308.5
288.6	297.5
288.831	289.5
289.062	307.5
289.293	279.5
289.524	287.5
289.755	254.5
289.986	286.5
290.217	259.5
290.448	296.5
290.679	280.5
290.91	290.5
291.141	292.5
291.371	298.5
291.602	269.5
291.833	265.5
292.064	299.5
292.295	279.5
292.526	282.5
292.757	276.5
292.987	274.5
293.218	274.5
293.449	273.5
293.68	299.5
293.91	281.5
294.141	283.5
294.372	281.5
294.603	295.5
294.833	290.5
295.064	285.5
295.295	285.5
295.525	291.5
295.756	292.5
295.987	295.5
296.217	344.5
296.448	317.5
296.679	315.5
296.909	286.5
297.14	297.5
297.37	293.5
297.601	305.5
297.831	284.5
298.062	287.5
298.292	309.5
298.523	301.5
298.753	279.5
298.984	299.5
299.214	298.5
299.445	297.5
299.675	319.5
299.905	296.5
300.136	293.5
300.366	307.5
300.597	295.5
300.827	309.5
301.057	302.5
301.288	320.5
301.518	346.5
301.748	318.5
301.979	324.5
302.209	333.5
302.439	316.5
302.669	315.5
302.9	305.5
303.13	302.5
303.36	320.5
303.59	321.5
303.82	325.5
304.051	321.5
304.281	341.5
304.511	307.5
304.741	326.5
304.971	312.5
305.201	324.5
305.431	307.5
305.661	318.5
305.891	305.5
306.121	314.5
306.352	326.5
306.582	331.5
306.812	311.5
307.042	325.5
307.272	332.5
307.502	314.5
307.731	331.5
307.961	339.5
308.191	331.5
308.421	332.5
308.651	325.5
308.881	338.5
309.111	332.5
309.341	348.5
309.571	350.5
309.8	373.5
310.03	373.5
310.26	377.5
310.49	396.5
310.72	401.5
310.949	372.5
311.179	408.5
311.409	401.5
311.639	366.5
311.868	379.5
312.098	375.5
312.328	397.5
312.557	409.5
312.787	419.5
313.017	414.5
313.246	397.5
313.476	375.5
313.706	383.5
313.935	386.5
314.165	413.5
314.394	425.5
314.624	403.5
314.853	374.5
315.083	404.5
315.312	384.5
315.542	373.5
315.771	370.5
316.001	376.5
316.23	364.5
316.46	357.5
316.689	378.5
316.919	363.5
317.148	381.5
317.377	392.5
317.607	381.5
317.836	381.5
318.065	378.5
318.295	373.5
318.524	366.5
318.753	372.5
318.983	372.5
319.212	370.5
319.441	378.5
319.67	423.5
319.9	382.5
320.129	387.5
320.358	374.5
320.587	378.5
320.816	381.5
321.046	407.5
321.275	413.5
321.504	402.5
321.733	425.5
321.962	432.5
322.191	437.5
322.42	438.5
322.649	460.5
322.878	482.5
323.108	467.5
323.337	522.5
323.566	550.5
323.795	601.5
324.024	658.5
324.253	775.5
324.482	1114.5
324.71	1693.5
324.939	2421.5
325.168	2197.5
325.397	1132.5
325.626	771.5
325.855	654.5
326.084	573.5
326.313	566.5
326.542	560.5
326.77	636.5
326.999	726.5
327.228	993.5
327.457	1498.5
327.686	1874.5
327.914	1279.5
328.143	853.5
328.372	764.5
328.6	721.5
328.829	693.5
329.058	656.5
329.287	673.5
329.515	623.5
329.744	597.5
329.972	629.5
330.201	664.5
330.43	752.5
330.658	755.5
330.887	731.5
331.115	691.5
331.344	601.5
331.572	540.5
331.801	542.5
332.03	518.5
332.258	521.5
332.486	497.5
332.715	485.5
332.943	472.5
333.172	473.5
333.4	503.5
333.629	480.5
333.857	539.5
334.085	579.5
334.314	645.5
334.542	732.5
334.771	789.5
334.999	643.5
335.227	526.5
335.455	505.5
335.684	467.5
335.912	447.5
336.14	460.5
336.369	471.5
336.597	462.5
336.825	451.5
337.053	449.5
337.281	426.5
337.51	435.5
337.738	431.5
337.966	426.5
338.194	429.5
338.422	440.5
338.65	417.5
338.878	426.5
339.106	421.5
339.334	428.5
339.562	440.5
339.79	411.5
340.018	413.5
340.246	422.5
340.474	414.5
340.702	428.5
340.93	401.5
341.158	413.5
341.386	418.5
341.614	415.5
341.842	419.5
342.07	399.5
342.298	407.5
342.526	405.5
342.754	395.5
342.981	406.5
343.209	392.5
343.437	401.5
343.665	401.5
343.893	398.5
344.12	419.5
344.348	404.5
344.576	411.5
344.804	414.5
345.031	421.5
345.259	433.5
345.487	417.5
345.714	412.5
345.942	431.5
346.17	405.5
346.397	395.5
346.625	387.5
346.853	415.5
347.08	405.5
347.308	422.5
347.535	435.5
347.763	425.5
347.99	432.5
348.218	417.5
348.445	418.5
348.673	424.5
348.9	427.5
349.128	398.5
349.355	399.5
349.583	392.5
349.81	376.5
350.037	376.5
350.265	390.5
350.492	389.5
350.72	391.5
350.947	390.5
351.174	418.5
351.402	433.5
351.629	423.5
351.856	417.5
352.083	401.5
352.311	433.5
352.538	409.5
352.765	420.5
352.992	417.5
353.22	414.5
353.447	400.5
353.674	402.5
353.901	390.5
354.128	383.5
354.355	394.5
354.583	375.5
354.81	380.5
355.037	395.5
355.264	371.5
355.491	363.5
355.718	372.5
355.945	355.5
356.172	341.5
356.399	374.5
356.626	348.5
356.853	365.5
357.08	358.5
357.307	361.5
357.534	362.5
357.761	348.5
357.988	369.5
358.215	365.5
358.441	366.5
358.668	377.5
358.895	375.5
359.122	378.5
359.349	370.5
359.576	410.5
359.802	420.5
360.029	454.5
360.256	481.5
360.483	441.5
360.709	421.5
360.936	389.5
361.163	394.5
361.39	400.5
361.616	401.5
361.843	394.5
362.07	396.5
362.296	406.5
362.523	393.5
362.749	399.5
362.976	383.5
363.203	399.5
363.429	377.5
363.656	377.5
363.882	375.5
364.109	378.5
364.335	394.5
364.562	379.5
364.788	389.5
365.015	375.5
365.241	357.5
365.468	389.5
365.694	382.5
365.92	387.5
366.147	369.5
366.373	382.5
366.599	357.5
366.826	361.5
367.052	370.5
367.278	364.5
367.505	381.5
367.731	383.5
367.957	372.5
368.184	370.5
368.41	381.5
368.636	397.5
368.862	393.5
369.089	390.5
369.315	383.5
369.541	377.5
369.767	376.5
369.993	357.5
370.219	369.5
370.445	364.5
370.672	357.5
370.898	364.5
371.124	354.5
371.35	351.5
371.576	347.5
371.802	367.5
372.028	369.5
372.254	350.5
372.48	345.5
372.706	349.5
372.932	347.5
373.158	349.5
373.384	362.5
373.61	377.5
373.835	345.5
374.061	357.5
374.287	357.5
374.513	358.5
374.739	359.5
374.965	373.5
375.191	357.5
375.416	373.5
375.642	344.5
375.868	354.5
376.094	361.5
376.319	369.5
376.545	379.5
376.771	377.5
376.997	359.5
377.222	371.5
377.448	366.5
377.674	371.5
377.899	365.5
378.125	354.5
378.35	347.5
378.576	363.5
378.802	344.5
379.027	349.5
379.253	359.5
379.478	357.5
379.704	375.5
379.929	349.5
380.155	354.5
380.38	353.5
380.606	345.5
380.831	340.5
381.057	366.5
381.282	354.5
381.507	345.5
381.733	358.5
381.958	342.5
382.184	354.5
382.409	372.5
382.634	371.5
382.86	373.5
383.085	349.5
383.31	331.5
383.535	354.5
383.761	368.5
383.986	385.5
384.211	370.5
384.436	337.5
384.662	375.5
384.887	366.5
385.112	358.5
385.337	367.5
385.562	383.5
385.787	379.5
386.013	370.5
386.238	391.5
386.463	396.5
386.688	377.5
386.913	372.5
387.138	351.5
387.363	358.5
387.588	376.5
387.813	388.5
388.038	357.5
388.263	368.5
388.488	375.5
388.713	356.5
388.938	381.5
389.163	380.5
389.387	386.5
389.612	378.5
389.837	354.5
390.062	373.5
390.287	348.5
390.512	361.5
390.736	371.5
390.961	351.5
391.186	353.5
391.411	378.5
391.636	377.5
391.86	376.5
392.085	377.5
392.31	357.5
392.534	381.5
392.759	375.5
392.984	369.5
393.208	361.5
393.433	377.5
393.658	378.5
393.882	376.5
394.107	372.5
394.331	375.5
394.556	366.5
394.78	361.5
395.005	375.5
395.229	366.5
395.454	373.5
395.678	365.5
395.903	398.5
396.127	414.5
396.352	398.5
396.576	377.5
396.801	391.5
397.025	400.5
397.249	378.5
397.474	394.5
397.698	397.5
397.922	398.5
398.147	436.5
398.371	434.5
398.595	409.5
398.82	409.5
399.044	424.5
399.268	425.5
399.492	418.5
399.717	444.5
399.941	492.5
400.165	513.5
400.389	526.5
400.613	472.5
400.837	476.5
401.062	435.5
401.286	413.5
401.51	414.5
401.734	422.5
401.958	429.5
402.182	430.5
402.406	423.5
402.63	432.5
402.854	441.5
403.078	418.5
403.302	427.5
403.526	449.5
403.75	447.5
403.974	449.5
404.198	449.5
404.422	457.5
404.645	474.5
404.869	474.5
405.093	535.5
405.317	541.5
405.541	596.5
405.765	554.5
405.988	501.5
406.212	488.5
406.436	485.5
406.66	520.5
406.883	487.5
407.107	502.5
407.331	533.5
407.555	589.5
407.778	606.5
408.002	543.5
408.226	484.5
408.449	483.5
408.673	489.5
408.896	496.5
409.12	539.5
409.344	524.5
409.567	457.5
409.791	469.5
410.014	463.5
410.238	451.5
410.461	440.5
410.685	459.5
410.908	467.5
411.132	480.5
411.355	514.5
411.578	530.5
411.802	474.5
412.025	461.5
412.249	476.5
412.472	502.5
412.695	554.5
412.919	578.5
413.142	504.5
413.365	462.5
413.589	473.5
413.812	469.5
414.035	448.5
414.258	425.5
414.482	435.5
414.705	426.5
414.928	436.5
415.151	429.5
415.374	431.5
415.597	443.5
415.821	414.5
416.044	423.5
416.267	444.5
416.49	421.5
416.713	433.5
416.936	422.5
417.159	411.5
417.382	432.5
417.605	454.5
417.828	429.5
418.051	439.5
418.274	440.5
418.497	405.5
418.72	411.5
418.943	417.5
419.166	447.5
419.389	459.5
419.611	453.5
419.834	460.5
420.057	461.5
420.28	476.5
420.503	472.5
420.726	492.5
420.948	469.5
421.171	539.5
421.394	551.5
421.617	485.5
421.839	468.5
422.062	463.5
422.285	478.5
422.507	525.5
422.73	598.5
422.953	562.5
423.175	498.5
423.398	470.5
423.621	464.5
423.843	479.5
424.066	501.5
424.288	477.5
424.511	490.5
424.733	545.5
424.956	633.5
425.178	608.5
425.401	618.5
425.623	647.5
425.846	547.5
426.068	509.5
426.291	473.5
426.513	506.5
426.735	510.5
426.958	537.5
427.18	633.5
427.402	753.5
427.625	844.5
427.847	765.5
428.069	673.5
428.292	603.5
428.514	521.5
428.736	502.5
428.958	472.5
429.181	477.5
429.403	492.5
429.625	481.5
429.847	522.5
430.069	577.5
430.292	577.5
430.514	483.5
430.736	462.5
430.958	457.5
431.18	435.5
431.402	425.5
431.624	402.5
431.846	409.5
432.068	425.5
432.29	426.5
432.512	441.5
432.734	421.5
432.956	445.5
433.178	441.5
433.4	460.5
433.622	439.5
433.844	414.5
434.066	422.5
434.287	435.5
434.509	431.5
434.731	444.5
434.953	460.5
435.175	460.5
435.397	469.5
435.618	503.5
435.84	541.5
436.062	606.5
436.284	665.5
436.505	589.5
436.727	519.5
436.949	457.5
437.17	469.5
437.392	462.5
437.614	486.5
437.835	509.5
438.057	637.5
438.278	732.5
438.5	730.5
438.721	744.5
438.943	719.5
439.165	580.5
439.386	533.5
439.608	525.5
439.829	520.5
440.05	546.5
440.272	618.5
440.493	548.5
440.715	488.5
440.936	483.5
441.158	461.5
441.379	465.5
441.6	460.5
441.822	493.5
442.043	558.5
442.264	625.5
442.486	652.5
442.707	550.5
442.928	517.5
443.149	515.5
443.371	528.5
443.592	579.5
443.813	653.5
444.034	714.5
444.255	572.5
444.476	520.5
444.698	501.5
444.919	502.5
445.14	565.5
445.361	556.5
445.582	551.5
445.803	622.5
446.024	711.5
446.245	727.5
446.466	629.5
446.687	551.5
446.908	502.5
447.129	472.5
447.35	454.5
447.571	481.5
447.792	471.5
448.013	472.5
448.234	490.5
448.455	546.5
448.675	652.5
448.896	741.5
449.117	664.5
449.338	612.5
449.559	695.5
449.779	789.5
450	664.5
450.221	558.5
450.442	514.5
450.662	491.5
450.883	487.5
451.104	475.5
451.324	490.5
451.545	457.5
451.766	427.5
451.986	405.5
452.207	419.5
452.428	414.5
452.648	422.5
452.869	416.5
453.089	443.5
453.31	459.5
453.53	466.5
453.751	439.5
453.971	409.5
454.192	445.5
454.412	454.5
454.633	435.5
454.853	421.5
455.073	427.5
455.294	435.5
455.514	515.5
455.734	499.5
455.955	411.5
456.175	413.5
456.395	384.5
456.616	389.5
456.836	391.5
457.056	388.5
457.276	383.5
457.497	389.5
457.717	379.5
457.937	374.5
458.157	410.5
458.377	376.5
458.598	421.5
458.818	489.5
459.038	577.5
459.258	599.5
459.478	500.5
459.698	434.5
459.918	427.5
460.138	428.5
460.358	408.5
460.578	421.5
460.798	418.5
461.018	416.5
461.238	406.5
461.458	398.5
461.678	407.5
461.898	413.5
462.118	415.5
462.338	418.5
462.558	422.5
462.777	437.5
462.997	424.5
463.217	433.5
463.437	425.5
463.657	423.5
463.876	431.5
464.096	423.5
464.316	436.5
464.536	421.5
464.755	449.5
464.975	451.5
465.195	517.5
465.414	591.5
465.634	513.5
465.854	478.5
466.073	440.5
466.293	438.5
466.512	420.5
466.732	393.5
466.951	418.5
467.171	427.5
467.391	437.5
467.61	417.5
467.829	444.5
468.049	459.5
468.268	461.5
468.488	457.5
468.707	430.5
468.927	414.5
469.146	401.5
469.365	412.5
469.585	415.5
469.804	410.5
470.023	447.5
470.243	431.5
470.462	447.5
470.681	477.5
470.901	459.5
471.12	451.5
471.339	427.5
471.558	419.5
471.777	439.5
471.997	429.5
472.216	490.5
472.435	612.5
472.654	562.5
472.873	476.5
473.092	444.5
473.311	440.5
473.53	470.5
473.749	447.5
473.968	500.5
474.187	637.5
474.406	643.5
474.625	499.5
474.844	458.5
475.063	461.5
475.282	419.5
475.501	437.5
475.72	449.5
475.939	435.5
476.158	453.5
476.377	434.5
476.596	437.5
476.814	466.5
477.033	483.5
477.252	468.5
477.471	450.5
477.69	460.5
477.908	477.5
478.127	479.5
478.346	453.5
478.564	461.5
478.783	458.5
479.002	449.5
479.22	492.5
479.439	501.5
479.658	521.5
479.876	519.5
480.095	539.5
480.313	565.5
480.532	561.5
480.751	547.5
480.969	561.5
481.188	796.5
481.406	933.5
481.624	693.5
481.843	616.5
482.061	559.5
482.28	543.5
482.498	548.5
482.717	516.5
482.935	518.5
483.153	536.5
483.372	504.5
483.59	520.5
483.808	501.5
484.027	502.5
484.245	513.5
484.463	535.5
484.681	539.5
484.9	502.5
485.118	547.5
485.336	527.5
485.554	528.5
485.772	522.5
485.99	524.5
486.209	540.5
486.427	537.5
486.645	557.5
486.863	581.5
487.081	553.5
487.299	548.5
487.517	567.5
487.735	561.5
487.953	567.5
488.171	553.5
488.389	580.5
488.607	584.5
488.825	584.5
489.043	572.5
489.261	567.5
489.479	577.5
489.696	582.5
489.914	579.5
490.132	602.5
490.35	587.5
490.568	614.5
490.786	610.5
491.003	625.5
491.221	614.5
491.439	629.5
491.657	651.5
491.874	645.5
492.092	667.5
492.31	693.5
492.527	678.5
492.745	676.5
492.963	667.5
493.18	675.5
493.398	689.5
493.615	694.5
493.833	683.5
494.05	712.5
494.268	695.5
494.485	700.5
494.703	669.5
494.92	679.5
495.138	683.5
495.355	688.5
495.573	681.5
495.79	677.5
496.008	687.5
496.225	684.5
496.442	679.5
496.66	678.5
496.877	654.5
497.094	687.5
497.312	668.5
497.529	679.5
497.746	679.5
497.963	697.5
498.181	698.5
498.398	697.5
498.615	696.5
498.832	703.5
499.049	690.5
499.267	695.5
499.484	713.5
499.701	724.5
499.918	728.5
500.135	803.5
500.352	779.5
500.569	792.5
500.786	817.5
501.003	805.5
501.22	794.5
501.437	796.5
501.654	797.5
501.871	773.5
502.088	777.5
502.305	755.5
502.522	714.5
502.739	703.5
502.956	697.5
503.172	667.5
503.389	684.5
503.606	667.5
503.823	698.5
504.04	715.5
504.256	669.5
504.473	657.5
504.69	639.5
504.907	653.5
505.123	651.5
505.34	644.5
505.557	630.5
505.773	657.5
505.99	649.5
506.207	649.5
506.423	637.5
506.64	629.5
506.856	625.5
507.073	628.5
507.289	622.5
507.506	643.5
507.722	658.5
507.939	661.5
508.155	665.5
508.372	626.5
508.588	622.5
508.805	623.5
509.021	600.5
509.238	629.5
509.454	638.5
509.67	636.5
509.887	633.5
510.103	634.5
510.319	618.5
510.536	717.5
510.752	1296.5
510.968	1032.5
511.184	677.5
511.401	633.5
511.617	611.5
511.833	612.5
512.049	579.5
512.265	589.5
512.481	598.5
512.698	604.5
512.914	602.5
513.13	616.5
513.346	619.5
513.562	587.5
513.778	610.5
513.994	596.5
514.21	602.5
514.426	676.5
514.642	689.5
514.858	714.5
515.074	775.5
515.29	958.5
515.506	1444.5
515.721	1213.5
515.937	747.5
516.153	677.5
516.369	641.5
516.585	616.5
516.801	618.5
517.016	591.5
517.232	595.5
517.448	605.5
517.664	599.5
517.879	611.5
518.095	598.5
518.311	574.5
518.527	566.5
518.742	567.5
518.958	569.5
519.173	585.5
519.389	587.5
519.605	579.5
519.82	602.5
