Data from 1986.PennyLincolnUp.Lamp.En5.5.200Scan.071819.P2_HRD10591_17-10-09-976.txt Node
Date: Thu Jul 18 17:10:09 EDT 2019
User: cochatt
Spectrometer: HR+D1059
Trigger mode: 1
Integration Time (sec): 1.000000E-1
Scans to average: 1
Electric dark correction enabled: true
Nonlinearity correction enabled: false
Boxcar width: 0
XAxis mode: Wavelengths
Number of Pixels in Spectrum: 2048
>>>>>Begin Spectral Data<<<<<
223.165	-16.88
223.4	-16.88
223.635	-16.88
223.869	-22.88
224.104	-13.88
224.338	-19.88
224.573	-14.88
224.808	-21.88
225.042	-2.88
225.277	-10.88
225.511	2.12
225.746	-6.88
225.98	9.12
226.215	16.12
226.449	19.12
226.683	20.12
226.918	28.12
227.152	36.12
227.387	30.12
227.621	30.12
227.856	35.12
228.09	40.12
228.324	42.12
228.559	65.12
228.793	61.12
229.027	88.12
229.262	99.12
229.496	122.12
229.73	129.12
229.964	162.12
230.199	119.12
230.433	114.12
230.667	126.12
230.901	109.12
231.136	122.12
231.37	130.12
231.604	108.12
231.838	121.12
232.072	123.12
232.306	123.12
232.541	110.12
232.775	129.12
233.009	99.12
233.243	117.12
233.477	113.12
233.711	116.12
233.945	103.12
234.179	116.12
234.413	102.12
234.647	112.12
234.881	111.12
235.115	112.12
235.349	129.12
235.583	110.12
235.817	119.12
236.051	125.12
236.285	122.12
236.519	120.12
236.753	141.12
236.987	133.12
237.221	166.12
237.455	228.12
237.689	184.12
237.922	143.12
238.156	131.12
238.39	150.12
238.624	129.12
238.858	124.12
239.091	128.12
239.325	109.12
239.559	119.12
239.793	91.12
240.027	131.12
240.26	147.12
240.494	148.12
240.728	149.12
240.961	144.12
241.195	147.12
241.429	148.12
241.662	118.12
241.896	121.12
242.13	142.12
242.363	137.12
242.597	120.12
242.83	129.12
243.064	125.12
243.298	142.12
243.531	139.12
243.765	146.12
243.998	126.12
244.232	129.12
244.465	133.12
244.699	134.12
244.932	123.12
245.166	144.12
245.399	149.12
245.633	142.12
245.866	143.12
246.099	151.12
246.333	152.12
246.566	125.12
246.8	140.12
247.033	150.12
247.266	140.12
247.5	156.12
247.733	166.12
247.966	179.12
248.2	173.12
248.433	171.12
248.666	189.12
248.899	193.12
249.133	204.12
249.366	233.12
249.599	212.12
249.832	186.12
250.066	181.12
250.299	187.12
250.532	189.12
250.765	210.12
250.998	216.12
251.231	227.12
251.465	231.12
251.698	200.12
251.931	199.12
252.164	195.12
252.397	201.12
252.63	202.12
252.863	191.12
253.096	209.12
253.329	219.12
253.562	242.12
253.795	224.12
254.028	211.12
254.261	216.12
254.494	231.12
254.727	245.12
254.96	269.12
255.193	277.12
255.426	252.12
255.659	234.12
255.892	230.12
256.124	230.12
256.357	207.12
256.59	218.12
256.823	199.12
257.056	198.12
257.289	207.12
257.521	215.12
257.754	215.12
257.987	210.12
258.22	214.12
258.452	203.12
258.685	215.12
258.918	199.12
259.151	214.12
259.383	232.12
259.616	223.12
259.849	226.12
260.081	242.12
260.314	249.12
260.547	270.12
260.779	243.12
261.012	222.12
261.244	206.12
261.477	211.12
261.71	232.12
261.942	216.12
262.175	248.12
262.407	224.12
262.64	213.12
262.872	209.12
263.105	212.12
263.337	217.12
263.57	202.12
263.802	197.12
264.035	218.12
264.267	205.12
264.499	203.12
264.732	214.12
264.964	198.12
265.197	180.12
265.429	198.12
265.661	205.12
265.894	214.12
266.126	206.12
266.358	205.12
266.591	190.12
266.823	215.12
267.055	225.12
267.287	230.12
267.52	242.12
267.752	203.12
267.984	226.12
268.216	225.12
268.448	233.12
268.681	241.12
268.913	214.12
269.145	245.12
269.377	271.12
269.609	270.12
269.841	249.12
270.073	269.12
270.306	277.12
270.538	312.12
270.77	310.12
271.002	313.12
271.234	305.12
271.466	309.12
271.698	293.12
271.93	317.12
272.162	327.12
272.394	317.12
272.626	297.12
272.858	288.12
273.09	279.12
273.322	286.12
273.553	256.12
273.785	267.12
274.017	258.12
274.249	250.12
274.481	257.12
274.713	249.12
274.945	262.12
275.176	252.12
275.408	250.12
275.64	243.12
275.872	240.12
276.104	236.12
276.335	254.12
276.567	261.12
276.799	294.12
277.031	288.12
277.262	302.12
277.494	311.12
277.726	278.12
277.957	284.12
278.189	266.12
278.421	251.12
278.652	246.12
278.884	247.12
279.115	242.12
279.347	246.12
279.579	246.12
279.81	252.12
280.042	238.12
280.273	249.12
280.505	266.12
280.736	248.12
280.968	236.12
281.199	242.12
281.431	237.12
281.662	248.12
281.894	251.12
282.125	255.12
282.356	246.12
282.588	278.12
282.819	294.12
283.051	257.12
283.282	257.12
283.513	264.12
283.745	269.12
283.976	250.12
284.207	248.12
284.439	254.12
284.67	269.12
284.901	255.12
285.132	261.12
285.364	260.12
285.595	261.12
285.826	244.12
286.057	242.12
286.288	243.12
286.52	235.12
286.751	250.12
286.982	259.12
287.213	250.12
287.444	240.12
287.675	269.12
287.906	257.12
288.138	276.12
288.369	266.12
288.6	281.12
288.831	267.12
289.062	284.12
289.293	263.12
289.524	242.12
289.755	250.12
289.986	264.12
290.217	270.12
290.448	255.12
290.679	267.12
290.91	260.12
291.141	265.12
291.371	272.12
291.602	245.12
291.833	259.12
292.064	260.12
292.295	251.12
292.526	281.12
292.757	260.12
292.987	249.12
293.218	249.12
293.449	275.12
293.68	255.12
293.91	228.12
294.141	261.12
294.372	251.12
294.603	263.12
294.833	237.12
295.064	259.12
295.295	237.12
295.525	263.12
295.756	270.12
295.987	277.12
296.217	293.12
296.448	315.12
296.679	278.12
296.909	263.12
297.14	263.12
297.37	278.12
297.601	275.12
297.831	261.12
298.062	270.12
298.292	269.12
298.523	290.12
298.753	275.12
298.984	273.12
299.214	255.12
299.445	289.12
299.675	273.12
299.905	288.12
300.136	276.12
300.366	282.12
300.597	269.12
300.827	257.12
301.057	292.12
301.288	289.12
301.518	290.12
301.748	286.12
301.979	286.12
302.209	269.12
302.439	299.12
302.669	296.12
302.9	271.12
303.13	307.12
303.36	293.12
303.59	283.12
303.82	302.12
304.051	301.12
304.281	304.12
304.511	293.12
304.741	301.12
304.971	286.12
305.201	280.12
305.431	289.12
305.661	289.12
305.891	284.12
306.121	288.12
306.352	296.12
306.582	307.12
306.812	296.12
307.042	295.12
307.272	283.12
307.502	311.12
307.731	300.12
307.961	300.12
308.191	298.12
308.421	298.12
308.651	298.12
308.881	292.12
309.111	301.12
309.341	324.12
309.571	336.12
309.8	341.12
310.03	329.12
310.26	341.12
310.49	349.12
310.72	342.12
310.949	365.12
311.179	379.12
311.409	353.12
311.639	350.12
311.868	345.12
312.098	328.12
312.328	348.12
312.557	355.12
312.787	396.12
313.017	392.12
313.246	370.12
313.476	335.12
313.706	340.12
313.935	345.12
314.165	365.12
314.394	369.12
314.624	366.12
314.853	345.12
315.083	332.12
315.312	347.12
315.542	335.12
315.771	332.12
316.001	331.12
316.23	354.12
316.46	336.12
316.689	361.12
316.919	328.12
317.148	355.12
317.377	363.12
317.607	362.12
317.836	362.12
318.065	327.12
318.295	329.12
318.524	329.12
318.753	328.12
318.983	347.12
319.212	342.12
319.441	364.12
319.67	350.12
319.9	361.12
320.129	335.12
320.358	347.12
320.587	342.12
320.816	365.12
321.046	363.12
321.275	365.12
321.504	366.12
321.733	375.12
321.962	386.12
322.191	387.12
322.42	381.12
322.649	418.12
322.878	429.12
323.108	435.12
323.337	481.12
323.566	484.12
323.795	511.12
324.024	573.12
324.253	689.12
324.482	968.12
324.71	1471.12
324.939	2113.12
325.168	1917.12
325.397	1017.12
325.626	639.12
325.855	540.12
326.084	501.12
326.313	475.12
326.542	497.12
326.77	531.12
326.999	626.12
327.228	878.12
327.457	1303.12
327.686	1579.12
327.914	1111.12
328.143	722.12
328.372	618.12
328.6	561.12
328.829	550.12
329.058	565.12
329.287	572.12
329.515	530.12
329.744	491.12
329.972	481.12
330.201	478.12
330.43	507.12
330.658	551.12
330.887	576.12
331.115	557.12
331.344	502.12
331.572	452.12
331.801	439.12
332.03	452.12
332.258	437.12
332.486	394.12
332.715	388.12
332.943	411.12
333.172	413.12
333.4	369.12
333.629	422.12
333.857	434.12
334.085	397.12
334.314	403.12
334.542	438.12
334.771	402.12
334.999	411.12
335.227	409.12
335.455	391.12
335.684	391.12
335.912	384.12
336.14	375.12
336.369	393.12
336.597	384.12
336.825	397.12
337.053	403.12
337.281	381.12
337.51	404.12
337.738	398.12
337.966	375.12
338.194	377.12
338.422	396.12
338.65	376.12
338.878	378.12
339.106	378.12
339.334	394.12
339.562	388.12
339.79	358.12
340.018	387.12
340.246	393.12
340.474	390.12
340.702	369.12
340.93	371.12
341.158	382.12
341.386	381.12
341.614	407.12
341.842	384.12
342.07	382.12
342.298	365.12
342.526	369.12
342.754	365.12
342.981	369.12
343.209	375.12
343.437	360.12
343.665	363.12
343.893	374.12
344.12	386.12
344.348	372.12
344.576	382.12
344.804	364.12
345.031	393.12
345.259	391.12
345.487	385.12
345.714	390.12
345.942	385.12
346.17	390.12
346.397	385.12
346.625	365.12
346.853	381.12
347.08	360.12
347.308	387.12
347.535	376.12
347.763	391.12
347.99	400.12
348.218	394.12
348.445	388.12
348.673	371.12
348.9	374.12
349.128	361.12
349.355	379.12
349.583	358.12
349.81	385.12
350.037	363.12
350.265	347.12
350.492	346.12
350.72	352.12
350.947	371.12
351.174	379.12
351.402	399.12
351.629	365.12
351.856	371.12
352.083	402.12
352.311	379.12
352.538	406.12
352.765	400.12
352.992	379.12
353.22	397.12
353.447	377.12
353.674	345.12
353.901	350.12
354.128	357.12
354.355	356.12
354.583	351.12
354.81	349.12
355.037	340.12
355.264	335.12
355.491	332.12
355.718	332.12
355.945	324.12
356.172	330.12
356.399	333.12
356.626	336.12
356.853	327.12
357.08	344.12
357.307	329.12
357.534	325.12
357.761	339.12
357.988	328.12
358.215	335.12
358.441	352.12
358.668	354.12
358.895	338.12
359.122	353.12
359.349	357.12
359.576	362.12
359.802	412.12
360.029	425.12
360.256	413.12
360.483	404.12
360.709	378.12
360.936	367.12
361.163	369.12
361.39	371.12
361.616	361.12
361.843	364.12
362.07	375.12
362.296	380.12
362.523	375.12
362.749	353.12
362.976	347.12
363.203	358.12
363.429	351.12
363.656	385.12
363.882	359.12
364.109	371.12
364.335	363.12
364.562	358.12
364.788	346.12
365.015	348.12
365.241	357.12
365.468	370.12
365.694	346.12
365.92	366.12
366.147	365.12
366.373	342.12
366.599	339.12
366.826	340.12
367.052	350.12
367.278	333.12
367.505	352.12
367.731	341.12
367.957	340.12
368.184	334.12
368.41	337.12
368.636	357.12
368.862	350.12
369.089	351.12
369.315	331.12
369.541	331.12
369.767	335.12
369.993	330.12
370.219	356.12
370.445	348.12
370.672	334.12
370.898	333.12
371.124	341.12
371.35	346.12
371.576	355.12
371.802	329.12
372.028	337.12
372.254	327.12
372.48	346.12
372.706	367.12
372.932	345.12
373.158	329.12
373.384	343.12
373.61	341.12
373.835	370.12
374.061	344.12
374.287	354.12
374.513	343.12
374.739	336.12
374.965	342.12
375.191	349.12
375.416	354.12
375.642	332.12
375.868	342.12
376.094	348.12
376.319	318.12
376.545	356.12
376.771	344.12
376.997	315.12
377.222	322.12
377.448	338.12
377.674	344.12
377.899	334.12
378.125	338.12
378.35	323.12
378.576	321.12
378.802	335.12
379.027	331.12
379.253	331.12
379.478	325.12
379.704	340.12
379.929	329.12
380.155	314.12
380.38	345.12
380.606	346.12
380.831	358.12
381.057	332.12
381.282	339.12
381.507	354.12
381.733	338.12
381.958	331.12
382.184	343.12
382.409	351.12
382.634	317.12
382.86	347.12
383.085	341.12
383.31	340.12
383.535	331.12
383.761	337.12
383.986	355.12
384.211	341.12
384.436	339.12
384.662	361.12
384.887	350.12
385.112	352.12
385.337	346.12
385.562	348.12
385.787	354.12
386.013	358.12
386.238	361.12
386.463	355.12
386.688	350.12
386.913	357.12
387.138	372.12
387.363	351.12
387.588	370.12
387.813	359.12
388.038	365.12
388.263	378.12
388.488	353.12
388.713	352.12
388.938	347.12
389.163	374.12
389.387	379.12
389.612	363.12
389.837	346.12
390.062	362.12
390.287	366.12
390.512	354.12
390.736	354.12
390.961	361.12
391.186	343.12
391.411	349.12
391.636	345.12
391.86	349.12
392.085	359.12
392.31	350.12
392.534	359.12
392.759	351.12
392.984	363.12
393.208	358.12
393.433	347.12
393.658	353.12
393.882	329.12
394.107	356.12
394.331	346.12
394.556	361.12
394.78	360.12
395.005	334.12
395.229	371.12
395.454	367.12
395.678	363.12
395.903	388.12
396.127	388.12
396.352	397.12
396.576	374.12
396.801	374.12
397.025	382.12
397.249	373.12
397.474	371.12
397.698	363.12
397.922	378.12
398.147	393.12
398.371	410.12
398.595	392.12
398.82	398.12
399.044	399.12
399.268	404.12
399.492	413.12
399.717	436.12
399.941	436.12
400.165	487.12
400.389	505.12
400.613	446.12
400.837	434.12
401.062	424.12
401.286	407.12
401.51	404.12
401.734	390.12
401.958	396.12
402.182	410.12
402.406	407.12
402.63	421.12
402.854	398.12
403.078	394.12
403.302	405.12
403.526	405.12
403.75	434.12
403.974	415.12
404.198	393.12
404.422	415.12
404.645	400.12
404.869	416.12
405.093	435.12
405.317	446.12
405.541	484.12
405.765	485.12
405.988	460.12
406.212	442.12
406.436	480.12
406.66	474.12
406.883	452.12
407.107	449.12
407.331	498.12
407.555	550.12
407.778	564.12
408.002	514.12
408.226	476.12
408.449	458.12
408.673	464.12
408.896	494.12
409.12	518.12
409.344	481.12
409.567	441.12
409.791	435.12
410.014	421.12
410.238	416.12
410.461	400.12
410.685	424.12
410.908	430.12
411.132	461.12
411.355	481.12
411.578	474.12
411.802	435.12
412.025	415.12
412.249	425.12
412.472	403.12
412.695	424.12
412.919	413.12
413.142	421.12
413.365	416.12
413.589	391.12
413.812	409.12
414.035	393.12
414.258	401.12
414.482	393.12
414.705	382.12
414.928	392.12
415.151	395.12
415.374	381.12
415.597	379.12
415.821	389.12
416.044	389.12
416.267	394.12
416.49	390.12
416.713	383.12
416.936	385.12
417.159	392.12
417.382	407.12
417.605	411.12
417.828	411.12
418.051	435.12
418.274	425.12
418.497	391.12
418.72	387.12
418.943	392.12
419.166	403.12
419.389	435.12
419.611	425.12
419.834	403.12
420.057	420.12
420.28	403.12
420.503	426.12
420.726	413.12
420.948	429.12
421.171	476.12
421.394	504.12
421.617	454.12
421.839	405.12
422.062	411.12
422.285	432.12
422.507	510.12
422.73	561.12
422.953	537.12
423.175	448.12
423.398	429.12
423.621	418.12
423.843	474.12
424.066	464.12
424.288	460.12
424.511	479.12
424.733	533.12
424.956	601.12
425.178	580.12
425.401	568.12
425.623	583.12
425.846	509.12
426.068	470.12
426.291	470.12
426.513	461.12
426.735	470.12
426.958	532.12
427.18	586.12
427.402	697.12
427.625	782.12
427.847	702.12
428.069	587.12
428.292	511.12
428.514	481.12
428.736	442.12
428.958	438.12
429.181	431.12
429.403	430.12
429.625	431.12
429.847	479.12
430.069	538.12
430.292	532.12
430.514	445.12
430.736	417.12
430.958	410.12
431.18	410.12
431.402	400.12
431.624	383.12
431.846	400.12
432.068	382.12
432.29	395.12
432.512	393.12
432.734	405.12
432.956	413.12
433.178	423.12
433.4	433.12
433.622	403.12
433.844	392.12
434.066	395.12
434.287	392.12
434.509	407.12
434.731	404.12
434.953	411.12
435.175	427.12
435.397	451.12
435.618	482.12
435.84	499.12
436.062	585.12
436.284	659.12
436.505	546.12
436.727	497.12
436.949	442.12
437.17	451.12
437.392	439.12
437.614	451.12
437.835	467.12
438.057	572.12
438.278	675.12
438.5	673.12
438.721	686.12
438.943	706.12
439.165	556.12
439.386	484.12
439.608	492.12
439.829	494.12
440.05	510.12
440.272	535.12
440.493	499.12
440.715	477.12
440.936	449.12
441.158	432.12
441.379	446.12
441.6	457.12
441.822	470.12
442.043	491.12
442.264	582.12
442.486	622.12
442.707	533.12
442.928	490.12
443.149	486.12
443.371	511.12
443.592	549.12
443.813	625.12
444.034	685.12
444.255	584.12
444.476	489.12
444.698	483.12
444.919	443.12
445.14	544.12
445.361	525.12
445.582	514.12
445.803	563.12
446.024	668.12
446.245	678.12
446.466	587.12
446.687	535.12
446.908	486.12
447.129	465.12
447.35	427.12
447.571	420.12
447.792	426.12
448.013	453.12
448.234	443.12
448.455	516.12
448.675	604.12
448.896	683.12
449.117	595.12
449.338	545.12
449.559	655.12
449.779	711.12
450	607.12
450.221	487.12
450.442	479.12
450.662	460.12
450.883	445.12
451.104	450.12
451.324	462.12
451.545	422.12
451.766	397.12
451.986	392.12
452.207	385.12
452.428	396.12
452.648	400.12
452.869	417.12
453.089	405.12
453.31	410.12
453.53	398.12
453.751	396.12
453.971	414.12
454.192	392.12
454.412	394.12
454.633	398.12
454.853	383.12
455.073	373.12
455.294	423.12
455.514	471.12
455.734	442.12
455.955	395.12
456.175	386.12
456.395	367.12
456.616	366.12
456.836	363.12
457.056	372.12
457.276	371.12
457.497	361.12
457.717	367.12
457.937	368.12
458.157	361.12
458.377	387.12
458.598	405.12
458.818	462.12
459.038	542.12
459.258	542.12
459.478	456.12
459.698	426.12
459.918	402.12
460.138	398.12
460.358	398.12
460.578	415.12
460.798	403.12
461.018	400.12
461.238	401.12
461.458	385.12
461.678	411.12
461.898	384.12
462.118	383.12
462.338	387.12
462.558	406.12
462.777	387.12
462.997	407.12
463.217	417.12
463.437	423.12
463.657	406.12
463.876	399.12
464.096	399.12
464.316	407.12
464.536	416.12
464.755	420.12
464.975	431.12
465.195	481.12
465.414	573.12
465.634	497.12
465.854	438.12
466.073	430.12
466.293	404.12
466.512	396.12
466.732	386.12
466.951	390.12
467.171	382.12
467.391	396.12
467.61	399.12
467.829	411.12
468.049	414.12
468.268	408.12
468.488	374.12
468.707	394.12
468.927	389.12
469.146	380.12
469.365	382.12
469.585	378.12
469.804	390.12
470.023	405.12
470.243	395.12
470.462	380.12
470.681	419.12
470.901	413.12
471.12	413.12
471.339	408.12
471.558	397.12
471.777	411.12
471.997	385.12
472.216	387.12
472.435	406.12
472.654	397.12
472.873	372.12
473.092	382.12
473.311	397.12
473.53	411.12
473.749	406.12
473.968	444.12
474.187	533.12
474.406	570.12
474.625	451.12
474.844	423.12
475.063	423.12
475.282	394.12
475.501	399.12
475.72	407.12
475.939	408.12
476.158	407.12
476.377	425.12
476.596	394.12
476.814	406.12
477.033	418.12
477.252	409.12
477.471	407.12
477.69	434.12
477.908	439.12
478.127	420.12
478.346	433.12
478.564	424.12
478.783	446.12
479.002	435.12
479.22	437.12
479.439	466.12
479.658	491.12
479.876	474.12
480.095	475.12
480.313	514.12
480.532	499.12
480.751	471.12
480.969	475.12
481.188	513.12
481.406	523.12
481.624	480.12
481.843	481.12
482.061	462.12
482.28	479.12
482.498	443.12
482.717	479.12
482.935	481.12
483.153	477.12
483.372	469.12
483.59	461.12
483.808	467.12
484.027	468.12
484.245	483.12
484.463	473.12
484.681	499.12
484.9	470.12
485.118	505.12
485.336	477.12
485.554	472.12
485.772	493.12
485.99	469.12
486.209	491.12
486.427	499.12
486.645	502.12
486.863	526.12
487.081	532.12
487.299	496.12
487.517	497.12
487.735	496.12
487.953	486.12
488.171	506.12
488.389	492.12
488.607	510.12
488.825	513.12
489.043	526.12
489.261	538.12
489.479	527.12
489.696	516.12
489.914	519.12
490.132	520.12
490.35	531.12
490.568	545.12
490.786	555.12
491.003	568.12
491.221	573.12
491.439	554.12
491.657	567.12
491.874	563.12
492.092	591.12
492.31	596.12
492.527	582.12
492.745	583.12
492.963	604.12
493.18	590.12
493.398	609.12
493.615	603.12
493.833	625.12
494.05	608.12
494.268	593.12
494.485	583.12
494.703	601.12
494.92	596.12
495.138	593.12
495.355	606.12
495.573	599.12
495.79	601.12
496.008	613.12
496.225	600.12
496.442	610.12
496.66	610.12
496.877	614.12
497.094	603.12
497.312	595.12
497.529	614.12
497.746	612.12
497.963	618.12
498.181	666.12
498.398	648.12
498.615	636.12
498.832	650.12
499.049	643.12
499.267	677.12
499.484	691.12
499.701	684.12
499.918	695.12
500.135	733.12
500.352	733.12
500.569	734.12
500.786	757.12
501.003	728.12
501.22	755.12
501.437	713.12
501.654	715.12
501.871	742.12
