Data from 1986.PennyLincolnUp.Lamp.En5.5.200Scan.071819.P2_HRD10591_17-12-05-974.txt Node
Date: Thu Jul 18 17:12:05 EDT 2019
User: cochatt
Spectrometer: HR+D1059
Trigger mode: 1
Integration Time (sec): 1.000000E-1
Scans to average: 1
Electric dark correction enabled: true
Nonlinearity correction enabled: false
Boxcar width: 0
XAxis mode: Wavelengths
Number of Pixels in Spectrum: 2048
>>>>>Begin Spectral Data<<<<<
223.165	-25.31
223.4	-25.31
223.635	-25.31
223.869	-6.31
224.104	-13.31
224.338	-19.31
224.573	-11.31
224.808	-17.31
225.042	-10.31
225.277	-11.31
225.511	9.69
225.746	10.69
225.98	7.69
226.215	-3.31
226.449	23.69
226.683	24.69
226.918	12.69
227.152	28.69
227.387	32.69
227.621	52.69
227.856	36.69
228.09	47.69
228.324	50.69
228.559	67.69
228.793	74.69
229.027	109.69
229.262	104.69
229.496	106.69
229.73	118.69
229.964	177.69
230.199	145.69
230.433	118.69
230.667	126.69
230.901	123.69
231.136	122.69
231.37	128.69
231.604	128.69
231.838	135.69
232.072	116.69
232.306	109.69
232.541	119.69
232.775	112.69
233.009	126.69
233.243	112.69
233.477	121.69
233.711	126.69
233.945	123.69
234.179	104.69
234.413	124.69
234.647	130.69
234.881	123.69
235.115	125.69
235.349	126.69
235.583	121.69
235.817	128.69
236.051	131.69
236.285	131.69
236.519	130.69
236.753	127.69
236.987	148.69
237.221	182.69
237.455	239.69
237.689	182.69
237.922	142.69
238.156	146.69
238.39	134.69
238.624	111.69
238.858	128.69
239.091	117.69
239.325	130.69
239.559	117.69
239.793	126.69
240.027	120.69
240.26	153.69
240.494	162.69
240.728	142.69
240.961	150.69
241.195	146.69
241.429	148.69
241.662	138.69
241.896	131.69
242.13	134.69
242.363	150.69
242.597	128.69
242.83	147.69
243.064	131.69
243.298	147.69
243.531	147.69
243.765	144.69
243.998	157.69
244.232	152.69
244.465	166.69
244.699	136.69
244.932	149.69
245.166	175.69
245.399	155.69
245.633	154.69
245.866	142.69
246.099	163.69
246.333	150.69
246.566	160.69
246.8	166.69
247.033	166.69
247.266	183.69
247.5	179.69
247.733	171.69
247.966	189.69
248.2	182.69
248.433	175.69
248.666	186.69
248.899	204.69
249.133	221.69
249.366	216.69
249.599	214.69
249.832	188.69
250.066	222.69
250.299	218.69
250.532	224.69
250.765	259.69
250.998	278.69
251.231	261.69
251.465	234.69
251.698	232.69
251.931	218.69
252.164	224.69
252.397	226.69
252.63	226.69
252.863	238.69
253.096	260.69
253.329	239.69
253.562	246.69
253.795	229.69
254.028	235.69
254.261	224.69
254.494	250.69
254.727	274.69
254.96	296.69
255.193	303.69
255.426	271.69
255.659	257.69
255.892	264.69
256.124	306.69
256.357	335.69
256.59	300.69
256.823	281.69
257.056	280.69
257.289	270.69
257.521	253.69
257.754	235.69
257.987	235.69
258.22	242.69
258.452	232.69
258.685	230.69
258.918	242.69
259.151	226.69
259.383	239.69
259.616	222.69
259.849	224.69
260.081	263.69
260.314	266.69
260.547	270.69
260.779	247.69
261.012	264.69
261.244	242.69
261.477	249.69
261.71	231.69
261.942	230.69
262.175	253.69
262.407	249.69
262.64	237.69
262.872	220.69
263.105	227.69
263.337	223.69
263.57	215.69
263.802	211.69
264.035	229.69
264.267	218.69
264.499	234.69
264.732	217.69
264.964	233.69
265.197	224.69
265.429	228.69
265.661	209.69
265.894	214.69
266.126	229.69
266.358	230.69
266.591	238.69
266.823	228.69
267.055	221.69
267.287	242.69
267.52	246.69
267.752	229.69
267.984	226.69
268.216	235.69
268.448	228.69
268.681	234.69
268.913	252.69
269.145	280.69
269.377	295.69
269.609	296.69
269.841	283.69
270.073	295.69
270.306	323.69
270.538	337.69
270.77	343.69
271.002	325.69
271.234	308.69
271.466	311.69
271.698	331.69
271.93	330.69
272.162	315.69
272.394	335.69
272.626	301.69
272.858	315.69
273.09	295.69
273.322	285.69
273.553	280.69
273.785	291.69
274.017	272.69
274.249	283.69
274.481	280.69
274.713	256.69
274.945	274.69
275.176	268.69
275.408	274.69
275.64	284.69
275.872	278.69
276.104	280.69
276.335	265.69
276.567	290.69
276.799	294.69
277.031	356.69
277.262	330.69
277.494	336.69
277.726	325.69
277.957	294.69
278.189	308.69
278.421	292.69
278.652	285.69
278.884	264.69
279.115	269.69
279.347	256.69
279.579	278.69
279.81	268.69
280.042	286.69
280.273	270.69
280.505	286.69
280.736	276.69
280.968	263.69
281.199	277.69
281.431	270.69
281.662	273.69
281.894	277.69
282.125	274.69
282.356	285.69
282.588	318.69
282.819	311.69
283.051	300.69
283.282	258.69
283.513	264.69
283.745	271.69
283.976	275.69
284.207	278.69
284.439	283.69
284.67	298.69
284.901	268.69
285.132	283.69
285.364	279.69
285.595	279.69
285.826	278.69
286.057	263.69
286.288	273.69
286.52	292.69
286.751	286.69
286.982	269.69
287.213	273.69
287.444	277.69
287.675	276.69
287.906	287.69
288.138	291.69
288.369	298.69
288.6	284.69
288.831	275.69
289.062	285.69
289.293	308.69
289.524	288.69
289.755	287.69
289.986	287.69
290.217	295.69
290.448	273.69
290.679	281.69
290.91	259.69
291.141	273.69
291.371	286.69
291.602	292.69
291.833	283.69
292.064	298.69
292.295	293.69
292.526	282.69
292.757	316.69
292.987	278.69
293.218	290.69
293.449	296.69
293.68	286.69
293.91	284.69
294.141	284.69
294.372	286.69
294.603	275.69
294.833	299.69
295.064	284.69
295.295	260.69
295.525	278.69
295.756	292.69
295.987	300.69
296.217	323.69
296.448	329.69
296.679	310.69
296.909	286.69
297.14	280.69
297.37	299.69
297.601	303.69
297.831	279.69
298.062	276.69
298.292	292.69
298.523	283.69
298.753	288.69
298.984	304.69
299.214	296.69
299.445	301.69
299.675	307.69
299.905	307.69
300.136	300.69
300.366	299.69
300.597	292.69
300.827	299.69
301.057	301.69
301.288	321.69
301.518	315.69
301.748	303.69
301.979	314.69
302.209	327.69
302.439	308.69
302.669	322.69
302.9	302.69
303.13	293.69
303.36	328.69
303.59	333.69
303.82	326.69
304.051	324.69
304.281	330.69
304.511	311.69
304.741	313.69
304.971	318.69
305.201	304.69
305.431	316.69
305.661	311.69
305.891	293.69
306.121	328.69
306.352	333.69
306.582	330.69
306.812	329.69
307.042	314.69
307.272	342.69
307.502	339.69
307.731	331.69
307.961	338.69
308.191	329.69
308.421	323.69
308.651	310.69
308.881	334.69
309.111	333.69
309.341	333.69
309.571	338.69
309.8	361.69
310.03	364.69
310.26	372.69
310.49	360.69
310.72	365.69
310.949	391.69
311.179	376.69
311.409	380.69
311.639	377.69
311.868	387.69
312.098	379.69
312.328	377.69
312.557	386.69
312.787	404.69
313.017	427.69
313.246	383.69
313.476	367.69
313.706	382.69
313.935	376.69
314.165	402.69
314.394	406.69
314.624	387.69
314.853	391.69
315.083	387.69
315.312	375.69
315.542	370.69
315.771	358.69
316.001	362.69
316.23	380.69
316.46	370.69
316.689	370.69
316.919	379.69
317.148	375.69
317.377	378.69
317.607	377.69
317.836	358.69
318.065	361.69
318.295	368.69
318.524	370.69
318.753	367.69
318.983	385.69
319.212	372.69
319.441	399.69
319.67	382.69
319.9	373.69
320.129	386.69
320.358	384.69
320.587	391.69
320.816	402.69
321.046	404.69
321.275	401.69
321.504	416.69
321.733	405.69
321.962	427.69
322.191	425.69
322.42	449.69
322.649	467.69
322.878	486.69
323.108	470.69
323.337	503.69
323.566	527.69
323.795	541.69
324.024	622.69
324.253	744.69
324.482	1024.69
324.71	1617.69
324.939	2326.69
325.168	2077.69
325.397	1082.69
325.626	719.69
325.855	607.69
326.084	550.69
326.313	540.69
326.542	554.69
326.77	603.69
326.999	711.69
327.228	938.69
327.457	1419.69
327.686	1763.69
327.914	1250.69
328.143	875.69
328.372	786.69
328.6	711.69
328.829	653.69
329.058	650.69
329.287	671.69
329.515	633.69
329.744	616.69
329.972	658.69
330.201	731.69
330.43	836.69
330.658	792.69
330.887	723.69
331.115	670.69
331.344	570.69
331.572	518.69
331.801	528.69
332.03	548.69
332.258	500.69
332.486	509.69
332.715	487.69
332.943	472.69
333.172	504.69
333.4	494.69
333.629	498.69
333.857	532.69
334.085	597.69
334.314	691.69
334.542	814.69
334.771	877.69
334.999	686.69
335.227	563.69
335.455	512.69
335.684	487.69
335.912	474.69
336.14	472.69
336.369	449.69
336.597	452.69
336.825	458.69
337.053	444.69
337.281	438.69
337.51	440.69
337.738	447.69
337.966	434.69
338.194	432.69
338.422	426.69
338.65	425.69
338.878	431.69
339.106	420.69
339.334	421.69
339.562	422.69
339.79	407.69
340.018	422.69
340.246	421.69
340.474	432.69
340.702	410.69
340.93	398.69
341.158	409.69
341.386	424.69
341.614	408.69
341.842	420.69
342.07	407.69
342.298	395.69
342.526	395.69
342.754	396.69
342.981	383.69
343.209	412.69
343.437	417.69
343.665	397.69
343.893	410.69
344.12	414.69
344.348	411.69
344.576	408.69
344.804	412.69
345.031	425.69
345.259	434.69
345.487	418.69
345.714	408.69
345.942	403.69
346.17	402.69
346.397	423.69
346.625	376.69
346.853	396.69
347.08	384.69
347.308	407.69
347.535	414.69
347.763	395.69
347.99	414.69
348.218	406.69
348.445	406.69
348.673	404.69
348.9	405.69
349.128	395.69
349.355	386.69
349.583	387.69
349.81	396.69
350.037	377.69
350.265	404.69
350.492	386.69
350.72	395.69
350.947	393.69
351.174	408.69
351.402	414.69
351.629	391.69
351.856	406.69
352.083	410.69
352.311	427.69
352.538	404.69
352.765	410.69
352.992	428.69
353.22	421.69
353.447	388.69
353.674	401.69
353.901	384.69
354.128	380.69
354.355	379.69
354.583	390.69
354.81	368.69
355.037	383.69
355.264	371.69
355.491	348.69
355.718	382.69
355.945	382.69
356.172	365.69
356.399	357.69
356.626	365.69
356.853	356.69
357.08	356.69
357.307	393.69
357.534	364.69
357.761	376.69
357.988	362.69
358.215	366.69
358.441	363.69
358.668	373.69
358.895	363.69
359.122	370.69
359.349	372.69
359.576	400.69
359.802	418.69
360.029	456.69
360.256	447.69
360.483	428.69
360.709	396.69
360.936	409.69
361.163	388.69
361.39	414.69
361.616	413.69
361.843	411.69
362.07	372.69
362.296	403.69
362.523	371.69
362.749	395.69
362.976	386.69
363.203	381.69
363.429	372.69
363.656	373.69
363.882	366.69
364.109	381.69
364.335	361.69
364.562	390.69
364.788	372.69
365.015	351.69
365.241	366.69
365.468	378.69
365.694	390.69
365.92	382.69
366.147	377.69
366.373	379.69
366.599	374.69
366.826	363.69
367.052	376.69
367.278	374.69
367.505	374.69
367.731	395.69
367.957	382.69
368.184	371.69
368.41	366.69
368.636	393.69
368.862	378.69
369.089	363.69
369.315	360.69
369.541	367.69
369.767	377.69
369.993	366.69
370.219	372.69
370.445	370.69
370.672	338.69
370.898	364.69
371.124	376.69
371.35	362.69
371.576	375.69
371.802	370.69
372.028	352.69
372.254	374.69
372.48	353.69
372.706	355.69
372.932	368.69
373.158	358.69
373.384	360.69
373.61	382.69
373.835	364.69
374.061	368.69
374.287	349.69
374.513	379.69
374.739	373.69
374.965	372.69
375.191	351.69
375.416	357.69
375.642	357.69
375.868	349.69
376.094	360.69
376.319	346.69
376.545	356.69
376.771	373.69
376.997	366.69
377.222	347.69
377.448	356.69
377.674	345.69
377.899	353.69
378.125	364.69
378.35	345.69
378.576	344.69
378.802	348.69
379.027	340.69
379.253	377.69
379.478	367.69
379.704	359.69
379.929	371.69
380.155	377.69
380.38	359.69
380.606	374.69
380.831	378.69
381.057	372.69
381.282	347.69
381.507	352.69
381.733	362.69
381.958	362.69
382.184	364.69
382.409	352.69
382.634	358.69
382.86	354.69
383.085	360.69
383.31	370.69
383.535	356.69
383.761	372.69
383.986	367.69
384.211	372.69
384.436	374.69
384.662	364.69
384.887	344.69
385.112	379.69
385.337	375.69
385.562	384.69
385.787	369.69
386.013	380.69
386.238	393.69
386.463	387.69
386.688	383.69
386.913	375.69
387.138	380.69
387.363	379.69
387.588	373.69
387.813	382.69
388.038	347.69
388.263	374.69
388.488	367.69
388.713	378.69
388.938	376.69
389.163	382.69
389.387	366.69
389.612	376.69
389.837	367.69
390.062	361.69
390.287	356.69
390.512	357.69
390.736	368.69
390.961	398.69
391.186	394.69
391.411	359.69
391.636	362.69
391.86	381.69
392.085	364.69
392.31	374.69
392.534	372.69
392.759	378.69
392.984	385.69
393.208	371.69
393.433	385.69
393.658	367.69
393.882	374.69
394.107	364.69
394.331	380.69
394.556	372.69
394.78	361.69
395.005	384.69
395.229	365.69
395.454	367.69
395.678	387.69
395.903	407.69
396.127	431.69
396.352	444.69
396.576	398.69
396.801	391.69
397.025	396.69
397.249	390.69
397.474	394.69
397.698	404.69
397.922	420.69
398.147	405.69
398.371	419.69
398.595	405.69
398.82	407.69
399.044	423.69
399.268	431.69
399.492	441.69
399.717	460.69
399.941	474.69
400.165	522.69
400.389	509.69
400.613	461.69
400.837	435.69
401.062	440.69
401.286	429.69
401.51	415.69
401.734	434.69
401.958	422.69
402.182	421.69
402.406	430.69
402.63	438.69
402.854	463.69
403.078	440.69
403.302	443.69
403.526	423.69
403.75	438.69
403.974	421.69
404.198	431.69
404.422	458.69
404.645	472.69
404.869	491.69
405.093	510.69
405.317	576.69
405.541	589.69
405.765	554.69
405.988	506.69
406.212	502.69
406.436	517.69
406.66	518.69
406.883	493.69
407.107	505.69
407.331	520.69
407.555	602.69
407.778	592.69
408.002	546.69
408.226	485.69
408.449	493.69
408.673	481.69
408.896	514.69
409.12	539.69
409.344	519.69
409.567	485.69
409.791	463.69
410.014	454.69
410.238	439.69
410.461	440.69
410.685	444.69
410.908	460.69
411.132	501.69
411.355	550.69
411.578	516.69
411.802	468.69
412.025	461.69
412.249	480.69
412.472	543.69
412.695	600.69
412.919	581.69
413.142	526.69
413.365	504.69
413.589	469.69
413.812	474.69
414.035	460.69
414.258	444.69
414.482	450.69
414.705	432.69
414.928	427.69
415.151	423.69
415.374	426.69
415.597	426.69
415.821	421.69
416.044	428.69
416.267	441.69
416.49	430.69
416.713	414.69
416.936	446.69
417.159	415.69
417.382	437.69
417.605	440.69
417.828	449.69
418.051	448.69
418.274	459.69
418.497	429.69
418.72	424.69
418.943	422.69
419.166	435.69
419.389	461.69
419.611	463.69
419.834	467.69
420.057	468.69
420.28	477.69
420.503	515.69
420.726	489.69
420.948	483.69
421.171	513.69
421.394	564.69
421.617	485.69
421.839	488.69
422.062	468.69
422.285	485.69
422.507	536.69
422.73	598.69
422.953	570.69
423.175	494.69
423.398	485.69
423.621	463.69
423.843	479.69
424.066	478.69
424.288	476.69
424.511	524.69
424.733	544.69
424.956	642.69
425.178	607.69
425.401	606.69
425.623	613.69
425.846	532.69
426.068	512.69
426.291	493.69
426.513	485.69
426.735	500.69
426.958	548.69
427.18	622.69
427.402	728.69
427.625	791.69
427.847	739.69
428.069	700.69
428.292	610.69
428.514	508.69
428.736	519.69
428.958	488.69
429.181	472.69
429.403	452.69
429.625	467.69
429.847	487.69
430.069	575.69
430.292	564.69
430.514	488.69
430.736	444.69
430.958	451.69
431.18	463.69
431.402	422.69
431.624	408.69
431.846	416.69
432.068	394.69
432.29	423.69
432.512	438.69
432.734	450.69
432.956	435.69
433.178	453.69
433.4	455.69
433.622	447.69
433.844	419.69
434.066	420.69
434.287	422.69
434.509	424.69
434.731	430.69
434.953	447.69
435.175	470.69
435.397	480.69
435.618	471.69
435.84	538.69
436.062	618.69
436.284	675.69
436.505	596.69
436.727	525.69
436.949	469.69
437.17	480.69
437.392	452.69
437.614	481.69
437.835	514.69
438.057	597.69
438.278	694.69
438.5	684.69
438.721	764.69
438.943	708.69
439.165	588.69
439.386	518.69
439.608	495.69
439.829	514.69
440.05	546.69
440.272	579.69
440.493	559.69
440.715	494.69
440.936	466.69
441.158	464.69
441.379	476.69
441.6	463.69
441.822	486.69
442.043	535.69
442.264	622.69
442.486	652.69
442.707	548.69
442.928	504.69
443.149	509.69
443.371	548.69
443.592	584.69
443.813	660.69
444.034	688.69
444.255	596.69
444.476	534.69
444.698	485.69
444.919	496.69
445.14	590.69
445.361	569.69
445.582	539.69
445.803	583.69
446.024	693.69
446.245	729.69
446.466	654.69
446.687	568.69
446.908	516.69
447.129	482.69
447.35	468.69
447.571	460.69
447.792	469.69
448.013	454.69
448.234	476.69
448.455	543.69
448.675	649.69
448.896	732.69
449.117	625.69
449.338	614.69
449.559	714.69
449.779	737.69
450	641.69
450.221	543.69
450.442	488.69
450.662	467.69
450.883	469.69
451.104	492.69
451.324	478.69
451.545	447.69
451.766	443.69
451.986	423.69
452.207	429.69
452.428	417.69
452.648	420.69
452.869	422.69
453.089	442.69
453.31	422.69
453.53	410.69
453.751	422.69
453.971	443.69
454.192	452.69
454.412	436.69
454.633	407.69
454.853	426.69
455.073	430.69
455.294	437.69
455.514	509.69
455.734	493.69
455.955	424.69
456.175	385.69
456.395	391.69
456.616	379.69
456.836	381.69
457.056	361.69
457.276	404.69
457.497	404.69
457.717	395.69
457.937	402.69
458.157	420.69
458.377	387.69
458.598	440.69
458.818	503.69
459.038	566.69
459.258	595.69
459.478	490.69
459.698	428.69
459.918	423.69
460.138	423.69
460.358	419.69
460.578	423.69
460.798	407.69
461.018	417.69
461.238	422.69
461.458	404.69
461.678	405.69
461.898	424.69
462.118	405.69
462.338	428.69
462.558	409.69
462.777	401.69
462.997	441.69
463.217	439.69
463.437	442.69
463.657	426.69
463.876	444.69
464.096	413.69
464.316	443.69
464.536	446.69
464.755	440.69
464.975	473.69
465.195	501.69
465.414	576.69
465.634	512.69
465.854	478.69
466.073	471.69
466.293	438.69
466.512	420.69
466.732	428.69
466.951	443.69
467.171	409.69
467.391	418.69
467.61	434.69
467.829	429.69
468.049	458.69
468.268	505.69
468.488	432.69
468.707	418.69
468.927	417.69
469.146	410.69
469.365	415.69
469.585	399.69
469.804	389.69
470.023	427.69
470.243	447.69
470.462	427.69
470.681	452.69
470.901	436.69
471.12	423.69
471.339	439.69
471.558	442.69
471.777	442.69
471.997	433.69
472.216	506.69
472.435	636.69
472.654	583.69
472.873	512.69
473.092	475.69
473.311	470.69
473.53	447.69
473.749	476.69
473.968	518.69
474.187	575.69
474.406	628.69
474.625	521.69
474.844	470.69
475.063	448.69
475.282	455.69
475.501	437.69
475.72	453.69
475.939	442.69
476.158	436.69
476.377	461.69
476.596	440.69
476.814	468.69
477.033	475.69
477.252	465.69
477.471	476.69
477.69	459.69
477.908	460.69
478.127	461.69
478.346	474.69
478.564	463.69
478.783	442.69
479.002	484.69
479.22	488.69
479.439	502.69
479.658	522.69
479.876	506.69
480.095	550.69
480.313	552.69
480.532	541.69
480.751	552.69
480.969	607.69
481.188	837.69
481.406	1028.69
481.624	746.69
481.843	643.69
482.061	608.69
482.28	562.69
482.498	558.69
482.717	542.69
482.935	537.69
483.153	542.69
483.372	520.69
483.59	545.69
483.808	534.69
484.027	496.69
484.245	527.69
484.463	534.69
484.681	534.69
484.9	512.69
485.118	541.69
485.336	539.69
485.554	508.69
485.772	524.69
485.99	524.69
486.209	545.69
486.427	544.69
486.645	558.69
486.863	573.69
487.081	585.69
487.299	570.69
487.517	547.69
487.735	569.69
487.953	573.69
488.171	580.69
488.389	569.69
488.607	566.69
488.825	559.69
489.043	572.69
489.261	566.69
489.479	590.69
489.696	579.69
489.914	586.69
490.132	606.69
490.35	609.69
490.568	604.69
490.786	623.69
491.003	600.69
491.221	650.69
491.439	650.69
491.657	654.69
491.874	664.69
492.092	687.69
492.31	681.69
492.527	653.69
492.745	674.69
492.963	715.69
493.18	692.69
493.398	700.69
493.615	709.69
493.833	698.69
494.05	686.69
494.268	701.69
494.485	678.69
494.703	678.69
494.92	694.69
495.138	678.69
495.355	695.69
495.573	668.69
495.79	690.69
496.008	684.69
496.225	687.69
496.442	671.69
496.66	672.69
496.877	669.69
497.094	682.69
497.312	664.69
497.529	653.69
497.746	694.69
497.963	695.69
498.181	694.69
498.398	696.69
498.615	724.69
498.832	726.69
499.049	697.69
499.267	719.69
499.484	710.69
499.701	747.69
499.918	745.69
500.135	780.69
500.352	795.69
500.569	805.69
500.786	792.69
501.003	787.69
501.22	796.69
501.437	777.69
501.654	775.69
501.871	730.69
