Data from 1986.PennyLincolnUp.Lamp.En5.5.200Scan.071819.P2_HRD10591_17-11-33-973.txt Node
Date: Thu Jul 18 17:11:33 EDT 2019
User: cochatt
Spectrometer: HR+D1059
Trigger mode: 1
Integration Time (sec): 1.000000E-1
Scans to average: 1
Electric dark correction enabled: true
Nonlinearity correction enabled: false
Boxcar width: 0
XAxis mode: Wavelengths
Number of Pixels in Spectrum: 2048
>>>>>Begin Spectral Data<<<<<
223.165	-14.31
223.4	-14.31
223.635	-14.31
223.869	-11.31
224.104	-18.31
224.338	-15.31
224.573	-20.31
224.808	-0.31
225.042	-4.31
225.277	0.69
225.511	-2.31
225.746	11.69
225.98	-5.31
226.215	4.69
226.449	9.69
226.683	16.69
226.918	17.69
227.152	30.69
227.387	32.69
227.621	27.69
227.856	38.69
228.09	48.69
228.324	42.69
228.559	57.69
228.793	64.69
229.027	104.69
229.262	104.69
229.496	109.69
229.73	132.69
229.964	149.69
230.199	136.69
230.433	124.69
230.667	107.69
230.901	107.69
231.136	113.69
231.37	99.69
231.604	104.69
231.838	117.69
232.072	102.69
232.306	116.69
232.541	104.69
232.775	116.69
233.009	113.69
233.243	112.69
233.477	113.69
233.711	117.69
233.945	117.69
234.179	113.69
234.413	131.69
234.647	112.69
234.881	108.69
235.115	104.69
235.349	105.69
235.583	116.69
235.817	111.69
236.051	124.69
236.285	126.69
236.519	131.69
236.753	122.69
236.987	156.69
237.221	204.69
237.455	252.69
237.689	198.69
237.922	143.69
238.156	137.69
238.39	146.69
238.624	138.69
238.858	121.69
239.091	118.69
239.325	128.69
239.559	123.69
239.793	128.69
240.027	145.69
240.26	158.69
240.494	167.69
240.728	146.69
240.961	142.69
241.195	146.69
241.429	150.69
241.662	156.69
241.896	141.69
242.13	130.69
242.363	149.69
242.597	148.69
242.83	141.69
243.064	142.69
243.298	134.69
243.531	145.69
243.765	152.69
243.998	132.69
244.232	148.69
244.465	166.69
244.699	141.69
244.932	152.69
245.166	154.69
245.399	149.69
245.633	151.69
245.866	142.69
246.099	153.69
246.333	171.69
246.566	152.69
246.8	153.69
247.033	163.69
247.266	156.69
247.5	147.69
247.733	177.69
247.966	161.69
248.2	177.69
248.433	188.69
248.666	176.69
248.899	187.69
249.133	197.69
249.366	215.69
249.599	221.69
249.832	201.69
250.066	189.69
250.299	202.69
250.532	219.69
250.765	236.69
250.998	248.69
251.231	258.69
251.465	244.69
251.698	237.69
251.931	201.69
252.164	221.69
252.397	225.69
252.63	211.69
252.863	226.69
253.096	251.69
253.329	248.69
253.562	246.69
253.795	254.69
254.028	244.69
254.261	241.69
254.494	250.69
254.727	274.69
254.96	316.69
255.193	315.69
255.426	297.69
255.659	271.69
255.892	283.69
256.124	283.69
256.357	302.69
256.59	296.69
256.823	249.69
257.056	256.69
257.289	230.69
257.521	249.69
257.754	252.69
257.987	252.69
258.22	228.69
258.452	224.69
258.685	223.69
258.918	210.69
259.151	222.69
259.383	237.69
259.616	246.69
259.849	247.69
260.081	251.69
260.314	271.69
260.547	274.69
260.779	252.69
261.012	251.69
261.244	254.69
261.477	237.69
261.71	247.69
261.942	252.69
262.175	248.69
262.407	251.69
262.64	229.69
262.872	231.69
263.105	226.69
263.337	234.69
263.57	217.69
263.802	224.69
264.035	229.69
264.267	228.69
264.499	221.69
264.732	220.69
264.964	231.69
265.197	217.69
265.429	232.69
265.661	222.69
265.894	228.69
266.126	224.69
266.358	226.69
266.591	222.69
266.823	221.69
267.055	256.69
267.287	259.69
267.52	228.69
267.752	250.69
267.984	234.69
268.216	234.69
268.448	232.69
268.681	232.69
268.913	256.69
269.145	263.69
269.377	298.69
269.609	283.69
269.841	285.69
270.073	283.69
270.306	304.69
270.538	317.69
270.77	356.69
271.002	330.69
271.234	296.69
271.466	325.69
271.698	308.69
271.93	339.69
272.162	318.69
272.394	347.69
272.626	312.69
272.858	302.69
273.09	310.69
273.322	285.69
273.553	297.69
273.785	285.69
274.017	262.69
274.249	280.69
274.481	278.69
274.713	260.69
274.945	280.69
275.176	295.69
275.408	282.69
275.64	258.69
275.872	278.69
276.104	280.69
276.335	267.69
276.567	270.69
276.799	288.69
277.031	313.69
277.262	345.69
277.494	349.69
277.726	316.69
277.957	278.69
278.189	292.69
278.421	284.69
278.652	295.69
278.884	268.69
279.115	271.69
279.347	250.69
279.579	288.69
279.81	270.69
280.042	285.69
280.273	294.69
280.505	290.69
280.736	271.69
280.968	258.69
281.199	282.69
281.431	266.69
281.662	265.69
281.894	281.69
282.125	280.69
282.356	302.69
282.588	322.69
282.819	330.69
283.051	294.69
283.282	270.69
283.513	288.69
283.745	275.69
283.976	268.69
284.207	277.69
284.439	280.69
284.67	274.69
284.901	281.69
285.132	281.69
285.364	278.69
285.595	272.69
285.826	281.69
286.057	269.69
286.288	279.69
286.52	275.69
286.751	278.69
286.982	283.69
287.213	290.69
287.444	277.69
287.675	284.69
287.906	288.69
288.138	304.69
288.369	313.69
288.6	313.69
288.831	301.69
289.062	290.69
289.293	305.69
289.524	278.69
289.755	293.69
289.986	276.69
290.217	281.69
290.448	291.69
290.679	278.69
290.91	291.69
291.141	284.69
291.371	265.69
291.602	288.69
291.833	280.69
292.064	289.69
292.295	274.69
292.526	292.69
292.757	277.69
292.987	304.69
293.218	284.69
293.449	299.69
293.68	267.69
293.91	282.69
294.141	288.69
294.372	287.69
294.603	282.69
294.833	294.69
295.064	275.69
295.295	286.69
295.525	272.69
295.756	299.69
295.987	306.69
296.217	319.69
296.448	339.69
296.679	304.69
296.909	293.69
297.14	308.69
297.37	297.69
297.601	295.69
297.831	286.69
298.062	294.69
298.292	291.69
298.523	295.69
298.753	283.69
298.984	288.69
299.214	301.69
299.445	312.69
299.675	308.69
299.905	315.69
300.136	305.69
300.366	278.69
300.597	313.69
300.827	324.69
301.057	316.69
301.288	318.69
301.518	313.69
301.748	324.69
301.979	324.69
302.209	316.69
302.439	318.69
302.669	320.69
302.9	327.69
303.13	309.69
303.36	320.69
303.59	330.69
303.82	331.69
304.051	325.69
304.281	305.69
304.511	309.69
304.741	301.69
304.971	337.69
305.201	317.69
305.431	309.69
305.661	324.69
305.891	321.69
306.121	314.69
306.352	326.69
306.582	330.69
306.812	339.69
307.042	314.69
307.272	325.69
307.502	334.69
307.731	334.69
307.961	337.69
308.191	326.69
308.421	308.69
308.651	328.69
308.881	350.69
309.111	336.69
309.341	329.69
309.571	334.69
309.8	357.69
310.03	369.69
310.26	378.69
310.49	381.69
310.72	383.69
310.949	420.69
311.179	392.69
311.409	394.69
311.639	359.69
311.868	358.69
312.098	386.69
312.328	401.69
312.557	432.69
312.787	406.69
313.017	418.69
313.246	383.69
313.476	378.69
313.706	381.69
313.935	380.69
314.165	408.69
314.394	414.69
314.624	402.69
314.853	376.69
315.083	378.69
315.312	387.69
315.542	380.69
315.771	369.69
316.001	370.69
316.23	371.69
316.46	361.69
316.689	376.69
316.919	388.69
317.148	373.69
317.377	393.69
317.607	399.69
317.836	380.69
318.065	370.69
318.295	376.69
318.524	366.69
318.753	365.69
318.983	387.69
319.212	381.69
319.441	370.69
319.67	409.69
319.9	414.69
320.129	387.69
320.358	380.69
320.587	396.69
320.816	384.69
321.046	422.69
321.275	409.69
321.504	398.69
321.733	390.69
321.962	426.69
322.191	428.69
322.42	436.69
322.649	459.69
322.878	470.69
323.108	468.69
323.337	480.69
323.566	529.69
323.795	582.69
324.024	642.69
324.253	759.69
324.482	1101.69
324.71	1664.69
324.939	2420.69
325.168	2116.69
325.397	1133.69
325.626	748.69
325.855	629.69
326.084	550.69
326.313	560.69
326.542	547.69
326.77	597.69
326.999	738.69
327.228	992.69
327.457	1485.69
327.686	1854.69
327.914	1329.69
328.143	846.69
328.372	735.69
328.6	688.69
328.829	638.69
329.058	669.69
329.287	653.69
329.515	628.69
329.744	572.69
329.972	596.69
330.201	662.69
330.43	726.69
330.658	770.69
330.887	704.69
331.115	659.69
331.344	576.69
331.572	546.69
331.801	512.69
332.03	515.69
332.258	482.69
332.486	498.69
332.715	479.69
332.943	478.69
333.172	463.69
333.4	481.69
333.629	503.69
333.857	510.69
334.085	553.69
334.314	612.69
334.542	716.69
334.771	745.69
334.999	601.69
335.227	545.69
335.455	505.69
335.684	493.69
335.912	456.69
336.14	420.69
336.369	427.69
336.597	447.69
336.825	450.69
337.053	442.69
337.281	429.69
337.51	430.69
337.738	437.69
337.966	446.69
338.194	418.69
338.422	433.69
338.65	417.69
338.878	416.69
339.106	414.69
339.334	426.69
339.562	411.69
339.79	418.69
340.018	410.69
340.246	416.69
340.474	424.69
340.702	443.69
340.93	425.69
341.158	407.69
341.386	430.69
341.614	410.69
341.842	421.69
342.07	404.69
342.298	416.69
342.526	414.69
342.754	399.69
342.981	394.69
343.209	384.69
343.437	393.69
343.665	424.69
343.893	421.69
344.12	405.69
344.348	419.69
344.576	422.69
344.804	406.69
345.031	431.69
345.259	430.69
345.487	442.69
345.714	432.69
345.942	415.69
346.17	402.69
346.397	396.69
346.625	405.69
346.853	410.69
347.08	400.69
347.308	418.69
347.535	425.69
347.763	422.69
347.99	421.69
348.218	403.69
348.445	420.69
348.673	420.69
348.9	414.69
349.128	408.69
349.355	373.69
349.583	405.69
349.81	392.69
350.037	382.69
350.265	407.69
350.492	395.69
350.72	384.69
350.947	395.69
351.174	418.69
351.402	426.69
351.629	415.69
351.856	407.69
352.083	421.69
352.311	419.69
352.538	410.69
352.765	443.69
352.992	425.69
353.22	413.69
353.447	405.69
353.674	387.69
353.901	387.69
354.128	390.69
354.355	374.69
354.583	385.69
354.81	373.69
355.037	365.69
355.264	375.69
355.491	360.69
355.718	347.69
355.945	370.69
356.172	374.69
356.399	377.69
356.626	389.69
356.853	355.69
357.08	364.69
357.307	368.69
357.534	382.69
357.761	355.69
357.988	368.69
358.215	358.69
358.441	372.69
358.668	394.69
358.895	382.69
359.122	374.69
359.349	399.69
359.576	406.69
359.802	415.69
360.029	462.69
360.256	452.69
360.483	447.69
360.709	417.69
360.936	393.69
361.163	403.69
361.39	415.69
361.616	414.69
361.843	413.69
362.07	385.69
362.296	396.69
362.523	400.69
362.749	373.69
362.976	374.69
363.203	404.69
363.429	384.69
363.656	377.69
363.882	375.69
364.109	389.69
364.335	365.69
364.562	364.69
364.788	379.69
365.015	365.69
365.241	374.69
365.468	384.69
365.694	393.69
365.92	397.69
366.147	375.69
366.373	373.69
366.599	387.69
366.826	351.69
367.052	388.69
367.278	370.69
367.505	393.69
367.731	389.69
367.957	387.69
368.184	371.69
368.41	390.69
368.636	385.69
368.862	421.69
369.089	384.69
369.315	376.69
369.541	355.69
369.767	376.69
369.993	360.69
370.219	376.69
370.445	382.69
370.672	354.69
370.898	356.69
371.124	360.69
371.35	371.69
371.576	363.69
371.802	366.69
372.028	364.69
372.254	357.69
372.48	374.69
372.706	361.69
372.932	352.69
373.158	370.69
373.384	372.69
373.61	360.69
373.835	368.69
374.061	382.69
374.287	347.69
374.513	377.69
374.739	357.69
374.965	359.69
375.191	380.69
375.416	368.69
375.642	374.69
375.868	378.69
376.094	366.69
376.319	388.69
376.545	359.69
376.771	352.69
376.997	370.69
377.222	372.69
377.448	370.69
377.674	346.69
377.899	349.69
378.125	366.69
378.35	352.69
378.576	356.69
378.802	365.69
379.027	382.69
379.253	345.69
379.478	368.69
379.704	359.69
379.929	352.69
380.155	352.69
380.38	360.69
380.606	357.69
380.831	356.69
381.057	369.69
381.282	360.69
381.507	378.69
381.733	376.69
381.958	361.69
382.184	352.69
382.409	357.69
382.634	395.69
382.86	370.69
383.085	362.69
383.31	388.69
383.535	377.69
383.761	370.69
383.986	345.69
384.211	373.69
384.436	386.69
384.662	384.69
384.887	361.69
385.112	362.69
385.337	389.69
385.562	380.69
385.787	370.69
386.013	393.69
386.238	398.69
386.463	405.69
386.688	397.69
386.913	379.69
387.138	386.69
387.363	373.69
387.588	382.69
387.813	395.69
388.038	358.69
388.263	386.69
388.488	382.69
388.713	375.69
388.938	365.69
389.163	378.69
389.387	389.69
389.612	362.69
389.837	372.69
390.062	379.69
390.287	376.69
390.512	376.69
390.736	349.69
390.961	381.69
391.186	383.69
391.411	363.69
391.636	404.69
391.86	413.69
392.085	361.69
392.31	388.69
392.534	380.69
392.759	403.69
392.984	386.69
393.208	384.69
393.433	360.69
393.658	374.69
393.882	386.69
394.107	379.69
394.331	377.69
394.556	377.69
394.78	377.69
395.005	400.69
395.229	388.69
395.454	386.69
395.678	378.69
395.903	396.69
396.127	407.69
396.352	408.69
396.576	400.69
396.801	402.69
397.025	392.69
397.249	386.69
397.474	398.69
397.698	385.69
397.922	404.69
398.147	409.69
398.371	421.69
398.595	425.69
398.82	405.69
399.044	402.69
399.268	439.69
399.492	451.69
399.717	472.69
399.941	485.69
400.165	501.69
400.389	520.69
400.613	500.69
400.837	476.69
401.062	416.69
401.286	453.69
401.51	451.69
401.734	432.69
401.958	439.69
402.182	452.69
402.406	452.69
402.63	452.69
402.854	446.69
403.078	445.69
403.302	430.69
403.526	451.69
403.75	449.69
403.974	433.69
404.198	444.69
404.422	467.69
404.645	459.69
404.869	488.69
405.093	527.69
405.317	574.69
405.541	596.69
405.765	540.69
405.988	519.69
406.212	514.69
406.436	520.69
406.66	517.69
406.883	513.69
407.107	513.69
407.331	536.69
407.555	580.69
407.778	619.69
408.002	569.69
408.226	504.69
408.449	474.69
408.673	496.69
408.896	534.69
409.12	568.69
409.344	544.69
409.567	475.69
409.791	469.69
410.014	478.69
410.238	447.69
410.461	460.69
410.685	447.69
410.908	482.69
411.132	508.69
411.355	528.69
411.578	525.69
411.802	475.69
412.025	465.69
412.249	478.69
412.472	532.69
412.695	586.69
412.919	580.69
413.142	547.69
413.365	489.69
413.589	485.69
413.812	445.69
414.035	448.69
414.258	458.69
414.482	445.69
414.705	442.69
414.928	432.69
415.151	401.69
415.374	420.69
415.597	424.69
415.821	423.69
416.044	424.69
416.267	449.69
416.49	418.69
416.713	414.69
416.936	429.69
417.159	449.69
417.382	434.69
417.605	435.69
417.828	459.69
418.051	477.69
418.274	454.69
418.497	445.69
418.72	428.69
418.943	422.69
419.166	446.69
419.389	459.69
419.611	470.69
419.834	446.69
420.057	468.69
420.28	478.69
420.503	481.69
420.726	492.69
420.948	473.69
421.171	533.69
421.394	553.69
421.617	478.69
421.839	454.69
422.062	465.69
422.285	484.69
422.507	549.69
422.73	624.69
422.953	592.69
423.175	516.69
423.398	486.69
423.621	488.69
423.843	486.69
424.066	502.69
424.288	471.69
424.511	518.69
424.733	555.69
424.956	642.69
425.178	625.69
425.401	614.69
425.623	640.69
425.846	545.69
426.068	512.69
426.291	497.69
426.513	512.69
426.735	514.69
426.958	558.69
427.18	629.69
427.402	731.69
427.625	857.69
427.847	765.69
428.069	680.69
428.292	620.69
428.514	547.69
428.736	508.69
428.958	492.69
429.181	460.69
429.403	482.69
429.625	471.69
429.847	514.69
430.069	571.69
430.292	581.69
430.514	509.69
430.736	460.69
430.958	477.69
431.18	463.69
431.402	444.69
431.624	442.69
431.846	411.69
432.068	436.69
432.29	425.69
432.512	440.69
432.734	434.69
432.956	429.69
433.178	454.69
433.4	457.69
433.622	426.69
433.844	434.69
434.066	443.69
434.287	436.69
434.509	424.69
434.731	436.69
434.953	449.69
435.175	468.69
435.397	481.69
435.618	507.69
435.84	536.69
436.062	637.69
436.284	685.69
436.505	594.69
436.727	543.69
436.949	490.69
437.17	460.69
437.392	480.69
437.614	467.69
437.835	516.69
438.057	609.69
438.278	728.69
438.5	714.69
438.721	741.69
438.943	755.69
439.165	604.69
439.386	551.69
439.608	553.69
439.829	537.69
440.05	555.69
440.272	600.69
440.493	569.69
440.715	513.69
440.936	493.69
441.158	464.69
441.379	476.69
441.6	498.69
441.822	516.69
442.043	543.69
442.264	645.69
442.486	684.69
442.707	587.69
442.928	518.69
443.149	526.69
443.371	562.69
443.592	589.69
443.813	692.69
444.034	711.69
444.255	608.69
444.476	532.69
444.698	514.69
444.919	513.69
445.14	604.69
445.361	560.69
445.582	561.69
445.803	618.69
446.024	710.69
446.245	739.69
446.466	647.69
446.687	570.69
446.908	519.69
447.129	472.69
447.35	470.69
447.571	487.69
447.792	477.69
448.013	493.69
448.234	508.69
448.455	547.69
448.675	658.69
448.896	768.69
449.117	652.69
449.338	630.69
449.559	710.69
449.779	797.69
450	640.69
450.221	537.69
450.442	487.69
450.662	473.69
450.883	459.69
451.104	510.69
451.324	471.69
451.545	452.69
451.766	448.69
451.986	447.69
452.207	405.69
452.428	424.69
452.648	420.69
452.869	414.69
453.089	427.69
453.31	448.69
453.53	437.69
453.751	423.69
453.971	419.69
454.192	482.69
454.412	457.69
454.633	438.69
454.853	412.69
455.073	427.69
455.294	480.69
455.514	519.69
455.734	518.69
455.955	424.69
456.175	404.69
456.395	384.69
456.616	388.69
456.836	388.69
457.056	395.69
457.276	373.69
457.497	384.69
457.717	398.69
457.937	414.69
458.157	402.69
458.377	390.69
458.598	435.69
458.818	494.69
459.038	578.69
459.258	563.69
459.478	488.69
459.698	444.69
459.918	415.69
460.138	425.69
460.358	434.69
460.578	426.69
460.798	444.69
461.018	449.69
461.238	449.69
461.458	425.69
461.678	416.69
461.898	424.69
462.118	413.69
462.338	434.69
462.558	416.69
462.777	433.69
462.997	429.69
463.217	436.69
463.437	458.69
463.657	437.69
463.876	435.69
464.096	432.69
464.316	433.69
464.536	466.69
464.755	474.69
464.975	461.69
465.195	508.69
465.414	617.69
465.634	524.69
465.854	487.69
466.073	459.69
466.293	434.69
466.512	419.69
466.732	429.69
466.951	420.69
467.171	421.69
467.391	451.69
467.61	428.69
467.829	445.69
468.049	442.69
468.268	454.69
468.488	437.69
468.707	432.69
468.927	428.69
469.146	418.69
469.365	409.69
469.585	416.69
469.804	435.69
470.023	428.69
470.243	440.69
470.462	443.69
470.681	453.69
470.901	452.69
471.12	440.69
471.339	439.69
471.558	440.69
471.777	427.69
471.997	426.69
472.216	468.69
472.435	587.69
472.654	541.69
472.873	486.69
473.092	456.69
473.311	450.69
473.53	450.69
473.749	456.69
473.968	482.69
474.187	605.69
474.406	644.69
474.625	504.69
474.844	461.69
475.063	439.69
475.282	421.69
475.501	442.69
475.72	452.69
475.939	457.69
476.158	459.69
476.377	440.69
476.596	444.69
476.814	463.69
477.033	462.69
477.252	452.69
477.471	455.69
477.69	461.69
477.908	476.69
478.127	464.69
478.346	476.69
478.564	463.69
478.783	452.69
479.002	479.69
479.22	489.69
479.439	484.69
479.658	520.69
479.876	508.69
480.095	553.69
480.313	592.69
480.532	545.69
480.751	532.69
480.969	567.69
481.188	738.69
481.406	844.69
481.624	692.69
481.843	594.69
482.061	592.69
482.28	568.69
482.498	542.69
482.717	536.69
482.935	526.69
483.153	508.69
483.372	513.69
483.59	515.69
483.808	514.69
484.027	522.69
484.245	499.69
484.463	540.69
484.681	522.69
484.9	533.69
485.118	544.69
485.336	516.69
485.554	534.69
485.772	519.69
485.99	539.69
486.209	523.69
486.427	522.69
486.645	545.69
486.863	588.69
487.081	587.69
487.299	570.69
487.517	556.69
487.735	542.69
487.953	568.69
488.171	569.69
488.389	544.69
488.607	556.69
488.825	560.69
489.043	588.69
489.261	600.69
489.479	575.69
489.696	596.69
489.914	582.69
490.132	586.69
490.35	597.69
490.568	624.69
490.786	606.69
491.003	598.69
491.221	648.69
491.439	645.69
491.657	653.69
491.874	684.69
492.092	689.69
492.31	683.69
492.527	660.69
492.745	671.69
492.963	698.69
493.18	692.69
493.398	709.69
493.615	724.69
493.833	711.69
494.05	692.69
494.268	707.69
494.485	686.69
494.703	665.69
494.92	708.69
495.138	687.69
495.355	688.69
495.573	681.69
495.79	672.69
496.008	677.69
496.225	672.69
496.442	704.69
496.66	673.69
496.877	665.69
497.094	673.69
497.312	678.69
497.529	697.69
497.746	696.69
497.963	695.69
498.181	717.69
498.398	725.69
498.615	697.69
498.832	737.69
499.049	718.69
499.267	701.69
499.484	753.69
499.701	757.69
499.918	765.69
500.135	806.69
500.352	796.69
500.569	814.69
500.786	855.69
501.003	825.69
501.22	791.69
501.437	811.69
501.654	774.69
501.871	796.69
