Data from 1986.PennyLincolnUp.Lamp.En5.5.200Scan.071819.P2_HRD10591_17-11-00-978.txt Node
Date: Thu Jul 18 17:11:00 EDT 2019
User: cochatt
Spectrometer: HR+D1059
Trigger mode: 1
Integration Time (sec): 1.000000E-1
Scans to average: 1
Electric dark correction enabled: true
Nonlinearity correction enabled: false
Boxcar width: 0
XAxis mode: Wavelengths
Number of Pixels in Spectrum: 2048
>>>>>Begin Spectral Data<<<<<
223.165	-4.25
223.4	-4.25
223.635	-4.25
223.869	-30.25
224.104	-7.25
224.338	-15.25
224.573	-19.25
224.808	-9.25
225.042	-5.25
225.277	-6.25
225.511	-0.25
225.746	3.75
225.98	10.75
226.215	-15.25
226.449	6.75
226.683	26.75
226.918	30.75
227.152	33.75
227.387	44.75
227.621	20.75
227.856	40.75
228.09	43.75
228.324	50.75
228.559	35.75
228.793	48.75
229.027	91.75
229.262	107.75
229.496	126.75
229.73	133.75
229.964	159.75
230.199	129.75
230.433	121.75
230.667	111.75
230.901	110.75
231.136	99.75
231.37	113.75
231.604	122.75
231.838	118.75
232.072	110.75
232.306	96.75
232.541	116.75
232.775	102.75
233.009	115.75
233.243	113.75
233.477	107.75
233.711	120.75
233.945	108.75
234.179	102.75
234.413	110.75
234.647	106.75
234.881	116.75
235.115	99.75
235.349	96.75
235.583	106.75
235.817	114.75
236.051	124.75
236.285	130.75
236.519	117.75
236.753	132.75
236.987	138.75
237.221	195.75
237.455	244.75
237.689	196.75
237.922	146.75
238.156	126.75
238.39	137.75
238.624	126.75
238.858	127.75
239.091	128.75
239.325	117.75
239.559	122.75
239.793	117.75
240.027	146.75
240.26	167.75
240.494	176.75
240.728	171.75
240.961	151.75
241.195	140.75
241.429	144.75
241.662	146.75
241.896	139.75
242.13	111.75
242.363	136.75
242.597	133.75
242.83	141.75
243.064	148.75
243.298	135.75
243.531	149.75
243.765	145.75
243.998	139.75
244.232	126.75
244.465	148.75
244.699	152.75
244.932	124.75
245.166	151.75
245.399	158.75
245.633	148.75
245.866	160.75
246.099	153.75
246.333	162.75
246.566	146.75
246.8	147.75
247.033	162.75
247.266	162.75
247.5	164.75
247.733	171.75
247.966	192.75
248.2	180.75
248.433	168.75
248.666	174.75
248.899	202.75
249.133	218.75
249.366	220.75
249.599	212.75
249.832	198.75
250.066	185.75
250.299	189.75
250.532	208.75
250.765	211.75
250.998	245.75
251.231	241.75
251.465	244.75
251.698	239.75
251.931	208.75
252.164	206.75
252.397	193.75
252.63	211.75
252.863	214.75
253.096	228.75
253.329	242.75
253.562	240.75
253.795	225.75
254.028	212.75
254.261	225.75
254.494	238.75
254.727	275.75
254.96	288.75
255.193	289.75
255.426	260.75
255.659	260.75
255.892	262.75
256.124	257.75
256.357	274.75
256.59	255.75
256.823	260.75
257.056	246.75
257.289	223.75
257.521	230.75
257.754	239.75
257.987	213.75
258.22	243.75
258.452	205.75
258.685	232.75
258.918	234.75
259.151	225.75
259.383	210.75
259.616	221.75
259.849	229.75
260.081	245.75
260.314	273.75
260.547	290.75
260.779	280.75
261.012	258.75
261.244	235.75
261.477	230.75
261.71	218.75
261.942	228.75
262.175	256.75
262.407	248.75
262.64	226.75
262.872	212.75
263.105	213.75
263.337	221.75
263.57	238.75
263.802	213.75
264.035	222.75
264.267	205.75
264.499	211.75
264.732	213.75
264.964	198.75
265.197	206.75
265.429	217.75
265.661	198.75
265.894	207.75
266.126	212.75
266.358	215.75
266.591	225.75
266.823	214.75
267.055	226.75
267.287	229.75
267.52	224.75
267.752	215.75
267.984	238.75
268.216	234.75
268.448	227.75
268.681	234.75
268.913	252.75
269.145	254.75
269.377	281.75
269.609	280.75
269.841	275.75
270.073	284.75
270.306	303.75
270.538	304.75
270.77	315.75
271.002	313.75
271.234	308.75
271.466	327.75
271.698	315.75
271.93	338.75
272.162	332.75
272.394	326.75
272.626	313.75
272.858	333.75
273.09	275.75
273.322	273.75
273.553	273.75
273.785	260.75
274.017	265.75
274.249	262.75
274.481	237.75
274.713	268.75
274.945	267.75
275.176	263.75
275.408	267.75
275.64	257.75
275.872	254.75
276.104	242.75
276.335	254.75
276.567	276.75
276.799	284.75
277.031	314.75
277.262	314.75
277.494	312.75
277.726	326.75
277.957	300.75
278.189	293.75
278.421	275.75
278.652	272.75
278.884	262.75
279.115	263.75
279.347	266.75
279.579	267.75
279.81	274.75
280.042	277.75
280.273	272.75
280.505	267.75
280.736	260.75
280.968	255.75
281.199	244.75
281.431	249.75
281.662	271.75
281.894	264.75
282.125	258.75
282.356	269.75
282.588	294.75
282.819	307.75
283.051	284.75
283.282	260.75
283.513	255.75
283.745	269.75
283.976	289.75
284.207	272.75
284.439	280.75
284.67	268.75
284.901	258.75
285.132	246.75
285.364	267.75
285.595	245.75
285.826	257.75
286.057	280.75
286.288	278.75
286.52	271.75
286.751	256.75
286.982	270.75
287.213	274.75
287.444	275.75
287.675	280.75
287.906	283.75
288.138	279.75
288.369	296.75
288.6	289.75
288.831	307.75
289.062	291.75
289.293	281.75
289.524	290.75
289.755	266.75
289.986	279.75
290.217	282.75
290.448	280.75
290.679	254.75
290.91	274.75
291.141	275.75
291.371	284.75
291.602	250.75
291.833	271.75
292.064	278.75
292.295	269.75
292.526	276.75
292.757	268.75
292.987	267.75
293.218	254.75
293.449	267.75
293.68	286.75
293.91	278.75
294.141	277.75
294.372	268.75
294.603	273.75
294.833	287.75
295.064	271.75
295.295	272.75
295.525	281.75
295.756	277.75
295.987	296.75
296.217	328.75
296.448	328.75
296.679	298.75
296.909	274.75
297.14	264.75
297.37	287.75
297.601	258.75
297.831	256.75
298.062	282.75
298.292	289.75
298.523	295.75
298.753	276.75
298.984	276.75
299.214	281.75
299.445	296.75
299.675	294.75
299.905	287.75
300.136	270.75
300.366	297.75
300.597	294.75
300.827	296.75
301.057	297.75
301.288	303.75
301.518	287.75
301.748	284.75
301.979	282.75
302.209	295.75
302.439	295.75
302.669	304.75
302.9	304.75
303.13	299.75
303.36	284.75
303.59	315.75
303.82	324.75
304.051	294.75
304.281	315.75
304.511	302.75
304.741	297.75
304.971	295.75
305.201	305.75
305.431	306.75
305.661	302.75
305.891	290.75
306.121	284.75
306.352	314.75
306.582	313.75
306.812	313.75
307.042	312.75
307.272	310.75
307.502	318.75
307.731	328.75
307.961	331.75
308.191	312.75
308.421	303.75
308.651	321.75
308.881	317.75
309.111	329.75
309.341	330.75
309.571	334.75
309.8	345.75
310.03	355.75
310.26	355.75
310.49	371.75
310.72	363.75
310.949	394.75
311.179	414.75
311.409	356.75
311.639	372.75
311.868	366.75
312.098	369.75
312.328	381.75
312.557	399.75
312.787	407.75
313.017	405.75
313.246	387.75
313.476	355.75
313.706	362.75
313.935	367.75
314.165	384.75
314.394	393.75
314.624	382.75
314.853	377.75
315.083	376.75
315.312	370.75
315.542	367.75
315.771	364.75
316.001	362.75
316.23	361.75
316.46	349.75
316.689	340.75
316.919	351.75
317.148	378.75
317.377	369.75
317.607	377.75
317.836	388.75
318.065	364.75
318.295	359.75
318.524	346.75
318.753	360.75
318.983	357.75
319.212	357.75
319.441	373.75
319.67	378.75
319.9	355.75
320.129	355.75
320.358	357.75
320.587	373.75
320.816	380.75
321.046	397.75
321.275	404.75
321.504	380.75
321.733	391.75
321.962	378.75
322.191	397.75
322.42	436.75
322.649	430.75
322.878	459.75
323.108	485.75
323.337	489.75
323.566	509.75
323.795	565.75
324.024	602.75
324.253	756.75
324.482	1073.75
324.71	1674.75
324.939	2371.75
325.168	2115.75
325.397	1122.75
325.626	744.75
325.855	610.75
326.084	571.75
326.313	535.75
326.542	527.75
326.77	592.75
326.999	697.75
327.228	944.75
327.457	1458.75
327.686	1826.75
327.914	1268.75
328.143	814.75
328.372	706.75
328.6	681.75
328.829	630.75
329.058	598.75
329.287	635.75
329.515	595.75
329.744	553.75
329.972	548.75
330.201	586.75
330.43	632.75
330.658	658.75
330.887	685.75
331.115	631.75
331.344	560.75
331.572	513.75
331.801	508.75
332.03	506.75
332.258	485.75
332.486	445.75
332.715	423.75
332.943	452.75
333.172	447.75
333.4	445.75
333.629	469.75
333.857	453.75
334.085	488.75
334.314	520.75
334.542	564.75
334.771	582.75
334.999	516.75
335.227	454.75
335.455	466.75
335.684	471.75
335.912	448.75
336.14	408.75
336.369	402.75
336.597	434.75
336.825	423.75
337.053	414.75
337.281	418.75
337.51	407.75
337.738	411.75
337.966	424.75
338.194	427.75
338.422	432.75
338.65	422.75
338.878	399.75
339.106	372.75
339.334	381.75
339.562	406.75
339.79	386.75
340.018	408.75
340.246	400.75
340.474	413.75
340.702	418.75
340.93	400.75
341.158	382.75
341.386	402.75
341.614	408.75
341.842	402.75
342.07	397.75
342.298	421.75
342.526	387.75
342.754	378.75
342.981	400.75
343.209	393.75
343.437	374.75
343.665	378.75
343.893	394.75
344.12	401.75
344.348	398.75
344.576	394.75
344.804	401.75
345.031	413.75
345.259	426.75
345.487	419.75
345.714	386.75
345.942	385.75
346.17	394.75
346.397	390.75
346.625	408.75
346.853	390.75
347.08	378.75
347.308	386.75
347.535	397.75
347.763	418.75
347.99	407.75
348.218	389.75
348.445	401.75
348.673	404.75
348.9	382.75
349.128	392.75
349.355	375.75
349.583	367.75
349.81	370.75
350.037	369.75
350.265	376.75
350.492	366.75
350.72	366.75
350.947	387.75
351.174	379.75
351.402	392.75
351.629	405.75
351.856	403.75
352.083	422.75
352.311	406.75
352.538	409.75
352.765	408.75
352.992	403.75
353.22	393.75
353.447	392.75
353.674	373.75
353.901	359.75
354.128	378.75
354.355	355.75
354.583	360.75
354.81	371.75
355.037	364.75
355.264	348.75
355.491	353.75
355.718	369.75
355.945	347.75
356.172	330.75
356.399	351.75
356.626	340.75
356.853	330.75
357.08	349.75
357.307	346.75
357.534	340.75
357.761	339.75
357.988	358.75
358.215	368.75
358.441	347.75
358.668	344.75
358.895	348.75
359.122	366.75
359.349	382.75
359.576	372.75
359.802	418.75
360.029	447.75
360.256	463.75
360.483	431.75
360.709	404.75
360.936	404.75
361.163	390.75
361.39	378.75
361.616	400.75
361.843	395.75
362.07	391.75
362.296	408.75
362.523	384.75
362.749	388.75
362.976	391.75
363.203	382.75
363.429	358.75
363.656	374.75
363.882	370.75
364.109	362.75
364.335	354.75
364.562	360.75
364.788	363.75
365.015	359.75
365.241	372.75
365.468	361.75
365.694	372.75
365.92	386.75
366.147	369.75
366.373	383.75
366.599	374.75
366.826	374.75
367.052	341.75
367.278	358.75
367.505	357.75
367.731	375.75
367.957	368.75
368.184	366.75
368.41	369.75
368.636	383.75
368.862	382.75
369.089	369.75
369.315	362.75
369.541	362.75
369.767	375.75
369.993	363.75
370.219	347.75
370.445	342.75
370.672	361.75
370.898	356.75
371.124	344.75
371.35	356.75
371.576	359.75
371.802	355.75
372.028	358.75
372.254	351.75
372.48	348.75
372.706	361.75
372.932	352.75
373.158	332.75
373.384	375.75
373.61	359.75
373.835	349.75
374.061	340.75
374.287	370.75
374.513	350.75
374.739	362.75
374.965	352.75
375.191	347.75
375.416	347.75
375.642	339.75
375.868	344.75
376.094	346.75
376.319	354.75
376.545	346.75
376.771	350.75
376.997	354.75
377.222	354.75
377.448	352.75
377.674	346.75
377.899	340.75
378.125	340.75
378.35	331.75
378.576	366.75
378.802	349.75
379.027	343.75
379.253	330.75
379.478	344.75
379.704	344.75
379.929	340.75
380.155	339.75
380.38	349.75
380.606	331.75
380.831	336.75
381.057	356.75
381.282	343.75
381.507	342.75
381.733	337.75
381.958	346.75
382.184	330.75
382.409	378.75
382.634	345.75
382.86	347.75
383.085	358.75
383.31	344.75
383.535	366.75
383.761	366.75
383.986	351.75
384.211	352.75
384.436	346.75
384.662	347.75
384.887	370.75
385.112	366.75
385.337	378.75
385.562	357.75
385.787	376.75
386.013	372.75
386.238	374.75
386.463	384.75
386.688	374.75
386.913	375.75
387.138	366.75
387.363	368.75
387.588	374.75
387.813	370.75
388.038	374.75
388.263	361.75
388.488	378.75
388.713	371.75
388.938	368.75
389.163	356.75
389.387	363.75
389.612	345.75
389.837	374.75
390.062	356.75
390.287	367.75
390.512	376.75
390.736	358.75
390.961	386.75
391.186	350.75
391.411	362.75
391.636	377.75
391.86	380.75
392.085	355.75
392.31	355.75
392.534	356.75
392.759	382.75
392.984	371.75
393.208	377.75
393.433	348.75
393.658	367.75
393.882	360.75
394.107	358.75
394.331	371.75
394.556	378.75
394.78	374.75
395.005	358.75
395.229	358.75
395.454	367.75
395.678	362.75
395.903	400.75
396.127	410.75
396.352	394.75
396.576	388.75
396.801	377.75
397.025	357.75
397.249	383.75
397.474	375.75
397.698	376.75
397.922	419.75
398.147	410.75
398.371	392.75
398.595	405.75
398.82	409.75
399.044	412.75
399.268	408.75
399.492	421.75
399.717	438.75
399.941	469.75
400.165	491.75
400.389	497.75
400.613	477.75
400.837	444.75
401.062	435.75
401.286	438.75
401.51	419.75
401.734	418.75
401.958	417.75
402.182	404.75
402.406	424.75
402.63	424.75
402.854	427.75
403.078	393.75
403.302	428.75
403.526	430.75
403.75	428.75
403.974	406.75
404.198	442.75
404.422	437.75
404.645	419.75
404.869	453.75
405.093	471.75
405.317	532.75
405.541	542.75
405.765	511.75
405.988	469.75
406.212	485.75
406.436	515.75
406.66	487.75
406.883	476.75
407.107	488.75
407.331	531.75
407.555	566.75
407.778	588.75
408.002	542.75
408.226	489.75
408.449	481.75
408.673	490.75
408.896	522.75
409.12	538.75
409.344	511.75
409.567	470.75
409.791	448.75
410.014	418.75
410.238	431.75
410.461	426.75
410.685	434.75
410.908	430.75
411.132	482.75
411.355	516.75
411.578	497.75
411.802	460.75
412.025	440.75
412.249	475.75
412.472	491.75
412.695	490.75
412.919	507.75
413.142	456.75
413.365	462.75
413.589	432.75
413.812	438.75
414.035	417.75
414.258	412.75
414.482	406.75
414.705	432.75
414.928	409.75
415.151	403.75
415.374	391.75
415.597	388.75
415.821	411.75
416.044	389.75
416.267	408.75
416.49	424.75
416.713	397.75
416.936	420.75
417.159	419.75
417.382	414.75
417.605	416.75
417.828	427.75
418.051	436.75
418.274	436.75
418.497	412.75
418.72	411.75
418.943	408.75
419.166	406.75
419.389	430.75
419.611	439.75
419.834	447.75
420.057	434.75
420.28	466.75
420.503	453.75
420.726	442.75
420.948	464.75
421.171	510.75
421.394	528.75
421.617	472.75
421.839	432.75
422.062	430.75
422.285	449.75
422.507	516.75
422.73	568.75
422.953	571.75
423.175	492.75
423.398	474.75
423.621	475.75
423.843	485.75
424.066	496.75
424.288	489.75
424.511	478.75
424.733	524.75
424.956	649.75
425.178	618.75
425.401	599.75
425.623	615.75
425.846	528.75
426.068	498.75
426.291	475.75
426.513	479.75
426.735	491.75
426.958	532.75
427.18	638.75
427.402	718.75
427.625	824.75
427.847	740.75
428.069	675.75
428.292	571.75
428.514	490.75
428.736	487.75
428.958	453.75
429.181	472.75
429.403	451.75
429.625	472.75
429.847	480.75
430.069	563.75
430.292	572.75
430.514	478.75
430.736	460.75
430.958	443.75
431.18	466.75
431.402	431.75
431.624	421.75
431.846	412.75
432.068	403.75
432.29	433.75
432.512	418.75
432.734	444.75
432.956	441.75
433.178	441.75
433.4	420.75
433.622	427.75
433.844	423.75
434.066	419.75
434.287	407.75
434.509	409.75
434.731	422.75
434.953	411.75
435.175	444.75
435.397	488.75
435.618	498.75
435.84	523.75
436.062	630.75
436.284	665.75
436.505	578.75
436.727	512.75
436.949	509.75
437.17	462.75
437.392	466.75
437.614	462.75
437.835	516.75
438.057	616.75
438.278	716.75
438.5	707.75
438.721	769.75
438.943	711.75
439.165	578.75
439.386	503.75
439.608	516.75
439.829	515.75
440.05	521.75
440.272	586.75
440.493	545.75
440.715	487.75
440.936	465.75
441.158	437.75
441.379	455.75
441.6	470.75
441.822	482.75
442.043	514.75
442.264	602.75
442.486	637.75
442.707	534.75
442.928	514.75
443.149	502.75
443.371	534.75
443.592	566.75
443.813	651.75
444.034	710.75
444.255	583.75
444.476	522.75
444.698	498.75
444.919	479.75
445.14	574.75
445.361	530.75
445.582	539.75
445.803	620.75
446.024	694.75
446.245	686.75
446.466	629.75
446.687	532.75
446.908	508.75
447.129	482.75
447.35	462.75
447.571	459.75
447.792	448.75
448.013	466.75
448.234	492.75
448.455	532.75
448.675	658.75
448.896	747.75
449.117	660.75
449.338	606.75
449.559	694.75
449.779	787.75
450	642.75
450.221	540.75
450.442	480.75
450.662	462.75
450.883	457.75
451.104	479.75
451.324	477.75
451.545	431.75
451.766	428.75
451.986	416.75
452.207	408.75
452.428	400.75
452.648	397.75
452.869	398.75
453.089	420.75
453.31	435.75
453.53	421.75
453.751	436.75
453.971	419.75
454.192	451.75
454.412	421.75
454.633	396.75
454.853	418.75
455.073	400.75
455.294	421.75
455.514	505.75
455.734	484.75
455.955	414.75
456.175	402.75
456.395	375.75
456.616	390.75
456.836	376.75
457.056	356.75
457.276	354.75
457.497	370.75
457.717	370.75
457.937	378.75
458.157	400.75
458.377	394.75
458.598	414.75
458.818	472.75
459.038	553.75
459.258	570.75
459.478	468.75
459.698	427.75
459.918	409.75
460.138	396.75
460.358	396.75
460.578	400.75
460.798	417.75
461.018	411.75
461.238	384.75
461.458	392.75
461.678	391.75
461.898	406.75
462.118	386.75
462.338	419.75
462.558	409.75
462.777	408.75
462.997	432.75
463.217	420.75
463.437	419.75
463.657	407.75
463.876	431.75
464.096	420.75
464.316	426.75
464.536	412.75
464.755	449.75
464.975	460.75
465.195	515.75
465.414	581.75
465.634	528.75
465.854	469.75
466.073	454.75
466.293	430.75
466.512	399.75
466.732	410.75
466.951	392.75
467.171	384.75
467.391	406.75
467.61	426.75
467.829	424.75
468.049	418.75
468.268	445.75
468.488	412.75
468.707	400.75
468.927	392.75
469.146	401.75
469.365	382.75
469.585	402.75
469.804	406.75
470.023	423.75
470.243	411.75
470.462	423.75
470.681	460.75
470.901	426.75
471.12	421.75
471.339	404.75
471.558	428.75
471.777	428.75
471.997	426.75
472.216	419.75
472.435	498.75
472.654	474.75
472.873	439.75
473.092	435.75
473.311	431.75
473.53	408.75
473.749	438.75
473.968	483.75
474.187	577.75
474.406	619.75
474.625	483.75
474.844	454.75
475.063	435.75
475.282	428.75
475.501	415.75
475.72	428.75
475.939	435.75
476.158	446.75
476.377	422.75
476.596	428.75
476.814	440.75
477.033	458.75
477.252	439.75
477.471	468.75
477.69	469.75
477.908	471.75
478.127	446.75
478.346	454.75
478.564	458.75
478.783	459.75
479.002	455.75
479.22	458.75
479.439	501.75
479.658	486.75
479.876	483.75
480.095	534.75
480.313	525.75
480.532	514.75
480.751	516.75
480.969	546.75
481.188	639.75
481.406	741.75
481.624	608.75
481.843	544.75
482.061	535.75
482.28	505.75
482.498	512.75
482.717	490.75
482.935	484.75
483.153	501.75
483.372	487.75
483.59	510.75
483.808	496.75
484.027	488.75
484.245	511.75
484.463	524.75
484.681	518.75
484.9	517.75
485.118	503.75
485.336	505.75
485.554	515.75
485.772	522.75
485.99	502.75
486.209	513.75
486.427	542.75
486.645	532.75
486.863	561.75
487.081	567.75
487.299	540.75
487.517	537.75
487.735	514.75
487.953	530.75
488.171	535.75
488.389	534.75
488.607	536.75
488.825	566.75
489.043	565.75
489.261	564.75
489.479	537.75
489.696	530.75
489.914	571.75
490.132	536.75
490.35	569.75
490.568	584.75
490.786	587.75
491.003	592.75
491.221	604.75
491.439	606.75
491.657	626.75
491.874	624.75
492.092	628.75
492.31	628.75
492.527	634.75
492.745	652.75
492.963	658.75
493.18	642.75
493.398	661.75
493.615	639.75
493.833	658.75
494.05	657.75
494.268	659.75
494.485	674.75
494.703	632.75
494.92	654.75
495.138	633.75
495.355	650.75
495.573	669.75
495.79	658.75
496.008	645.75
496.225	658.75
496.442	647.75
496.66	666.75
496.877	642.75
497.094	657.75
497.312	655.75
497.529	656.75
497.746	666.75
497.963	683.75
498.181	690.75
498.398	683.75
498.615	698.75
498.832	702.75
499.049	705.75
499.267	712.75
499.484	733.75
499.701	710.75
499.918	746.75
500.135	759.75
500.352	771.75
500.569	784.75
500.786	772.75
501.003	795.75
501.22	766.75
501.437	739.75
501.654	745.75
501.871	755.75
502.088	752.75
