Data from 1986.PennyLincolnUp.Lamp.En5.5.200Scan.071819.P2_HRD10591_17-10-49-974.txt Node
Date: Thu Jul 18 17:10:49 EDT 2019
User: cochatt
Spectrometer: HR+D1059
Trigger mode: 1
Integration Time (sec): 1.000000E-1
Scans to average: 1
Electric dark correction enabled: true
Nonlinearity correction enabled: false
Boxcar width: 0
XAxis mode: Wavelengths
Number of Pixels in Spectrum: 2048
>>>>>Begin Spectral Data<<<<<
223.165	-19.25
223.4	-19.25
223.635	-19.25
223.869	-26.25
224.104	-13.25
224.338	-7.25
224.573	-10.25
224.808	-11.25
225.042	-8.25
225.277	-18.25
225.511	8.75
225.746	9.75
225.98	-11.25
226.215	28.75
226.449	20.75
226.683	12.75
226.918	21.75
227.152	22.75
227.387	24.75
227.621	27.75
227.856	36.75
228.09	36.75
228.324	55.75
228.559	60.75
228.793	84.75
229.027	95.75
229.262	122.75
229.496	110.75
229.73	145.75
229.964	167.75
230.199	136.75
230.433	118.75
230.667	110.75
230.901	109.75
231.136	99.75
231.37	102.75
231.604	117.75
231.838	109.75
232.072	110.75
232.306	106.75
232.541	113.75
232.775	115.75
233.009	128.75
233.243	105.75
233.477	122.75
233.711	119.75
233.945	120.75
234.179	132.75
234.413	109.75
234.647	128.75
234.881	109.75
235.115	130.75
235.349	126.75
235.583	132.75
235.817	132.75
236.051	125.75
236.285	129.75
236.519	109.75
236.753	132.75
236.987	163.75
237.221	192.75
237.455	247.75
237.689	207.75
237.922	159.75
238.156	139.75
238.39	130.75
238.624	130.75
238.858	130.75
239.091	130.75
239.325	123.75
239.559	130.75
239.793	138.75
240.027	124.75
240.26	149.75
240.494	156.75
240.728	158.75
240.961	141.75
241.195	156.75
241.429	153.75
241.662	154.75
241.896	139.75
242.13	142.75
242.363	126.75
242.597	155.75
242.83	149.75
243.064	131.75
243.298	130.75
243.531	138.75
243.765	160.75
243.998	144.75
244.232	145.75
244.465	156.75
244.699	163.75
244.932	127.75
245.166	158.75
245.399	149.75
245.633	150.75
245.866	150.75
246.099	143.75
246.333	145.75
246.566	151.75
246.8	161.75
247.033	154.75
247.266	154.75
247.5	175.75
247.733	178.75
247.966	198.75
248.2	184.75
248.433	175.75
248.666	164.75
248.899	186.75
249.133	207.75
249.366	216.75
249.599	208.75
249.832	192.75
250.066	191.75
250.299	197.75
250.532	207.75
250.765	219.75
250.998	225.75
251.231	236.75
251.465	241.75
251.698	216.75
251.931	224.75
252.164	203.75
252.397	210.75
252.63	212.75
252.863	210.75
253.096	230.75
253.329	257.75
253.562	239.75
253.795	229.75
254.028	230.75
254.261	233.75
254.494	247.75
254.727	275.75
254.96	279.75
255.193	281.75
255.426	268.75
255.659	249.75
255.892	254.75
256.124	217.75
256.357	252.75
256.59	243.75
256.823	233.75
257.056	236.75
257.289	230.75
257.521	239.75
257.754	218.75
257.987	215.75
258.22	228.75
258.452	230.75
258.685	213.75
258.918	231.75
259.151	200.75
259.383	230.75
259.616	214.75
259.849	259.75
260.081	242.75
260.314	263.75
260.547	282.75
260.779	262.75
261.012	246.75
261.244	236.75
261.477	237.75
261.71	223.75
261.942	235.75
262.175	262.75
262.407	223.75
262.64	234.75
262.872	222.75
263.105	220.75
263.337	223.75
263.57	211.75
263.802	206.75
264.035	208.75
264.267	210.75
264.499	202.75
264.732	213.75
264.964	209.75
265.197	225.75
265.429	223.75
265.661	212.75
265.894	205.75
266.126	219.75
266.358	223.75
266.591	221.75
266.823	229.75
267.055	206.75
267.287	218.75
267.52	230.75
267.752	232.75
267.984	232.75
268.216	226.75
268.448	245.75
268.681	242.75
268.913	244.75
269.145	240.75
269.377	271.75
269.609	272.75
269.841	258.75
270.073	277.75
270.306	310.75
270.538	322.75
270.77	314.75
271.002	315.75
271.234	324.75
271.466	289.75
271.698	302.75
271.93	325.75
272.162	328.75
272.394	316.75
272.626	310.75
272.858	314.75
273.09	289.75
273.322	284.75
273.553	272.75
273.785	274.75
274.017	256.75
274.249	280.75
274.481	279.75
274.713	263.75
274.945	276.75
275.176	282.75
275.408	273.75
275.64	255.75
275.872	266.75
276.104	268.75
276.335	275.75
276.567	293.75
276.799	305.75
277.031	355.75
277.262	317.75
277.494	310.75
277.726	318.75
277.957	299.75
278.189	288.75
278.421	262.75
278.652	286.75
278.884	261.75
279.115	266.75
279.347	259.75
279.579	272.75
279.81	274.75
280.042	254.75
280.273	246.75
280.505	262.75
280.736	262.75
280.968	255.75
281.199	263.75
281.431	262.75
281.662	256.75
281.894	270.75
282.125	257.75
282.356	276.75
282.588	305.75
282.819	311.75
283.051	270.75
283.282	254.75
283.513	264.75
283.745	268.75
283.976	267.75
284.207	271.75
284.439	266.75
284.67	264.75
284.901	262.75
285.132	271.75
285.364	257.75
285.595	267.75
285.826	270.75
286.057	266.75
286.288	248.75
286.52	262.75
286.751	255.75
286.982	275.75
287.213	280.75
287.444	278.75
287.675	301.75
287.906	290.75
288.138	285.75
288.369	288.75
288.6	289.75
288.831	279.75
289.062	281.75
289.293	282.75
289.524	278.75
289.755	280.75
289.986	257.75
290.217	267.75
290.448	285.75
290.679	272.75
290.91	286.75
291.141	270.75
291.371	273.75
291.602	266.75
291.833	279.75
292.064	270.75
292.295	258.75
292.526	273.75
292.757	285.75
292.987	272.75
293.218	274.75
293.449	264.75
293.68	259.75
293.91	299.75
294.141	275.75
294.372	274.75
294.603	268.75
294.833	283.75
295.064	291.75
295.295	276.75
295.525	278.75
295.756	291.75
295.987	303.75
296.217	310.75
296.448	323.75
296.679	294.75
296.909	283.75
297.14	287.75
297.37	278.75
297.601	290.75
297.831	290.75
298.062	276.75
298.292	272.75
298.523	302.75
298.753	267.75
298.984	283.75
299.214	290.75
299.445	291.75
299.675	295.75
299.905	283.75
300.136	291.75
300.366	285.75
300.597	300.75
300.827	293.75
301.057	310.75
301.288	326.75
301.518	307.75
301.748	310.75
301.979	310.75
302.209	310.75
302.439	320.75
302.669	309.75
302.9	300.75
303.13	316.75
303.36	322.75
303.59	322.75
303.82	318.75
304.051	306.75
304.281	314.75
304.511	306.75
304.741	297.75
304.971	294.75
305.201	307.75
305.431	311.75
305.661	292.75
305.891	302.75
306.121	308.75
306.352	314.75
306.582	312.75
306.812	307.75
307.042	337.75
307.272	318.75
307.502	297.75
307.731	312.75
307.961	318.75
308.191	318.75
308.421	310.75
308.651	315.75
308.881	322.75
309.111	317.75
309.341	322.75
309.571	328.75
309.8	341.75
310.03	358.75
310.26	370.75
310.49	362.75
310.72	373.75
310.949	390.75
311.179	380.75
311.409	364.75
311.639	379.75
311.868	375.75
312.098	371.75
312.328	367.75
312.557	398.75
312.787	412.75
313.017	410.75
313.246	377.75
313.476	353.75
313.706	359.75
313.935	365.75
314.165	381.75
314.394	378.75
314.624	372.75
314.853	371.75
315.083	383.75
315.312	385.75
315.542	365.75
315.771	367.75
316.001	358.75
316.23	342.75
316.46	348.75
316.689	342.75
316.919	388.75
317.148	367.75
317.377	348.75
317.607	390.75
317.836	372.75
318.065	364.75
318.295	384.75
318.524	363.75
318.753	361.75
318.983	374.75
319.212	354.75
319.441	367.75
319.67	386.75
319.9	372.75
320.129	369.75
320.358	363.75
320.587	384.75
320.816	382.75
321.046	382.75
321.275	371.75
321.504	388.75
321.733	390.75
321.962	378.75
322.191	423.75
322.42	437.75
322.649	445.75
322.878	469.75
323.108	494.75
323.337	506.75
323.566	516.75
323.795	574.75
324.024	612.75
324.253	733.75
324.482	1097.75
324.71	1656.75
324.939	2352.75
325.168	2062.75
325.397	1127.75
325.626	748.75
325.855	609.75
326.084	562.75
326.313	534.75
326.542	520.75
326.77	593.75
326.999	692.75
327.228	969.75
327.457	1471.75
327.686	1772.75
327.914	1254.75
328.143	807.75
328.372	722.75
328.6	666.75
328.829	611.75
329.058	626.75
329.287	631.75
329.515	578.75
329.744	552.75
329.972	535.75
330.201	576.75
330.43	620.75
330.658	642.75
330.887	651.75
331.115	640.75
331.344	530.75
331.572	504.75
331.801	492.75
332.03	474.75
332.258	449.75
332.486	431.75
332.715	435.75
332.943	449.75
333.172	432.75
333.4	436.75
333.629	444.75
333.857	460.75
334.085	485.75
334.314	470.75
334.542	555.75
334.771	562.75
334.999	512.75
335.227	467.75
335.455	448.75
335.684	424.75
335.912	411.75
336.14	404.75
336.369	425.75
336.597	408.75
336.825	423.75
337.053	400.75
337.281	424.75
337.51	416.75
337.738	401.75
337.966	408.75
338.194	422.75
338.422	424.75
338.65	410.75
338.878	408.75
339.106	393.75
339.334	388.75
339.562	391.75
339.79	391.75
340.018	402.75
340.246	404.75
340.474	421.75
340.702	411.75
340.93	389.75
341.158	392.75
341.386	409.75
341.614	422.75
341.842	406.75
342.07	403.75
342.298	407.75
342.526	401.75
342.754	366.75
342.981	372.75
343.209	394.75
343.437	401.75
343.665	392.75
343.893	391.75
344.12	400.75
344.348	403.75
344.576	397.75
344.804	411.75
345.031	409.75
345.259	429.75
345.487	416.75
345.714	397.75
345.942	390.75
346.17	398.75
346.397	395.75
346.625	393.75
346.853	409.75
347.08	414.75
347.308	387.75
347.535	391.75
347.763	409.75
347.99	410.75
348.218	400.75
348.445	426.75
348.673	411.75
348.9	388.75
349.128	384.75
349.355	374.75
349.583	386.75
349.81	390.75
350.037	381.75
350.265	388.75
350.492	378.75
350.72	385.75
350.947	379.75
351.174	398.75
351.402	402.75
351.629	418.75
351.856	421.75
352.083	404.75
352.311	420.75
352.538	406.75
352.765	441.75
352.992	390.75
353.22	388.75
353.447	393.75
353.674	410.75
353.901	376.75
354.128	378.75
354.355	372.75
354.583	367.75
354.81	364.75
355.037	375.75
355.264	342.75
355.491	354.75
355.718	349.75
355.945	353.75
356.172	336.75
356.399	346.75
356.626	358.75
356.853	345.75
357.08	358.75
357.307	353.75
357.534	372.75
357.761	349.75
357.988	360.75
358.215	360.75
358.441	354.75
358.668	353.75
358.895	364.75
359.122	368.75
359.349	382.75
359.576	384.75
359.802	412.75
360.029	443.75
360.256	483.75
360.483	419.75
360.709	419.75
360.936	391.75
361.163	408.75
361.39	385.75
361.616	389.75
361.843	384.75
362.07	398.75
362.296	412.75
362.523	387.75
362.749	386.75
362.976	390.75
363.203	398.75
363.429	391.75
363.656	386.75
363.882	376.75
364.109	379.75
364.335	364.75
364.562	384.75
364.788	370.75
365.015	387.75
365.241	373.75
365.468	374.75
365.694	373.75
365.92	369.75
366.147	362.75
366.373	364.75
366.599	375.75
366.826	358.75
367.052	362.75
367.278	352.75
367.505	367.75
367.731	378.75
367.957	356.75
368.184	360.75
368.41	354.75
368.636	382.75
368.862	377.75
369.089	361.75
369.315	369.75
369.541	365.75
369.767	345.75
369.993	347.75
370.219	373.75
370.445	355.75
370.672	364.75
370.898	368.75
371.124	354.75
371.35	356.75
371.576	360.75
371.802	333.75
372.028	348.75
372.254	351.75
372.48	342.75
372.706	348.75
372.932	339.75
373.158	367.75
373.384	361.75
373.61	355.75
373.835	349.75
374.061	344.75
374.287	360.75
374.513	352.75
374.739	344.75
374.965	372.75
375.191	351.75
375.416	353.75
375.642	374.75
375.868	366.75
376.094	350.75
376.319	337.75
376.545	353.75
376.771	340.75
376.997	335.75
377.222	351.75
377.448	336.75
377.674	350.75
377.899	340.75
378.125	339.75
378.35	361.75
378.576	363.75
378.802	327.75
379.027	358.75
379.253	336.75
379.478	350.75
379.704	364.75
379.929	349.75
380.155	365.75
380.38	355.75
380.606	349.75
380.831	360.75
381.057	361.75
381.282	356.75
381.507	346.75
381.733	373.75
381.958	346.75
382.184	369.75
382.409	341.75
382.634	346.75
382.86	356.75
383.085	347.75
383.31	353.75
383.535	367.75
383.761	354.75
383.986	375.75
384.211	361.75
384.436	357.75
384.662	351.75
384.887	342.75
385.112	358.75
385.337	371.75
385.562	355.75
385.787	371.75
386.013	375.75
386.238	391.75
386.463	363.75
386.688	371.75
386.913	358.75
387.138	380.75
387.363	386.75
387.588	379.75
387.813	378.75
388.038	370.75
388.263	367.75
388.488	378.75
388.713	356.75
388.938	376.75
389.163	366.75
389.387	396.75
389.612	384.75
389.837	361.75
390.062	377.75
390.287	375.75
390.512	376.75
390.736	374.75
390.961	365.75
391.186	368.75
391.411	382.75
391.636	371.75
391.86	360.75
392.085	384.75
392.31	368.75
392.534	381.75
392.759	359.75
392.984	356.75
393.208	369.75
393.433	374.75
393.658	376.75
393.882	393.75
394.107	363.75
394.331	362.75
394.556	376.75
394.78	370.75
395.005	371.75
395.229	346.75
395.454	362.75
395.678	382.75
395.903	406.75
396.127	407.75
396.352	421.75
396.576	393.75
396.801	375.75
397.025	380.75
397.249	393.75
397.474	377.75
397.698	389.75
397.922	406.75
398.147	411.75
398.371	426.75
398.595	392.75
398.82	425.75
399.044	420.75
399.268	409.75
399.492	429.75
399.717	451.75
399.941	493.75
400.165	486.75
400.389	517.75
400.613	464.75
400.837	442.75
401.062	426.75
401.286	427.75
401.51	420.75
401.734	418.75
401.958	416.75
402.182	420.75
402.406	425.75
402.63	458.75
402.854	436.75
403.078	429.75
403.302	430.75
403.526	435.75
403.75	439.75
403.974	426.75
404.198	432.75
404.422	431.75
404.645	443.75
404.869	463.75
405.093	480.75
405.317	502.75
405.541	546.75
405.765	497.75
405.988	482.75
406.212	475.75
406.436	519.75
406.66	522.75
406.883	475.75
407.107	488.75
407.331	519.75
407.555	585.75
407.778	608.75
408.002	545.75
408.226	480.75
408.449	485.75
408.673	484.75
408.896	520.75
409.12	535.75
409.344	509.75
409.567	468.75
409.791	455.75
410.014	454.75
410.238	425.75
410.461	430.75
410.685	428.75
410.908	451.75
411.132	474.75
411.355	522.75
411.578	493.75
411.802	424.75
412.025	426.75
412.249	431.75
412.472	468.75
412.695	514.75
412.919	518.75
413.142	471.75
413.365	452.75
413.589	438.75
413.812	410.75
414.035	402.75
414.258	413.75
414.482	412.75
414.705	417.75
414.928	408.75
415.151	401.75
415.374	411.75
415.597	394.75
415.821	406.75
416.044	420.75
416.267	414.75
416.49	424.75
416.713	411.75
416.936	422.75
417.159	413.75
417.382	436.75
417.605	418.75
417.828	423.75
418.051	426.75
418.274	440.75
418.497	404.75
418.72	395.75
418.943	412.75
419.166	425.75
419.389	431.75
419.611	436.75
419.834	440.75
420.057	456.75
420.28	455.75
420.503	463.75
420.726	455.75
420.948	456.75
421.171	475.75
421.394	520.75
421.617	474.75
421.839	444.75
422.062	441.75
422.285	444.75
422.507	504.75
422.73	577.75
422.953	557.75
423.175	500.75
423.398	473.75
423.621	444.75
423.843	463.75
424.066	472.75
424.288	481.75
424.511	511.75
424.733	552.75
424.956	620.75
425.178	631.75
425.401	592.75
425.623	635.75
425.846	546.75
426.068	493.75
426.291	475.75
426.513	474.75
426.735	502.75
426.958	547.75
427.18	623.75
427.402	740.75
427.625	825.75
427.847	765.75
428.069	641.75
428.292	552.75
428.514	500.75
428.736	484.75
428.958	487.75
429.181	479.75
429.403	473.75
429.625	456.75
429.847	500.75
430.069	562.75
430.292	552.75
430.514	489.75
430.736	482.75
430.958	444.75
431.18	431.75
431.402	418.75
431.624	427.75
431.846	420.75
432.068	420.75
432.29	399.75
432.512	416.75
432.734	454.75
432.956	426.75
433.178	431.75
433.4	426.75
433.622	434.75
433.844	416.75
434.066	408.75
434.287	431.75
434.509	428.75
434.731	441.75
434.953	432.75
435.175	439.75
435.397	491.75
435.618	501.75
435.84	549.75
436.062	604.75
436.284	699.75
436.505	568.75
436.727	496.75
436.949	487.75
437.17	461.75
437.392	469.75
437.614	471.75
437.835	502.75
438.057	606.75
438.278	696.75
438.5	685.75
438.721	757.75
438.943	730.75
439.165	569.75
439.386	541.75
439.608	518.75
439.829	515.75
440.05	532.75
440.272	555.75
440.493	530.75
440.715	496.75
440.936	507.75
441.158	471.75
441.379	476.75
441.6	475.75
441.822	494.75
442.043	541.75
442.264	604.75
442.486	655.75
442.707	554.75
442.928	514.75
443.149	501.75
443.371	545.75
443.592	582.75
443.813	662.75
444.034	699.75
444.255	588.75
444.476	522.75
444.698	487.75
444.919	478.75
445.14	571.75
445.361	530.75
445.582	517.75
445.803	617.75
446.024	699.75
446.245	697.75
446.466	637.75
446.687	579.75
446.908	510.75
447.129	472.75
447.35	470.75
447.571	464.75
447.792	485.75
448.013	462.75
448.234	482.75
448.455	551.75
448.675	658.75
448.896	754.75
449.117	648.75
449.338	619.75
449.559	680.75
449.779	780.75
450	631.75
450.221	527.75
450.442	461.75
450.662	461.75
450.883	456.75
451.104	494.75
451.324	474.75
451.545	463.75
451.766	452.75
451.986	422.75
452.207	416.75
452.428	404.75
452.648	406.75
452.869	415.75
453.089	429.75
453.31	435.75
453.53	438.75
453.751	434.75
453.971	431.75
454.192	414.75
454.412	428.75
454.633	410.75
454.853	414.75
455.073	422.75
455.294	445.75
455.514	509.75
455.734	502.75
455.955	401.75
456.175	400.75
456.395	394.75
456.616	366.75
456.836	362.75
457.056	366.75
457.276	383.75
457.497	376.75
457.717	374.75
457.937	380.75
458.157	400.75
458.377	396.75
458.598	419.75
458.818	475.75
459.038	558.75
459.258	592.75
459.478	483.75
459.698	426.75
459.918	418.75
460.138	438.75
460.358	418.75
460.578	414.75
460.798	404.75
461.018	421.75
461.238	426.75
461.458	389.75
461.678	388.75
461.898	420.75
462.118	417.75
462.338	406.75
462.558	412.75
462.777	410.75
462.997	428.75
463.217	410.75
463.437	442.75
463.657	414.75
463.876	423.75
464.096	432.75
464.316	420.75
464.536	436.75
464.755	450.75
464.975	441.75
465.195	510.75
465.414	587.75
465.634	498.75
465.854	478.75
466.073	464.75
466.293	419.75
466.512	416.75
466.732	403.75
466.951	407.75
467.171	410.75
467.391	425.75
467.61	436.75
467.829	420.75
468.049	424.75
468.268	438.75
468.488	387.75
468.707	412.75
468.927	399.75
469.146	408.75
469.365	391.75
469.585	410.75
469.804	402.75
470.023	420.75
470.243	425.75
470.462	436.75
470.681	444.75
470.901	435.75
471.12	423.75
471.339	414.75
471.558	437.75
471.777	422.75
471.997	408.75
472.216	423.75
472.435	483.75
472.654	465.75
472.873	422.75
473.092	419.75
473.311	401.75
473.53	423.75
473.749	415.75
473.968	471.75
474.187	580.75
474.406	635.75
474.625	493.75
474.844	467.75
475.063	419.75
475.282	410.75
475.501	424.75
475.72	429.75
475.939	438.75
476.158	439.75
476.377	423.75
476.596	429.75
476.814	424.75
477.033	455.75
477.252	434.75
477.471	428.75
477.69	448.75
477.908	445.75
478.127	455.75
478.346	428.75
478.564	458.75
478.783	453.75
479.002	466.75
479.22	474.75
479.439	472.75
479.658	477.75
479.876	507.75
480.095	503.75
480.313	504.75
480.532	513.75
480.751	502.75
480.969	528.75
481.188	607.75
481.406	676.75
481.624	576.75
481.843	542.75
482.061	498.75
482.28	499.75
482.498	483.75
482.717	493.75
482.935	489.75
483.153	495.75
483.372	512.75
483.59	479.75
483.808	485.75
484.027	495.75
484.245	485.75
484.463	490.75
484.681	503.75
484.9	510.75
485.118	523.75
485.336	510.75
485.554	497.75
485.772	516.75
485.99	500.75
486.209	516.75
486.427	546.75
486.645	536.75
486.863	550.75
487.081	534.75
487.299	535.75
487.517	533.75
487.735	539.75
487.953	540.75
488.171	534.75
488.389	541.75
488.607	556.75
488.825	538.75
489.043	543.75
489.261	560.75
489.479	538.75
489.696	567.75
489.914	565.75
490.132	534.75
490.35	550.75
490.568	560.75
490.786	596.75
491.003	576.75
491.221	589.75
491.439	594.75
491.657	614.75
491.874	636.75
492.092	636.75
492.31	646.75
492.527	612.75
492.745	626.75
492.963	624.75
493.18	646.75
493.398	631.75
493.615	632.75
493.833	665.75
494.05	636.75
494.268	651.75
494.485	637.75
494.703	630.75
494.92	647.75
495.138	630.75
495.355	652.75
495.573	634.75
495.79	628.75
496.008	671.75
496.225	629.75
496.442	660.75
496.66	651.75
496.877	635.75
497.094	642.75
497.312	655.75
497.529	654.75
497.746	648.75
497.963	679.75
498.181	706.75
498.398	692.75
498.615	695.75
498.832	700.75
499.049	698.75
499.267	699.75
499.484	703.75
499.701	719.75
499.918	720.75
500.135	751.75
500.352	777.75
500.569	794.75
500.786	786.75
501.003	756.75
501.22	765.75
501.437	776.75
501.654	779.75
501.871	776.75
