Data from 1986.PennyLincolnUp.Lamp.En5.5.200Scan.071819.P2_HRD10591_17-10-44-974.txt Node
Date: Thu Jul 18 17:10:44 EDT 2019
User: cochatt
Spectrometer: HR+D1059
Trigger mode: 1
Integration Time (sec): 1.000000E-1
Scans to average: 1
Electric dark correction enabled: true
Nonlinearity correction enabled: false
Boxcar width: 0
XAxis mode: Wavelengths
Number of Pixels in Spectrum: 2048
>>>>>Begin Spectral Data<<<<<
223.165	-13.94
223.4	-13.94
223.635	-13.94
223.869	-20.94
224.104	-21.94
224.338	-18.94
224.573	-13.94
224.808	-15.94
225.042	0.06
225.277	-16.94
225.511	5.06
225.746	7.06
225.98	7.06
226.215	5.06
226.449	8.06
226.683	15.06
226.918	38.06
227.152	37.06
227.387	44.06
227.621	44.06
227.856	39.06
228.09	52.06
228.324	56.06
228.559	73.06
228.793	75.06
229.027	129.06
229.262	110.06
229.496	131.06
229.73	137.06
229.964	167.06
230.199	129.06
230.433	120.06
230.667	118.06
230.901	138.06
231.136	108.06
231.37	115.06
231.604	102.06
231.838	118.06
232.072	125.06
232.306	109.06
232.541	126.06
232.775	111.06
233.009	133.06
233.243	126.06
233.477	112.06
233.711	129.06
233.945	122.06
234.179	119.06
234.413	108.06
234.647	120.06
234.881	120.06
235.115	136.06
235.349	130.06
235.583	118.06
235.817	126.06
236.051	125.06
236.285	108.06
236.519	145.06
236.753	127.06
236.987	141.06
237.221	194.06
237.455	258.06
237.689	216.06
237.922	164.06
238.156	140.06
238.39	138.06
238.624	135.06
238.858	129.06
239.091	122.06
239.325	121.06
239.559	124.06
239.793	129.06
240.027	138.06
240.26	134.06
240.494	166.06
240.728	153.06
240.961	146.06
241.195	156.06
241.429	149.06
241.662	144.06
241.896	152.06
242.13	143.06
242.363	143.06
242.597	134.06
242.83	127.06
243.064	134.06
243.298	144.06
243.531	140.06
243.765	152.06
243.998	151.06
244.232	148.06
244.465	155.06
244.699	144.06
244.932	141.06
245.166	153.06
245.399	148.06
245.633	150.06
245.866	164.06
246.099	142.06
246.333	158.06
246.566	158.06
246.8	152.06
247.033	167.06
247.266	151.06
247.5	171.06
247.733	189.06
247.966	185.06
248.2	178.06
248.433	181.06
248.666	167.06
248.899	187.06
249.133	219.06
249.366	219.06
249.599	216.06
249.832	196.06
250.066	193.06
250.299	176.06
250.532	222.06
250.765	222.06
250.998	258.06
251.231	267.06
251.465	239.06
251.698	219.06
251.931	213.06
252.164	214.06
252.397	218.06
252.63	209.06
252.863	214.06
253.096	236.06
253.329	250.06
253.562	230.06
253.795	261.06
254.028	260.06
254.261	248.06
254.494	245.06
254.727	263.06
254.96	298.06
255.193	307.06
255.426	270.06
255.659	253.06
255.892	265.06
256.124	250.06
256.357	253.06
256.59	259.06
256.823	253.06
257.056	217.06
257.289	232.06
257.521	245.06
257.754	211.06
257.987	223.06
258.22	224.06
258.452	230.06
258.685	221.06
258.918	210.06
259.151	211.06
259.383	227.06
259.616	229.06
259.849	233.06
260.081	249.06
260.314	266.06
260.547	282.06
260.779	258.06
261.012	232.06
261.244	243.06
261.477	234.06
261.71	230.06
261.942	234.06
262.175	258.06
262.407	259.06
262.64	252.06
262.872	231.06
263.105	226.06
263.337	214.06
263.57	215.06
263.802	214.06
264.035	216.06
264.267	226.06
264.499	217.06
264.732	217.06
264.964	206.06
265.197	230.06
265.429	231.06
265.661	226.06
265.894	210.06
266.126	216.06
266.358	215.06
266.591	211.06
266.823	236.06
267.055	242.06
267.287	232.06
267.52	235.06
267.752	210.06
267.984	224.06
268.216	220.06
268.448	257.06
268.681	239.06
268.913	257.06
269.145	251.06
269.377	290.06
269.609	283.06
269.841	277.06
270.073	281.06
270.306	283.06
270.538	336.06
270.77	323.06
271.002	320.06
271.234	319.06
271.466	312.06
271.698	303.06
271.93	329.06
272.162	330.06
272.394	332.06
272.626	319.06
272.858	311.06
273.09	282.06
273.322	289.06
273.553	274.06
273.785	278.06
274.017	284.06
274.249	257.06
274.481	253.06
274.713	273.06
274.945	262.06
275.176	259.06
275.408	266.06
275.64	259.06
275.872	270.06
276.104	265.06
276.335	274.06
276.567	285.06
276.799	281.06
277.031	304.06
277.262	328.06
277.494	328.06
277.726	298.06
277.957	305.06
278.189	285.06
278.421	291.06
278.652	280.06
278.884	265.06
279.115	259.06
279.347	259.06
279.579	268.06
279.81	280.06
280.042	260.06
280.273	274.06
280.505	283.06
280.736	249.06
280.968	265.06
281.199	259.06
281.431	255.06
281.662	249.06
281.894	252.06
282.125	259.06
282.356	290.06
282.588	305.06
282.819	283.06
283.051	263.06
283.282	268.06
283.513	264.06
283.745	269.06
283.976	299.06
284.207	271.06
284.439	295.06
284.67	296.06
284.901	279.06
285.132	260.06
285.364	249.06
285.595	256.06
285.826	261.06
286.057	280.06
286.288	257.06
286.52	281.06
286.751	265.06
286.982	272.06
287.213	279.06
287.444	261.06
287.675	272.06
287.906	278.06
288.138	304.06
288.369	311.06
288.6	307.06
288.831	308.06
289.062	275.06
289.293	283.06
289.524	256.06
289.755	274.06
289.986	269.06
290.217	283.06
290.448	269.06
290.679	274.06
290.91	285.06
291.141	293.06
291.371	279.06
291.602	293.06
291.833	279.06
292.064	274.06
292.295	258.06
292.526	262.06
292.757	284.06
292.987	263.06
293.218	273.06
293.449	279.06
293.68	274.06
293.91	279.06
294.141	262.06
294.372	275.06
294.603	263.06
294.833	263.06
295.064	286.06
295.295	280.06
295.525	271.06
295.756	288.06
295.987	313.06
296.217	306.06
296.448	328.06
296.679	311.06
296.909	277.06
297.14	290.06
297.37	273.06
297.601	304.06
297.831	290.06
298.062	296.06
298.292	276.06
298.523	281.06
298.753	275.06
298.984	279.06
299.214	299.06
299.445	305.06
299.675	303.06
299.905	314.06
300.136	301.06
300.366	289.06
300.597	293.06
300.827	283.06
301.057	292.06
301.288	301.06
301.518	306.06
301.748	309.06
301.979	297.06
302.209	311.06
302.439	310.06
302.669	303.06
302.9	309.06
303.13	305.06
303.36	315.06
303.59	313.06
303.82	319.06
304.051	327.06
304.281	302.06
304.511	305.06
304.741	323.06
304.971	309.06
305.201	304.06
305.431	304.06
305.661	294.06
305.891	299.06
306.121	312.06
306.352	324.06
306.582	321.06
306.812	292.06
307.042	325.06
307.272	313.06
307.502	310.06
307.731	317.06
307.961	316.06
308.191	333.06
308.421	318.06
308.651	326.06
308.881	334.06
309.111	330.06
309.341	325.06
309.571	340.06
309.8	354.06
310.03	350.06
310.26	381.06
310.49	380.06
310.72	388.06
310.949	390.06
311.179	392.06
311.409	375.06
311.639	369.06
311.868	380.06
312.098	394.06
312.328	366.06
312.557	389.06
312.787	419.06
313.017	407.06
313.246	369.06
313.476	377.06
313.706	385.06
313.935	376.06
314.165	392.06
314.394	384.06
314.624	400.06
314.853	390.06
315.083	371.06
315.312	360.06
315.542	380.06
315.771	363.06
316.001	355.06
316.23	367.06
316.46	361.06
316.689	359.06
316.919	352.06
317.148	379.06
317.377	385.06
317.607	371.06
317.836	363.06
318.065	351.06
318.295	362.06
318.524	360.06
318.753	365.06
318.983	359.06
319.212	372.06
319.441	373.06
319.67	371.06
319.9	383.06
320.129	370.06
320.358	351.06
320.587	367.06
320.816	400.06
321.046	377.06
321.275	383.06
321.504	367.06
321.733	403.06
321.962	441.06
322.191	426.06
322.42	441.06
322.649	439.06
322.878	460.06
323.108	464.06
323.337	498.06
323.566	533.06
323.795	588.06
324.024	623.06
324.253	759.06
324.482	1073.06
324.71	1621.06
324.939	2357.06
325.168	2075.06
325.397	1089.06
325.626	729.06
325.855	601.06
326.084	551.06
326.313	522.06
326.542	559.06
326.77	583.06
326.999	670.06
327.228	949.06
327.457	1451.06
327.686	1801.06
327.914	1241.06
328.143	833.06
328.372	674.06
328.6	639.06
328.829	632.06
329.058	610.06
329.287	622.06
329.515	607.06
329.744	557.06
329.972	540.06
330.201	554.06
330.43	610.06
330.658	639.06
330.887	691.06
331.115	647.06
331.344	554.06
331.572	503.06
331.801	489.06
332.03	494.06
332.258	470.06
332.486	450.06
332.715	444.06
332.943	432.06
333.172	414.06
333.4	449.06
333.629	442.06
333.857	455.06
334.085	475.06
334.314	482.06
334.542	539.06
334.771	556.06
334.999	474.06
335.227	449.06
335.455	441.06
335.684	444.06
335.912	429.06
336.14	421.06
336.369	411.06
336.597	438.06
336.825	435.06
337.053	411.06
337.281	408.06
337.51	407.06
337.738	407.06
337.966	412.06
338.194	426.06
338.422	421.06
338.65	410.06
338.878	423.06
339.106	394.06
339.334	417.06
339.562	395.06
339.79	406.06
340.018	414.06
340.246	401.06
340.474	409.06
340.702	406.06
340.93	409.06
341.158	391.06
341.386	402.06
341.614	395.06
341.842	421.06
342.07	400.06
342.298	399.06
342.526	398.06
342.754	391.06
342.981	377.06
343.209	381.06
343.437	393.06
343.665	377.06
343.893	395.06
344.12	374.06
344.348	377.06
344.576	419.06
344.804	395.06
345.031	415.06
345.259	427.06
345.487	438.06
345.714	405.06
345.942	389.06
346.17	397.06
346.397	387.06
346.625	390.06
346.853	388.06
347.08	402.06
347.308	394.06
347.535	407.06
347.763	413.06
347.99	411.06
348.218	414.06
348.445	426.06
348.673	424.06
348.9	390.06
349.128	394.06
349.355	385.06
349.583	375.06
349.81	391.06
350.037	384.06
350.265	375.06
350.492	391.06
350.72	355.06
350.947	401.06
351.174	392.06
351.402	408.06
351.629	410.06
351.856	393.06
352.083	409.06
352.311	418.06
352.538	414.06
352.765	426.06
352.992	421.06
353.22	416.06
353.447	401.06
353.674	407.06
353.901	381.06
354.128	370.06
354.355	353.06
354.583	373.06
354.81	365.06
355.037	352.06
355.264	351.06
355.491	364.06
355.718	360.06
355.945	360.06
356.172	352.06
356.399	352.06
356.626	361.06
356.853	348.06
357.08	339.06
357.307	359.06
357.534	347.06
357.761	343.06
357.988	376.06
358.215	363.06
358.441	363.06
358.668	357.06
358.895	362.06
359.122	367.06
359.349	385.06
359.576	407.06
359.802	425.06
360.029	433.06
360.256	465.06
360.483	445.06
360.709	408.06
360.936	404.06
361.163	391.06
361.39	399.06
361.616	386.06
361.843	395.06
362.07	382.06
362.296	390.06
362.523	383.06
362.749	403.06
362.976	392.06
363.203	368.06
363.429	382.06
363.656	389.06
363.882	386.06
364.109	387.06
364.335	365.06
364.562	384.06
364.788	369.06
365.015	373.06
365.241	384.06
365.468	394.06
365.694	365.06
365.92	376.06
366.147	377.06
366.373	380.06
366.599	365.06
366.826	349.06
367.052	351.06
367.278	351.06
367.505	371.06
367.731	371.06
367.957	368.06
368.184	382.06
368.41	371.06
368.636	389.06
368.862	390.06
369.089	381.06
369.315	360.06
369.541	347.06
369.767	365.06
369.993	359.06
370.219	356.06
370.445	362.06
370.672	348.06
370.898	349.06
371.124	359.06
371.35	343.06
371.576	353.06
371.802	359.06
372.028	368.06
372.254	354.06
372.48	343.06
372.706	344.06
372.932	347.06
373.158	358.06
373.384	374.06
373.61	350.06
373.835	370.06
374.061	342.06
374.287	370.06
374.513	366.06
374.739	380.06
374.965	363.06
375.191	373.06
375.416	365.06
375.642	349.06
375.868	381.06
376.094	364.06
376.319	362.06
376.545	379.06
376.771	328.06
376.997	345.06
377.222	336.06
377.448	334.06
377.674	345.06
377.899	349.06
378.125	332.06
378.35	339.06
378.576	348.06
378.802	345.06
379.027	354.06
379.253	361.06
379.478	359.06
379.704	348.06
379.929	357.06
380.155	363.06
380.38	366.06
380.606	338.06
380.831	361.06
381.057	358.06
381.282	339.06
381.507	352.06
381.733	363.06
381.958	363.06
382.184	358.06
382.409	362.06
382.634	361.06
382.86	350.06
383.085	347.06
383.31	378.06
383.535	362.06
383.761	350.06
383.986	364.06
384.211	352.06
384.436	368.06
384.662	365.06
384.887	360.06
385.112	357.06
385.337	350.06
385.562	358.06
385.787	375.06
386.013	373.06
386.238	387.06
386.463	382.06
386.688	383.06
386.913	366.06
387.138	377.06
387.363	375.06
387.588	368.06
387.813	364.06
388.038	362.06
388.263	373.06
388.488	377.06
388.713	370.06
388.938	373.06
389.163	359.06
389.387	369.06
389.612	357.06
389.837	373.06
390.062	377.06
390.287	366.06
390.512	369.06
390.736	375.06
390.961	365.06
391.186	362.06
391.411	379.06
391.636	384.06
391.86	378.06
392.085	366.06
392.31	345.06
392.534	383.06
392.759	383.06
392.984	380.06
393.208	391.06
393.433	378.06
393.658	382.06
393.882	379.06
394.107	380.06
394.331	373.06
394.556	364.06
394.78	379.06
395.005	353.06
395.229	373.06
395.454	381.06
395.678	393.06
395.903	386.06
396.127	415.06
396.352	429.06
396.576	375.06
396.801	375.06
397.025	383.06
397.249	406.06
397.474	392.06
397.698	404.06
397.922	403.06
398.147	407.06
398.371	422.06
398.595	403.06
398.82	413.06
399.044	398.06
399.268	423.06
399.492	447.06
399.717	446.06
399.941	478.06
400.165	519.06
400.389	519.06
400.613	482.06
400.837	451.06
401.062	437.06
401.286	423.06
401.51	397.06
401.734	423.06
401.958	438.06
402.182	440.06
402.406	442.06
402.63	435.06
402.854	425.06
403.078	426.06
403.302	423.06
403.526	435.06
403.75	424.06
403.974	429.06
404.198	432.06
404.422	435.06
404.645	445.06
404.869	437.06
405.093	470.06
405.317	537.06
405.541	545.06
405.765	498.06
405.988	454.06
406.212	477.06
406.436	497.06
406.66	508.06
406.883	475.06
407.107	503.06
407.331	542.06
407.555	577.06
407.778	581.06
408.002	531.06
408.226	521.06
408.449	473.06
408.673	484.06
408.896	512.06
409.12	557.06
409.344	523.06
409.567	458.06
409.791	465.06
410.014	466.06
410.238	439.06
410.461	430.06
410.685	438.06
410.908	453.06
411.132	481.06
411.355	522.06
411.578	504.06
411.802	448.06
412.025	438.06
412.249	443.06
412.472	445.06
412.695	516.06
412.919	497.06
413.142	436.06
413.365	441.06
413.589	435.06
413.812	411.06
414.035	429.06
414.258	410.06
414.482	405.06
414.705	429.06
414.928	424.06
415.151	393.06
415.374	395.06
415.597	384.06
415.821	409.06
416.044	410.06
416.267	423.06
416.49	416.06
416.713	416.06
416.936	401.06
417.159	429.06
417.382	413.06
417.605	410.06
417.828	444.06
418.051	466.06
418.274	425.06
418.497	413.06
418.72	432.06
418.943	428.06
419.166	439.06
419.389	428.06
419.611	436.06
419.834	449.06
420.057	454.06
420.28	454.06
420.503	446.06
420.726	425.06
420.948	457.06
421.171	491.06
421.394	546.06
421.617	474.06
421.839	467.06
422.062	445.06
422.285	473.06
422.507	522.06
422.73	575.06
422.953	574.06
423.175	498.06
423.398	471.06
423.621	466.06
423.843	483.06
424.066	481.06
424.288	473.06
424.511	493.06
424.733	578.06
424.956	641.06
425.178	603.06
425.401	603.06
425.623	646.06
425.846	553.06
426.068	523.06
426.291	483.06
426.513	493.06
426.735	523.06
426.958	547.06
427.18	592.06
427.402	729.06
427.625	834.06
427.847	765.06
428.069	648.06
428.292	571.06
428.514	509.06
428.736	483.06
428.958	473.06
429.181	463.06
429.403	458.06
429.625	479.06
429.847	501.06
430.069	560.06
430.292	565.06
430.514	475.06
430.736	430.06
430.958	434.06
431.18	439.06
431.402	428.06
431.624	423.06
431.846	408.06
432.068	405.06
432.29	426.06
432.512	423.06
432.734	433.06
432.956	431.06
433.178	432.06
433.4	443.06
433.622	435.06
433.844	427.06
434.066	426.06
434.287	404.06
434.509	423.06
434.731	419.06
434.953	421.06
435.175	479.06
435.397	480.06
435.618	493.06
435.84	548.06
436.062	620.06
436.284	687.06
436.505	585.06
436.727	523.06
436.949	485.06
437.17	461.06
437.392	461.06
437.614	468.06
437.835	507.06
438.057	617.06
438.278	685.06
438.5	711.06
438.721	750.06
438.943	752.06
439.165	604.06
439.386	532.06
439.608	546.06
439.829	531.06
440.05	546.06
440.272	590.06
440.493	566.06
440.715	505.06
440.936	473.06
441.158	465.06
441.379	453.06
441.6	491.06
441.822	486.06
442.043	550.06
442.264	630.06
442.486	659.06
442.707	553.06
442.928	517.06
443.149	543.06
443.371	548.06
443.592	561.06
443.813	673.06
444.034	735.06
444.255	618.06
444.476	535.06
444.698	495.06
444.919	494.06
445.14	566.06
445.361	527.06
445.582	525.06
445.803	591.06
446.024	694.06
446.245	708.06
446.466	653.06
446.687	559.06
446.908	509.06
447.129	477.06
447.35	441.06
447.571	443.06
447.792	437.06
448.013	453.06
448.234	491.06
448.455	531.06
448.675	646.06
448.896	752.06
449.117	659.06
449.338	614.06
449.559	687.06
449.779	780.06
450	623.06
450.221	523.06
450.442	486.06
450.662	480.06
450.883	464.06
451.104	508.06
451.324	479.06
451.545	463.06
451.766	431.06
451.986	423.06
452.207	399.06
452.428	413.06
452.648	427.06
452.869	430.06
453.089	445.06
453.31	438.06
453.53	440.06
453.751	418.06
453.971	437.06
454.192	434.06
454.412	447.06
454.633	430.06
454.853	411.06
455.073	404.06
455.294	464.06
455.514	519.06
455.734	475.06
455.955	411.06
456.175	392.06
456.395	377.06
456.616	379.06
456.836	377.06
457.056	370.06
457.276	395.06
457.497	384.06
457.717	368.06
457.937	389.06
458.157	410.06
458.377	395.06
458.598	417.06
458.818	495.06
459.038	577.06
459.258	594.06
459.478	507.06
459.698	454.06
459.918	411.06
460.138	417.06
460.358	419.06
460.578	401.06
460.798	416.06
461.018	422.06
461.238	413.06
461.458	411.06
461.678	402.06
461.898	411.06
462.118	417.06
462.338	422.06
462.558	412.06
462.777	441.06
462.997	417.06
463.217	427.06
463.437	430.06
463.657	432.06
463.876	415.06
464.096	458.06
464.316	411.06
464.536	462.06
464.755	433.06
464.975	452.06
465.195	523.06
465.414	600.06
465.634	509.06
465.854	465.06
466.073	444.06
466.293	411.06
466.512	410.06
466.732	404.06
466.951	402.06
467.171	407.06
467.391	404.06
467.61	428.06
467.829	435.06
468.049	435.06
468.268	417.06
468.488	423.06
468.707	414.06
468.927	401.06
469.146	418.06
469.365	419.06
469.585	408.06
469.804	420.06
470.023	445.06
470.243	411.06
470.462	425.06
470.681	444.06
470.901	458.06
471.12	414.06
471.339	403.06
471.558	430.06
471.777	423.06
471.997	402.06
472.216	427.06
472.435	483.06
472.654	448.06
472.873	446.06
473.092	407.06
473.311	433.06
473.53	415.06
473.749	424.06
473.968	465.06
474.187	598.06
474.406	598.06
474.625	508.06
474.844	453.06
475.063	417.06
475.282	449.06
475.501	425.06
475.72	431.06
475.939	447.06
476.158	437.06
476.377	436.06
476.596	418.06
476.814	439.06
477.033	437.06
477.252	441.06
477.471	431.06
477.69	464.06
477.908	460.06
478.127	457.06
478.346	437.06
478.564	454.06
478.783	463.06
479.002	443.06
479.22	465.06
479.439	499.06
479.658	505.06
479.876	517.06
480.095	515.06
480.313	532.06
480.532	537.06
480.751	517.06
480.969	527.06
481.188	592.06
481.406	636.06
481.624	578.06
481.843	523.06
482.061	513.06
482.28	507.06
482.498	513.06
482.717	498.06
482.935	504.06
483.153	512.06
483.372	494.06
483.59	502.06
483.808	509.06
484.027	514.06
484.245	498.06
484.463	520.06
484.681	501.06
484.9	509.06
485.118	526.06
485.336	509.06
485.554	531.06
485.772	521.06
485.99	497.06
486.209	530.06
486.427	531.06
486.645	532.06
486.863	545.06
487.081	560.06
487.299	553.06
487.517	551.06
487.735	537.06
487.953	537.06
488.171	540.06
488.389	545.06
488.607	525.06
488.825	517.06
489.043	537.06
489.261	542.06
489.479	559.06
489.696	531.06
489.914	553.06
490.132	572.06
490.35	555.06
490.568	561.06
490.786	575.06
491.003	567.06
491.221	592.06
491.439	615.06
491.657	624.06
491.874	618.06
492.092	605.06
492.31	624.06
492.527	601.06
492.745	631.06
492.963	636.06
493.18	621.06
493.398	652.06
493.615	660.06
493.833	644.06
494.05	631.06
494.268	669.06
494.485	626.06
494.703	622.06
494.92	623.06
495.138	635.06
495.355	660.06
495.573	663.06
495.79	649.06
496.008	644.06
496.225	634.06
496.442	645.06
496.66	649.06
496.877	659.06
497.094	638.06
497.312	661.06
497.529	649.06
497.746	653.06
497.963	671.06
498.181	709.06
498.398	678.06
498.615	652.06
498.832	696.06
499.049	713.06
499.267	692.06
499.484	721.06
499.701	755.06
499.918	738.06
500.135	761.06
500.352	798.06
500.569	757.06
500.786	779.06
501.003	797.06
501.22	787.06
501.437	767.06
501.654	783.06
501.871	765.06
