Data from 1986.PennyLincolnUp.Lamp.En5.5.200Scan.071819.P2_HRD10591_17-10-27-974.txt Node
Date: Thu Jul 18 17:10:27 EDT 2019
User: cochatt
Spectrometer: HR+D1059
Trigger mode: 1
Integration Time (sec): 1.000000E-1
Scans to average: 1
Electric dark correction enabled: true
Nonlinearity correction enabled: false
Boxcar width: 0
XAxis mode: Wavelengths
Number of Pixels in Spectrum: 2048
>>>>>Begin Spectral Data<<<<<
223.165	-12.69
223.4	-12.69
223.635	-12.69
223.869	-21.69
224.104	-15.69
224.338	2.31
224.573	-12.69
224.808	-12.69
225.042	-8.69
225.277	-7.69
225.511	-5.69
225.746	-1.69
225.98	11.31
226.215	2.31
226.449	2.31
226.683	23.31
226.918	34.31
227.152	23.31
227.387	26.31
227.621	43.31
227.856	42.31
228.09	35.31
228.324	41.31
228.559	51.31
228.793	69.31
229.027	102.31
229.262	95.31
229.496	96.31
229.73	128.31
229.964	146.31
230.199	128.31
230.433	117.31
230.667	121.31
230.901	123.31
231.136	102.31
231.37	111.31
231.604	121.31
231.838	122.31
232.072	104.31
232.306	117.31
232.541	102.31
232.775	95.31
233.009	116.31
233.243	117.31
233.477	116.31
233.711	118.31
233.945	107.31
234.179	108.31
234.413	126.31
234.647	101.31
234.881	132.31
235.115	115.31
235.349	130.31
235.583	114.31
235.817	118.31
236.051	126.31
236.285	114.31
236.519	120.31
236.753	132.31
236.987	151.31
237.221	188.31
237.455	239.31
237.689	191.31
237.922	140.31
238.156	138.31
238.39	147.31
238.624	130.31
238.858	108.31
239.091	119.31
239.325	118.31
239.559	130.31
239.793	130.31
240.027	147.31
240.26	142.31
240.494	163.31
240.728	142.31
240.961	139.31
241.195	149.31
241.429	148.31
241.662	135.31
241.896	121.31
242.13	118.31
242.363	137.31
242.597	115.31
242.83	117.31
243.064	128.31
243.298	130.31
243.531	145.31
243.765	137.31
243.998	138.31
244.232	150.31
244.465	152.31
244.699	138.31
244.932	136.31
245.166	135.31
245.399	132.31
245.633	135.31
245.866	140.31
246.099	148.31
246.333	147.31
246.566	154.31
246.8	164.31
247.033	147.31
247.266	154.31
247.5	162.31
247.733	169.31
247.966	175.31
248.2	162.31
248.433	168.31
248.666	172.31
248.899	200.31
249.133	190.31
249.366	193.31
249.599	205.31
249.832	176.31
250.066	175.31
250.299	182.31
250.532	192.31
250.765	204.31
250.998	212.31
251.231	232.31
251.465	219.31
251.698	207.31
251.931	205.31
252.164	208.31
252.397	201.31
252.63	202.31
252.863	202.31
253.096	231.31
253.329	243.31
253.562	218.31
253.795	245.31
254.028	225.31
254.261	227.31
254.494	242.31
254.727	249.31
254.96	277.31
255.193	283.31
255.426	254.31
255.659	256.31
255.892	225.31
256.124	230.31
256.357	228.31
256.59	243.31
256.823	208.31
257.056	216.31
257.289	216.31
257.521	207.31
257.754	216.31
257.987	211.31
258.22	203.31
258.452	215.31
258.685	220.31
258.918	211.31
259.151	206.31
259.383	219.31
259.616	221.31
259.849	230.31
260.081	255.31
260.314	247.31
260.547	242.31
260.779	251.31
261.012	235.31
261.244	206.31
261.477	236.31
261.71	227.31
261.942	214.31
262.175	229.31
262.407	235.31
262.64	217.31
262.872	210.31
263.105	188.31
263.337	207.31
263.57	203.31
263.802	216.31
264.035	210.31
264.267	191.31
264.499	204.31
264.732	207.31
264.964	209.31
265.197	190.31
265.429	204.31
265.661	195.31
265.894	211.31
266.126	206.31
266.358	206.31
266.591	217.31
266.823	217.31
267.055	222.31
267.287	206.31
267.52	218.31
267.752	221.31
267.984	208.31
268.216	223.31
268.448	220.31
268.681	213.31
268.913	240.31
269.145	266.31
269.377	266.31
269.609	258.31
269.841	261.31
270.073	263.31
270.306	291.31
270.538	330.31
270.77	312.31
271.002	286.31
271.234	288.31
271.466	303.31
271.698	315.31
271.93	319.31
272.162	307.31
272.394	306.31
272.626	297.31
272.858	287.31
273.09	269.31
273.322	251.31
273.553	247.31
273.785	259.31
274.017	255.31
274.249	260.31
274.481	262.31
274.713	259.31
274.945	265.31
275.176	265.31
275.408	244.31
275.64	260.31
275.872	235.31
276.104	241.31
276.335	223.31
276.567	268.31
276.799	280.31
277.031	291.31
277.262	318.31
277.494	323.31
277.726	302.31
277.957	280.31
278.189	273.31
278.421	250.31
278.652	280.31
278.884	268.31
279.115	244.31
279.347	268.31
279.579	246.31
279.81	249.31
280.042	242.31
280.273	256.31
280.505	221.31
280.736	246.31
280.968	255.31
281.199	254.31
281.431	246.31
281.662	243.31
281.894	246.31
282.125	252.31
282.356	271.31
282.588	291.31
282.819	299.31
283.051	269.31
283.282	263.31
283.513	252.31
283.745	248.31
283.976	251.31
284.207	260.31
284.439	239.31
284.67	258.31
284.901	262.31
285.132	261.31
285.364	246.31
285.595	243.31
285.826	251.31
286.057	243.31
286.288	252.31
286.52	260.31
286.751	246.31
286.982	251.31
287.213	256.31
287.444	262.31
287.675	264.31
287.906	269.31
288.138	272.31
288.369	280.31
288.6	281.31
288.831	267.31
289.062	269.31
289.293	272.31
289.524	266.31
289.755	237.31
289.986	249.31
290.217	270.31
290.448	256.31
290.679	260.31
290.91	258.31
291.141	251.31
291.371	259.31
291.602	235.31
291.833	256.31
292.064	269.31
292.295	250.31
292.526	272.31
292.757	258.31
292.987	245.31
293.218	245.31
293.449	243.31
293.68	251.31
293.91	246.31
294.141	275.31
294.372	270.31
294.603	256.31
294.833	284.31
295.064	258.31
295.295	267.31
295.525	264.31
295.756	260.31
295.987	252.31
296.217	284.31
296.448	316.31
296.679	289.31
296.909	260.31
297.14	270.31
297.37	255.31
297.601	274.31
297.831	260.31
298.062	265.31
298.292	253.31
298.523	279.31
298.753	264.31
298.984	278.31
299.214	278.31
299.445	280.31
299.675	273.31
299.905	282.31
300.136	264.31
300.366	267.31
300.597	273.31
300.827	289.31
301.057	286.31
301.288	296.31
301.518	286.31
301.748	285.31
301.979	269.31
302.209	286.31
302.439	292.31
302.669	267.31
302.9	289.31
303.13	267.31
303.36	291.31
303.59	313.31
303.82	300.31
304.051	299.31
304.281	294.31
304.511	296.31
304.741	286.31
304.971	272.31
305.201	290.31
305.431	286.31
305.661	292.31
305.891	285.31
306.121	283.31
306.352	311.31
306.582	309.31
306.812	296.31
307.042	317.31
307.272	324.31
307.502	303.31
307.731	301.31
307.961	300.31
308.191	292.31
308.421	279.31
308.651	298.31
308.881	326.31
309.111	323.31
309.341	316.31
309.571	307.31
309.8	328.31
310.03	344.31
310.26	353.31
310.49	348.31
310.72	370.31
310.949	379.31
311.179	383.31
311.409	335.31
311.639	357.31
311.868	338.31
312.098	344.31
312.328	358.31
312.557	375.31
312.787	372.31
313.017	375.31
313.246	351.31
313.476	341.31
313.706	330.31
313.935	345.31
314.165	372.31
314.394	381.31
314.624	374.31
314.853	346.31
315.083	347.31
315.312	346.31
315.542	343.31
315.771	341.31
316.001	314.31
316.23	331.31
316.46	342.31
316.689	348.31
316.919	339.31
317.148	344.31
317.377	363.31
317.607	340.31
317.836	348.31
318.065	351.31
318.295	354.31
318.524	318.31
318.753	327.31
318.983	332.31
319.212	338.31
319.441	360.31
319.67	363.31
319.9	359.31
320.129	345.31
320.358	342.31
320.587	366.31
320.816	366.31
321.046	365.31
321.275	362.31
321.504	372.31
321.733	376.31
321.962	372.31
322.191	392.31
322.42	397.31
322.649	415.31
322.878	445.31
323.108	449.31
323.337	475.31
323.566	523.31
323.795	554.31
324.024	597.31
324.253	735.31
324.482	1041.31
324.71	1575.31
324.939	2219.31
325.168	1956.31
325.397	1064.31
325.626	710.31
325.855	571.31
326.084	501.31
326.313	498.31
326.542	518.31
326.77	541.31
326.999	668.31
327.228	878.31
327.457	1393.31
327.686	1709.31
327.914	1164.31
328.143	747.31
328.372	654.31
328.6	608.31
328.829	566.31
329.058	588.31
329.287	585.31
329.515	552.31
329.744	504.31
329.972	484.31
330.201	512.31
330.43	549.31
330.658	597.31
330.887	621.31
331.115	592.31
331.344	526.31
331.572	479.31
331.801	485.31
332.03	476.31
332.258	432.31
332.486	427.31
332.715	424.31
332.943	412.31
333.172	409.31
333.4	429.31
333.629	399.31
333.857	405.31
334.085	430.31
334.314	438.31
334.542	469.31
334.771	479.31
334.999	444.31
335.227	419.31
335.455	423.31
335.684	408.31
335.912	387.31
336.14	380.31
336.369	371.31
336.597	395.31
336.825	408.31
337.053	375.31
337.281	402.31
337.51	386.31
337.738	380.31
337.966	395.31
338.194	403.31
338.422	408.31
338.65	393.31
338.878	382.31
339.106	362.31
339.334	384.31
339.562	391.31
339.79	354.31
340.018	376.31
340.246	380.31
340.474	393.31
340.702	409.31
340.93	362.31
341.158	380.31
341.386	391.31
341.614	378.31
341.842	381.31
342.07	382.31
342.298	379.31
342.526	351.31
342.754	364.31
342.981	351.31
343.209	355.31
343.437	363.31
343.665	351.31
343.893	358.31
344.12	369.31
344.348	363.31
344.576	398.31
344.804	392.31
345.031	416.31
345.259	399.31
345.487	412.31
345.714	394.31
345.942	362.31
346.17	374.31
346.397	375.31
346.625	362.31
346.853	388.31
347.08	383.31
347.308	384.31
347.535	374.31
347.763	391.31
347.99	384.31
348.218	380.31
348.445	396.31
348.673	406.31
348.9	379.31
349.128	365.31
349.355	348.31
349.583	360.31
349.81	359.31
350.037	342.31
350.265	361.31
350.492	371.31
350.72	358.31
350.947	374.31
351.174	378.31
351.402	390.31
351.629	386.31
351.856	401.31
352.083	387.31
352.311	393.31
352.538	396.31
352.765	394.31
352.992	386.31
353.22	388.31
353.447	358.31
353.674	360.31
353.901	359.31
354.128	351.31
354.355	343.31
354.583	349.31
354.81	343.31
355.037	344.31
355.264	348.31
355.491	337.31
355.718	331.31
355.945	342.31
356.172	328.31
356.399	340.31
356.626	333.31
356.853	316.31
357.08	333.31
357.307	327.31
357.534	335.31
357.761	334.31
357.988	345.31
358.215	341.31
358.441	321.31
358.668	332.31
358.895	347.31
359.122	351.31
359.349	347.31
359.576	381.31
359.802	391.31
360.029	442.31
360.256	416.31
360.483	420.31
360.709	366.31
360.936	370.31
361.163	374.31
361.39	407.31
361.616	376.31
361.843	357.31
362.07	362.31
362.296	370.31
362.523	351.31
362.749	386.31
362.976	368.31
363.203	346.31
363.429	347.31
363.656	346.31
363.882	338.31
364.109	346.31
364.335	367.31
364.562	344.31
364.788	333.31
365.015	347.31
365.241	336.31
365.468	350.31
365.694	362.31
365.92	363.31
366.147	350.31
366.373	348.31
366.599	336.31
366.826	355.31
367.052	339.31
367.278	357.31
367.505	355.31
367.731	343.31
367.957	345.31
368.184	343.31
368.41	329.31
368.636	356.31
368.862	359.31
369.089	360.31
369.315	356.31
369.541	349.31
369.767	334.31
369.993	346.31
370.219	322.31
370.445	316.31
370.672	340.31
370.898	332.31
371.124	345.31
371.35	358.31
371.576	326.31
371.802	336.31
372.028	342.31
372.254	331.31
372.48	319.31
372.706	334.31
372.932	340.31
373.158	324.31
373.384	327.31
373.61	341.31
373.835	363.31
374.061	334.31
374.287	336.31
374.513	336.31
374.739	344.31
374.965	323.31
375.191	344.31
375.416	330.31
375.642	340.31
375.868	332.31
376.094	343.31
376.319	335.31
376.545	336.31
376.771	347.31
376.997	326.31
377.222	325.31
377.448	331.31
377.674	326.31
377.899	326.31
378.125	326.31
378.35	335.31
378.576	314.31
378.802	309.31
379.027	316.31
379.253	350.31
379.478	325.31
379.704	343.31
379.929	339.31
380.155	342.31
380.38	330.31
380.606	331.31
380.831	344.31
381.057	343.31
381.282	317.31
381.507	324.31
381.733	335.31
381.958	344.31
382.184	348.31
382.409	341.31
382.634	336.31
382.86	346.31
383.085	348.31
383.31	341.31
383.535	344.31
383.761	340.31
383.986	324.31
384.211	340.31
384.436	331.31
384.662	333.31
384.887	342.31
385.112	334.31
385.337	359.31
385.562	356.31
385.787	355.31
386.013	375.31
386.238	360.31
386.463	362.31
386.688	345.31
386.913	329.31
387.138	349.31
387.363	358.31
387.588	358.31
387.813	350.31
388.038	344.31
388.263	378.31
388.488	365.31
388.713	354.31
388.938	357.31
389.163	367.31
389.387	365.31
389.612	339.31
389.837	359.31
390.062	341.31
390.287	341.31
390.512	354.31
390.736	347.31
390.961	334.31
391.186	342.31
391.411	358.31
391.636	355.31
391.86	362.31
392.085	335.31
392.31	351.31
392.534	355.31
392.759	341.31
392.984	349.31
393.208	348.31
393.433	345.31
393.658	368.31
393.882	348.31
394.107	329.31
394.331	350.31
394.556	335.31
394.78	351.31
395.005	340.31
395.229	350.31
395.454	362.31
395.678	371.31
395.903	368.31
396.127	386.31
396.352	390.31
396.576	384.31
396.801	365.31
397.025	356.31
397.249	357.31
397.474	371.31
397.698	371.31
397.922	364.31
398.147	388.31
398.371	389.31
398.595	374.31
398.82	384.31
399.044	401.31
399.268	382.31
399.492	395.31
399.717	418.31
399.941	433.31
400.165	476.31
400.389	480.31
400.613	444.31
400.837	410.31
401.062	419.31
401.286	407.31
401.51	405.31
401.734	396.31
401.958	406.31
402.182	389.31
402.406	390.31
402.63	392.31
402.854	397.31
403.078	390.31
403.302	404.31
403.526	430.31
403.75	409.31
403.974	406.31
404.198	412.31
404.422	400.31
404.645	402.31
404.869	418.31
405.093	438.31
405.317	459.31
405.541	483.31
405.765	454.31
405.988	431.31
406.212	436.31
406.436	459.31
406.66	489.31
406.883	478.31
407.107	441.31
407.331	493.31
407.555	549.31
407.778	554.31
408.002	513.31
408.226	474.31
408.449	452.31
408.673	456.31
408.896	471.31
409.12	527.31
409.344	483.31
409.567	432.31
409.791	437.31
410.014	420.31
410.238	417.31
410.461	405.31
410.685	431.31
410.908	433.31
411.132	444.31
411.355	486.31
411.578	462.31
411.802	415.31
412.025	390.31
412.249	411.31
412.472	440.31
412.695	435.31
412.919	431.31
413.142	430.31
413.365	420.31
413.589	408.31
413.812	405.31
414.035	380.31
414.258	401.31
414.482	400.31
414.705	363.31
414.928	372.31
415.151	373.31
415.374	380.31
415.597	386.31
415.821	379.31
416.044	393.31
416.267	392.31
416.49	382.31
416.713	373.31
416.936	364.31
417.159	384.31
417.382	401.31
417.605	398.31
417.828	390.31
418.051	436.31
418.274	395.31
418.497	392.31
418.72	406.31
418.943	409.31
419.166	391.31
419.389	418.31
419.611	395.31
419.834	408.31
420.057	423.31
420.28	420.31
420.503	417.31
420.726	411.31
420.948	440.31
421.171	484.31
421.394	488.31
421.617	444.31
421.839	423.31
422.062	430.31
422.285	426.31
422.507	484.31
422.73	524.31
422.953	533.31
423.175	476.31
423.398	410.31
423.621	438.31
423.843	443.31
424.066	481.31
424.288	460.31
424.511	482.31
424.733	529.31
424.956	588.31
425.178	589.31
425.401	575.31
425.623	588.31
425.846	504.31
426.068	484.31
426.291	459.31
426.513	477.31
426.735	478.31
426.958	521.31
427.18	601.31
427.402	696.31
427.625	757.31
427.847	702.31
428.069	613.31
428.292	534.31
428.514	486.31
428.736	461.31
428.958	445.31
429.181	428.31
429.403	446.31
429.625	444.31
429.847	467.31
430.069	534.31
430.292	532.31
430.514	453.31
430.736	436.31
430.958	406.31
431.18	395.31
431.402	376.31
431.624	388.31
431.846	391.31
432.068	383.31
432.29	380.31
432.512	399.31
432.734	407.31
432.956	402.31
433.178	413.31
433.4	431.31
433.622	400.31
433.844	400.31
434.066	384.31
434.287	414.31
434.509	420.31
434.731	401.31
434.953	397.31
435.175	424.31
435.397	454.31
435.618	491.31
435.84	486.31
436.062	586.31
436.284	644.31
436.505	563.31
436.727	498.31
436.949	428.31
437.17	428.31
437.392	441.31
437.614	460.31
437.835	493.31
438.057	567.31
438.278	656.31
438.5	668.31
438.721	707.31
438.943	690.31
439.165	546.31
439.386	519.31
439.608	487.31
439.829	483.31
440.05	507.31
440.272	567.31
440.493	527.31
440.715	472.31
440.936	459.31
441.158	430.31
441.379	432.31
441.6	448.31
441.822	464.31
442.043	507.31
442.264	573.31
442.486	630.31
442.707	542.31
442.928	498.31
443.149	514.31
443.371	527.31
443.592	570.31
443.813	642.31
444.034	681.31
444.255	577.31
444.476	514.31
444.698	475.31
444.919	444.31
445.14	556.31
445.361	496.31
445.582	492.31
445.803	546.31
446.024	657.31
446.245	663.31
446.466	628.31
446.687	539.31
446.908	478.31
447.129	453.31
447.35	456.31
447.571	424.31
447.792	428.31
448.013	431.31
448.234	463.31
448.455	496.31
448.675	619.31
448.896	688.31
449.117	600.31
449.338	574.31
449.559	654.31
449.779	738.31
450	600.31
450.221	508.31
450.442	448.31
450.662	447.31
450.883	418.31
451.104	458.31
451.324	454.31
451.545	420.31
451.766	422.31
451.986	413.31
452.207	378.31
452.428	396.31
452.648	363.31
452.869	406.31
453.089	406.31
453.31	408.31
453.53	389.31
453.751	417.31
453.971	392.31
454.192	412.31
454.412	406.31
454.633	376.31
454.853	389.31
455.073	397.31
455.294	432.31
455.514	486.31
455.734	492.31
455.955	408.31
456.175	376.31
456.395	360.31
456.616	346.31
456.836	370.31
457.056	353.31
457.276	365.31
457.497	354.31
457.717	362.31
457.937	358.31
458.157	372.31
458.377	379.31
458.598	387.31
458.818	464.31
459.038	550.31
459.258	568.31
459.478	449.31
459.698	422.31
459.918	404.31
460.138	394.31
460.358	380.31
460.578	380.31
460.798	395.31
461.018	391.31
461.238	365.31
461.458	379.31
461.678	392.31
461.898	372.31
462.118	370.31
462.338	387.31
462.558	388.31
462.777	398.31
462.997	401.31
463.217	401.31
463.437	393.31
463.657	405.31
463.876	398.31
464.096	397.31
464.316	394.31
464.536	408.31
464.755	414.31
464.975	426.31
465.195	473.31
465.414	581.31
465.634	490.31
465.854	450.31
466.073	408.31
466.293	413.31
466.512	387.31
466.732	382.31
466.951	374.31
467.171	377.31
467.391	393.31
467.61	415.31
467.829	415.31
468.049	405.31
468.268	399.31
468.488	387.31
468.707	378.31
468.927	381.31
469.146	378.31
469.365	376.31
469.585	353.31
469.804	382.31
470.023	400.31
470.243	382.31
470.462	408.31
470.681	431.31
470.901	419.31
471.12	401.31
471.339	395.31
471.558	399.31
471.777	391.31
471.997	390.31
472.216	390.31
472.435	420.31
472.654	405.31
472.873	392.31
473.092	395.31
473.311	400.31
473.53	411.31
473.749	418.31
473.968	442.31
474.187	530.31
474.406	564.31
474.625	465.31
474.844	426.31
475.063	408.31
475.282	380.31
475.501	414.31
475.72	404.31
475.939	416.31
476.158	382.31
476.377	397.31
476.596	406.31
476.814	418.31
477.033	423.31
477.252	421.31
477.471	404.31
477.69	415.31
477.908	419.31
478.127	422.31
478.346	413.31
478.564	431.31
478.783	443.31
479.002	434.31
479.22	456.31
479.439	462.31
479.658	453.31
479.876	462.31
480.095	480.31
480.313	487.31
480.532	476.31
480.751	498.31
480.969	471.31
481.188	519.31
481.406	566.31
481.624	522.31
481.843	458.31
482.061	458.31
482.28	466.31
482.498	459.31
482.717	458.31
482.935	452.31
483.153	473.31
483.372	450.31
483.59	462.31
483.808	464.31
484.027	468.31
484.245	455.31
484.463	439.31
484.681	471.31
484.9	477.31
485.118	484.31
485.336	464.31
485.554	493.31
485.772	478.31
485.99	480.31
486.209	474.31
486.427	495.31
486.645	491.31
486.863	517.31
487.081	520.31
487.299	514.31
487.517	495.31
487.735	514.31
487.953	504.31
488.171	493.31
488.389	502.31
488.607	516.31
488.825	506.31
489.043	504.31
489.261	520.31
489.479	503.31
489.696	519.31
489.914	525.31
490.132	522.31
490.35	536.31
490.568	521.31
490.786	537.31
491.003	535.31
491.221	555.31
491.439	566.31
491.657	584.31
491.874	581.31
492.092	570.31
492.31	581.31
492.527	586.31
492.745	576.31
492.963	578.31
493.18	588.31
493.398	603.31
493.615	606.31
493.833	584.31
494.05	586.31
494.268	630.31
494.485	615.31
494.703	606.31
494.92	599.31
495.138	587.31
495.355	585.31
495.573	620.31
495.79	616.31
496.008	608.31
496.225	610.31
496.442	621.31
496.66	615.31
496.877	604.31
497.094	596.31
497.312	603.31
497.529	609.31
497.746	596.31
497.963	629.31
498.181	651.31
498.398	630.31
498.615	635.31
498.832	652.31
499.049	676.31
499.267	666.31
499.484	668.31
499.701	662.31
499.918	691.31
500.135	716.31
500.352	712.31
500.569	707.31
500.786	735.31
501.003	717.31
501.22	734.31
501.437	704.31
501.654	717.31
501.871	702.31
