Data from 1986.PennyLincolnUp.Lamp.En5.5.200Scan.071819.P2_HRD10591_17-11-20-973.txt Node
Date: Thu Jul 18 17:11:20 EDT 2019
User: cochatt
Spectrometer: HR+D1059
Trigger mode: 1
Integration Time (sec): 1.000000E-1
Scans to average: 1
Electric dark correction enabled: true
Nonlinearity correction enabled: false
Boxcar width: 0
XAxis mode: Wavelengths
Number of Pixels in Spectrum: 2048
>>>>>Begin Spectral Data<<<<<
223.165	-15.75
223.4	-15.75
223.635	-15.75
223.869	-15.75
224.104	-13.75
224.338	-18.75
224.573	-23.75
224.808	-21.75
225.042	5.25
225.277	-5.75
225.511	-8.75
225.746	10.25
225.98	-2.75
226.215	25.25
226.449	0.25
226.683	22.25
226.918	33.25
227.152	30.25
227.387	32.25
227.621	38.25
227.856	45.25
228.09	44.25
228.324	43.25
228.559	59.25
228.793	63.25
229.027	97.25
229.262	116.25
229.496	123.25
229.73	147.25
229.964	164.25
230.199	139.25
230.433	115.25
230.667	119.25
230.901	122.25
231.136	106.25
231.37	107.25
231.604	110.25
231.838	122.25
232.072	122.25
232.306	113.25
232.541	95.25
232.775	111.25
233.009	127.25
233.243	103.25
233.477	121.25
233.711	115.25
233.945	105.25
234.179	119.25
234.413	132.25
234.647	119.25
234.881	109.25
235.115	122.25
235.349	122.25
235.583	123.25
235.817	111.25
236.051	143.25
236.285	121.25
236.519	130.25
236.753	129.25
236.987	146.25
237.221	190.25
237.455	245.25
237.689	200.25
237.922	143.25
238.156	132.25
238.39	142.25
238.624	136.25
238.858	129.25
239.091	125.25
239.325	135.25
239.559	116.25
239.793	128.25
240.027	134.25
240.26	140.25
240.494	153.25
240.728	155.25
240.961	138.25
241.195	149.25
241.429	147.25
241.662	143.25
241.896	128.25
242.13	138.25
242.363	143.25
242.597	142.25
242.83	150.25
243.064	149.25
243.298	143.25
243.531	138.25
243.765	150.25
243.998	148.25
244.232	140.25
244.465	147.25
244.699	135.25
244.932	158.25
245.166	134.25
245.399	142.25
245.633	155.25
245.866	140.25
246.099	149.25
246.333	156.25
246.566	148.25
246.8	142.25
247.033	144.25
247.266	178.25
247.5	164.25
247.733	178.25
247.966	196.25
248.2	184.25
248.433	179.25
248.666	178.25
248.899	197.25
249.133	207.25
249.366	224.25
249.599	209.25
249.832	178.25
250.066	193.25
250.299	196.25
250.532	213.25
250.765	223.25
250.998	249.25
251.231	261.25
251.465	243.25
251.698	221.25
251.931	224.25
252.164	216.25
252.397	212.25
252.63	209.25
252.863	217.25
253.096	209.25
253.329	236.25
253.562	229.25
253.795	215.25
254.028	229.25
254.261	227.25
254.494	245.25
254.727	270.25
254.96	294.25
255.193	289.25
255.426	267.25
255.659	244.25
255.892	249.25
256.124	269.25
256.357	305.25
256.59	270.25
256.823	257.25
257.056	226.25
257.289	256.25
257.521	237.25
257.754	231.25
257.987	225.25
258.22	215.25
258.452	213.25
258.685	215.25
258.918	218.25
259.151	225.25
259.383	219.25
259.616	242.25
259.849	227.25
260.081	258.25
260.314	252.25
260.547	268.25
260.779	277.25
261.012	252.25
261.244	240.25
261.477	224.25
261.71	225.25
261.942	233.25
262.175	245.25
262.407	228.25
262.64	210.25
262.872	219.25
263.105	217.25
263.337	214.25
263.57	204.25
263.802	217.25
264.035	205.25
264.267	237.25
264.499	228.25
264.732	218.25
264.964	208.25
265.197	196.25
265.429	216.25
265.661	236.25
265.894	212.25
266.126	213.25
266.358	226.25
266.591	209.25
266.823	239.25
267.055	233.25
267.287	213.25
267.52	219.25
267.752	218.25
267.984	225.25
268.216	219.25
268.448	234.25
268.681	230.25
268.913	250.25
269.145	275.25
269.377	282.25
269.609	280.25
269.841	268.25
270.073	274.25
270.306	297.25
270.538	320.25
270.77	327.25
271.002	313.25
271.234	299.25
271.466	314.25
271.698	314.25
271.93	337.25
272.162	337.25
272.394	335.25
272.626	321.25
272.858	308.25
273.09	288.25
273.322	291.25
273.553	288.25
273.785	280.25
274.017	277.25
274.249	271.25
274.481	271.25
274.713	281.25
274.945	275.25
275.176	272.25
275.408	284.25
275.64	277.25
275.872	264.25
276.104	266.25
276.335	265.25
276.567	270.25
276.799	300.25
277.031	308.25
277.262	298.25
277.494	333.25
277.726	313.25
277.957	296.25
278.189	296.25
278.421	270.25
278.652	281.25
278.884	276.25
279.115	246.25
279.347	258.25
279.579	284.25
279.81	270.25
280.042	283.25
280.273	268.25
280.505	274.25
280.736	264.25
280.968	271.25
281.199	260.25
281.431	233.25
281.662	256.25
281.894	258.25
282.125	278.25
282.356	285.25
282.588	305.25
282.819	316.25
283.051	277.25
283.282	256.25
283.513	275.25
283.745	264.25
283.976	252.25
284.207	268.25
284.439	270.25
284.67	273.25
284.901	282.25
285.132	248.25
285.364	268.25
285.595	259.25
285.826	276.25
286.057	255.25
286.288	274.25
286.52	274.25
286.751	268.25
286.982	263.25
287.213	272.25
287.444	274.25
287.675	271.25
287.906	280.25
288.138	296.25
288.369	318.25
288.6	287.25
288.831	270.25
289.062	292.25
289.293	292.25
289.524	286.25
289.755	286.25
289.986	283.25
290.217	280.25
290.448	268.25
290.679	283.25
290.91	283.25
291.141	263.25
291.371	275.25
291.602	250.25
291.833	268.25
292.064	275.25
292.295	266.25
292.526	283.25
292.757	260.25
292.987	280.25
293.218	266.25
293.449	288.25
293.68	265.25
293.91	270.25
294.141	274.25
294.372	271.25
294.603	280.25
294.833	271.25
295.064	265.25
295.295	261.25
295.525	286.25
295.756	285.25
295.987	283.25
296.217	310.25
296.448	329.25
296.679	288.25
296.909	292.25
297.14	279.25
297.37	261.25
297.601	286.25
297.831	268.25
298.062	274.25
298.292	284.25
298.523	294.25
298.753	297.25
298.984	289.25
299.214	275.25
299.445	298.25
299.675	288.25
299.905	277.25
300.136	290.25
300.366	275.25
300.597	291.25
300.827	310.25
301.057	323.25
301.288	310.25
301.518	298.25
301.748	297.25
301.979	274.25
302.209	308.25
302.439	305.25
302.669	295.25
302.9	302.25
303.13	322.25
303.36	333.25
303.59	312.25
303.82	326.25
304.051	313.25
304.281	313.25
304.511	314.25
304.741	304.25
304.971	295.25
305.201	289.25
305.431	300.25
305.661	308.25
305.891	284.25
306.121	309.25
306.352	316.25
306.582	324.25
306.812	311.25
307.042	306.25
307.272	314.25
307.502	313.25
307.731	310.25
307.961	315.25
308.191	310.25
308.421	309.25
308.651	299.25
308.881	325.25
309.111	325.25
309.341	304.25
309.571	348.25
309.8	356.25
310.03	368.25
310.26	366.25
310.49	344.25
310.72	388.25
310.949	396.25
311.179	398.25
311.409	375.25
311.639	364.25
311.868	344.25
312.098	375.25
312.328	386.25
312.557	402.25
312.787	397.25
313.017	389.25
313.246	382.25
313.476	361.25
313.706	370.25
313.935	354.25
314.165	373.25
314.394	380.25
314.624	396.25
314.853	372.25
315.083	369.25
315.312	371.25
315.542	363.25
315.771	354.25
316.001	347.25
316.23	349.25
316.46	360.25
316.689	352.25
316.919	366.25
317.148	386.25
317.377	388.25
317.607	367.25
317.836	379.25
318.065	365.25
318.295	354.25
318.524	357.25
318.753	361.25
318.983	333.25
319.212	363.25
319.441	379.25
319.67	373.25
319.9	368.25
320.129	386.25
320.358	371.25
320.587	377.25
320.816	386.25
321.046	386.25
321.275	395.25
321.504	392.25
321.733	393.25
321.962	404.25
322.191	422.25
322.42	458.25
322.649	444.25
322.878	442.25
323.108	472.25
323.337	497.25
323.566	532.25
323.795	553.25
324.024	626.25
324.253	754.25
324.482	1071.25
324.71	1626.25
324.939	2365.25
325.168	2043.25
325.397	1102.25
325.626	747.25
325.855	579.25
326.084	557.25
326.313	523.25
326.542	538.25
326.77	596.25
326.999	692.25
327.228	951.25
327.457	1448.25
327.686	1790.25
327.914	1246.25
328.143	810.25
328.372	700.25
328.6	669.25
328.829	627.25
329.058	633.25
329.287	658.25
329.515	610.25
329.744	560.25
329.972	561.25
330.201	627.25
330.43	691.25
330.658	698.25
330.887	690.25
331.115	658.25
331.344	565.25
331.572	536.25
331.801	500.25
332.03	485.25
332.258	460.25
332.486	455.25
332.715	447.25
332.943	434.25
333.172	450.25
333.4	461.25
333.629	452.25
333.857	494.25
334.085	524.25
334.314	552.25
334.542	631.25
334.771	669.25
334.999	557.25
335.227	518.25
335.455	484.25
335.684	466.25
335.912	440.25
336.14	418.25
336.369	406.25
336.597	457.25
336.825	457.25
337.053	443.25
337.281	415.25
337.51	427.25
337.738	427.25
337.966	421.25
338.194	421.25
338.422	427.25
338.65	410.25
338.878	399.25
339.106	407.25
339.334	400.25
339.562	382.25
339.79	403.25
340.018	410.25
340.246	386.25
340.474	424.25
340.702	416.25
340.93	418.25
341.158	402.25
341.386	408.25
341.614	402.25
341.842	392.25
342.07	386.25
342.298	393.25
342.526	393.25
342.754	391.25
342.981	382.25
343.209	363.25
343.437	368.25
343.665	396.25
343.893	398.25
344.12	397.25
344.348	392.25
344.576	409.25
344.804	417.25
345.031	419.25
345.259	430.25
345.487	395.25
345.714	413.25
345.942	406.25
346.17	398.25
346.397	384.25
346.625	387.25
346.853	395.25
347.08	381.25
347.308	376.25
347.535	401.25
347.763	396.25
347.99	428.25
348.218	416.25
348.445	425.25
348.673	426.25
348.9	401.25
349.128	392.25
349.355	378.25
349.583	380.25
349.81	399.25
350.037	378.25
350.265	384.25
350.492	382.25
350.72	373.25
350.947	404.25
351.174	395.25
351.402	403.25
351.629	397.25
351.856	397.25
352.083	395.25
352.311	415.25
352.538	434.25
352.765	395.25
352.992	385.25
353.22	394.25
353.447	402.25
353.674	388.25
353.901	394.25
354.128	373.25
354.355	352.25
354.583	377.25
354.81	373.25
355.037	358.25
355.264	352.25
355.491	346.25
355.718	338.25
355.945	348.25
356.172	356.25
356.399	347.25
356.626	336.25
356.853	361.25
357.08	341.25
357.307	351.25
357.534	347.25
357.761	357.25
357.988	354.25
358.215	348.25
358.441	348.25
358.668	358.25
358.895	360.25
359.122	369.25
359.349	358.25
359.576	386.25
359.802	401.25
360.029	446.25
360.256	454.25
360.483	434.25
360.709	402.25
360.936	390.25
361.163	374.25
361.39	398.25
361.616	414.25
361.843	389.25
362.07	390.25
362.296	388.25
362.523	377.25
362.749	384.25
362.976	390.25
363.203	363.25
363.429	360.25
363.656	356.25
363.882	372.25
364.109	348.25
364.335	376.25
364.562	372.25
364.788	366.25
365.015	364.25
365.241	376.25
365.468	365.25
365.694	392.25
365.92	377.25
366.147	357.25
366.373	363.25
366.599	385.25
366.826	357.25
367.052	363.25
367.278	350.25
367.505	371.25
367.731	364.25
367.957	374.25
368.184	380.25
368.41	374.25
368.636	389.25
368.862	364.25
369.089	348.25
369.315	345.25
369.541	356.25
369.767	381.25
369.993	370.25
370.219	358.25
370.445	372.25
370.672	366.25
370.898	358.25
371.124	375.25
371.35	348.25
371.576	342.25
371.802	356.25
372.028	344.25
372.254	357.25
372.48	362.25
372.706	357.25
372.932	347.25
373.158	352.25
373.384	338.25
373.61	363.25
373.835	346.25
374.061	341.25
374.287	366.25
374.513	360.25
374.739	370.25
374.965	357.25
375.191	359.25
375.416	349.25
375.642	351.25
375.868	366.25
376.094	361.25
376.319	360.25
376.545	349.25
376.771	348.25
376.997	341.25
377.222	380.25
377.448	357.25
377.674	336.25
377.899	341.25
378.125	340.25
378.35	339.25
378.576	353.25
378.802	347.25
379.027	350.25
379.253	353.25
379.478	339.25
379.704	346.25
379.929	353.25
380.155	365.25
380.38	348.25
380.606	355.25
380.831	339.25
381.057	334.25
381.282	365.25
381.507	362.25
381.733	352.25
381.958	353.25
382.184	352.25
382.409	353.25
382.634	340.25
382.86	355.25
383.085	342.25
383.31	339.25
383.535	378.25
383.761	361.25
383.986	367.25
384.211	358.25
384.436	360.25
384.662	368.25
384.887	361.25
385.112	370.25
385.337	340.25
385.562	374.25
385.787	364.25
386.013	384.25
386.238	377.25
386.463	369.25
386.688	373.25
386.913	361.25
387.138	358.25
387.363	374.25
387.588	364.25
387.813	370.25
388.038	352.25
388.263	362.25
388.488	363.25
388.713	370.25
388.938	366.25
389.163	382.25
389.387	370.25
389.612	370.25
389.837	359.25
390.062	368.25
390.287	376.25
390.512	370.25
390.736	374.25
390.961	368.25
391.186	354.25
391.411	375.25
391.636	374.25
391.86	362.25
392.085	382.25
392.31	358.25
392.534	359.25
392.759	373.25
392.984	362.25
393.208	350.25
393.433	361.25
393.658	354.25
393.882	357.25
394.107	345.25
394.331	380.25
394.556	373.25
394.78	372.25
395.005	355.25
395.229	386.25
395.454	374.25
395.678	376.25
395.903	378.25
396.127	417.25
396.352	404.25
396.576	398.25
396.801	405.25
397.025	378.25
397.249	362.25
397.474	378.25
397.698	397.25
397.922	411.25
398.147	396.25
398.371	396.25
398.595	408.25
398.82	392.25
399.044	411.25
399.268	409.25
399.492	434.25
399.717	456.25
399.941	472.25
400.165	473.25
400.389	503.25
400.613	460.25
400.837	442.25
401.062	423.25
401.286	430.25
401.51	408.25
401.734	399.25
401.958	437.25
402.182	424.25
402.406	437.25
402.63	419.25
402.854	434.25
403.078	439.25
403.302	420.25
403.526	418.25
403.75	441.25
403.974	433.25
404.198	422.25
404.422	457.25
404.645	463.25
404.869	451.25
405.093	471.25
405.317	532.25
405.541	586.25
405.765	535.25
405.988	489.25
406.212	498.25
406.436	502.25
406.66	497.25
406.883	485.25
407.107	484.25
407.331	518.25
407.555	573.25
407.778	604.25
408.002	524.25
408.226	500.25
408.449	488.25
408.673	498.25
408.896	521.25
409.12	545.25
409.344	537.25
409.567	476.25
409.791	437.25
410.014	445.25
410.238	449.25
410.461	448.25
410.685	446.25
410.908	458.25
411.132	499.25
411.355	533.25
411.578	512.25
411.802	459.25
412.025	436.25
412.249	448.25
412.472	491.25
412.695	535.25
412.919	544.25
413.142	482.25
413.365	450.25
413.589	450.25
413.812	440.25
414.035	417.25
414.258	414.25
414.482	420.25
414.705	394.25
414.928	400.25
415.151	399.25
415.374	404.25
415.597	410.25
415.821	401.25
416.044	413.25
416.267	407.25
416.49	425.25
416.713	396.25
416.936	402.25
417.159	421.25
417.382	426.25
417.605	413.25
417.828	438.25
418.051	454.25
418.274	436.25
418.497	425.25
418.72	404.25
418.943	424.25
419.166	427.25
419.389	437.25
419.611	446.25
419.834	434.25
420.057	455.25
420.28	459.25
420.503	436.25
420.726	448.25
420.948	454.25
421.171	482.25
421.394	532.25
421.617	486.25
421.839	445.25
422.062	445.25
422.285	483.25
422.507	509.25
422.73	582.25
422.953	536.25
423.175	505.25
423.398	478.25
423.621	486.25
423.843	486.25
424.066	493.25
424.288	465.25
424.511	513.25
424.733	560.25
424.956	632.25
425.178	599.25
425.401	583.25
425.623	625.25
425.846	538.25
426.068	512.25
426.291	493.25
426.513	498.25
426.735	501.25
426.958	533.25
427.18	604.25
427.402	709.25
427.625	792.25
427.847	738.25
428.069	658.25
428.292	575.25
428.514	500.25
428.736	469.25
428.958	475.25
429.181	465.25
429.403	458.25
429.625	476.25
429.847	498.25
430.069	588.25
430.292	570.25
430.514	459.25
430.736	429.25
430.958	446.25
431.18	440.25
431.402	434.25
431.624	426.25
431.846	408.25
432.068	385.25
432.29	427.25
432.512	406.25
432.734	424.25
432.956	430.25
433.178	429.25
433.4	436.25
433.622	425.25
433.844	405.25
434.066	422.25
434.287	422.25
434.509	422.25
434.731	437.25
434.953	407.25
435.175	449.25
435.397	491.25
435.618	465.25
435.84	530.25
436.062	610.25
436.284	678.25
436.505	577.25
436.727	518.25
436.949	472.25
437.17	456.25
437.392	466.25
437.614	488.25
437.835	512.25
438.057	597.25
438.278	695.25
438.5	698.25
438.721	740.25
438.943	701.25
439.165	588.25
439.386	528.25
439.608	522.25
439.829	484.25
440.05	542.25
440.272	564.25
440.493	534.25
440.715	488.25
440.936	492.25
441.158	478.25
441.379	448.25
441.6	467.25
441.822	483.25
442.043	505.25
442.264	609.25
442.486	641.25
442.707	558.25
442.928	514.25
443.149	521.25
443.371	530.25
443.592	574.25
443.813	646.25
444.034	715.25
444.255	578.25
444.476	513.25
444.698	467.25
444.919	482.25
445.14	553.25
445.361	539.25
445.582	521.25
445.803	595.25
446.024	663.25
446.245	708.25
446.466	634.25
446.687	540.25
446.908	513.25
447.129	484.25
447.35	430.25
447.571	459.25
447.792	450.25
448.013	458.25
448.234	500.25
448.455	524.25
448.675	637.25
448.896	757.25
449.117	647.25
449.338	597.25
449.559	693.25
449.779	799.25
450	632.25
450.221	510.25
450.442	483.25
450.662	437.25
450.883	466.25
451.104	465.25
451.324	458.25
451.545	454.25
451.766	421.25
451.986	421.25
452.207	401.25
452.428	397.25
452.648	396.25
452.869	421.25
453.089	392.25
453.31	429.25
453.53	416.25
453.751	420.25
453.971	412.25
454.192	437.25
454.412	439.25
454.633	416.25
454.853	406.25
455.073	406.25
455.294	439.25
455.514	505.25
455.734	516.25
455.955	408.25
456.175	398.25
456.395	386.25
456.616	379.25
456.836	376.25
457.056	388.25
457.276	357.25
457.497	376.25
457.717	378.25
457.937	370.25
458.157	396.25
458.377	416.25
458.598	408.25
458.818	454.25
459.038	578.25
459.258	558.25
459.478	469.25
459.698	421.25
459.918	386.25
460.138	410.25
460.358	411.25
460.578	422.25
460.798	440.25
461.018	403.25
461.238	396.25
461.458	379.25
461.678	398.25
461.898	405.25
462.118	393.25
462.338	410.25
462.558	396.25
462.777	405.25
462.997	452.25
463.217	424.25
463.437	422.25
463.657	420.25
463.876	427.25
464.096	422.25
464.316	422.25
464.536	423.25
464.755	457.25
464.975	446.25
465.195	514.25
465.414	577.25
465.634	514.25
465.854	478.25
466.073	440.25
466.293	417.25
466.512	425.25
466.732	405.25
466.951	407.25
467.171	401.25
467.391	406.25
467.61	425.25
467.829	421.25
468.049	419.25
468.268	442.25
468.488	426.25
468.707	411.25
468.927	398.25
469.146	396.25
469.365	393.25
469.585	386.25
469.804	401.25
470.023	404.25
470.243	428.25
470.462	419.25
470.681	454.25
470.901	418.25
471.12	438.25
471.339	414.25
471.558	433.25
471.777	405.25
471.997	419.25
472.216	449.25
472.435	564.25
472.654	533.25
472.873	460.25
473.092	432.25
473.311	416.25
473.53	415.25
473.749	454.25
473.968	504.25
474.187	570.25
474.406	616.25
474.625	481.25
474.844	443.25
475.063	432.25
475.282	408.25
475.501	434.25
475.72	445.25
475.939	441.25
476.158	439.25
476.377	433.25
476.596	448.25
476.814	450.25
477.033	435.25
477.252	463.25
477.471	454.25
477.69	444.25
477.908	435.25
478.127	460.25
478.346	460.25
478.564	451.25
478.783	469.25
479.002	463.25
479.22	482.25
479.439	466.25
479.658	511.25
479.876	487.25
480.095	524.25
480.313	553.25
480.532	565.25
480.751	528.25
480.969	550.25
481.188	672.25
481.406	811.25
481.624	630.25
481.843	554.25
482.061	542.25
482.28	542.25
482.498	531.25
482.717	523.25
482.935	501.25
483.153	498.25
483.372	515.25
483.59	502.25
483.808	495.25
484.027	498.25
484.245	494.25
484.463	506.25
484.681	500.25
484.9	491.25
485.118	528.25
485.336	527.25
485.554	521.25
485.772	512.25
485.99	516.25
486.209	514.25
486.427	537.25
486.645	536.25
486.863	555.25
487.081	546.25
487.299	552.25
487.517	542.25
487.735	556.25
487.953	528.25
488.171	546.25
488.389	550.25
488.607	539.25
488.825	546.25
489.043	553.25
489.261	556.25
489.479	573.25
489.696	572.25
489.914	554.25
490.132	561.25
490.35	546.25
490.568	576.25
490.786	593.25
491.003	593.25
491.221	602.25
491.439	610.25
491.657	622.25
491.874	650.25
492.092	617.25
492.31	642.25
492.527	631.25
492.745	637.25
492.963	647.25
493.18	622.25
493.398	668.25
493.615	674.25
493.833	652.25
494.05	662.25
494.268	643.25
494.485	645.25
494.703	673.25
494.92	642.25
495.138	650.25
495.355	662.25
495.573	651.25
495.79	672.25
496.008	648.25
496.225	647.25
496.442	630.25
496.66	646.25
496.877	660.25
497.094	669.25
497.312	637.25
497.529	655.25
497.746	679.25
497.963	664.25
498.181	685.25
498.398	682.25
498.615	683.25
498.832	695.25
499.049	674.25
499.267	708.25
499.484	701.25
499.701	704.25
499.918	740.25
500.135	764.25
500.352	745.25
500.569	759.25
500.786	776.25
501.003	779.25
501.22	760.25
501.437	755.25
501.654	779.25
501.871	763.25
