Data from 1986.PennyLincolnUp.Lamp.En5.5.200Scan.071819.P2_HRD10591_17-10-37-976.txt Node
Date: Thu Jul 18 17:10:37 EDT 2019
User: cochatt
Spectrometer: HR+D1059
Trigger mode: 1
Integration Time (sec): 1.000000E-1
Scans to average: 1
Electric dark correction enabled: true
Nonlinearity correction enabled: false
Boxcar width: 0
XAxis mode: Wavelengths
Number of Pixels in Spectrum: 2048
>>>>>Begin Spectral Data<<<<<
223.165	-15.06
223.4	-15.06
223.635	-15.06
223.869	-20.06
224.104	-10.06
224.338	-25.06
224.573	-18.06
224.808	-19.06
225.042	-23.06
225.277	-8.06
225.511	-7.06
225.746	14.94
225.98	-5.06
226.215	18.94
226.449	21.94
226.683	26.94
226.918	32.94
227.152	34.94
227.387	42.94
227.621	45.94
227.856	52.94
228.09	50.94
228.324	50.94
228.559	61.94
228.793	65.94
229.027	96.94
229.262	117.94
229.496	123.94
229.73	134.94
229.964	145.94
230.199	128.94
230.433	111.94
230.667	122.94
230.901	114.94
231.136	118.94
231.37	107.94
231.604	114.94
231.838	110.94
232.072	106.94
232.306	89.94
232.541	111.94
232.775	111.94
233.009	124.94
233.243	110.94
233.477	94.94
233.711	101.94
233.945	97.94
234.179	107.94
234.413	122.94
234.647	122.94
234.881	115.94
235.115	110.94
235.349	116.94
235.583	131.94
235.817	138.94
236.051	125.94
236.285	122.94
236.519	129.94
236.753	107.94
236.987	147.94
237.221	190.94
237.455	235.94
237.689	209.94
237.922	134.94
238.156	136.94
238.39	148.94
238.624	118.94
238.858	126.94
239.091	115.94
239.325	134.94
239.559	126.94
239.793	124.94
240.027	127.94
240.26	112.94
240.494	171.94
240.728	148.94
240.961	152.94
241.195	147.94
241.429	140.94
241.662	133.94
241.896	129.94
242.13	130.94
242.363	144.94
242.597	133.94
242.83	127.94
243.064	132.94
243.298	134.94
243.531	131.94
243.765	147.94
243.998	134.94
244.232	151.94
244.465	138.94
244.699	151.94
244.932	140.94
245.166	136.94
245.399	141.94
245.633	147.94
245.866	149.94
246.099	158.94
246.333	173.94
246.566	144.94
246.8	161.94
247.033	145.94
247.266	158.94
247.5	168.94
247.733	161.94
247.966	183.94
248.2	176.94
248.433	182.94
248.666	199.94
248.899	194.94
249.133	207.94
249.366	213.94
249.599	204.94
249.832	191.94
250.066	193.94
250.299	198.94
250.532	194.94
250.765	220.94
250.998	225.94
251.231	227.94
251.465	223.94
251.698	208.94
251.931	214.94
252.164	218.94
252.397	190.94
252.63	204.94
252.863	205.94
253.096	227.94
253.329	225.94
253.562	243.94
253.795	237.94
254.028	208.94
254.261	232.94
254.494	235.94
254.727	263.94
254.96	290.94
255.193	289.94
255.426	259.94
255.659	254.94
255.892	244.94
256.124	246.94
256.357	235.94
256.59	250.94
256.823	232.94
257.056	240.94
257.289	225.94
257.521	209.94
257.754	215.94
257.987	207.94
258.22	212.94
258.452	209.94
258.685	220.94
258.918	206.94
259.151	201.94
259.383	216.94
259.616	235.94
259.849	221.94
260.081	234.94
260.314	245.94
260.547	264.94
260.779	264.94
261.012	240.94
261.244	228.94
261.477	231.94
261.71	229.94
261.942	218.94
262.175	264.94
262.407	234.94
262.64	227.94
262.872	214.94
263.105	228.94
263.337	212.94
263.57	203.94
263.802	202.94
264.035	224.94
264.267	216.94
264.499	186.94
264.732	216.94
264.964	210.94
265.197	185.94
265.429	219.94
265.661	207.94
265.894	214.94
266.126	219.94
266.358	199.94
266.591	218.94
266.823	239.94
267.055	226.94
267.287	229.94
267.52	221.94
267.752	220.94
267.984	219.94
268.216	229.94
268.448	215.94
268.681	242.94
268.913	255.94
269.145	265.94
269.377	267.94
269.609	269.94
269.841	291.94
270.073	272.94
270.306	291.94
270.538	332.94
270.77	336.94
271.002	287.94
271.234	301.94
271.466	304.94
271.698	309.94
271.93	323.94
272.162	333.94
272.394	314.94
272.626	314.94
272.858	316.94
273.09	300.94
273.322	274.94
273.553	251.94
273.785	285.94
274.017	270.94
274.249	259.94
274.481	265.94
274.713	258.94
274.945	257.94
275.176	258.94
275.408	255.94
275.64	254.94
275.872	247.94
276.104	250.94
276.335	258.94
276.567	283.94
276.799	273.94
277.031	291.94
277.262	314.94
277.494	308.94
277.726	312.94
277.957	282.94
278.189	296.94
278.421	269.94
278.652	256.94
278.884	267.94
279.115	258.94
279.347	268.94
279.579	249.94
279.81	258.94
280.042	254.94
280.273	255.94
280.505	240.94
280.736	256.94
280.968	244.94
281.199	239.94
281.431	265.94
281.662	237.94
281.894	251.94
282.125	261.94
282.356	283.94
282.588	314.94
282.819	306.94
283.051	263.94
283.282	263.94
283.513	256.94
283.745	256.94
283.976	252.94
284.207	253.94
284.439	263.94
284.67	262.94
284.901	268.94
285.132	267.94
285.364	271.94
285.595	266.94
285.826	247.94
286.057	245.94
286.288	255.94
286.52	255.94
286.751	280.94
286.982	278.94
287.213	262.94
287.444	279.94
287.675	268.94
287.906	270.94
288.138	268.94
288.369	278.94
288.6	285.94
288.831	277.94
289.062	271.94
289.293	264.94
289.524	263.94
289.755	252.94
289.986	281.94
290.217	266.94
290.448	251.94
290.679	263.94
290.91	261.94
291.141	269.94
291.371	282.94
291.602	259.94
291.833	251.94
292.064	250.94
292.295	253.94
292.526	262.94
292.757	274.94
292.987	257.94
293.218	265.94
293.449	273.94
293.68	260.94
293.91	285.94
294.141	276.94
294.372	244.94
294.603	262.94
294.833	260.94
295.064	258.94
295.295	299.94
295.525	251.94
295.756	273.94
295.987	286.94
296.217	308.94
296.448	310.94
296.679	289.94
296.909	276.94
297.14	278.94
297.37	272.94
297.601	254.94
297.831	274.94
298.062	262.94
298.292	270.94
298.523	282.94
298.753	291.94
298.984	282.94
299.214	275.94
299.445	282.94
299.675	289.94
299.905	286.94
300.136	297.94
300.366	288.94
300.597	277.94
300.827	297.94
301.057	290.94
301.288	301.94
301.518	286.94
301.748	286.94
301.979	292.94
302.209	306.94
302.439	309.94
302.669	294.94
302.9	303.94
303.13	288.94
303.36	301.94
303.59	315.94
303.82	308.94
304.051	332.94
304.281	303.94
304.511	293.94
304.741	294.94
304.971	287.94
305.201	296.94
305.431	290.94
305.661	298.94
305.891	301.94
306.121	309.94
306.352	288.94
306.582	304.94
306.812	288.94
307.042	306.94
307.272	320.94
307.502	312.94
307.731	293.94
307.961	299.94
308.191	310.94
308.421	322.94
308.651	310.94
308.881	326.94
309.111	327.94
309.341	333.94
309.571	324.94
309.8	356.94
310.03	352.94
310.26	360.94
310.49	359.94
310.72	366.94
310.949	379.94
311.179	398.94
311.409	372.94
311.639	363.94
311.868	356.94
312.098	367.94
312.328	381.94
312.557	380.94
312.787	400.94
313.017	413.94
313.246	378.94
313.476	362.94
313.706	361.94
313.935	377.94
314.165	369.94
314.394	378.94
314.624	382.94
314.853	365.94
315.083	378.94
315.312	365.94
315.542	343.94
315.771	355.94
316.001	330.94
316.23	330.94
316.46	347.94
316.689	364.94
316.919	358.94
317.148	358.94
317.377	382.94
317.607	371.94
317.836	348.94
318.065	349.94
318.295	338.94
318.524	347.94
318.753	360.94
318.983	350.94
319.212	342.94
319.441	367.94
319.67	384.94
319.9	368.94
320.129	359.94
320.358	355.94
320.587	344.94
320.816	365.94
321.046	386.94
321.275	386.94
321.504	393.94
321.733	402.94
321.962	406.94
322.191	418.94
322.42	411.94
322.649	439.94
322.878	460.94
323.108	484.94
323.337	497.94
323.566	512.94
323.795	554.94
324.024	590.94
324.253	737.94
324.482	1068.94
324.71	1638.94
324.939	2295.94
325.168	2034.94
325.397	1102.94
325.626	716.94
325.855	585.94
326.084	537.94
326.313	531.94
326.542	516.94
326.77	583.94
326.999	684.94
327.228	936.94
327.457	1413.94
327.686	1760.94
327.914	1254.94
328.143	795.94
328.372	674.94
328.6	637.94
328.829	598.94
329.058	611.94
329.287	608.94
329.515	580.94
329.744	516.94
329.972	510.94
330.201	528.94
330.43	584.94
330.658	598.94
330.887	631.94
331.115	644.94
331.344	526.94
331.572	508.94
331.801	466.94
332.03	476.94
332.258	431.94
332.486	422.94
332.715	436.94
332.943	415.94
333.172	418.94
333.4	420.94
333.629	425.94
333.857	430.94
334.085	426.94
334.314	466.94
334.542	490.94
334.771	504.94
334.999	455.94
335.227	429.94
335.455	415.94
335.684	405.94
335.912	406.94
336.14	424.94
336.369	379.94
336.597	421.94
336.825	412.94
337.053	418.94
337.281	403.94
337.51	395.94
337.738	418.94
337.966	412.94
338.194	414.94
338.422	412.94
338.65	388.94
338.878	387.94
339.106	401.94
339.334	398.94
339.562	380.94
339.79	380.94
340.018	397.94
340.246	399.94
340.474	396.94
340.702	396.94
340.93	394.94
341.158	383.94
341.386	412.94
341.614	412.94
341.842	391.94
342.07	390.94
342.298	380.94
342.526	388.94
342.754	395.94
342.981	388.94
343.209	370.94
343.437	370.94
343.665	373.94
343.893	379.94
344.12	376.94
344.348	399.94
344.576	386.94
344.804	395.94
345.031	415.94
345.259	419.94
345.487	396.94
345.714	382.94
345.942	392.94
346.17	390.94
346.397	383.94
346.625	392.94
346.853	381.94
347.08	386.94
347.308	397.94
347.535	379.94
347.763	393.94
347.99	421.94
348.218	402.94
348.445	423.94
348.673	437.94
348.9	374.94
349.128	381.94
349.355	361.94
349.583	363.94
349.81	349.94
350.037	358.94
350.265	356.94
350.492	355.94
350.72	356.94
350.947	369.94
351.174	402.94
351.402	386.94
351.629	390.94
351.856	389.94
352.083	399.94
352.311	408.94
352.538	419.94
352.765	414.94
352.992	389.94
353.22	388.94
353.447	386.94
353.674	366.94
353.901	358.94
354.128	348.94
354.355	354.94
354.583	351.94
354.81	356.94
355.037	363.94
355.264	351.94
355.491	352.94
355.718	347.94
355.945	356.94
356.172	326.94
356.399	358.94
356.626	335.94
356.853	355.94
357.08	346.94
357.307	338.94
357.534	365.94
357.761	350.94
357.988	336.94
358.215	340.94
358.441	329.94
358.668	359.94
358.895	363.94
359.122	346.94
359.349	363.94
359.576	373.94
359.802	423.94
360.029	446.94
360.256	456.94
360.483	452.94
360.709	395.94
360.936	379.94
361.163	382.94
361.39	393.94
361.616	382.94
361.843	375.94
362.07	354.94
362.296	380.94
362.523	360.94
362.749	374.94
362.976	368.94
363.203	370.94
363.429	350.94
363.656	360.94
363.882	357.94
364.109	374.94
364.335	363.94
364.562	376.94
364.788	352.94
365.015	345.94
365.241	374.94
365.468	358.94
365.694	359.94
365.92	379.94
366.147	348.94
366.373	367.94
366.599	370.94
366.826	348.94
367.052	357.94
367.278	332.94
367.505	348.94
367.731	333.94
367.957	362.94
368.184	368.94
368.41	359.94
368.636	358.94
368.862	365.94
369.089	365.94
369.315	358.94
369.541	348.94
369.767	332.94
369.993	348.94
370.219	378.94
370.445	365.94
370.672	370.94
370.898	344.94
371.124	351.94
371.35	342.94
371.576	350.94
371.802	334.94
372.028	339.94
372.254	334.94
372.48	335.94
372.706	330.94
372.932	334.94
373.158	328.94
373.384	364.94
373.61	356.94
373.835	342.94
374.061	347.94
374.287	360.94
374.513	366.94
374.739	357.94
374.965	358.94
375.191	347.94
375.416	330.94
375.642	344.94
375.868	346.94
376.094	356.94
376.319	345.94
376.545	331.94
376.771	346.94
376.997	356.94
377.222	357.94
377.448	353.94
377.674	346.94
377.899	330.94
378.125	338.94
378.35	346.94
378.576	342.94
378.802	323.94
379.027	326.94
379.253	324.94
379.478	335.94
379.704	338.94
379.929	364.94
380.155	359.94
380.38	342.94
380.606	351.94
380.831	355.94
381.057	346.94
381.282	345.94
381.507	368.94
381.733	338.94
381.958	333.94
382.184	335.94
382.409	331.94
382.634	335.94
382.86	354.94
383.085	346.94
383.31	344.94
383.535	347.94
383.761	372.94
383.986	345.94
384.211	360.94
384.436	339.94
384.662	345.94
384.887	361.94
385.112	354.94
385.337	359.94
385.562	370.94
385.787	378.94
386.013	358.94
386.238	382.94
386.463	357.94
386.688	350.94
386.913	362.94
387.138	379.94
387.363	351.94
387.588	354.94
387.813	355.94
388.038	343.94
388.263	364.94
388.488	332.94
388.713	343.94
388.938	377.94
389.163	372.94
389.387	357.94
389.612	336.94
389.837	374.94
390.062	382.94
390.287	354.94
390.512	333.94
390.736	368.94
390.961	352.94
391.186	363.94
391.411	385.94
391.636	377.94
391.86	342.94
392.085	352.94
392.31	349.94
392.534	377.94
392.759	383.94
392.984	351.94
393.208	335.94
393.433	366.94
393.658	358.94
393.882	367.94
394.107	351.94
394.331	375.94
394.556	359.94
394.78	363.94
395.005	372.94
395.229	356.94
395.454	362.94
395.678	359.94
395.903	381.94
396.127	398.94
396.352	387.94
396.576	369.94
396.801	365.94
397.025	365.94
397.249	387.94
397.474	364.94
397.698	348.94
397.922	399.94
398.147	399.94
398.371	420.94
398.595	382.94
398.82	384.94
399.044	404.94
399.268	411.94
399.492	419.94
399.717	423.94
399.941	462.94
400.165	474.94
400.389	494.94
400.613	473.94
400.837	416.94
401.062	399.94
401.286	421.94
401.51	399.94
401.734	414.94
401.958	394.94
402.182	398.94
402.406	431.94
402.63	424.94
402.854	414.94
403.078	400.94
403.302	409.94
403.526	418.94
403.75	419.94
403.974	431.94
404.198	423.94
404.422	444.94
404.645	422.94
404.869	422.94
405.093	457.94
405.317	492.94
405.541	532.94
405.765	499.94
405.988	471.94
406.212	463.94
406.436	469.94
406.66	503.94
406.883	481.94
407.107	492.94
407.331	518.94
407.555	550.94
407.778	601.94
408.002	518.94
408.226	473.94
408.449	455.94
408.673	455.94
408.896	495.94
409.12	522.94
409.344	499.94
409.567	468.94
409.791	424.94
410.014	415.94
410.238	420.94
410.461	408.94
410.685	441.94
410.908	430.94
411.132	466.94
411.355	508.94
411.578	484.94
411.802	422.94
412.025	418.94
412.249	423.94
412.472	450.94
412.695	480.94
412.919	483.94
413.142	422.94
413.365	421.94
413.589	436.94
413.812	401.94
414.035	395.94
414.258	385.94
414.482	401.94
414.705	383.94
414.928	391.94
415.151	381.94
415.374	396.94
415.597	377.94
415.821	390.94
416.044	404.94
416.267	400.94
416.49	397.94
416.713	384.94
416.936	392.94
417.159	391.94
417.382	400.94
417.605	388.94
417.828	410.94
418.051	428.94
418.274	417.94
418.497	396.94
418.72	421.94
418.943	390.94
419.166	405.94
419.389	409.94
419.611	424.94
419.834	414.94
420.057	409.94
420.28	438.94
420.503	425.94
420.726	410.94
420.948	424.94
421.171	472.94
421.394	486.94
421.617	454.94
421.839	438.94
422.062	444.94
422.285	467.94
422.507	488.94
422.73	559.94
422.953	564.94
423.175	492.94
423.398	435.94
423.621	455.94
423.843	469.94
424.066	470.94
424.288	461.94
424.511	505.94
424.733	552.94
424.956	623.94
425.178	597.94
425.401	592.94
425.623	594.94
425.846	518.94
426.068	466.94
426.291	476.94
426.513	475.94
426.735	482.94
426.958	536.94
427.18	606.94
427.402	713.94
427.625	796.94
427.847	744.94
428.069	621.94
428.292	558.94
428.514	507.94
428.736	440.94
428.958	463.94
429.181	440.94
429.403	444.94
429.625	442.94
429.847	476.94
430.069	553.94
430.292	545.94
430.514	457.94
430.736	444.94
430.958	436.94
431.18	435.94
431.402	439.94
431.624	414.94
431.846	405.94
432.068	403.94
432.29	406.94
432.512	401.94
432.734	435.94
432.956	420.94
433.178	419.94
433.4	427.94
433.622	415.94
433.844	413.94
434.066	385.94
434.287	412.94
434.509	416.94
434.731	427.94
434.953	434.94
435.175	414.94
435.397	456.94
435.618	454.94
435.84	503.94
436.062	606.94
436.284	646.94
436.505	564.94
436.727	490.94
436.949	451.94
437.17	445.94
437.392	470.94
437.614	486.94
437.835	491.94
438.057	592.94
438.278	698.94
438.5	676.94
438.721	747.94
438.943	697.94
439.165	564.94
439.386	508.94
439.608	517.94
439.829	493.94
440.05	526.94
440.272	580.94
440.493	534.94
440.715	495.94
440.936	476.94
441.158	425.94
441.379	457.94
441.6	476.94
441.822	497.94
442.043	531.94
442.264	614.94
442.486	651.94
442.707	532.94
442.928	518.94
443.149	502.94
443.371	514.94
443.592	574.94
443.813	634.94
444.034	705.94
444.255	602.94
444.476	502.94
444.698	477.94
444.919	460.94
445.14	539.94
445.361	517.94
445.582	515.94
445.803	596.94
446.024	683.94
446.245	680.94
446.466	631.94
446.687	527.94
446.908	485.94
447.129	458.94
447.35	452.94
447.571	434.94
447.792	434.94
448.013	446.94
448.234	459.94
448.455	528.94
448.675	635.94
448.896	723.94
449.117	611.94
449.338	555.94
449.559	718.94
449.779	737.94
450	627.94
450.221	508.94
450.442	471.94
450.662	441.94
450.883	451.94
451.104	463.94
451.324	473.94
451.545	434.94
451.766	444.94
451.986	392.94
452.207	386.94
452.428	422.94
452.648	420.94
452.869	407.94
453.089	394.94
453.31	406.94
453.53	413.94
453.751	410.94
453.971	404.94
454.192	446.94
454.412	428.94
454.633	402.94
454.853	397.94
455.073	396.94
455.294	406.94
455.514	488.94
455.734	492.94
455.955	413.94
456.175	382.94
456.395	365.94
456.616	379.94
456.836	358.94
457.056	366.94
457.276	372.94
457.497	362.94
457.717	366.94
457.937	390.94
458.157	366.94
458.377	372.94
458.598	423.94
458.818	478.94
459.038	550.94
459.258	568.94
459.478	479.94
459.698	427.94
459.918	418.94
460.138	385.94
460.358	413.94
460.578	401.94
460.798	393.94
461.018	401.94
461.238	392.94
461.458	390.94
461.678	382.94
461.898	390.94
462.118	388.94
462.338	394.94
462.558	404.94
462.777	411.94
462.997	410.94
463.217	394.94
463.437	421.94
463.657	409.94
463.876	406.94
464.096	410.94
464.316	418.94
464.536	424.94
464.755	427.94
464.975	425.94
465.195	504.94
465.414	570.94
465.634	489.94
465.854	464.94
466.073	427.94
466.293	410.94
466.512	400.94
466.732	414.94
466.951	394.94
467.171	411.94
467.391	390.94
467.61	404.94
467.829	420.94
468.049	396.94
468.268	418.94
468.488	405.94
468.707	388.94
468.927	376.94
469.146	388.94
469.365	395.94
469.585	390.94
469.804	406.94
470.023	391.94
470.243	378.94
470.462	417.94
470.681	437.94
470.901	424.94
471.12	403.94
471.339	393.94
471.558	414.94
471.777	422.94
471.997	406.94
472.216	413.94
472.435	441.94
472.654	427.94
472.873	410.94
473.092	414.94
473.311	391.94
473.53	395.94
473.749	404.94
473.968	458.94
474.187	559.94
474.406	576.94
474.625	498.94
474.844	431.94
475.063	408.94
475.282	423.94
475.501	399.94
475.72	409.94
475.939	403.94
476.158	428.94
476.377	420.94
476.596	428.94
476.814	418.94
477.033	420.94
477.252	434.94
477.471	428.94
477.69	418.94
477.908	442.94
478.127	429.94
478.346	438.94
478.564	447.94
478.783	430.94
479.002	441.94
479.22	474.94
479.439	482.94
479.658	468.94
479.876	470.94
480.095	490.94
480.313	506.94
480.532	516.94
480.751	498.94
480.969	523.94
481.188	566.94
481.406	628.94
481.624	544.94
481.843	488.94
482.061	470.94
482.28	467.94
482.498	475.94
482.717	484.94
482.935	471.94
483.153	465.94
483.372	469.94
483.59	477.94
483.808	464.94
484.027	472.94
484.245	461.94
484.463	487.94
484.681	467.94
484.9	500.94
485.118	490.94
485.336	483.94
485.554	480.94
485.772	499.94
485.99	489.94
486.209	493.94
486.427	510.94
486.645	497.94
486.863	521.94
487.081	539.94
487.299	524.94
487.517	506.94
487.735	522.94
487.953	514.94
488.171	507.94
488.389	503.94
488.607	529.94
488.825	531.94
489.043	517.94
489.261	540.94
489.479	532.94
489.696	527.94
489.914	525.94
490.132	545.94
490.35	548.94
490.568	546.94
490.786	580.94
491.003	563.94
491.221	585.94
491.439	596.94
491.657	592.94
491.874	592.94
492.092	601.94
492.31	610.94
492.527	577.94
492.745	604.94
492.963	602.94
493.18	598.94
493.398	599.94
493.615	600.94
493.833	605.94
494.05	643.94
494.268	633.94
494.485	634.94
494.703	615.94
494.92	612.94
495.138	632.94
495.355	644.94
495.573	639.94
495.79	649.94
496.008	628.94
496.225	620.94
496.442	614.94
496.66	634.94
496.877	613.94
497.094	624.94
497.312	626.94
497.529	620.94
497.746	630.94
497.963	651.94
498.181	688.94
498.398	676.94
498.615	677.94
498.832	660.94
499.049	692.94
499.267	680.94
499.484	686.94
499.701	695.94
499.918	708.94
500.135	754.94
500.352	756.94
500.569	766.94
500.786	743.94
501.003	745.94
501.22	734.94
501.437	762.94
501.654	718.94
501.871	768.94
