Data from 1986.PennyLincolnUp.Lamp.En5.5.200Scan.071819.P2_HRD10591_17-12-20-972.txt Node
Date: Thu Jul 18 17:12:20 EDT 2019
User: cochatt
Spectrometer: HR+D1059
Trigger mode: 1
Integration Time (sec): 1.000000E-1
Scans to average: 1
Electric dark correction enabled: true
Nonlinearity correction enabled: false
Boxcar width: 0
XAxis mode: Wavelengths
Number of Pixels in Spectrum: 2048
>>>>>Begin Spectral Data<<<<<
223.165	-12.5
223.4	-12.5
223.635	-12.5
223.869	-17.5
224.104	-28.5
224.338	-27.5
224.573	-22.5
224.808	-23.5
225.042	-0.5
225.277	12.5
225.511	-1.5
225.746	5.5
225.98	1.5
226.215	14.5
226.449	21.5
226.683	23.5
226.918	27.5
227.152	27.5
227.387	29.5
227.621	39.5
227.856	46.5
228.09	51.5
228.324	44.5
228.559	73.5
228.793	76.5
229.027	96.5
229.262	117.5
229.496	131.5
229.73	150.5
229.964	167.5
230.199	145.5
230.433	112.5
230.667	116.5
230.901	109.5
231.136	122.5
231.37	104.5
231.604	120.5
231.838	118.5
232.072	132.5
232.306	104.5
232.541	108.5
232.775	117.5
233.009	131.5
233.243	127.5
233.477	129.5
233.711	108.5
233.945	122.5
234.179	107.5
234.413	117.5
234.647	135.5
234.881	115.5
235.115	115.5
235.349	122.5
235.583	128.5
235.817	117.5
236.051	142.5
236.285	134.5
236.519	123.5
236.753	129.5
236.987	145.5
237.221	191.5
237.455	246.5
237.689	210.5
237.922	151.5
238.156	129.5
238.39	120.5
238.624	140.5
238.858	116.5
239.091	118.5
239.325	126.5
239.559	144.5
239.793	137.5
240.027	137.5
240.26	150.5
240.494	155.5
240.728	149.5
240.961	167.5
241.195	147.5
241.429	139.5
241.662	149.5
241.896	129.5
242.13	133.5
242.363	148.5
242.597	138.5
242.83	149.5
243.064	133.5
243.298	152.5
243.531	144.5
243.765	159.5
243.998	145.5
244.232	151.5
244.465	160.5
244.699	169.5
244.932	164.5
245.166	151.5
245.399	161.5
245.633	157.5
245.866	156.5
246.099	159.5
246.333	170.5
246.566	171.5
246.8	172.5
247.033	169.5
247.266	182.5
247.5	184.5
247.733	180.5
247.966	198.5
248.2	182.5
248.433	183.5
248.666	194.5
248.899	193.5
249.133	203.5
249.366	231.5
249.599	209.5
249.832	193.5
250.066	217.5
250.299	189.5
250.532	243.5
250.765	272.5
250.998	288.5
251.231	275.5
251.465	227.5
251.698	223.5
251.931	228.5
252.164	228.5
252.397	224.5
252.63	223.5
252.863	219.5
253.096	226.5
253.329	241.5
253.562	248.5
253.795	264.5
254.028	240.5
254.261	232.5
254.494	256.5
254.727	289.5
254.96	313.5
255.193	300.5
255.426	294.5
255.659	269.5
255.892	314.5
256.124	346.5
256.357	350.5
256.59	347.5
256.823	294.5
257.056	284.5
257.289	277.5
257.521	261.5
257.754	257.5
257.987	240.5
258.22	254.5
258.452	238.5
258.685	237.5
258.918	243.5
259.151	237.5
259.383	247.5
259.616	259.5
259.849	248.5
260.081	259.5
260.314	273.5
260.547	274.5
260.779	241.5
261.012	249.5
261.244	247.5
261.477	239.5
261.71	238.5
261.942	229.5
262.175	254.5
262.407	249.5
262.64	245.5
262.872	236.5
263.105	226.5
263.337	221.5
263.57	227.5
263.802	216.5
264.035	226.5
264.267	224.5
264.499	215.5
264.732	226.5
264.964	247.5
265.197	248.5
265.429	220.5
265.661	232.5
265.894	226.5
266.126	232.5
266.358	228.5
266.591	216.5
266.823	227.5
267.055	225.5
267.287	233.5
267.52	234.5
267.752	239.5
267.984	240.5
268.216	238.5
268.448	261.5
268.681	252.5
268.913	255.5
269.145	283.5
269.377	284.5
269.609	299.5
269.841	280.5
270.073	279.5
270.306	301.5
270.538	312.5
270.77	361.5
271.002	319.5
271.234	315.5
271.466	300.5
271.698	332.5
271.93	344.5
272.162	343.5
272.394	331.5
272.626	328.5
272.858	300.5
273.09	310.5
273.322	281.5
273.553	269.5
273.785	280.5
274.017	279.5
274.249	271.5
274.481	284.5
274.713	277.5
274.945	276.5
275.176	298.5
275.408	270.5
275.64	285.5
275.872	299.5
276.104	276.5
276.335	287.5
276.567	299.5
276.799	309.5
277.031	321.5
277.262	327.5
277.494	337.5
277.726	340.5
277.957	320.5
278.189	293.5
278.421	291.5
278.652	300.5
278.884	283.5
279.115	291.5
279.347	305.5
279.579	265.5
279.81	267.5
280.042	298.5
280.273	294.5
280.505	305.5
280.736	283.5
280.968	281.5
281.199	266.5
281.431	277.5
281.662	268.5
281.894	270.5
282.125	283.5
282.356	285.5
282.588	325.5
282.819	337.5
283.051	294.5
283.282	287.5
283.513	286.5
283.745	284.5
283.976	269.5
284.207	307.5
284.439	281.5
284.67	287.5
284.901	294.5
285.132	291.5
285.364	294.5
285.595	280.5
285.826	302.5
286.057	294.5
286.288	275.5
286.52	286.5
286.751	294.5
286.982	291.5
287.213	299.5
287.444	297.5
287.675	269.5
287.906	302.5
288.138	309.5
288.369	318.5
288.6	312.5
288.831	293.5
289.062	332.5
289.293	315.5
289.524	309.5
289.755	299.5
289.986	292.5
290.217	286.5
290.448	299.5
290.679	287.5
290.91	287.5
291.141	299.5
291.371	308.5
291.602	302.5
291.833	294.5
292.064	305.5
292.295	296.5
292.526	295.5
292.757	292.5
292.987	303.5
293.218	300.5
293.449	309.5
293.68	293.5
293.91	285.5
294.141	298.5
294.372	298.5
294.603	289.5
294.833	293.5
295.064	279.5
295.295	299.5
295.525	308.5
295.756	305.5
295.987	320.5
296.217	336.5
296.448	343.5
296.679	315.5
296.909	299.5
297.14	285.5
297.37	295.5
297.601	294.5
297.831	299.5
298.062	287.5
298.292	302.5
298.523	308.5
298.753	311.5
298.984	307.5
299.214	295.5
299.445	307.5
299.675	303.5
299.905	315.5
300.136	312.5
300.366	307.5
300.597	314.5
300.827	333.5
301.057	320.5
301.288	320.5
301.518	323.5
301.748	313.5
301.979	331.5
302.209	334.5
302.439	319.5
302.669	337.5
302.9	315.5
303.13	342.5
303.36	333.5
303.59	325.5
303.82	349.5
304.051	344.5
304.281	335.5
304.511	320.5
304.741	315.5
304.971	317.5
305.201	313.5
305.431	318.5
305.661	312.5
305.891	332.5
306.121	321.5
306.352	340.5
306.582	352.5
306.812	332.5
307.042	319.5
307.272	322.5
307.502	345.5
307.731	350.5
307.961	340.5
308.191	349.5
308.421	336.5
308.651	325.5
308.881	329.5
309.111	327.5
309.341	348.5
309.571	352.5
309.8	348.5
310.03	373.5
310.26	391.5
310.49	362.5
310.72	391.5
310.949	408.5
311.179	410.5
311.409	405.5
311.639	393.5
311.868	380.5
312.098	374.5
312.328	375.5
312.557	382.5
312.787	412.5
313.017	425.5
313.246	399.5
313.476	372.5
313.706	368.5
313.935	387.5
314.165	401.5
314.394	422.5
314.624	397.5
314.853	388.5
315.083	400.5
315.312	393.5
315.542	392.5
315.771	382.5
316.001	372.5
316.23	366.5
316.46	371.5
316.689	371.5
316.919	391.5
317.148	387.5
317.377	401.5
317.607	405.5
317.836	398.5
318.065	388.5
318.295	390.5
318.524	371.5
318.753	383.5
318.983	401.5
319.212	389.5
319.441	400.5
319.67	408.5
319.9	394.5
320.129	395.5
320.358	366.5
320.587	397.5
320.816	393.5
321.046	412.5
321.275	387.5
321.504	403.5
321.733	420.5
321.962	412.5
322.191	459.5
322.42	451.5
322.649	473.5
322.878	473.5
323.108	476.5
323.337	523.5
323.566	539.5
323.795	576.5
324.024	622.5
324.253	756.5
324.482	1108.5
324.71	1648.5
324.939	2353.5
325.168	2081.5
325.397	1097.5
325.626	757.5
325.855	649.5
326.084	583.5
326.313	554.5
326.542	560.5
326.77	605.5
326.999	726.5
327.228	1015.5
327.457	1445.5
327.686	1808.5
327.914	1289.5
328.143	876.5
328.372	813.5
328.6	745.5
328.829	689.5
329.058	689.5
329.287	667.5
329.515	669.5
329.744	617.5
329.972	691.5
330.201	773.5
330.43	877.5
330.658	859.5
330.887	757.5
331.115	677.5
331.344	627.5
331.572	553.5
331.801	567.5
332.03	567.5
332.258	511.5
332.486	508.5
332.715	505.5
332.943	499.5
333.172	510.5
333.4	538.5
333.629	567.5
333.857	595.5
334.085	656.5
334.314	740.5
334.542	895.5
334.771	955.5
334.999	755.5
335.227	599.5
335.455	542.5
335.684	533.5
335.912	501.5
336.14	463.5
336.369	461.5
336.597	457.5
336.825	486.5
337.053	454.5
337.281	464.5
337.51	461.5
337.738	455.5
337.966	474.5
338.194	447.5
338.422	439.5
338.65	443.5
338.878	441.5
339.106	409.5
339.334	426.5
339.562	424.5
339.79	412.5
340.018	426.5
340.246	434.5
340.474	436.5
340.702	454.5
340.93	415.5
341.158	435.5
341.386	424.5
341.614	438.5
341.842	428.5
342.07	435.5
342.298	404.5
342.526	405.5
342.754	419.5
342.981	414.5
343.209	402.5
343.437	426.5
343.665	416.5
343.893	415.5
344.12	425.5
344.348	421.5
344.576	430.5
344.804	423.5
345.031	439.5
345.259	451.5
345.487	447.5
345.714	409.5
345.942	419.5
346.17	407.5
346.397	405.5
346.625	394.5
346.853	412.5
347.08	425.5
347.308	421.5
347.535	397.5
347.763	428.5
347.99	419.5
348.218	439.5
348.445	420.5
348.673	422.5
348.9	421.5
349.128	407.5
349.355	377.5
349.583	404.5
349.81	411.5
350.037	391.5
350.265	415.5
350.492	389.5
350.72	384.5
350.947	394.5
351.174	409.5
351.402	415.5
351.629	409.5
351.856	409.5
352.083	437.5
352.311	441.5
352.538	440.5
352.765	421.5
352.992	413.5
353.22	406.5
353.447	413.5
353.674	415.5
353.901	397.5
354.128	385.5
354.355	394.5
354.583	374.5
354.81	385.5
355.037	405.5
355.264	376.5
355.491	365.5
355.718	377.5
355.945	376.5
356.172	367.5
356.399	379.5
356.626	373.5
356.853	354.5
357.08	377.5
357.307	375.5
357.534	399.5
357.761	400.5
357.988	383.5
358.215	394.5
358.441	375.5
358.668	370.5
358.895	375.5
359.122	391.5
359.349	398.5
359.576	414.5
359.802	428.5
360.029	468.5
360.256	481.5
360.483	459.5
360.709	400.5
360.936	410.5
361.163	413.5
361.39	419.5
361.616	400.5
361.843	390.5
362.07	384.5
362.296	413.5
362.523	414.5
362.749	392.5
362.976	421.5
363.203	417.5
363.429	395.5
363.656	396.5
363.882	392.5
364.109	389.5
364.335	384.5
364.562	383.5
364.788	369.5
365.015	399.5
365.241	381.5
365.468	385.5
365.694	378.5
365.92	395.5
366.147	395.5
366.373	364.5
366.599	371.5
366.826	387.5
367.052	381.5
367.278	396.5
367.505	375.5
367.731	391.5
367.957	376.5
368.184	385.5
368.41	377.5
368.636	398.5
368.862	412.5
369.089	368.5
369.315	379.5
369.541	379.5
369.767	375.5
369.993	395.5
370.219	377.5
370.445	381.5
370.672	368.5
370.898	355.5
371.124	381.5
371.35	367.5
371.576	376.5
371.802	379.5
372.028	379.5
372.254	372.5
372.48	359.5
372.706	367.5
372.932	383.5
373.158	375.5
373.384	371.5
373.61	384.5
373.835	382.5
374.061	384.5
374.287	406.5
374.513	367.5
374.739	375.5
374.965	371.5
375.191	382.5
375.416	364.5
375.642	375.5
375.868	381.5
376.094	360.5
376.319	359.5
376.545	359.5
376.771	374.5
376.997	359.5
377.222	373.5
377.448	381.5
377.674	362.5
377.899	373.5
378.125	389.5
378.35	388.5
378.576	375.5
378.802	379.5
379.027	366.5
379.253	383.5
379.478	360.5
379.704	369.5
379.929	366.5
380.155	369.5
380.38	365.5
380.606	375.5
380.831	350.5
381.057	379.5
381.282	371.5
381.507	385.5
381.733	374.5
381.958	383.5
382.184	364.5
382.409	373.5
382.634	376.5
382.86	388.5
383.085	372.5
383.31	380.5
383.535	378.5
383.761	375.5
383.986	385.5
384.211	393.5
384.436	413.5
384.662	396.5
384.887	371.5
385.112	377.5
385.337	386.5
385.562	379.5
385.787	384.5
386.013	420.5
386.238	410.5
386.463	380.5
386.688	399.5
386.913	379.5
387.138	394.5
387.363	389.5
387.588	380.5
387.813	383.5
388.038	382.5
388.263	387.5
388.488	379.5
388.713	372.5
388.938	382.5
389.163	404.5
389.387	385.5
389.612	387.5
389.837	379.5
390.062	385.5
390.287	392.5
390.512	388.5
390.736	376.5
390.961	385.5
391.186	396.5
391.411	386.5
391.636	382.5
391.86	395.5
392.085	397.5
392.31	392.5
392.534	384.5
392.759	382.5
392.984	405.5
393.208	390.5
393.433	381.5
393.658	375.5
393.882	391.5
394.107	377.5
394.331	358.5
394.556	370.5
394.78	388.5
395.005	382.5
395.229	386.5
395.454	380.5
395.678	403.5
395.903	396.5
396.127	429.5
396.352	427.5
396.576	417.5
396.801	412.5
397.025	400.5
397.249	406.5
397.474	427.5
397.698	396.5
397.922	431.5
398.147	459.5
398.371	430.5
398.595	425.5
398.82	414.5
399.044	417.5
399.268	444.5
399.492	431.5
399.717	469.5
399.941	488.5
400.165	519.5
400.389	551.5
400.613	517.5
400.837	455.5
401.062	446.5
401.286	457.5
401.51	451.5
401.734	427.5
401.958	451.5
402.182	428.5
402.406	454.5
402.63	459.5
402.854	444.5
403.078	441.5
403.302	457.5
403.526	448.5
403.75	472.5
403.974	459.5
404.198	450.5
404.422	458.5
404.645	507.5
404.869	523.5
405.093	568.5
405.317	614.5
405.541	642.5
405.765	556.5
405.988	528.5
406.212	521.5
406.436	545.5
406.66	525.5
406.883	499.5
407.107	531.5
407.331	542.5
407.555	616.5
407.778	595.5
408.002	546.5
408.226	507.5
408.449	504.5
408.673	496.5
408.896	519.5
409.12	564.5
409.344	537.5
409.567	479.5
409.791	474.5
410.014	462.5
410.238	456.5
410.461	457.5
410.685	451.5
410.908	463.5
411.132	517.5
411.355	544.5
411.578	528.5
411.802	497.5
412.025	492.5
412.249	493.5
412.472	553.5
412.695	605.5
412.919	590.5
413.142	574.5
413.365	505.5
413.589	471.5
413.812	491.5
414.035	469.5
414.258	467.5
414.482	454.5
414.705	444.5
414.928	448.5
415.151	443.5
415.374	438.5
415.597	439.5
415.821	452.5
416.044	455.5
416.267	441.5
416.49	425.5
416.713	439.5
416.936	429.5
417.159	448.5
417.382	438.5
417.605	488.5
417.828	475.5
418.051	503.5
418.274	477.5
418.497	445.5
418.72	465.5
418.943	439.5
419.166	449.5
419.389	503.5
419.611	506.5
419.834	490.5
420.057	479.5
420.28	495.5
420.503	521.5
420.726	517.5
420.948	511.5
421.171	574.5
421.394	558.5
421.617	508.5
421.839	473.5
422.062	467.5
422.285	488.5
422.507	534.5
422.73	620.5
422.953	588.5
423.175	513.5
423.398	511.5
423.621	487.5
423.843	484.5
424.066	504.5
424.288	504.5
424.511	527.5
424.733	557.5
424.956	664.5
425.178	604.5
425.401	634.5
425.623	652.5
425.846	560.5
426.068	521.5
426.291	513.5
426.513	507.5
426.735	541.5
426.958	559.5
427.18	628.5
427.402	762.5
427.625	823.5
427.847	759.5
428.069	709.5
428.292	620.5
428.514	553.5
428.736	505.5
428.958	532.5
429.181	479.5
429.403	468.5
429.625	492.5
429.847	519.5
430.069	591.5
430.292	577.5
430.514	489.5
430.736	467.5
430.958	468.5
431.18	456.5
431.402	442.5
431.624	441.5
431.846	449.5
432.068	441.5
432.29	423.5
432.512	432.5
432.734	439.5
432.956	423.5
433.178	459.5
433.4	466.5
433.622	461.5
433.844	427.5
434.066	432.5
434.287	433.5
434.509	438.5
434.731	446.5
434.953	451.5
435.175	454.5
435.397	498.5
435.618	508.5
435.84	557.5
436.062	616.5
436.284	712.5
436.505	597.5
436.727	515.5
436.949	472.5
437.17	479.5
437.392	456.5
437.614	476.5
437.835	519.5
438.057	616.5
438.278	721.5
438.5	711.5
438.721	759.5
438.943	782.5
439.165	591.5
439.386	552.5
439.608	533.5
439.829	500.5
440.05	552.5
440.272	566.5
440.493	556.5
440.715	484.5
440.936	475.5
441.158	484.5
441.379	472.5
441.6	487.5
441.822	497.5
442.043	540.5
442.264	621.5
442.486	667.5
442.707	565.5
442.928	555.5
443.149	535.5
443.371	563.5
443.592	567.5
443.813	669.5
444.034	744.5
444.255	606.5
444.476	551.5
444.698	510.5
444.919	496.5
445.14	604.5
445.361	556.5
445.582	552.5
445.803	600.5
446.024	704.5
446.245	740.5
446.466	685.5
446.687	572.5
446.908	525.5
447.129	480.5
447.35	460.5
447.571	488.5
447.792	465.5
448.013	479.5
448.234	504.5
448.455	563.5
448.675	647.5
448.896	755.5
449.117	653.5
449.338	625.5
449.559	705.5
449.779	785.5
450	640.5
450.221	524.5
450.442	469.5
450.662	495.5
450.883	493.5
451.104	484.5
451.324	486.5
451.545	427.5
451.766	436.5
451.986	435.5
452.207	428.5
452.428	411.5
452.648	429.5
452.869	437.5
453.089	417.5
453.31	439.5
453.53	425.5
453.751	427.5
453.971	429.5
454.192	462.5
454.412	452.5
454.633	418.5
454.853	458.5
455.073	430.5
455.294	455.5
455.514	512.5
455.734	519.5
455.955	436.5
456.175	432.5
456.395	410.5
456.616	414.5
456.836	398.5
457.056	406.5
457.276	402.5
457.497	398.5
457.717	409.5
457.937	401.5
458.157	395.5
458.377	399.5
458.598	430.5
458.818	491.5
459.038	552.5
459.258	584.5
459.478	527.5
459.698	439.5
459.918	425.5
460.138	424.5
460.358	451.5
460.578	435.5
460.798	430.5
461.018	425.5
461.238	414.5
461.458	421.5
461.678	430.5
461.898	428.5
462.118	435.5
462.338	415.5
462.558	454.5
462.777	435.5
462.997	467.5
463.217	445.5
463.437	453.5
463.657	436.5
463.876	447.5
464.096	472.5
464.316	439.5
464.536	485.5
464.755	471.5
464.975	460.5
465.195	531.5
465.414	600.5
465.634	521.5
465.854	489.5
466.073	449.5
466.293	431.5
466.512	413.5
466.732	420.5
466.951	432.5
467.171	417.5
467.391	433.5
467.61	421.5
467.829	468.5
468.049	494.5
468.268	537.5
468.488	489.5
468.707	446.5
468.927	437.5
469.146	425.5
469.365	428.5
469.585	441.5
469.804	447.5
470.023	456.5
470.243	445.5
470.462	452.5
470.681	467.5
470.901	476.5
471.12	440.5
471.339	467.5
471.558	456.5
471.777	452.5
471.997	475.5
472.216	523.5
472.435	698.5
472.654	647.5
472.873	519.5
473.092	472.5
473.311	470.5
473.53	465.5
473.749	457.5
473.968	496.5
474.187	628.5
474.406	619.5
474.625	493.5
474.844	470.5
475.063	468.5
475.282	451.5
475.501	472.5
475.72	462.5
475.939	466.5
476.158	469.5
476.377	455.5
476.596	474.5
476.814	459.5
477.033	459.5
477.252	452.5
477.471	451.5
477.69	492.5
477.908	479.5
478.127	499.5
478.346	495.5
478.564	502.5
478.783	509.5
479.002	503.5
479.22	489.5
479.439	497.5
479.658	538.5
479.876	516.5
480.095	547.5
480.313	582.5
480.532	567.5
480.751	572.5
480.969	612.5
481.188	883.5
481.406	1129.5
481.624	819.5
481.843	679.5
482.061	631.5
482.28	599.5
482.498	569.5
482.717	563.5
482.935	580.5
483.153	555.5
483.372	559.5
483.59	549.5
483.808	529.5
484.027	544.5
484.245	541.5
484.463	539.5
484.681	560.5
484.9	559.5
485.118	539.5
485.336	542.5
485.554	571.5
485.772	555.5
485.99	537.5
486.209	560.5
486.427	552.5
486.645	576.5
486.863	585.5
487.081	595.5
487.299	571.5
487.517	585.5
487.735	582.5
487.953	582.5
488.171	593.5
488.389	576.5
488.607	576.5
488.825	598.5
489.043	605.5
489.261	579.5
489.479	588.5
489.696	589.5
489.914	580.5
490.132	624.5
490.35	625.5
490.568	615.5
490.786	645.5
491.003	635.5
491.221	668.5
491.439	671.5
491.657	673.5
491.874	723.5
492.092	703.5
492.31	696.5
492.527	695.5
492.745	713.5
492.963	737.5
493.18	723.5
493.398	717.5
493.615	717.5
493.833	705.5
494.05	703.5
494.268	733.5
494.485	719.5
494.703	714.5
494.92	707.5
495.138	722.5
495.355	706.5
495.573	706.5
495.79	701.5
496.008	697.5
496.225	693.5
496.442	686.5
496.66	695.5
496.877	679.5
497.094	721.5
497.312	698.5
497.529	715.5
497.746	713.5
497.963	717.5
498.181	751.5
498.398	729.5
498.615	723.5
498.832	720.5
499.049	734.5
499.267	772.5
499.484	799.5
499.701	779.5
499.918	789.5
500.135	793.5
500.352	823.5
500.569	869.5
500.786	835.5
501.003	853.5
501.22	839.5
501.437	828.5
501.654	825.5
501.871	826.5
502.088	804.5
502.305	765.5
502.522	756.5
502.739	720.5
502.956	720.5
503.172	699.5
503.389	685.5
503.606	676.5
503.823	701.5
504.04	697.5
504.256	688.5
504.473	690.5
504.69	658.5
504.907	662.5
505.123	655.5
505.34	627.5
505.557	657.5
505.773	657.5
505.99	658.5
506.207	635.5
506.423	661.5
506.64	645.5
506.856	658.5
507.073	639.5
507.289	642.5
507.506	624.5
507.722	655.5
507.939	657.5
508.155	673.5
508.372	640.5
508.588	623.5
508.805	640.5
509.021	607.5
509.238	647.5
509.454	631.5
509.67	617.5
509.887	623.5
510.103	637.5
510.319	650.5
510.536	739.5
510.752	1225.5
510.968	1012.5
511.184	665.5
511.401	622.5
511.617	617.5
511.833	629.5
512.049	654.5
512.265	643.5
512.481	641.5
512.698	632.5
512.914	635.5
513.13	619.5
513.346	614.5
513.562	597.5
513.778	594.5
513.994	617.5
514.21	653.5
514.426	641.5
514.642	681.5
514.858	708.5
515.074	769.5
515.29	905.5
515.506	1331.5
515.721	1098.5
515.937	741.5
516.153	658.5
516.369	645.5
516.585	635.5
516.801	613.5
517.016	605.5
517.232	597.5
517.448	607.5
517.664	587.5
517.879	573.5
518.095	589.5
518.311	589.5
518.527	583.5
518.742	588.5
518.958	569.5
519.173	598.5
519.389	586.5
519.605	595.5
519.82	591.5
