Data from 1986.PennyLincolnUp.Lamp.En5.5.200Scan.071819.P2_HRD10591_17-12-26-973.txt Node
Date: Thu Jul 18 17:12:26 EDT 2019
User: cochatt
Spectrometer: HR+D1059
Trigger mode: 1
Integration Time (sec): 1.000000E-1
Scans to average: 1
Electric dark correction enabled: true
Nonlinearity correction enabled: false
Boxcar width: 0
XAxis mode: Wavelengths
Number of Pixels in Spectrum: 2048
>>>>>Begin Spectral Data<<<<<
223.165	-18.38
223.4	-18.38
223.635	-18.38
223.869	-15.38
224.104	-17.38
224.338	-11.38
224.573	-16.38
224.808	-11.38
225.042	1.62
225.277	-22.38
225.511	-1.38
225.746	7.62
225.98	2.62
226.215	2.62
226.449	17.62
226.683	30.62
226.918	23.62
227.152	27.62
227.387	27.62
227.621	45.62
227.856	34.62
228.09	49.62
228.324	52.62
228.559	58.62
228.793	60.62
229.027	97.62
229.262	106.62
229.496	111.62
229.73	126.62
229.964	172.62
230.199	127.62
230.433	114.62
230.667	112.62
230.901	106.62
231.136	117.62
231.37	108.62
231.604	123.62
231.838	118.62
232.072	109.62
232.306	107.62
232.541	103.62
232.775	116.62
233.009	116.62
233.243	106.62
233.477	122.62
233.711	122.62
233.945	125.62
234.179	123.62
234.413	128.62
234.647	114.62
234.881	114.62
235.115	113.62
235.349	104.62
235.583	125.62
235.817	123.62
236.051	117.62
236.285	122.62
236.519	138.62
236.753	135.62
236.987	154.62
237.221	199.62
237.455	253.62
237.689	192.62
237.922	148.62
238.156	136.62
238.39	126.62
238.624	126.62
238.858	134.62
239.091	131.62
239.325	131.62
239.559	124.62
239.793	133.62
240.027	138.62
240.26	154.62
240.494	177.62
240.728	152.62
240.961	151.62
241.195	154.62
241.429	150.62
241.662	164.62
241.896	134.62
242.13	137.62
242.363	140.62
242.597	161.62
242.83	148.62
243.064	138.62
243.298	138.62
243.531	129.62
243.765	147.62
243.998	142.62
244.232	141.62
244.465	153.62
244.699	154.62
244.932	166.62
245.166	155.62
245.399	163.62
245.633	163.62
245.866	153.62
246.099	154.62
246.333	153.62
246.566	155.62
246.8	173.62
247.033	173.62
247.266	163.62
247.5	188.62
247.733	185.62
247.966	193.62
248.2	176.62
248.433	182.62
248.666	189.62
248.899	195.62
249.133	219.62
249.366	221.62
249.599	228.62
249.832	212.62
250.066	198.62
250.299	190.62
250.532	243.62
250.765	262.62
250.998	284.62
251.231	264.62
251.465	262.62
251.698	241.62
251.931	245.62
252.164	230.62
252.397	228.62
252.63	225.62
252.863	256.62
253.096	241.62
253.329	250.62
253.562	261.62
253.795	240.62
254.028	237.62
254.261	238.62
254.494	246.62
254.727	281.62
254.96	304.62
255.193	318.62
255.426	293.62
255.659	313.62
255.892	316.62
256.124	349.62
256.357	381.62
256.59	354.62
256.823	320.62
257.056	289.62
257.289	268.62
257.521	281.62
257.754	267.62
257.987	253.62
258.22	249.62
258.452	258.62
258.685	231.62
258.918	244.62
259.151	240.62
259.383	243.62
259.616	266.62
259.849	246.62
260.081	251.62
260.314	267.62
260.547	262.62
260.779	273.62
261.012	252.62
261.244	260.62
261.477	252.62
261.71	242.62
261.942	251.62
262.175	245.62
262.407	249.62
262.64	257.62
262.872	228.62
263.105	235.62
263.337	237.62
263.57	219.62
263.802	240.62
264.035	225.62
264.267	233.62
264.499	225.62
264.732	226.62
264.964	243.62
265.197	224.62
265.429	234.62
265.661	219.62
265.894	222.62
266.126	226.62
266.358	214.62
266.591	226.62
266.823	239.62
267.055	229.62
267.287	230.62
267.52	235.62
267.752	240.62
267.984	237.62
268.216	247.62
268.448	232.62
268.681	242.62
268.913	261.62
269.145	280.62
269.377	285.62
269.609	286.62
269.841	285.62
270.073	282.62
270.306	318.62
270.538	347.62
270.77	338.62
271.002	326.62
271.234	318.62
271.466	311.62
271.698	328.62
271.93	345.62
272.162	351.62
272.394	328.62
272.626	326.62
272.858	317.62
273.09	313.62
273.322	312.62
273.553	282.62
273.785	277.62
274.017	274.62
274.249	284.62
274.481	282.62
274.713	288.62
274.945	288.62
275.176	288.62
275.408	285.62
275.64	282.62
275.872	278.62
276.104	297.62
276.335	283.62
276.567	292.62
276.799	315.62
277.031	346.62
277.262	339.62
277.494	356.62
277.726	323.62
277.957	305.62
278.189	317.62
278.421	312.62
278.652	298.62
278.884	294.62
279.115	304.62
279.347	275.62
279.579	282.62
279.81	281.62
280.042	283.62
280.273	307.62
280.505	288.62
280.736	283.62
280.968	293.62
281.199	263.62
281.431	293.62
281.662	280.62
281.894	278.62
282.125	273.62
282.356	314.62
282.588	327.62
282.819	322.62
283.051	297.62
283.282	279.62
283.513	291.62
283.745	268.62
283.976	306.62
284.207	277.62
284.439	288.62
284.67	285.62
284.901	299.62
285.132	286.62
285.364	289.62
285.595	271.62
285.826	286.62
286.057	278.62
286.288	301.62
286.52	276.62
286.751	291.62
286.982	290.62
287.213	300.62
287.444	293.62
287.675	301.62
287.906	307.62
288.138	299.62
288.369	309.62
288.6	311.62
288.831	298.62
289.062	303.62
289.293	302.62
289.524	292.62
289.755	287.62
289.986	323.62
290.217	300.62
290.448	322.62
290.679	301.62
290.91	284.62
291.141	294.62
291.371	285.62
291.602	274.62
291.833	281.62
292.064	310.62
292.295	292.62
292.526	294.62
292.757	289.62
292.987	281.62
293.218	282.62
293.449	293.62
293.68	281.62
293.91	295.62
294.141	295.62
294.372	302.62
294.603	278.62
294.833	289.62
295.064	284.62
295.295	306.62
295.525	301.62
295.756	307.62
295.987	309.62
296.217	319.62
296.448	341.62
296.679	312.62
296.909	274.62
297.14	312.62
297.37	290.62
297.601	304.62
297.831	308.62
298.062	289.62
298.292	307.62
298.523	304.62
298.753	291.62
298.984	294.62
299.214	311.62
299.445	304.62
299.675	298.62
299.905	316.62
300.136	301.62
300.366	318.62
300.597	300.62
300.827	294.62
301.057	308.62
301.288	323.62
301.518	333.62
301.748	338.62
301.979	332.62
302.209	332.62
302.439	323.62
302.669	346.62
302.9	318.62
303.13	321.62
303.36	344.62
303.59	350.62
303.82	343.62
304.051	344.62
304.281	331.62
304.511	328.62
304.741	336.62
304.971	314.62
305.201	330.62
305.431	328.62
305.661	332.62
305.891	339.62
306.121	320.62
306.352	327.62
306.582	334.62
306.812	307.62
307.042	312.62
307.272	324.62
307.502	343.62
307.731	362.62
307.961	353.62
308.191	340.62
308.421	340.62
308.651	340.62
308.881	339.62
309.111	369.62
309.341	340.62
309.571	357.62
309.8	370.62
310.03	376.62
310.26	384.62
310.49	381.62
310.72	378.62
310.949	434.62
311.179	410.62
311.409	398.62
311.639	402.62
311.868	393.62
312.098	386.62
312.328	387.62
312.557	408.62
312.787	429.62
313.017	429.62
313.246	411.62
313.476	379.62
313.706	392.62
313.935	375.62
314.165	404.62
314.394	420.62
314.624	402.62
314.853	386.62
315.083	403.62
315.312	382.62
315.542	376.62
315.771	363.62
316.001	366.62
316.23	380.62
316.46	384.62
316.689	357.62
316.919	407.62
317.148	372.62
317.377	395.62
317.607	401.62
317.836	399.62
318.065	390.62
318.295	388.62
318.524	399.62
318.753	364.62
318.983	369.62
319.212	390.62
319.441	410.62
319.67	408.62
319.9	388.62
320.129	379.62
320.358	401.62
320.587	403.62
320.816	429.62
321.046	398.62
321.275	416.62
321.504	414.62
321.733	410.62
321.962	411.62
322.191	448.62
322.42	463.62
322.649	465.62
322.878	495.62
323.108	492.62
323.337	522.62
323.566	544.62
323.795	586.62
324.024	638.62
324.253	782.62
324.482	1111.62
324.71	1696.62
324.939	2480.62
325.168	2164.62
325.397	1166.62
325.626	761.62
325.855	629.62
326.084	576.62
326.313	553.62
326.542	566.62
326.77	620.62
326.999	752.62
327.228	1005.62
327.457	1525.62
327.686	1864.62
327.914	1307.62
328.143	939.62
328.372	847.62
328.6	782.62
328.829	690.62
329.058	733.62
329.287	702.62
329.515	697.62
329.744	672.62
329.972	698.62
330.201	800.62
330.43	908.62
330.658	877.62
330.887	786.62
331.115	720.62
331.344	610.62
331.572	600.62
331.801	586.62
332.03	568.62
332.258	530.62
332.486	516.62
332.715	518.62
332.943	489.62
333.172	518.62
333.4	524.62
333.629	578.62
333.857	617.62
334.085	682.62
334.314	822.62
334.542	944.62
334.771	1033.62
334.999	794.62
335.227	648.62
335.455	588.62
335.684	504.62
335.912	496.62
336.14	484.62
336.369	493.62
336.597	482.62
336.825	503.62
337.053	471.62
337.281	460.62
337.51	452.62
337.738	457.62
337.966	441.62
338.194	452.62
338.422	460.62
338.65	457.62
338.878	446.62
339.106	440.62
339.334	429.62
339.562	419.62
339.79	416.62
340.018	434.62
340.246	435.62
340.474	450.62
340.702	425.62
340.93	439.62
341.158	443.62
341.386	420.62
341.614	430.62
341.842	434.62
342.07	421.62
342.298	421.62
342.526	418.62
342.754	410.62
342.981	404.62
343.209	403.62
343.437	420.62
343.665	403.62
343.893	413.62
344.12	403.62
344.348	434.62
344.576	429.62
344.804	416.62
345.031	436.62
345.259	465.62
345.487	429.62
345.714	427.62
345.942	420.62
346.17	408.62
346.397	398.62
346.625	413.62
346.853	413.62
347.08	409.62
347.308	425.62
347.535	411.62
347.763	419.62
347.99	426.62
348.218	417.62
348.445	426.62
348.673	420.62
348.9	419.62
349.128	409.62
349.355	397.62
349.583	413.62
349.81	401.62
350.037	404.62
350.265	383.62
350.492	416.62
350.72	411.62
350.947	420.62
351.174	398.62
351.402	422.62
351.629	419.62
351.856	429.62
352.083	425.62
352.311	403.62
352.538	420.62
352.765	421.62
352.992	427.62
353.22	413.62
353.447	422.62
353.674	406.62
353.901	416.62
354.128	379.62
354.355	408.62
354.583	395.62
354.81	394.62
355.037	387.62
355.264	381.62
355.491	357.62
355.718	368.62
355.945	368.62
356.172	359.62
356.399	375.62
356.626	366.62
356.853	370.62
357.08	384.62
357.307	388.62
357.534	390.62
357.761	385.62
357.988	380.62
358.215	377.62
358.441	385.62
358.668	372.62
358.895	370.62
359.122	414.62
359.349	403.62
359.576	389.62
359.802	417.62
360.029	457.62
360.256	464.62
360.483	458.62
360.709	413.62
360.936	409.62
361.163	428.62
361.39	432.62
361.616	413.62
361.843	393.62
362.07	416.62
362.296	381.62
362.523	409.62
362.749	414.62
362.976	394.62
363.203	376.62
363.429	383.62
363.656	386.62
363.882	386.62
364.109	403.62
364.335	382.62
364.562	376.62
364.788	381.62
365.015	378.62
365.241	390.62
365.468	396.62
365.694	398.62
365.92	377.62
366.147	382.62
366.373	398.62
366.599	391.62
366.826	370.62
367.052	381.62
367.278	389.62
367.505	381.62
367.731	368.62
367.957	399.62
368.184	393.62
368.41	384.62
368.636	396.62
368.862	400.62
369.089	395.62
369.315	392.62
369.541	373.62
369.767	380.62
369.993	392.62
370.219	398.62
370.445	374.62
370.672	380.62
370.898	382.62
371.124	379.62
371.35	373.62
371.576	374.62
371.802	373.62
372.028	401.62
372.254	363.62
372.48	354.62
372.706	389.62
372.932	374.62
373.158	382.62
373.384	375.62
373.61	357.62
373.835	378.62
374.061	398.62
374.287	369.62
374.513	371.62
374.739	378.62
374.965	371.62
375.191	379.62
375.416	368.62
375.642	363.62
375.868	365.62
376.094	357.62
376.319	369.62
376.545	381.62
376.771	382.62
376.997	381.62
377.222	383.62
377.448	384.62
377.674	364.62
377.899	370.62
378.125	370.62
378.35	362.62
378.576	346.62
378.802	348.62
379.027	373.62
379.253	372.62
379.478	354.62
379.704	365.62
379.929	379.62
380.155	366.62
380.38	378.62
380.606	366.62
380.831	380.62
381.057	383.62
381.282	361.62
381.507	358.62
381.733	378.62
381.958	356.62
382.184	382.62
382.409	366.62
382.634	386.62
382.86	372.62
383.085	386.62
383.31	370.62
383.535	375.62
383.761	370.62
383.986	374.62
384.211	360.62
384.436	355.62
384.662	371.62
384.887	380.62
385.112	378.62
385.337	370.62
385.562	381.62
385.787	377.62
386.013	397.62
386.238	388.62
386.463	384.62
386.688	375.62
386.913	374.62
387.138	377.62
387.363	369.62
387.588	389.62
387.813	380.62
388.038	376.62
388.263	400.62
388.488	374.62
388.713	399.62
388.938	373.62
389.163	387.62
389.387	391.62
389.612	390.62
389.837	382.62
390.062	385.62
390.287	372.62
390.512	384.62
390.736	386.62
390.961	391.62
391.186	392.62
391.411	397.62
391.636	389.62
391.86	381.62
392.085	385.62
392.31	381.62
392.534	400.62
392.759	392.62
392.984	388.62
393.208	389.62
393.433	380.62
393.658	371.62
393.882	386.62
394.107	392.62
394.331	382.62
394.556	381.62
394.78	380.62
395.005	383.62
395.229	390.62
395.454	409.62
395.678	380.62
395.903	408.62
396.127	457.62
396.352	425.62
396.576	406.62
396.801	413.62
397.025	386.62
397.249	385.62
397.474	396.62
397.698	411.62
397.922	422.62
398.147	405.62
398.371	422.62
398.595	421.62
398.82	411.62
399.044	420.62
399.268	408.62
399.492	434.62
399.717	457.62
399.941	470.62
400.165	495.62
400.389	527.62
400.613	497.62
400.837	470.62
401.062	437.62
401.286	410.62
401.51	440.62
401.734	430.62
401.958	420.62
402.182	459.62
402.406	441.62
402.63	460.62
402.854	461.62
403.078	454.62
403.302	441.62
403.526	446.62
403.75	435.62
403.974	470.62
404.198	469.62
404.422	494.62
404.645	476.62
404.869	515.62
405.093	554.62
405.317	620.62
405.541	614.62
405.765	582.62
405.988	518.62
406.212	522.62
406.436	518.62
406.66	540.62
406.883	500.62
407.107	520.62
407.331	561.62
407.555	610.62
407.778	603.62
408.002	563.62
408.226	496.62
408.449	499.62
408.673	517.62
408.896	548.62
409.12	572.62
409.344	552.62
409.567	504.62
409.791	462.62
410.014	461.62
410.238	442.62
410.461	448.62
410.685	466.62
410.908	487.62
411.132	500.62
411.355	556.62
411.578	532.62
411.802	484.62
412.025	492.62
412.249	513.62
412.472	561.62
412.695	624.62
412.919	603.62
413.142	542.62
413.365	531.62
413.589	511.62
413.812	493.62
414.035	480.62
414.258	463.62
414.482	458.62
414.705	447.62
414.928	450.62
415.151	449.62
415.374	426.62
415.597	435.62
415.821	434.62
416.044	444.62
416.267	438.62
416.49	462.62
416.713	436.62
416.936	440.62
417.159	437.62
417.382	458.62
417.605	452.62
417.828	466.62
418.051	482.62
418.274	453.62
418.497	450.62
418.72	454.62
418.943	432.62
419.166	464.62
419.389	488.62
419.611	461.62
419.834	478.62
420.057	493.62
420.28	536.62
420.503	538.62
420.726	491.62
420.948	527.62
421.171	525.62
421.394	580.62
421.617	488.62
421.839	478.62
422.062	468.62
422.285	482.62
422.507	549.62
422.73	589.62
422.953	588.62
423.175	519.62
423.398	478.62
423.621	481.62
423.843	468.62
424.066	492.62
424.288	500.62
424.511	523.62
424.733	565.62
424.956	646.62
425.178	624.62
425.401	613.62
425.623	647.62
425.846	576.62
426.068	523.62
426.291	506.62
426.513	490.62
426.735	508.62
426.958	566.62
427.18	634.62
427.402	758.62
427.625	850.62
427.847	800.62
428.069	717.62
428.292	630.62
428.514	556.62
428.736	508.62
428.958	493.62
429.181	474.62
429.403	497.62
429.625	485.62
429.847	517.62
430.069	584.62
430.292	580.62
430.514	501.62
430.736	470.62
430.958	451.62
431.18	460.62
431.402	440.62
431.624	421.62
431.846	424.62
432.068	424.62
432.29	429.62
432.512	440.62
432.734	449.62
432.956	458.62
433.178	455.62
433.4	459.62
433.622	451.62
433.844	423.62
434.066	436.62
434.287	450.62
434.509	423.62
434.731	427.62
434.953	453.62
435.175	462.62
435.397	476.62
435.618	491.62
435.84	537.62
436.062	652.62
436.284	690.62
436.505	593.62
436.727	518.62
436.949	489.62
437.17	483.62
437.392	486.62
437.614	497.62
437.835	527.62
438.057	600.62
438.278	716.62
438.5	709.62
438.721	765.62
438.943	758.62
439.165	588.62
439.386	519.62
439.608	509.62
439.829	534.62
440.05	578.62
440.272	618.62
440.493	565.62
440.715	524.62
440.936	489.62
441.158	476.62
441.379	452.62
441.6	490.62
441.822	475.62
442.043	560.62
442.264	624.62
442.486	679.62
442.707	592.62
442.928	504.62
443.149	531.62
443.371	541.62
443.592	585.62
443.813	678.62
444.034	710.62
444.255	585.62
444.476	514.62
444.698	511.62
444.919	510.62
445.14	582.62
445.361	566.62
445.582	548.62
445.803	599.62
446.024	721.62
446.245	741.62
446.466	678.62
446.687	573.62
446.908	515.62
447.129	488.62
447.35	474.62
447.571	468.62
447.792	476.62
448.013	462.62
448.234	498.62
448.455	554.62
448.675	659.62
448.896	754.62
449.117	650.62
449.338	629.62
449.559	724.62
449.779	790.62
450	651.62
450.221	529.62
450.442	488.62
450.662	477.62
450.883	497.62
451.104	500.62
451.324	471.62
451.545	467.62
451.766	437.62
451.986	423.62
452.207	408.62
452.428	413.62
452.648	426.62
452.869	413.62
453.089	436.62
453.31	461.62
453.53	433.62
453.751	435.62
453.971	436.62
454.192	460.62
454.412	462.62
454.633	424.62
454.853	430.62
455.073	437.62
455.294	458.62
455.514	537.62
455.734	500.62
455.955	436.62
456.175	412.62
456.395	378.62
456.616	411.62
456.836	401.62
457.056	388.62
457.276	393.62
457.497	397.62
457.717	406.62
457.937	422.62
458.157	417.62
458.377	422.62
458.598	423.62
458.818	485.62
459.038	563.62
459.258	596.62
459.478	515.62
459.698	468.62
459.918	431.62
460.138	420.62
460.358	410.62
460.578	427.62
460.798	434.62
461.018	414.62
461.238	427.62
461.458	424.62
461.678	426.62
461.898	443.62
462.118	420.62
462.338	410.62
462.558	462.62
462.777	424.62
462.997	440.62
463.217	457.62
463.437	421.62
463.657	458.62
463.876	451.62
464.096	438.62
464.316	442.62
464.536	442.62
464.755	448.62
464.975	456.62
465.195	496.62
465.414	585.62
465.634	531.62
465.854	470.62
466.073	484.62
466.293	438.62
466.512	432.62
466.732	433.62
466.951	422.62
467.171	417.62
467.391	439.62
467.61	433.62
467.829	455.62
468.049	462.62
468.268	514.62
468.488	496.62
468.707	431.62
468.927	446.62
469.146	438.62
469.365	416.62
469.585	413.62
469.804	434.62
470.023	453.62
470.243	438.62
470.462	471.62
470.681	457.62
470.901	440.62
471.12	453.62
471.339	468.62
471.558	467.62
471.777	447.62
471.997	445.62
472.216	532.62
472.435	734.62
472.654	663.62
472.873	551.62
473.092	509.62
473.311	484.62
473.53	474.62
473.749	493.62
473.968	507.62
474.187	624.62
474.406	669.62
474.625	538.62
474.844	478.62
475.063	458.62
475.282	449.62
475.501	477.62
475.72	461.62
475.939	464.62
476.158	474.62
476.377	461.62
476.596	458.62
476.814	469.62
477.033	452.62
477.252	488.62
477.471	503.62
477.69	461.62
477.908	484.62
478.127	489.62
478.346	474.62
478.564	472.62
478.783	485.62
479.002	492.62
479.22	519.62
479.439	543.62
479.658	518.62
479.876	553.62
480.095	534.62
480.313	584.62
480.532	576.62
480.751	576.62
480.969	642.62
481.188	921.62
481.406	1196.62
481.624	846.62
481.843	688.62
482.061	640.62
482.28	592.62
482.498	605.62
482.717	588.62
482.935	569.62
483.153	582.62
483.372	585.62
483.59	579.62
483.808	548.62
484.027	546.62
484.245	537.62
484.463	562.62
484.681	550.62
484.9	548.62
485.118	546.62
485.336	545.62
485.554	554.62
485.772	580.62
485.99	568.62
486.209	586.62
486.427	556.62
486.645	582.62
486.863	594.62
487.081	594.62
487.299	598.62
487.517	572.62
487.735	581.62
487.953	606.62
488.171	594.62
488.389	580.62
488.607	607.62
488.825	577.62
489.043	557.62
489.261	594.62
489.479	572.62
489.696	607.62
489.914	615.62
490.132	612.62
490.35	615.62
490.568	658.62
490.786	653.62
491.003	664.62
491.221	680.62
491.439	700.62
491.657	711.62
491.874	706.62
492.092	700.62
492.31	692.62
492.527	738.62
492.745	737.62
492.963	748.62
493.18	753.62
493.398	742.62
493.615	724.62
493.833	730.62
494.05	732.62
494.268	727.62
494.485	730.62
494.703	705.62
494.92	732.62
495.138	718.62
495.355	714.62
495.573	729.62
495.79	714.62
496.008	710.62
496.225	692.62
496.442	700.62
496.66	690.62
496.877	721.62
497.094	685.62
497.312	692.62
497.529	716.62
497.746	712.62
497.963	714.62
498.181	711.62
498.398	700.62
498.615	741.62
498.832	770.62
499.049	719.62
499.267	750.62
499.484	741.62
499.701	755.62
499.918	785.62
500.135	796.62
500.352	810.62
500.569	840.62
500.786	830.62
501.003	843.62
501.22	820.62
501.437	816.62
501.654	825.62
501.871	804.62
