Data from 1986.PennyLincolnUp.Lamp.En5.5.200Scan.071819.P1_HRD10591_17-08-15-973.txt Node
Date: Thu Jul 18 17:08:15 EDT 2019
User: cochatt
Spectrometer: HR+D1059
Trigger mode: 1
Integration Time (sec): 1.000000E-1
Scans to average: 1
Electric dark correction enabled: true
Nonlinearity correction enabled: false
Boxcar width: 0
XAxis mode: Wavelengths
Number of Pixels in Spectrum: 2048
>>>>>Begin Spectral Data<<<<<
223.165	-12.81
223.4	-12.81
223.635	-12.81
223.869	-21.81
224.104	-14.81
224.338	-11.81
224.573	-20.81
224.808	3.19
225.042	-18.81
225.277	-3.81
225.511	1.19
225.746	5.19
225.98	13.19
226.215	15.19
226.449	14.19
226.683	6.19
226.918	24.19
227.152	22.19
227.387	24.19
227.621	37.19
227.856	42.19
228.09	38.19
228.324	55.19
228.559	49.19
228.793	76.19
229.027	85.19
229.262	85.19
229.496	98.19
229.73	92.19
229.964	110.19
230.199	109.19
230.433	91.19
230.667	109.19
230.901	95.19
231.136	107.19
231.37	103.19
231.604	106.19
231.838	101.19
232.072	107.19
232.306	89.19
232.541	97.19
232.775	105.19
233.009	101.19
233.243	105.19
233.477	97.19
233.711	101.19
233.945	91.19
234.179	102.19
234.413	103.19
234.647	111.19
234.881	96.19
235.115	97.19
235.349	99.19
235.583	104.19
235.817	105.19
236.051	105.19
236.285	104.19
236.519	93.19
236.753	107.19
236.987	109.19
237.221	125.19
237.455	143.19
237.689	118.19
237.922	117.19
238.156	108.19
238.39	113.19
238.624	118.19
238.858	105.19
239.091	91.19
239.325	112.19
239.559	87.19
239.793	100.19
240.027	117.19
240.26	114.19
240.494	124.19
240.728	121.19
240.961	114.19
241.195	105.19
241.429	107.19
241.662	115.19
241.896	102.19
242.13	106.19
242.363	114.19
242.597	121.19
242.83	106.19
243.064	112.19
243.298	115.19
243.531	117.19
243.765	134.19
243.998	118.19
244.232	117.19
244.465	100.19
244.699	113.19
244.932	115.19
245.166	111.19
245.399	126.19
245.633	119.19
245.866	120.19
246.099	123.19
246.333	121.19
246.566	121.19
246.8	115.19
247.033	122.19
247.266	131.19
247.5	122.19
247.733	132.19
247.966	144.19
248.2	153.19
248.433	149.19
248.666	144.19
248.899	141.19
249.133	149.19
249.366	160.19
249.599	154.19
249.832	146.19
250.066	143.19
250.299	139.19
250.532	133.19
250.765	136.19
250.998	161.19
251.231	175.19
251.465	170.19
251.698	137.19
251.931	160.19
252.164	157.19
252.397	143.19
252.63	143.19
252.863	151.19
253.096	173.19
253.329	168.19
253.562	162.19
253.795	160.19
254.028	157.19
254.261	164.19
254.494	157.19
254.727	177.19
254.96	181.19
255.193	181.19
255.426	169.19
255.659	184.19
255.892	157.19
256.124	183.19
256.357	175.19
256.59	157.19
256.823	170.19
257.056	156.19
257.289	166.19
257.521	168.19
257.754	155.19
257.987	170.19
258.22	173.19
258.452	171.19
258.685	162.19
258.918	172.19
259.151	163.19
259.383	166.19
259.616	169.19
259.849	165.19
260.081	167.19
260.314	165.19
260.547	179.19
260.779	192.19
261.012	183.19
261.244	150.19
261.477	173.19
261.71	171.19
261.942	166.19
262.175	174.19
262.407	181.19
262.64	159.19
262.872	168.19
263.105	161.19
263.337	167.19
263.57	180.19
263.802	169.19
264.035	168.19
264.267	163.19
264.499	162.19
264.732	177.19
264.964	168.19
265.197	165.19
265.429	156.19
265.661	168.19
265.894	163.19
266.126	166.19
266.358	161.19
266.591	176.19
266.823	175.19
267.055	172.19
267.287	176.19
267.52	151.19
267.752	175.19
267.984	161.19
268.216	173.19
268.448	180.19
268.681	171.19
268.913	206.19
269.145	192.19
269.377	185.19
269.609	193.19
269.841	202.19
270.073	204.19
270.306	193.19
270.538	212.19
270.77	215.19
271.002	201.19
271.234	192.19
271.466	214.19
271.698	232.19
271.93	224.19
272.162	228.19
272.394	212.19
272.626	207.19
272.858	199.19
273.09	210.19
273.322	180.19
273.553	183.19
273.785	199.19
274.017	198.19
274.249	205.19
274.481	201.19
274.713	193.19
274.945	208.19
275.176	209.19
275.408	193.19
275.64	200.19
275.872	200.19
276.104	183.19
276.335	203.19
276.567	203.19
276.799	207.19
277.031	208.19
277.262	219.19
277.494	235.19
277.726	212.19
277.957	220.19
278.189	211.19
278.421	191.19
278.652	190.19
278.884	207.19
279.115	205.19
279.347	206.19
279.579	196.19
279.81	198.19
280.042	202.19
280.273	216.19
280.505	195.19
280.736	199.19
280.968	219.19
281.199	204.19
281.431	192.19
281.662	212.19
281.894	204.19
282.125	195.19
282.356	222.19
282.588	205.19
282.819	208.19
283.051	196.19
283.282	203.19
283.513	212.19
283.745	218.19
283.976	192.19
284.207	223.19
284.439	213.19
284.67	224.19
284.901	209.19
285.132	206.19
285.364	201.19
285.595	215.19
285.826	219.19
286.057	215.19
286.288	228.19
286.52	233.19
286.751	216.19
286.982	215.19
287.213	200.19
287.444	223.19
287.675	213.19
287.906	213.19
288.138	245.19
288.369	234.19
288.6	227.19
288.831	225.19
289.062	224.19
289.293	239.19
289.524	229.19
289.755	225.19
289.986	233.19
290.217	225.19
290.448	213.19
290.679	213.19
290.91	236.19
291.141	227.19
291.371	218.19
291.602	224.19
291.833	239.19
292.064	220.19
292.295	213.19
292.526	228.19
292.757	221.19
292.987	221.19
293.218	221.19
293.449	228.19
293.68	229.19
293.91	220.19
294.141	220.19
294.372	196.19
294.603	216.19
294.833	220.19
295.064	224.19
295.295	224.19
295.525	236.19
295.756	255.19
295.987	216.19
296.217	254.19
296.448	227.19
296.679	223.19
296.909	234.19
297.14	247.19
297.37	216.19
297.601	252.19
297.831	223.19
298.062	231.19
298.292	251.19
298.523	240.19
298.753	237.19
298.984	221.19
299.214	253.19
299.445	232.19
299.675	229.19
299.905	252.19
300.136	247.19
300.366	251.19
300.597	251.19
300.827	260.19
301.057	238.19
301.288	248.19
301.518	247.19
301.748	246.19
301.979	263.19
302.209	239.19
302.439	261.19
302.669	265.19
302.9	253.19
303.13	267.19
303.36	253.19
303.59	273.19
303.82	258.19
304.051	263.19
304.281	262.19
304.511	242.19
304.741	253.19
304.971	256.19
305.201	248.19
305.431	256.19
305.661	244.19
305.891	237.19
306.121	257.19
306.352	249.19
306.582	248.19
306.812	271.19
307.042	251.19
307.272	266.19
307.502	253.19
307.731	240.19
307.961	255.19
308.191	233.19
308.421	257.19
308.651	247.19
308.881	254.19
309.111	249.19
309.341	256.19
309.571	273.19
309.8	266.19
310.03	279.19
310.26	279.19
310.49	262.19
310.72	276.19
310.949	291.19
311.179	274.19
311.409	276.19
311.639	286.19
311.868	271.19
312.098	300.19
312.328	270.19
312.557	279.19
312.787	297.19
313.017	296.19
313.246	283.19
313.476	264.19
313.706	272.19
313.935	283.19
314.165	290.19
314.394	288.19
314.624	286.19
314.853	287.19
315.083	273.19
315.312	298.19
315.542	286.19
315.771	291.19
316.001	300.19
316.23	276.19
316.46	266.19
316.689	284.19
316.919	287.19
317.148	288.19
317.377	287.19
317.607	279.19
317.836	280.19
318.065	294.19
318.295	286.19
318.524	291.19
318.753	282.19
318.983	294.19
319.212	281.19
319.441	298.19
319.67	271.19
319.9	283.19
320.129	293.19
320.358	290.19
320.587	288.19
320.816	284.19
321.046	288.19
321.275	289.19
321.504	296.19
321.733	292.19
321.962	293.19
322.191	302.19
322.42	320.19
322.649	301.19
322.878	328.19
323.108	323.19
323.337	327.19
323.566	326.19
323.795	353.19
324.024	374.19
324.253	409.19
324.482	561.19
324.71	810.19
324.939	1119.19
325.168	908.19
325.397	513.19
325.626	393.19
325.855	365.19
326.084	335.19
326.313	325.19
326.542	349.19
326.77	371.19
326.999	433.19
327.228	548.19
327.457	734.19
327.686	853.19
327.914	588.19
328.143	432.19
328.372	424.19
328.6	384.19
328.829	360.19
329.058	361.19
329.287	392.19
329.515	384.19
329.744	351.19
329.972	376.19
330.201	432.19
330.43	449.19
330.658	459.19
330.887	415.19
331.115	404.19
331.344	358.19
331.572	333.19
331.801	343.19
332.03	352.19
332.258	355.19
332.486	343.19
332.715	353.19
332.943	342.19
333.172	350.19
333.4	368.19
333.629	354.19
333.857	384.19
334.085	382.19
334.314	424.19
334.542	477.19
334.771	493.19
334.999	405.19
335.227	367.19
335.455	345.19
335.684	343.19
335.912	364.19
336.14	338.19
336.369	332.19
336.597	332.19
336.825	350.19
337.053	338.19
337.281	330.19
337.51	308.19
337.738	336.19
337.966	317.19
338.194	328.19
338.422	331.19
338.65	316.19
338.878	311.19
339.106	312.19
339.334	329.19
339.562	317.19
339.79	315.19
340.018	330.19
340.246	318.19
340.474	330.19
340.702	321.19
340.93	302.19
341.158	319.19
341.386	327.19
341.614	318.19
341.842	313.19
342.07	299.19
342.298	301.19
342.526	311.19
342.754	302.19
342.981	327.19
343.209	320.19
343.437	313.19
343.665	316.19
343.893	320.19
344.12	324.19
344.348	327.19
344.576	313.19
344.804	329.19
345.031	312.19
345.259	336.19
345.487	317.19
345.714	323.19
345.942	331.19
346.17	296.19
346.397	292.19
346.625	297.19
346.853	311.19
347.08	310.19
347.308	307.19
347.535	301.19
347.763	308.19
347.99	300.19
348.218	298.19
348.445	304.19
348.673	309.19
348.9	293.19
349.128	299.19
349.355	314.19
349.583	305.19
349.81	297.19
350.037	291.19
350.265	311.19
350.492	307.19
350.72	286.19
350.947	285.19
351.174	316.19
351.402	304.19
351.629	299.19
351.856	312.19
352.083	302.19
352.311	303.19
352.538	292.19
352.765	305.19
352.992	309.19
353.22	292.19
353.447	312.19
353.674	300.19
353.901	319.19
354.128	295.19
354.355	278.19
354.583	279.19
354.81	281.19
355.037	296.19
355.264	270.19
355.491	317.19
355.718	274.19
355.945	283.19
356.172	298.19
356.399	292.19
356.626	298.19
356.853	292.19
357.08	271.19
357.307	291.19
357.534	281.19
357.761	308.19
357.988	289.19
358.215	266.19
358.441	305.19
358.668	306.19
358.895	278.19
359.122	280.19
359.349	296.19
359.576	301.19
359.802	297.19
360.029	325.19
360.256	335.19
360.483	302.19
360.709	309.19
360.936	307.19
361.163	302.19
361.39	304.19
361.616	299.19
361.843	291.19
362.07	297.19
362.296	288.19
362.523	316.19
362.749	307.19
362.976	285.19
363.203	280.19
363.429	290.19
363.656	296.19
363.882	280.19
364.109	288.19
364.335	296.19
364.562	284.19
364.788	301.19
365.015	283.19
365.241	306.19
365.468	298.19
365.694	302.19
365.92	295.19
366.147	286.19
366.373	289.19
366.599	279.19
366.826	283.19
367.052	287.19
367.278	271.19
367.505	294.19
367.731	302.19
367.957	289.19
368.184	267.19
368.41	304.19
368.636	297.19
368.862	284.19
369.089	298.19
369.315	289.19
369.541	280.19
369.767	292.19
369.993	286.19
370.219	281.19
370.445	282.19
370.672	271.19
370.898	295.19
371.124	296.19
371.35	297.19
371.576	290.19
371.802	304.19
372.028	293.19
372.254	280.19
372.48	293.19
372.706	318.19
372.932	313.19
373.158	296.19
373.384	313.19
373.61	288.19
373.835	293.19
374.061	283.19
374.287	301.19
374.513	285.19
374.739	318.19
374.965	319.19
375.191	314.19
375.416	303.19
375.642	298.19
375.868	292.19
376.094	288.19
376.319	284.19
376.545	286.19
376.771	292.19
376.997	291.19
377.222	292.19
377.448	287.19
377.674	296.19
377.899	285.19
378.125	289.19
378.35	299.19
378.576	301.19
378.802	292.19
379.027	283.19
379.253	284.19
379.478	287.19
379.704	295.19
379.929	280.19
380.155	285.19
380.38	301.19
380.606	319.19
380.831	283.19
381.057	304.19
381.282	298.19
381.507	293.19
381.733	320.19
381.958	285.19
382.184	303.19
382.409	311.19
382.634	315.19
382.86	311.19
383.085	325.19
383.31	335.19
383.535	313.19
383.761	327.19
383.986	321.19
384.211	308.19
384.436	323.19
384.662	325.19
384.887	335.19
385.112	326.19
385.337	309.19
385.562	343.19
385.787	342.19
386.013	345.19
386.238	327.19
386.463	324.19
386.688	339.19
386.913	330.19
387.138	328.19
387.363	334.19
387.588	332.19
387.813	310.19
388.038	335.19
388.263	329.19
388.488	328.19
388.713	313.19
388.938	322.19
389.163	317.19
389.387	342.19
389.612	327.19
389.837	321.19
390.062	327.19
390.287	320.19
390.512	318.19
390.736	318.19
390.961	325.19
391.186	320.19
391.411	327.19
391.636	339.19
391.86	319.19
392.085	337.19
392.31	348.19
392.534	322.19
392.759	340.19
392.984	344.19
393.208	331.19
393.433	339.19
393.658	345.19
393.882	341.19
394.107	319.19
394.331	335.19
394.556	322.19
394.78	319.19
395.005	317.19
395.229	328.19
395.454	332.19
395.678	341.19
395.903	337.19
396.127	353.19
396.352	347.19
396.576	350.19
396.801	347.19
397.025	376.19
397.249	351.19
397.474	336.19
397.698	341.19
397.922	371.19
398.147	363.19
398.371	371.19
398.595	350.19
398.82	363.19
399.044	371.19
399.268	385.19
399.492	429.19
399.717	459.19
399.941	441.19
400.165	463.19
400.389	431.19
400.613	416.19
400.837	402.19
401.062	399.19
401.286	378.19
401.51	371.19
401.734	384.19
401.958	382.19
402.182	390.19
402.406	377.19
402.63	380.19
402.854	396.19
403.078	381.19
403.302	393.19
403.526	403.19
403.75	394.19
403.974	416.19
404.198	391.19
404.422	398.19
404.645	396.19
404.869	401.19
405.093	402.19
405.317	421.19
405.541	440.19
405.765	409.19
405.988	419.19
406.212	423.19
406.436	427.19
406.66	440.19
406.883	435.19
407.107	432.19
407.331	443.19
407.555	486.19
407.778	496.19
408.002	464.19
408.226	437.19
408.449	429.19
408.673	430.19
408.896	436.19
409.12	460.19
409.344	424.19
409.567	407.19
409.791	413.19
410.014	395.19
410.238	408.19
410.461	392.19
410.685	399.19
410.908	412.19
411.132	430.19
411.355	426.19
411.578	419.19
411.802	388.19
412.025	421.19
412.249	413.19
412.472	407.19
412.695	393.19
412.919	405.19
413.142	391.19
413.365	392.19
413.589	382.19
413.812	381.19
414.035	371.19
414.258	379.19
414.482	384.19
414.705	387.19
414.928	391.19
415.151	409.19
415.374	405.19
415.597	398.19
415.821	400.19
416.044	389.19
416.267	385.19
416.49	398.19
416.713	380.19
416.936	392.19
417.159	381.19
417.382	375.19
417.605	378.19
417.828	387.19
418.051	400.19
418.274	400.19
418.497	388.19
418.72	377.19
418.943	389.19
419.166	403.19
419.389	430.19
419.611	412.19
419.834	401.19
420.057	402.19
420.28	416.19
420.503	398.19
420.726	393.19
420.948	368.19
421.171	429.19
421.394	440.19
421.617	419.19
421.839	379.19
422.062	409.19
422.285	403.19
422.507	430.19
422.73	470.19
422.953	450.19
423.175	409.19
423.398	408.19
423.621	420.19
423.843	396.19
424.066	398.19
424.288	398.19
424.511	415.19
424.733	425.19
424.956	487.19
425.178	472.19
425.401	483.19
425.623	465.19
425.846	430.19
426.068	416.19
426.291	398.19
426.513	397.19
426.735	409.19
426.958	417.19
427.18	456.19
427.402	525.19
427.625	573.19
427.847	506.19
428.069	452.19
428.292	421.19
428.514	406.19
428.736	382.19
428.958	399.19
429.181	402.19
429.403	377.19
429.625	381.19
429.847	392.19
430.069	408.19
430.292	434.19
430.514	388.19
430.736	389.19
430.958	383.19
431.18	379.19
431.402	374.19
431.624	377.19
431.846	358.19
432.068	365.19
432.29	373.19
432.512	391.19
432.734	381.19
432.956	368.19
433.178	390.19
433.4	379.19
433.622	387.19
433.844	385.19
434.066	377.19
434.287	378.19
434.509	399.19
434.731	375.19
434.953	383.19
435.175	396.19
435.397	399.19
435.618	400.19
435.84	429.19
436.062	474.19
436.284	513.19
436.505	432.19
436.727	406.19
436.949	388.19
437.17	373.19
437.392	376.19
437.614	383.19
437.835	391.19
438.057	435.19
438.278	480.19
438.5	476.19
438.721	513.19
438.943	500.19
439.165	419.19
439.386	407.19
439.608	399.19
439.829	399.19
440.05	411.19
440.272	432.19
440.493	421.19
440.715	407.19
440.936	414.19
441.158	379.19
441.379	363.19
441.6	392.19
441.822	393.19
442.043	413.19
442.264	461.19
442.486	472.19
442.707	444.19
442.928	417.19
443.149	422.19
443.371	435.19
443.592	437.19
443.813	494.19
444.034	522.19
444.255	441.19
444.476	420.19
444.698	427.19
444.919	437.19
445.14	529.19
445.361	473.19
445.582	431.19
445.803	455.19
446.024	508.19
446.245	528.19
446.466	463.19
446.687	399.19
446.908	380.19
447.129	387.19
447.35	387.19
447.571	374.19
447.792	376.19
448.013	360.19
448.234	377.19
448.455	401.19
448.675	464.19
448.896	526.19
449.117	454.19
449.338	430.19
449.559	498.19
449.779	539.19
450	423.19
450.221	381.19
450.442	385.19
450.662	361.19
450.883	368.19
451.104	373.19
451.324	375.19
451.545	370.19
451.766	341.19
451.986	339.19
452.207	337.19
452.428	359.19
452.648	343.19
452.869	348.19
453.089	344.19
453.31	350.19
453.53	373.19
453.751	361.19
453.971	348.19
454.192	372.19
454.412	345.19
454.633	336.19
454.853	344.19
455.073	332.19
455.294	335.19
455.514	371.19
455.734	368.19
455.955	349.19
456.175	334.19
456.395	343.19
456.616	322.19
456.836	333.19
457.056	338.19
457.276	299.19
457.497	345.19
457.717	348.19
457.937	335.19
458.157	347.19
458.377	345.19
458.598	348.19
458.818	391.19
459.038	429.19
459.258	419.19
459.478	385.19
459.698	370.19
459.918	379.19
460.138	380.19
460.358	376.19
460.578	380.19
460.798	402.19
461.018	408.19
461.238	403.19
461.458	385.19
461.678	388.19
461.898	397.19
462.118	418.19
462.338	396.19
462.558	401.19
462.777	414.19
462.997	423.19
463.217	444.19
463.437	425.19
463.657	423.19
463.876	413.19
464.096	392.19
464.316	394.19
464.536	421.19
464.755	416.19
464.975	411.19
465.195	417.19
465.414	457.19
465.634	384.19
465.854	366.19
466.073	393.19
466.293	380.19
466.512	372.19
466.732	361.19
466.951	368.19
467.171	365.19
467.391	366.19
467.61	365.19
467.829	383.19
468.049	397.19
468.268	409.19
468.488	384.19
468.707	381.19
468.927	356.19
469.146	354.19
469.365	342.19
469.585	348.19
469.804	364.19
470.023	366.19
470.243	350.19
470.462	394.19
470.681	377.19
470.901	371.19
471.12	368.19
471.339	376.19
471.558	359.19
471.777	382.19
471.997	363.19
472.216	410.19
472.435	500.19
472.654	466.19
472.873	387.19
473.092	364.19
473.311	346.19
473.53	376.19
473.749	349.19
473.968	393.19
474.187	415.19
474.406	445.19
474.625	399.19
474.844	379.19
475.063	349.19
475.282	379.19
475.501	374.19
475.72	365.19
475.939	362.19
476.158	374.19
476.377	383.19
476.596	367.19
476.814	384.19
477.033	383.19
477.252	372.19
477.471	363.19
477.69	386.19
477.908	394.19
478.127	402.19
478.346	431.19
478.564	409.19
478.783	421.19
479.002	395.19
479.22	404.19
479.439	426.19
479.658	432.19
479.876	451.19
480.095	448.19
480.313	441.19
480.532	450.19
480.751	469.19
480.969	477.19
481.188	627.19
481.406	698.19
481.624	529.19
481.843	453.19
482.061	438.19
482.28	440.19
482.498	431.19
482.717	415.19
482.935	415.19
483.153	414.19
483.372	423.19
483.59	409.19
483.808	413.19
484.027	424.19
484.245	421.19
484.463	404.19
484.681	436.19
484.9	432.19
485.118	446.19
485.336	414.19
485.554	428.19
485.772	439.19
485.99	435.19
486.209	421.19
486.427	423.19
486.645	421.19
486.863	448.19
487.081	457.19
487.299	435.19
487.517	449.19
487.735	438.19
487.953	437.19
488.171	465.19
488.389	437.19
488.607	461.19
488.825	450.19
489.043	453.19
489.261	442.19
489.479	460.19
489.696	452.19
489.914	453.19
490.132	453.19
490.35	442.19
490.568	471.19
490.786	473.19
491.003	465.19
491.221	471.19
491.439	473.19
491.657	476.19
491.874	473.19
492.092	497.19
492.31	489.19
492.527	483.19
492.745	481.19
492.963	494.19
493.18	487.19
493.398	503.19
493.615	508.19
493.833	500.19
494.05	506.19
494.268	491.19
494.485	508.19
494.703	503.19
494.92	478.19
495.138	519.19
495.355	500.19
495.573	502.19
495.79	506.19
496.008	508.19
496.225	511.19
496.442	477.19
496.66	522.19
496.877	495.19
497.094	517.19
497.312	528.19
497.529	513.19
497.746	524.19
497.963	549.19
498.181	548.19
498.398	576.19
498.615	576.19
498.832	566.19
499.049	600.19
499.267	636.19
499.484	651.19
499.701	688.19
499.918	705.19
500.135	749.19
500.352	791.19
500.569	783.19
500.786	795.19
501.003	785.19
501.22	736.19
501.437	712.19
501.654	675.19
501.871	654.19
502.088	627.19
502.305	607.19
